Data from 1974.PennyLincolnUp.Lamp.En5.5.200Scan.071719.P1.Changed Mount._HRD10591_15-53-04-856.txt Node
Date: Thu Jul 18 15:53:04 EDT 2019
User: cochatt
Spectrometer: HR+D1059
Trigger mode: 1
Integration Time (sec): 1.000000E-1
Scans to average: 1
Electric dark correction enabled: true
Nonlinearity correction enabled: false
Boxcar width: 0
XAxis mode: Wavelengths
Number of Pixels in Spectrum: 2048
>>>>>Begin Spectral Data<<<<<
223.165	-15.31
223.4	-15.31
223.635	-15.31
223.869	-8.31
224.104	-8.31
224.338	-13.31
224.573	-27.31
224.808	-15.31
225.042	-10.31
225.277	-10.31
225.511	7.69
225.746	3.69
225.98	6.69
226.215	5.69
226.449	8.69
226.683	7.69
226.918	31.69
227.152	36.69
227.387	29.69
227.621	44.69
227.856	34.69
228.09	36.69
228.324	51.69
228.559	51.69
228.793	68.69
229.027	101.69
229.262	104.69
229.496	119.69
229.73	133.69
229.964	147.69
230.199	132.69
230.433	111.69
230.667	128.69
230.901	112.69
231.136	111.69
231.37	101.69
231.604	106.69
231.838	115.69
232.072	113.69
232.306	121.69
232.541	107.69
232.775	125.69
233.009	127.69
233.243	139.69
233.477	124.69
233.711	113.69
233.945	115.69
234.179	119.69
234.413	111.69
234.647	121.69
234.881	111.69
235.115	138.69
235.349	135.69
235.583	124.69
235.817	121.69
236.051	109.69
236.285	135.69
236.519	127.69
236.753	136.69
236.987	155.69
237.221	190.69
237.455	231.69
237.689	199.69
237.922	159.69
238.156	127.69
238.39	144.69
238.624	145.69
238.858	136.69
239.091	129.69
239.325	132.69
239.559	125.69
239.793	135.69
240.027	143.69
240.26	137.69
240.494	153.69
240.728	137.69
240.961	159.69
241.195	165.69
241.429	139.69
241.662	146.69
241.896	134.69
242.13	134.69
242.363	137.69
242.597	131.69
242.83	135.69
243.064	160.69
243.298	141.69
243.531	144.69
243.765	149.69
243.998	149.69
244.232	132.69
244.465	147.69
244.699	153.69
244.932	147.69
245.166	154.69
245.399	159.69
245.633	144.69
245.866	145.69
246.099	155.69
246.333	155.69
246.566	158.69
246.8	156.69
247.033	168.69
247.266	176.69
247.5	147.69
247.733	173.69
247.966	171.69
248.2	176.69
248.433	181.69
248.666	193.69
248.899	191.69
249.133	208.69
249.366	216.69
249.599	217.69
249.832	184.69
250.066	185.69
250.299	206.69
250.532	187.69
250.765	192.69
250.998	219.69
251.231	232.69
251.465	213.69
251.698	217.69
251.931	211.69
252.164	204.69
252.397	197.69
252.63	205.69
252.863	224.69
253.096	252.69
253.329	221.69
253.562	217.69
253.795	225.69
254.028	216.69
254.261	228.69
254.494	232.69
254.727	268.69
254.96	291.69
255.193	295.69
255.426	270.69
255.659	251.69
255.892	217.69
256.124	241.69
256.357	246.69
256.59	234.69
256.823	217.69
257.056	242.69
257.289	220.69
257.521	227.69
257.754	224.69
257.987	226.69
258.22	212.69
258.452	220.69
258.685	214.69
258.918	224.69
259.151	227.69
259.383	228.69
259.616	225.69
259.849	237.69
260.081	245.69
260.314	265.69
260.547	272.69
260.779	265.69
261.012	244.69
261.244	229.69
261.477	224.69
261.71	251.69
261.942	236.69
262.175	242.69
262.407	247.69
262.64	231.69
262.872	218.69
263.105	220.69
263.337	214.69
263.57	224.69
263.802	259.69
264.035	226.69
264.267	216.69
264.499	231.69
264.732	236.69
264.964	232.69
265.197	208.69
265.429	236.69
265.661	226.69
265.894	227.69
266.126	235.69
266.358	232.69
266.591	225.69
266.823	251.69
267.055	235.69
267.287	245.69
267.52	235.69
267.752	225.69
267.984	229.69
268.216	236.69
268.448	228.69
268.681	238.69
268.913	271.69
269.145	274.69
269.377	297.69
269.609	285.69
269.841	278.69
270.073	281.69
270.306	303.69
270.538	311.69
270.77	332.69
271.002	323.69
271.234	305.69
271.466	293.69
271.698	319.69
271.93	327.69
272.162	336.69
272.394	315.69
272.626	324.69
272.858	293.69
273.09	287.69
273.322	304.69
273.553	283.69
273.785	269.69
274.017	276.69
274.249	281.69
274.481	272.69
274.713	273.69
274.945	273.69
275.176	262.69
275.408	277.69
275.64	277.69
275.872	268.69
276.104	282.69
276.335	284.69
276.567	297.69
276.799	301.69
277.031	327.69
277.262	320.69
277.494	352.69
277.726	321.69
277.957	304.69
278.189	298.69
278.421	292.69
278.652	287.69
278.884	308.69
279.115	294.69
279.347	282.69
279.579	269.69
279.81	275.69
280.042	275.69
280.273	292.69
280.505	273.69
280.736	289.69
280.968	272.69
281.199	279.69
281.431	269.69
281.662	286.69
281.894	284.69
282.125	293.69
282.356	320.69
282.588	313.69
282.819	335.69
283.051	317.69
283.282	289.69
283.513	305.69
283.745	311.69
283.976	312.69
284.207	284.69
284.439	297.69
284.67	324.69
284.901	334.69
285.132	312.69
285.364	313.69
285.595	298.69
285.826	307.69
286.057	299.69
286.288	315.69
286.52	319.69
286.751	314.69
286.982	313.69
287.213	311.69
287.444	310.69
287.675	327.69
287.906	323.69
288.138	329.69
288.369	328.69
288.6	338.69
288.831	334.69
289.062	332.69
289.293	315.69
289.524	316.69
289.755	326.69
289.986	333.69
290.217	331.69
290.448	327.69
290.679	310.69
290.91	315.69
291.141	315.69
291.371	310.69
291.602	324.69
291.833	315.69
292.064	310.69
292.295	306.69
292.526	322.69
292.757	311.69
292.987	336.69
293.218	327.69
293.449	313.69
293.68	302.69
293.91	315.69
294.141	313.69
294.372	343.69
294.603	321.69
294.833	331.69
295.064	309.69
295.295	325.69
295.525	314.69
295.756	319.69
295.987	326.69
296.217	347.69
296.448	340.69
296.679	356.69
296.909	328.69
297.14	324.69
297.37	341.69
297.601	322.69
297.831	321.69
298.062	313.69
298.292	333.69
298.523	337.69
298.753	321.69
298.984	328.69
299.214	327.69
299.445	335.69
299.675	344.69
299.905	348.69
300.136	344.69
300.366	345.69
300.597	341.69
300.827	345.69
301.057	357.69
301.288	363.69
301.518	369.69
301.748	359.69
301.979	352.69
302.209	354.69
302.439	366.69
302.669	356.69
302.9	362.69
303.13	346.69
303.36	356.69
303.59	357.69
303.82	379.69
304.051	346.69
304.281	363.69
304.511	353.69
304.741	356.69
304.971	339.69
305.201	355.69
305.431	368.69
305.661	367.69
305.891	358.69
306.121	375.69
306.352	345.69
306.582	363.69
306.812	359.69
307.042	369.69
307.272	353.69
307.502	357.69
307.731	361.69
307.961	368.69
308.191	360.69
308.421	373.69
308.651	367.69
308.881	375.69
309.111	362.69
309.341	371.69
309.571	383.69
309.8	381.69
310.03	388.69
310.26	386.69
310.49	377.69
310.72	405.69
310.949	396.69
311.179	403.69
311.409	389.69
311.639	391.69
311.868	405.69
312.098	397.69
312.328	407.69
312.557	415.69
312.787	436.69
313.017	417.69
313.246	409.69
313.476	387.69
313.706	396.69
313.935	398.69
314.165	403.69
314.394	441.69
314.624	450.69
314.853	423.69
315.083	400.69
315.312	419.69
315.542	396.69
315.771	393.69
316.001	372.69
316.23	396.69
316.46	410.69
316.689	405.69
316.919	398.69
317.148	405.69
317.377	407.69
317.607	405.69
317.836	397.69
318.065	407.69
318.295	407.69
318.524	408.69
318.753	395.69
318.983	383.69
319.212	397.69
319.441	417.69
319.67	427.69
319.9	404.69
320.129	407.69
320.358	407.69
320.587	423.69
320.816	408.69
321.046	408.69
321.275	428.69
321.504	404.69
321.733	404.69
321.962	413.69
322.191	449.69
322.42	455.69
322.649	449.69
322.878	454.69
323.108	460.69
323.337	471.69
323.566	479.69
323.795	512.69
324.024	529.69
324.253	634.69
324.482	847.69
324.71	1250.69
324.939	1900.69
325.168	1667.69
325.397	870.69
325.626	609.69
325.855	524.69
326.084	525.69
326.313	481.69
326.542	505.69
326.77	539.69
326.999	617.69
327.228	783.69
327.457	1162.69
327.686	1471.69
327.914	983.69
328.143	650.69
328.372	594.69
328.6	554.69
328.829	536.69
329.058	573.69
329.287	595.69
329.515	519.69
329.744	517.69
329.972	504.69
330.201	511.69
330.43	566.69
330.658	592.69
330.887	597.69
331.115	574.69
331.344	532.69
331.572	517.69
331.801	516.69
332.03	505.69
332.258	509.69
332.486	501.69
332.715	478.69
332.943	487.69
333.172	521.69
333.4	523.69
333.629	499.69
333.857	512.69
334.085	521.69
334.314	534.69
334.542	565.69
334.771	556.69
334.999	545.69
335.227	523.69
335.455	523.69
335.684	519.69
335.912	495.69
336.14	510.69
336.369	482.69
336.597	476.69
336.825	488.69
337.053	491.69
337.281	467.69
337.51	485.69
337.738	472.69
337.966	476.69
338.194	487.69
338.422	459.69
338.65	478.69
338.878	449.69
339.106	475.69
339.334	484.69
339.562	465.69
339.79	463.69
340.018	460.69
340.246	474.69
340.474	470.69
340.702	450.69
340.93	486.69
341.158	470.69
341.386	452.69
341.614	460.69
341.842	452.69
342.07	454.69
342.298	471.69
342.526	467.69
342.754	462.69
342.981	457.69
343.209	447.69
343.437	480.69
343.665	499.69
343.893	486.69
344.12	522.69
344.348	488.69
344.576	474.69
344.804	502.69
345.031	498.69
345.259	482.69
345.487	480.69
345.714	475.69
345.942	465.69
346.17	472.69
346.397	445.69
346.625	471.69
346.853	445.69
347.08	444.69
347.308	457.69
347.535	457.69
347.763	464.69
347.99	469.69
348.218	464.69
348.445	436.69
348.673	440.69
348.9	455.69
349.128	446.69
349.355	426.69
349.583	458.69
349.81	450.69
350.037	425.69
350.265	428.69
350.492	447.69
350.72	451.69
350.947	434.69
351.174	466.69
351.402	445.69
351.629	452.69
351.856	442.69
352.083	473.69
352.311	459.69
352.538	448.69
352.765	463.69
352.992	454.69
353.22	439.69
353.447	454.69
353.674	452.69
353.901	458.69
354.128	435.69
354.355	433.69
354.583	425.69
354.81	419.69
355.037	441.69
355.264	443.69
355.491	432.69
355.718	435.69
355.945	431.69
356.172	427.69
356.399	433.69
356.626	439.69
356.853	436.69
357.08	433.69
357.307	420.69
357.534	453.69
357.761	435.69
357.988	418.69
358.215	421.69
358.441	432.69
358.668	449.69
358.895	436.69
359.122	433.69
359.349	437.69
359.576	448.69
359.802	453.69
360.029	505.69
360.256	485.69
360.483	487.69
360.709	466.69
360.936	466.69
361.163	447.69
361.39	456.69
361.616	440.69
361.843	464.69
362.07	467.69
362.296	445.69
362.523	460.69
362.749	447.69
362.976	449.69
363.203	436.69
363.429	427.69
363.656	421.69
363.882	427.69
364.109	445.69
364.335	428.69
364.562	443.69
364.788	431.69
365.015	423.69
365.241	420.69
365.468	435.69
365.694	455.69
365.92	452.69
366.147	443.69
366.373	437.69
366.599	431.69
366.826	447.69
367.052	446.69
367.278	415.69
367.505	452.69
367.731	452.69
367.957	451.69
368.184	438.69
368.41	475.69
368.636	473.69
368.862	472.69
369.089	458.69
369.315	449.69
369.541	453.69
369.767	455.69
369.993	447.69
370.219	462.69
370.445	441.69
370.672	427.69
370.898	439.69
371.124	441.69
371.35	471.69
371.576	454.69
371.802	464.69
372.028	452.69
372.254	463.69
372.48	449.69
372.706	455.69
372.932	461.69
373.158	455.69
373.384	451.69
373.61	463.69
373.835	428.69
374.061	456.69
374.287	434.69
374.513	459.69
374.739	470.69
374.965	450.69
375.191	468.69
375.416	476.69
375.642	450.69
375.868	469.69
376.094	466.69
376.319	477.69
376.545	479.69
376.771	457.69
376.997	436.69
377.222	465.69
377.448	442.69
377.674	442.69
377.899	436.69
378.125	448.69
378.35	454.69
378.576	452.69
378.802	447.69
379.027	465.69
379.253	457.69
379.478	456.69
379.704	441.69
379.929	440.69
380.155	456.69
380.38	440.69
380.606	448.69
380.831	447.69
381.057	451.69
381.282	449.69
381.507	456.69
381.733	455.69
381.958	458.69
382.184	467.69
382.409	472.69
382.634	477.69
382.86	460.69
383.085	474.69
383.31	462.69
383.535	482.69
383.761	477.69
383.986	482.69
384.211	503.69
384.436	484.69
384.662	476.69
384.887	500.69
385.112	485.69
385.337	511.69
385.562	498.69
385.787	514.69
386.013	543.69
386.238	512.69
386.463	505.69
386.688	524.69
386.913	490.69
387.138	514.69
387.363	492.69
387.588	508.69
387.813	504.69
388.038	515.69
388.263	510.69
388.488	523.69
388.713	513.69
388.938	522.69
389.163	527.69
389.387	508.69
389.612	490.69
389.837	531.69
390.062	504.69
390.287	509.69
390.512	511.69
390.736	519.69
390.961	521.69
391.186	502.69
391.411	537.69
391.636	521.69
391.86	535.69
392.085	513.69
392.31	529.69
392.534	552.69
392.759	524.69
392.984	512.69
393.208	523.69
393.433	519.69
393.658	530.69
393.882	512.69
394.107	535.69
394.331	513.69
394.556	507.69
394.78	531.69
395.005	547.69
395.229	534.69
395.454	528.69
395.678	533.69
395.903	553.69
396.127	571.69
396.352	577.69
396.576	563.69
396.801	519.69
397.025	557.69
397.249	552.69
397.474	537.69
397.698	569.69
397.922	576.69
398.147	547.69
398.371	588.69
398.595	563.69
398.82	580.69
399.044	620.69
399.268	630.69
399.492	675.69
399.717	730.69
399.941	748.69
400.165	747.69
400.389	723.69
400.613	681.69
400.837	657.69
401.062	618.69
401.286	611.69
401.51	599.69
401.734	589.69
401.958	579.69
402.182	635.69
402.406	603.69
402.63	615.69
402.854	593.69
403.078	603.69
403.302	612.69
403.526	632.69
403.75	607.69
403.974	644.69
404.198	617.69
404.422	645.69
404.645	638.69
404.869	645.69
405.093	665.69
405.317	718.69
405.541	739.69
405.765	690.69
405.988	655.69
406.212	686.69
406.436	661.69
406.66	682.69
406.883	668.69
407.107	682.69
407.331	737.69
407.555	819.69
407.778	824.69
408.002	730.69
408.226	702.69
408.449	678.69
408.673	669.69
408.896	684.69
409.12	751.69
409.344	718.69
409.567	648.69
409.791	633.69
410.014	623.69
410.238	604.69
410.461	601.69
410.685	621.69
410.908	654.69
411.132	682.69
411.355	713.69
411.578	677.69
411.802	627.69
412.025	626.69
412.249	625.69
412.472	660.69
412.695	687.69
412.919	683.69
413.142	639.69
413.365	604.69
413.589	611.69
413.812	607.69
414.035	608.69
414.258	569.69
414.482	577.69
414.705	627.69
414.928	603.69
415.151	577.69
415.374	588.69
415.597	573.69
415.821	602.69
416.044	577.69
416.267	623.69
416.49	581.69
416.713	561.69
416.936	570.69
417.159	596.69
417.382	585.69
417.605	601.69
417.828	602.69
418.051	623.69
418.274	603.69
418.497	593.69
418.72	599.69
418.943	596.69
419.166	605.69
419.389	648.69
419.611	633.69
419.834	630.69
420.057	620.69
420.28	613.69
420.503	621.69
420.726	624.69
420.948	650.69
421.171	681.69
421.394	679.69
421.617	647.69
421.839	615.69
422.062	627.69
422.285	612.69
422.507	695.69
422.73	763.69
422.953	754.69
423.175	682.69
423.398	635.69
423.621	644.69
423.843	661.69
424.066	672.69
424.288	658.69
424.511	683.69
424.733	741.69
424.956	797.69
425.178	777.69
425.401	773.69
425.623	799.69
425.846	704.69
426.068	654.69
426.291	634.69
426.513	628.69
426.735	643.69
426.958	680.69
427.18	767.69
427.402	886.69
427.625	967.69
427.847	872.69
428.069	733.69
428.292	684.69
428.514	657.69
428.736	613.69
428.958	610.69
429.181	603.69
429.403	588.69
429.625	605.69
429.847	631.69
430.069	703.69
430.292	701.69
430.514	636.69
430.736	596.69
430.958	607.69
431.18	573.69
431.402	550.69
431.624	570.69
431.846	565.69
432.068	563.69
432.29	577.69
432.512	584.69
432.734	584.69
432.956	599.69
433.178	595.69
433.4	576.69
433.622	587.69
433.844	598.69
434.066	559.69
434.287	591.69
434.509	586.69
434.731	618.69
434.953	611.69
435.175	615.69
435.397	635.69
435.618	652.69
435.84	674.69
436.062	793.69
436.284	839.69
436.505	699.69
436.727	659.69
436.949	600.69
437.17	580.69
437.392	580.69
437.614	602.69
437.835	625.69
438.057	718.69
438.278	824.69
438.5	841.69
438.721	900.69
438.943	903.69
439.165	704.69
439.386	641.69
439.608	644.69
439.829	634.69
440.05	677.69
440.272	721.69
440.493	680.69
440.715	628.69
440.936	632.69
441.158	595.69
441.379	588.69
441.6	634.69
441.822	617.69
442.043	715.69
442.264	787.69
442.486	799.69
442.707	703.69
442.928	652.69
443.149	669.69
443.371	674.69
443.592	724.69
443.813	817.69
444.034	903.69
444.255	768.69
444.476	695.69
444.698	670.69
444.919	672.69
445.14	792.69
445.361	719.69
445.582	693.69
445.803	719.69
446.024	839.69
446.245	850.69
446.466	791.69
446.687	675.69
446.908	653.69
447.129	604.69
447.35	596.69
447.571	600.69
447.792	582.69
448.013	599.69
448.234	616.69
448.455	657.69
448.675	763.69
448.896	899.69
449.117	767.69
449.338	722.69
449.559	799.69
449.779	909.69
450	744.69
450.221	625.69
450.442	601.69
450.662	589.69
450.883	547.69
451.104	570.69
451.324	575.69
451.545	535.69
451.766	540.69
451.986	541.69
452.207	517.69
452.428	529.69
452.648	511.69
452.869	525.69
453.089	539.69
453.31	540.69
453.53	510.69
453.751	527.69
453.971	542.69
454.192	532.69
454.412	518.69
454.633	536.69
454.853	525.69
455.073	506.69
455.294	544.69
455.514	614.69
455.734	608.69
455.955	520.69
456.175	503.69
456.395	516.69
456.616	489.69
456.836	479.69
457.056	512.69
457.276	471.69
457.497	492.69
457.717	492.69
457.937	497.69
458.157	495.69
458.377	540.69
458.598	557.69
458.818	579.69
459.038	629.69
459.258	697.69
459.478	623.69
459.698	571.69
459.918	559.69
460.138	583.69
460.358	577.69
460.578	593.69
460.798	568.69
461.018	600.69
461.238	603.69
461.458	599.69
461.678	615.69
461.898	615.69
462.118	599.69
462.338	615.69
462.558	612.69
462.777	646.69
462.997	663.69
463.217	673.69
463.437	689.69
463.657	660.69
463.876	654.69
464.096	649.69
464.316	648.69
464.536	655.69
464.755	636.69
464.975	646.69
465.195	644.69
465.414	689.69
465.634	649.69
465.854	599.69
466.073	567.69
466.293	574.69
466.512	553.69
466.732	555.69
466.951	547.69
467.171	555.69
467.391	541.69
467.61	566.69
467.829	564.69
468.049	551.69
468.268	567.69
468.488	536.69
468.707	555.69
468.927	534.69
469.146	525.69
469.365	534.69
469.585	543.69
469.804	565.69
470.023	544.69
470.243	566.69
470.462	561.69
470.681	597.69
470.901	569.69
471.12	561.69
471.339	561.69
471.558	545.69
471.777	561.69
471.997	564.69
472.216	539.69
472.435	563.69
472.654	557.69
472.873	563.69
473.092	535.69
473.311	547.69
473.53	554.69
473.749	564.69
473.968	589.69
474.187	687.69
474.406	718.69
474.625	616.69
474.844	567.69
475.063	573.69
475.282	539.69
475.501	556.69
475.72	565.69
475.939	570.69
476.158	561.69
476.377	565.69
476.596	573.69
476.814	596.69
477.033	579.69
477.252	587.69
477.471	595.69
477.69	615.69
477.908	609.69
478.127	628.69
478.346	609.69
478.564	644.69
478.783	646.69
479.002	644.69
479.22	669.69
479.439	657.69
479.658	667.69
479.876	637.69
480.095	678.69
480.313	682.69
480.532	685.69
480.751	676.69
480.969	715.69
481.188	747.69
481.406	748.69
481.624	707.69
481.843	688.69
482.061	677.69
482.28	649.69
482.498	628.69
482.717	664.69
482.935	651.69
483.153	649.69
483.372	651.69
483.59	659.69
483.808	641.69
484.027	651.69
484.245	657.69
484.463	644.69
484.681	678.69
484.9	649.69
485.118	655.69
485.336	651.69
485.554	676.69
485.772	670.69
485.99	674.69
486.209	674.69
486.427	668.69
486.645	683.69
486.863	696.69
487.081	689.69
487.299	677.69
487.517	693.69
487.735	687.69
487.953	685.69
488.171	691.69
488.389	709.69
488.607	693.69
488.825	699.69
489.043	700.69
489.261	694.69
489.479	726.69
489.696	704.69
489.914	693.69
490.132	711.69
490.35	739.69
490.568	743.69
490.786	761.69
491.003	756.69
491.221	757.69
491.439	788.69
491.657	779.69
491.874	795.69
492.092	788.69
492.31	802.69
492.527	799.69
492.745	804.69
492.963	819.69
493.18	797.69
493.398	834.69
493.615	840.69
493.833	841.69
494.05	831.69
494.268	815.69
494.485	818.69
494.703	830.69
494.92	816.69
495.138	831.69
495.355	811.69
495.573	848.69
495.79	846.69
496.008	836.69
496.225	825.69
496.442	821.69
496.66	844.69
496.877	850.69
497.094	849.69
497.312	835.69
497.529	870.69
497.746	873.69
497.963	909.69
498.181	923.69
498.398	913.69
498.615	936.69
498.832	973.69
499.049	979.69
499.267	1002.69
499.484	1079.69
499.701	1070.69
499.918	1164.69
500.135	1219.69
500.352	1303.69
500.569	1312.69
500.786	1304.69
501.003	1291.69
501.22	1255.69
501.437	1164.69
501.654	1107.69
