Data from 1974.PennyLincolnUp.Lamp.En5.5.200Scan.071719.P1.Changed Mount._HRD10591_15-53-48-857.txt Node
Date: Thu Jul 18 15:53:48 EDT 2019
User: cochatt
Spectrometer: HR+D1059
Trigger mode: 1
Integration Time (sec): 1.000000E-1
Scans to average: 1
Electric dark correction enabled: true
Nonlinearity correction enabled: false
Boxcar width: 0
XAxis mode: Wavelengths
Number of Pixels in Spectrum: 2048
>>>>>Begin Spectral Data<<<<<
223.165	-9.56
223.4	-9.56
223.635	-9.56
223.869	-16.56
224.104	-17.56
224.338	-16.56
224.573	-12.56
224.808	-21.56
225.042	-2.56
225.277	-7.56
225.511	-0.56
225.746	1.44
225.98	-6.56
226.215	8.44
226.449	7.44
226.683	23.44
226.918	38.44
227.152	32.44
227.387	19.44
227.621	27.44
227.856	42.44
228.09	27.44
228.324	37.44
228.559	58.44
228.793	77.44
229.027	77.44
229.262	100.44
229.496	106.44
229.73	118.44
229.964	144.44
230.199	103.44
230.433	121.44
230.667	104.44
230.901	105.44
231.136	101.44
231.37	113.44
231.604	106.44
231.838	116.44
232.072	104.44
232.306	114.44
232.541	122.44
232.775	115.44
233.009	99.44
233.243	101.44
233.477	108.44
233.711	117.44
233.945	117.44
234.179	107.44
234.413	112.44
234.647	106.44
234.881	101.44
235.115	113.44
235.349	111.44
235.583	106.44
235.817	104.44
236.051	114.44
236.285	122.44
236.519	126.44
236.753	134.44
236.987	155.44
237.221	167.44
237.455	202.44
237.689	184.44
237.922	154.44
238.156	121.44
238.39	121.44
238.624	125.44
238.858	122.44
239.091	129.44
239.325	112.44
239.559	111.44
239.793	129.44
240.027	133.44
240.26	129.44
240.494	167.44
240.728	136.44
240.961	145.44
241.195	130.44
241.429	136.44
241.662	128.44
241.896	138.44
242.13	136.44
242.363	123.44
242.597	131.44
242.83	121.44
243.064	124.44
243.298	131.44
243.531	138.44
243.765	115.44
243.998	131.44
244.232	146.44
244.465	129.44
244.699	140.44
244.932	154.44
245.166	140.44
245.399	131.44
245.633	148.44
245.866	139.44
246.099	138.44
246.333	147.44
246.566	135.44
246.8	142.44
247.033	155.44
247.266	152.44
247.5	161.44
247.733	158.44
247.966	154.44
248.2	158.44
248.433	167.44
248.666	157.44
248.899	176.44
249.133	183.44
249.366	199.44
249.599	193.44
249.832	174.44
250.066	186.44
250.299	174.44
250.532	177.44
250.765	185.44
250.998	206.44
251.231	210.44
251.465	210.44
251.698	179.44
251.931	185.44
252.164	194.44
252.397	180.44
252.63	194.44
252.863	186.44
253.096	199.44
253.329	211.44
253.562	213.44
253.795	212.44
254.028	225.44
254.261	191.44
254.494	191.44
254.727	229.44
254.96	249.44
255.193	258.44
255.426	239.44
255.659	217.44
255.892	203.44
256.124	215.44
256.357	224.44
256.59	203.44
256.823	189.44
257.056	194.44
257.289	180.44
257.521	199.44
257.754	198.44
257.987	194.44
258.22	205.44
258.452	200.44
258.685	200.44
258.918	180.44
259.151	203.44
259.383	197.44
259.616	214.44
259.849	222.44
260.081	200.44
260.314	240.44
260.547	242.44
260.779	230.44
261.012	222.44
261.244	192.44
261.477	214.44
261.71	198.44
261.942	219.44
262.175	215.44
262.407	221.44
262.64	212.44
262.872	201.44
263.105	206.44
263.337	204.44
263.57	193.44
263.802	203.44
264.035	197.44
264.267	192.44
264.499	185.44
264.732	205.44
264.964	202.44
265.197	195.44
265.429	179.44
265.661	208.44
265.894	199.44
266.126	209.44
266.358	208.44
266.591	195.44
266.823	201.44
267.055	213.44
267.287	212.44
267.52	227.44
267.752	215.44
267.984	213.44
268.216	220.44
268.448	205.44
268.681	212.44
268.913	220.44
269.145	245.44
269.377	261.44
269.609	259.44
269.841	265.44
270.073	253.44
270.306	275.44
270.538	277.44
270.77	285.44
271.002	281.44
271.234	265.44
271.466	279.44
271.698	281.44
271.93	280.44
272.162	291.44
272.394	293.44
272.626	269.44
272.858	257.44
273.09	246.44
273.322	244.44
273.553	242.44
273.785	239.44
274.017	257.44
274.249	259.44
274.481	258.44
274.713	259.44
274.945	239.44
275.176	237.44
275.408	263.44
275.64	262.44
275.872	249.44
276.104	262.44
276.335	255.44
276.567	275.44
276.799	286.44
277.031	293.44
277.262	302.44
277.494	281.44
277.726	287.44
277.957	262.44
278.189	250.44
278.421	267.44
278.652	246.44
278.884	271.44
279.115	259.44
279.347	248.44
279.579	234.44
279.81	267.44
280.042	239.44
280.273	261.44
280.505	256.44
280.736	261.44
280.968	244.44
281.199	264.44
281.431	239.44
281.662	255.44
281.894	268.44
282.125	255.44
282.356	265.44
282.588	277.44
282.819	275.44
283.051	264.44
283.282	251.44
283.513	264.44
283.745	267.44
283.976	271.44
284.207	277.44
284.439	251.44
284.67	264.44
284.901	257.44
285.132	258.44
285.364	262.44
285.595	266.44
285.826	264.44
286.057	251.44
286.288	272.44
286.52	268.44
286.751	278.44
286.982	273.44
287.213	269.44
287.444	283.44
287.675	268.44
287.906	264.44
288.138	287.44
288.369	285.44
288.6	273.44
288.831	285.44
289.062	295.44
289.293	279.44
289.524	265.44
289.755	290.44
289.986	284.44
290.217	285.44
290.448	281.44
290.679	278.44
290.91	262.44
291.141	277.44
291.371	278.44
291.602	282.44
291.833	290.44
292.064	267.44
292.295	290.44
292.526	289.44
292.757	265.44
292.987	263.44
293.218	281.44
293.449	270.44
293.68	263.44
293.91	277.44
294.141	285.44
294.372	273.44
294.603	286.44
294.833	269.44
295.064	275.44
295.295	278.44
295.525	284.44
295.756	275.44
295.987	256.44
296.217	271.44
296.448	305.44
296.679	301.44
296.909	282.44
297.14	292.44
297.37	289.44
297.601	285.44
297.831	288.44
298.062	271.44
298.292	290.44
298.523	293.44
298.753	282.44
298.984	304.44
299.214	292.44
299.445	289.44
299.675	301.44
299.905	302.44
300.136	293.44
300.366	303.44
300.597	294.44
300.827	288.44
301.057	313.44
301.288	324.44
301.518	320.44
301.748	300.44
301.979	293.44
302.209	305.44
302.439	320.44
302.669	277.44
302.9	306.44
303.13	288.44
303.36	306.44
303.59	311.44
303.82	304.44
304.051	330.44
304.281	314.44
304.511	314.44
304.741	288.44
304.971	305.44
305.201	310.44
305.431	307.44
305.661	307.44
305.891	290.44
306.121	294.44
306.352	330.44
306.582	310.44
306.812	303.44
307.042	310.44
307.272	314.44
307.502	300.44
307.731	311.44
307.961	306.44
308.191	319.44
308.421	298.44
308.651	313.44
308.881	312.44
309.111	327.44
309.341	315.44
309.571	322.44
309.8	328.44
310.03	333.44
310.26	352.44
310.49	340.44
310.72	345.44
310.949	354.44
311.179	363.44
311.409	330.44
311.639	335.44
311.868	346.44
312.098	331.44
312.328	332.44
312.557	351.44
312.787	383.44
313.017	369.44
313.246	342.44
313.476	351.44
313.706	336.44
313.935	345.44
314.165	376.44
314.394	357.44
314.624	337.44
314.853	349.44
315.083	353.44
315.312	339.44
315.542	327.44
315.771	359.44
316.001	336.44
316.23	343.44
316.46	321.44
316.689	363.44
316.919	354.44
317.148	358.44
317.377	360.44
317.607	372.44
317.836	349.44
318.065	364.44
318.295	343.44
318.524	353.44
318.753	358.44
318.983	341.44
319.212	361.44
319.441	357.44
319.67	374.44
319.9	341.44
320.129	348.44
320.358	352.44
320.587	358.44
320.816	353.44
321.046	355.44
321.275	361.44
321.504	358.44
321.733	353.44
321.962	373.44
322.191	373.44
322.42	381.44
322.649	381.44
322.878	385.44
323.108	403.44
323.337	414.44
323.566	436.44
323.795	449.44
324.024	463.44
324.253	560.44
324.482	797.44
324.71	1165.44
324.939	1739.44
325.168	1509.44
325.397	786.44
325.626	573.44
325.855	470.44
326.084	450.44
326.313	426.44
326.542	431.44
326.77	457.44
326.999	527.44
327.228	715.44
327.457	1096.44
327.686	1335.44
327.914	889.44
328.143	604.44
328.372	546.44
328.6	535.44
328.829	499.44
329.058	482.44
329.287	509.44
329.515	478.44
329.744	453.44
329.972	440.44
330.201	444.44
330.43	490.44
330.658	518.44
330.887	529.44
331.115	541.44
331.344	471.44
331.572	437.44
331.801	430.44
332.03	425.44
332.258	422.44
332.486	421.44
332.715	408.44
332.943	408.44
333.172	428.44
333.4	443.44
333.629	432.44
333.857	430.44
334.085	458.44
334.314	434.44
334.542	477.44
334.771	485.44
334.999	463.44
335.227	440.44
335.455	433.44
335.684	427.44
335.912	423.44
336.14	410.44
336.369	413.44
336.597	438.44
336.825	418.44
337.053	426.44
337.281	421.44
337.51	409.44
337.738	409.44
337.966	391.44
338.194	421.44
338.422	431.44
338.65	391.44
338.878	402.44
339.106	409.44
339.334	387.44
339.562	396.44
339.79	411.44
340.018	401.44
340.246	380.44
340.474	403.44
340.702	395.44
340.93	385.44
341.158	402.44
341.386	397.44
341.614	413.44
341.842	422.44
342.07	379.44
342.298	392.44
342.526	399.44
342.754	400.44
342.981	384.44
343.209	419.44
343.437	418.44
343.665	420.44
343.893	415.44
344.12	409.44
344.348	417.44
344.576	386.44
344.804	400.44
345.031	410.44
345.259	419.44
345.487	411.44
345.714	390.44
345.942	404.44
346.17	389.44
346.397	382.44
346.625	372.44
346.853	377.44
347.08	376.44
347.308	400.44
347.535	401.44
347.763	404.44
347.99	405.44
348.218	401.44
348.445	413.44
348.673	405.44
348.9	387.44
349.128	390.44
349.355	369.44
349.583	375.44
349.81	373.44
350.037	372.44
350.265	362.44
350.492	365.44
350.72	371.44
350.947	370.44
351.174	393.44
351.402	395.44
351.629	386.44
351.856	392.44
352.083	375.44
352.311	401.44
352.538	394.44
352.765	417.44
352.992	381.44
353.22	410.44
353.447	377.44
353.674	368.44
353.901	370.44
354.128	367.44
354.355	373.44
354.583	390.44
354.81	377.44
355.037	385.44
355.264	368.44
355.491	362.44
355.718	380.44
355.945	381.44
356.172	378.44
356.399	357.44
356.626	369.44
356.853	365.44
357.08	375.44
357.307	387.44
357.534	329.44
357.761	381.44
357.988	379.44
358.215	365.44
358.441	378.44
358.668	377.44
358.895	383.44
359.122	370.44
359.349	376.44
359.576	388.44
359.802	416.44
360.029	462.44
360.256	430.44
360.483	408.44
360.709	415.44
360.936	411.44
361.163	386.44
361.39	408.44
361.616	385.44
361.843	378.44
362.07	405.44
362.296	405.44
362.523	407.44
362.749	387.44
362.976	381.44
363.203	400.44
363.429	391.44
363.656	392.44
363.882	376.44
364.109	373.44
364.335	371.44
364.562	377.44
364.788	386.44
365.015	391.44
365.241	388.44
365.468	389.44
365.694	399.44
365.92	379.44
366.147	385.44
366.373	370.44
366.599	375.44
366.826	392.44
367.052	377.44
367.278	370.44
367.505	386.44
367.731	401.44
367.957	391.44
368.184	379.44
368.41	384.44
368.636	393.44
368.862	400.44
369.089	383.44
369.315	365.44
369.541	387.44
369.767	394.44
369.993	374.44
370.219	382.44
370.445	395.44
370.672	389.44
370.898	375.44
371.124	399.44
371.35	388.44
371.576	377.44
371.802	369.44
372.028	391.44
372.254	379.44
372.48	390.44
372.706	382.44
372.932	378.44
373.158	379.44
373.384	395.44
373.61	384.44
373.835	400.44
374.061	385.44
374.287	401.44
374.513	385.44
374.739	394.44
374.965	407.44
375.191	391.44
375.416	386.44
375.642	399.44
375.868	391.44
376.094	386.44
376.319	381.44
376.545	400.44
376.771	384.44
376.997	397.44
377.222	376.44
377.448	388.44
377.674	398.44
377.899	393.44
378.125	401.44
378.35	393.44
378.576	389.44
378.802	378.44
379.027	413.44
379.253	408.44
379.478	391.44
379.704	394.44
379.929	386.44
380.155	389.44
380.38	389.44
380.606	402.44
380.831	402.44
381.057	406.44
381.282	376.44
381.507	376.44
381.733	376.44
381.958	409.44
382.184	389.44
382.409	385.44
382.634	403.44
382.86	407.44
383.085	418.44
383.31	429.44
383.535	407.44
383.761	398.44
383.986	396.44
384.211	410.44
384.436	412.44
384.662	407.44
384.887	417.44
385.112	421.44
385.337	424.44
385.562	413.44
385.787	421.44
386.013	464.44
386.238	443.44
386.463	421.44
386.688	426.44
386.913	433.44
387.138	453.44
387.363	467.44
387.588	433.44
387.813	429.44
388.038	435.44
388.263	437.44
388.488	442.44
388.713	438.44
388.938	427.44
389.163	426.44
389.387	441.44
389.612	418.44
389.837	442.44
390.062	419.44
390.287	424.44
390.512	422.44
390.736	418.44
390.961	425.44
391.186	441.44
391.411	429.44
391.636	453.44
391.86	469.44
392.085	458.44
392.31	445.44
392.534	435.44
392.759	438.44
392.984	445.44
393.208	440.44
393.433	425.44
393.658	426.44
393.882	444.44
394.107	451.44
394.331	445.44
394.556	454.44
394.78	441.44
395.005	448.44
395.229	444.44
395.454	462.44
395.678	472.44
395.903	457.44
396.127	483.44
396.352	481.44
396.576	463.44
396.801	455.44
397.025	447.44
397.249	449.44
397.474	463.44
397.698	466.44
397.922	467.44
398.147	491.44
398.371	506.44
398.595	501.44
398.82	522.44
399.044	496.44
399.268	512.44
399.492	582.44
399.717	614.44
399.941	609.44
400.165	637.44
400.389	597.44
400.613	575.44
400.837	545.44
401.062	523.44
401.286	530.44
401.51	513.44
401.734	486.44
401.958	504.44
402.182	493.44
402.406	494.44
402.63	503.44
402.854	518.44
403.078	527.44
403.302	521.44
403.526	513.44
403.75	522.44
403.974	546.44
404.198	520.44
404.422	535.44
404.645	573.44
404.869	527.44
405.093	563.44
405.317	606.44
405.541	639.44
405.765	589.44
405.988	575.44
406.212	535.44
406.436	570.44
406.66	584.44
406.883	553.44
407.107	604.44
407.331	624.44
407.555	683.44
407.778	694.44
408.002	627.44
408.226	595.44
408.449	571.44
408.673	566.44
408.896	590.44
409.12	629.44
409.344	618.44
409.567	557.44
409.791	537.44
410.014	542.44
410.238	535.44
410.461	522.44
410.685	521.44
410.908	552.44
411.132	543.44
411.355	590.44
411.578	570.44
411.802	541.44
412.025	514.44
412.249	530.44
412.472	562.44
412.695	586.44
412.919	573.44
413.142	521.44
413.365	502.44
413.589	519.44
413.812	505.44
414.035	513.44
414.258	512.44
414.482	506.44
414.705	477.44
414.928	486.44
415.151	498.44
415.374	519.44
415.597	485.44
415.821	490.44
416.044	491.44
416.267	489.44
416.49	495.44
416.713	484.44
416.936	506.44
417.159	500.44
417.382	489.44
417.605	494.44
417.828	503.44
418.051	510.44
418.274	530.44
418.497	503.44
418.72	519.44
418.943	514.44
419.166	532.44
419.389	532.44
419.611	548.44
419.834	547.44
420.057	521.44
420.28	528.44
420.503	509.44
420.726	511.44
420.948	517.44
421.171	553.44
421.394	600.44
421.617	539.44
421.839	543.44
422.062	521.44
422.285	511.44
422.507	606.44
422.73	641.44
422.953	631.44
423.175	565.44
423.398	552.44
423.621	547.44
423.843	542.44
424.066	561.44
424.288	557.44
424.511	585.44
424.733	593.44
424.956	685.44
425.178	671.44
425.401	649.44
425.623	698.44
425.846	591.44
426.068	563.44
426.291	573.44
426.513	550.44
426.735	560.44
426.958	596.44
427.18	670.44
427.402	774.44
427.625	838.44
427.847	733.44
428.069	645.44
428.292	576.44
428.514	553.44
428.736	539.44
428.958	523.44
429.181	523.44
429.403	489.44
429.625	517.44
429.847	540.44
430.069	591.44
430.292	601.44
430.514	539.44
430.736	502.44
430.958	506.44
431.18	493.44
431.402	481.44
431.624	487.44
431.846	495.44
432.068	486.44
432.29	485.44
432.512	467.44
432.734	496.44
432.956	492.44
433.178	507.44
433.4	496.44
433.622	504.44
433.844	487.44
434.066	473.44
434.287	495.44
434.509	509.44
434.731	485.44
434.953	527.44
435.175	546.44
435.397	562.44
435.618	557.44
435.84	582.44
436.062	657.44
436.284	693.44
436.505	622.44
436.727	542.44
436.949	525.44
437.17	515.44
437.392	530.44
437.614	519.44
437.835	574.44
438.057	614.44
438.278	735.44
438.5	728.44
438.721	767.44
438.943	732.44
439.165	633.44
439.386	567.44
439.608	555.44
439.829	567.44
440.05	572.44
440.272	630.44
440.493	584.44
440.715	517.44
440.936	535.44
441.158	527.44
441.379	520.44
441.6	547.44
441.822	555.44
442.043	601.44
442.264	645.44
442.486	705.44
442.707	607.44
442.928	578.44
443.149	580.44
443.371	593.44
443.592	613.44
443.813	717.44
444.034	779.44
444.255	677.44
444.476	592.44
444.698	581.44
444.919	580.44
445.14	673.44
445.361	618.44
445.582	591.44
445.803	650.44
446.024	739.44
446.245	761.44
446.466	679.44
446.687	555.44
446.908	555.44
447.129	526.44
447.35	516.44
447.571	513.44
447.792	486.44
448.013	501.44
448.234	520.44
448.455	559.44
448.675	675.44
448.896	801.44
449.117	676.44
449.338	641.44
449.559	715.44
449.779	811.44
450	655.44
450.221	545.44
450.442	506.44
450.662	485.44
450.883	481.44
451.104	506.44
451.324	518.44
451.545	472.44
451.766	476.44
451.986	477.44
452.207	445.44
452.428	463.44
452.648	457.44
452.869	443.44
453.089	449.44
453.31	471.44
453.53	444.44
453.751	459.44
453.971	462.44
454.192	456.44
454.412	451.44
454.633	464.44
454.853	437.44
455.073	427.44
455.294	491.44
455.514	519.44
455.734	547.44
455.955	464.44
456.175	433.44
456.395	431.44
456.616	420.44
456.836	449.44
457.056	426.44
457.276	418.44
457.497	437.44
457.717	439.44
457.937	443.44
458.157	440.44
458.377	446.44
458.598	445.44
458.818	510.44
459.038	566.44
459.258	571.44
459.478	526.44
459.698	472.44
459.918	474.44
460.138	475.44
460.358	488.44
460.578	495.44
460.798	517.44
461.018	500.44
461.238	482.44
461.458	497.44
461.678	489.44
461.898	505.44
462.118	509.44
462.338	516.44
462.558	513.44
462.777	542.44
462.997	535.44
463.217	579.44
463.437	574.44
463.657	542.44
463.876	534.44
464.096	551.44
464.316	528.44
464.536	549.44
464.755	533.44
464.975	534.44
465.195	546.44
465.414	611.44
465.634	565.44
465.854	513.44
466.073	495.44
466.293	499.44
466.512	482.44
466.732	458.44
466.951	464.44
467.171	448.44
467.391	472.44
467.61	474.44
467.829	473.44
468.049	475.44
468.268	451.44
468.488	440.44
468.707	455.44
468.927	437.44
469.146	439.44
469.365	469.44
469.585	466.44
469.804	456.44
470.023	490.44
470.243	477.44
470.462	496.44
470.681	493.44
470.901	503.44
471.12	472.44
471.339	471.44
471.558	446.44
471.777	468.44
471.997	470.44
472.216	489.44
472.435	504.44
472.654	497.44
472.873	487.44
473.092	462.44
473.311	472.44
473.53	456.44
473.749	477.44
473.968	506.44
474.187	587.44
474.406	619.44
474.625	537.44
474.844	500.44
475.063	510.44
475.282	480.44
475.501	496.44
475.72	483.44
475.939	480.44
476.158	489.44
476.377	491.44
476.596	474.44
476.814	489.44
477.033	499.44
477.252	522.44
477.471	515.44
477.69	499.44
477.908	503.44
478.127	504.44
478.346	525.44
478.564	523.44
478.783	513.44
479.002	546.44
479.22	550.44
479.439	564.44
479.658	549.44
479.876	553.44
480.095	581.44
480.313	628.44
480.532	622.44
480.751	586.44
480.969	574.44
481.188	608.44
481.406	639.44
481.624	578.44
481.843	565.44
482.061	556.44
482.28	544.44
482.498	575.44
482.717	550.44
482.935	536.44
483.153	535.44
483.372	544.44
483.59	535.44
483.808	546.44
484.027	541.44
484.245	546.44
484.463	548.44
484.681	565.44
484.9	570.44
485.118	565.44
485.336	592.44
485.554	582.44
485.772	583.44
485.99	574.44
486.209	571.44
486.427	551.44
486.645	605.44
486.863	610.44
487.081	595.44
487.299	577.44
487.517	607.44
487.735	600.44
487.953	586.44
488.171	597.44
488.389	593.44
488.607	593.44
488.825	583.44
489.043	600.44
489.261	614.44
489.479	609.44
489.696	608.44
489.914	634.44
490.132	619.44
490.35	626.44
490.568	615.44
490.786	628.44
491.003	637.44
491.221	677.44
491.439	682.44
491.657	643.44
491.874	682.44
492.092	680.44
492.31	688.44
492.527	709.44
492.745	694.44
492.963	708.44
493.18	689.44
493.398	696.44
493.615	693.44
493.833	704.44
494.05	717.44
494.268	676.44
494.485	680.44
494.703	672.44
494.92	688.44
495.138	733.44
495.355	711.44
495.573	714.44
495.79	731.44
496.008	726.44
496.225	697.44
496.442	714.44
496.66	736.44
496.877	678.44
497.094	738.44
497.312	714.44
497.529	705.44
497.746	755.44
497.963	786.44
498.181	797.44
498.398	778.44
498.615	813.44
498.832	813.44
499.049	832.44
499.267	842.44
499.484	907.44
499.701	915.44
499.918	960.44
500.135	991.44
500.352	1078.44
500.569	1086.44
500.786	1091.44
501.003	1065.44
501.22	1024.44
501.437	963.44
501.654	961.44
