Data from 1974.PennyLincolnUp.Lamp.En5.5.200Scan.071719.P1.Changed Mount._HRD10591_15-54-24-857.txt Node
Date: Thu Jul 18 15:54:24 EDT 2019
User: cochatt
Spectrometer: HR+D1059
Trigger mode: 1
Integration Time (sec): 1.000000E-1
Scans to average: 1
Electric dark correction enabled: true
Nonlinearity correction enabled: false
Boxcar width: 0
XAxis mode: Wavelengths
Number of Pixels in Spectrum: 2048
>>>>>Begin Spectral Data<<<<<
223.165	3.75
223.4	3.75
223.635	3.75
223.869	-14.25
224.104	2.75
224.338	-20.25
224.573	-28.25
224.808	-9.25
225.042	-13.25
225.277	-12.25
225.511	-6.25
225.746	-0.25
225.98	4.75
226.215	14.75
226.449	18.75
226.683	18.75
226.918	17.75
227.152	22.75
227.387	36.75
227.621	43.75
227.856	28.75
228.09	47.75
228.324	50.75
228.559	54.75
228.793	63.75
229.027	88.75
229.262	112.75
229.496	119.75
229.73	124.75
229.964	155.75
230.199	122.75
230.433	131.75
230.667	121.75
230.901	122.75
231.136	113.75
231.37	112.75
231.604	120.75
231.838	102.75
232.072	114.75
232.306	120.75
232.541	116.75
232.775	110.75
233.009	115.75
233.243	110.75
233.477	104.75
233.711	121.75
233.945	116.75
234.179	104.75
234.413	111.75
234.647	108.75
234.881	133.75
235.115	114.75
235.349	117.75
235.583	130.75
235.817	114.75
236.051	122.75
236.285	130.75
236.519	124.75
236.753	126.75
236.987	141.75
237.221	180.75
237.455	225.75
237.689	193.75
237.922	136.75
238.156	141.75
238.39	139.75
238.624	152.75
238.858	150.75
239.091	126.75
239.325	120.75
239.559	149.75
239.793	124.75
240.027	142.75
240.26	152.75
240.494	171.75
240.728	156.75
240.961	172.75
241.195	148.75
241.429	154.75
241.662	138.75
241.896	154.75
242.13	138.75
242.363	137.75
242.597	153.75
242.83	126.75
243.064	146.75
243.298	155.75
243.531	143.75
243.765	154.75
243.998	153.75
244.232	148.75
244.465	151.75
244.699	145.75
244.932	163.75
245.166	145.75
245.399	152.75
245.633	160.75
245.866	166.75
246.099	159.75
246.333	162.75
246.566	140.75
246.8	155.75
247.033	164.75
247.266	174.75
247.5	192.75
247.733	193.75
247.966	183.75
248.2	186.75
248.433	173.75
248.666	176.75
248.899	198.75
249.133	203.75
249.366	208.75
249.599	213.75
249.832	204.75
250.066	184.75
250.299	199.75
250.532	197.75
250.765	214.75
250.998	238.75
251.231	224.75
251.465	222.75
251.698	223.75
251.931	197.75
252.164	199.75
252.397	208.75
252.63	218.75
252.863	212.75
253.096	228.75
253.329	233.75
253.562	242.75
253.795	233.75
254.028	238.75
254.261	235.75
254.494	254.75
254.727	270.75
254.96	288.75
255.193	284.75
255.426	257.75
255.659	243.75
255.892	257.75
256.124	251.75
256.357	247.75
256.59	238.75
256.823	230.75
257.056	218.75
257.289	226.75
257.521	226.75
257.754	216.75
257.987	218.75
258.22	213.75
258.452	215.75
258.685	226.75
258.918	206.75
259.151	223.75
259.383	224.75
259.616	222.75
259.849	232.75
260.081	230.75
260.314	260.75
260.547	287.75
260.779	267.75
261.012	256.75
261.244	234.75
261.477	241.75
261.71	242.75
261.942	241.75
262.175	254.75
262.407	239.75
262.64	225.75
262.872	238.75
263.105	228.75
263.337	208.75
263.57	227.75
263.802	223.75
264.035	224.75
264.267	213.75
264.499	222.75
264.732	239.75
264.964	241.75
265.197	213.75
265.429	226.75
265.661	238.75
265.894	227.75
266.126	227.75
266.358	227.75
266.591	226.75
266.823	243.75
267.055	230.75
267.287	242.75
267.52	242.75
267.752	245.75
267.984	247.75
268.216	253.75
268.448	274.75
268.681	256.75
268.913	273.75
269.145	280.75
269.377	309.75
269.609	288.75
269.841	290.75
270.073	286.75
270.306	307.75
270.538	336.75
270.77	325.75
271.002	338.75
271.234	320.75
271.466	316.75
271.698	343.75
271.93	351.75
272.162	368.75
272.394	342.75
272.626	318.75
272.858	299.75
273.09	297.75
273.322	298.75
273.553	283.75
273.785	291.75
274.017	286.75
274.249	283.75
274.481	289.75
274.713	288.75
274.945	269.75
275.176	282.75
275.408	279.75
275.64	263.75
275.872	262.75
276.104	284.75
276.335	283.75
276.567	299.75
276.799	309.75
277.031	329.75
277.262	340.75
277.494	358.75
277.726	321.75
277.957	318.75
278.189	306.75
278.421	282.75
278.652	303.75
278.884	291.75
279.115	295.75
279.347	285.75
279.579	298.75
279.81	284.75
280.042	282.75
280.273	299.75
280.505	295.75
280.736	292.75
280.968	282.75
281.199	291.75
281.431	291.75
281.662	320.75
281.894	296.75
282.125	296.75
282.356	320.75
282.588	309.75
282.819	306.75
283.051	308.75
283.282	313.75
283.513	299.75
283.745	295.75
283.976	305.75
284.207	298.75
284.439	315.75
284.67	307.75
284.901	302.75
285.132	298.75
285.364	316.75
285.595	310.75
285.826	314.75
286.057	296.75
286.288	313.75
286.52	314.75
286.751	303.75
286.982	322.75
287.213	320.75
287.444	314.75
287.675	340.75
287.906	323.75
288.138	337.75
288.369	342.75
288.6	316.75
288.831	331.75
289.062	322.75
289.293	294.75
289.524	300.75
289.755	324.75
289.986	330.75
290.217	331.75
290.448	314.75
290.679	325.75
290.91	312.75
291.141	329.75
291.371	326.75
291.602	351.75
291.833	324.75
292.064	323.75
292.295	323.75
292.526	309.75
292.757	314.75
292.987	321.75
293.218	331.75
293.449	308.75
293.68	335.75
293.91	328.75
294.141	330.75
294.372	310.75
294.603	321.75
294.833	325.75
295.064	316.75
295.295	330.75
295.525	330.75
295.756	337.75
295.987	326.75
296.217	354.75
296.448	352.75
296.679	350.75
296.909	326.75
297.14	330.75
297.37	320.75
297.601	340.75
297.831	322.75
298.062	336.75
298.292	359.75
298.523	338.75
298.753	345.75
298.984	326.75
299.214	332.75
299.445	346.75
299.675	348.75
299.905	330.75
300.136	346.75
300.366	336.75
300.597	325.75
300.827	350.75
301.057	346.75
301.288	358.75
301.518	358.75
301.748	355.75
301.979	374.75
302.209	352.75
302.439	377.75
302.669	374.75
302.9	351.75
303.13	364.75
303.36	346.75
303.59	367.75
303.82	376.75
304.051	373.75
304.281	361.75
304.511	376.75
304.741	350.75
304.971	358.75
305.201	354.75
305.431	373.75
305.661	360.75
305.891	366.75
306.121	378.75
306.352	361.75
306.582	358.75
306.812	372.75
307.042	366.75
307.272	343.75
307.502	363.75
307.731	364.75
307.961	374.75
308.191	369.75
308.421	351.75
308.651	375.75
308.881	386.75
309.111	384.75
309.341	393.75
309.571	375.75
309.8	388.75
310.03	407.75
310.26	396.75
310.49	382.75
310.72	412.75
310.949	408.75
311.179	431.75
311.409	409.75
311.639	390.75
311.868	394.75
312.098	404.75
312.328	412.75
312.557	412.75
312.787	432.75
313.017	439.75
313.246	419.75
313.476	395.75
313.706	411.75
313.935	415.75
314.165	416.75
314.394	414.75
314.624	447.75
314.853	430.75
315.083	426.75
315.312	419.75
315.542	393.75
315.771	400.75
316.001	394.75
316.23	405.75
316.46	415.75
316.689	409.75
316.919	415.75
317.148	415.75
317.377	430.75
317.607	426.75
317.836	423.75
318.065	400.75
318.295	405.75
318.524	419.75
318.753	394.75
318.983	406.75
319.212	428.75
319.441	424.75
319.67	420.75
319.9	421.75
320.129	414.75
320.358	407.75
320.587	396.75
320.816	415.75
321.046	422.75
321.275	442.75
321.504	443.75
321.733	427.75
321.962	459.75
322.191	458.75
322.42	450.75
322.649	461.75
322.878	483.75
323.108	461.75
323.337	475.75
323.566	496.75
323.795	542.75
324.024	560.75
324.253	627.75
324.482	869.75
324.71	1351.75
324.939	1986.75
325.168	1788.75
325.397	912.75
325.626	617.75
325.855	552.75
326.084	531.75
326.313	512.75
326.542	507.75
326.77	560.75
326.999	622.75
327.228	805.75
327.457	1244.75
327.686	1571.75
327.914	1027.75
328.143	708.75
328.372	633.75
328.6	619.75
328.829	555.75
329.058	563.75
329.287	578.75
329.515	555.75
329.744	531.75
329.972	546.75
330.201	529.75
330.43	570.75
330.658	603.75
330.887	611.75
331.115	610.75
331.344	546.75
331.572	543.75
331.801	509.75
332.03	517.75
332.258	508.75
332.486	492.75
332.715	491.75
332.943	486.75
333.172	497.75
333.4	502.75
333.629	504.75
333.857	538.75
334.085	545.75
334.314	565.75
334.542	576.75
334.771	586.75
334.999	549.75
335.227	518.75
335.455	506.75
335.684	508.75
335.912	510.75
336.14	497.75
336.369	490.75
336.597	506.75
336.825	499.75
337.053	537.75
337.281	494.75
337.51	495.75
337.738	494.75
337.966	501.75
338.194	480.75
338.422	510.75
338.65	477.75
338.878	496.75
339.106	475.75
339.334	480.75
339.562	486.75
339.79	468.75
340.018	481.75
340.246	467.75
340.474	473.75
340.702	469.75
340.93	471.75
341.158	464.75
341.386	446.75
341.614	465.75
341.842	489.75
342.07	477.75
342.298	463.75
342.526	450.75
342.754	455.75
342.981	453.75
343.209	449.75
343.437	462.75
343.665	482.75
343.893	494.75
344.12	502.75
344.348	500.75
344.576	483.75
344.804	518.75
345.031	510.75
345.259	464.75
345.487	502.75
345.714	466.75
345.942	458.75
346.17	443.75
346.397	485.75
346.625	460.75
346.853	468.75
347.08	448.75
347.308	463.75
347.535	451.75
347.763	451.75
347.99	455.75
348.218	462.75
348.445	471.75
348.673	454.75
348.9	449.75
349.128	440.75
349.355	436.75
349.583	439.75
349.81	439.75
350.037	451.75
350.265	467.75
350.492	443.75
350.72	451.75
350.947	461.75
351.174	462.75
351.402	465.75
351.629	446.75
351.856	471.75
352.083	449.75
352.311	458.75
352.538	477.75
352.765	470.75
352.992	451.75
353.22	464.75
353.447	460.75
353.674	454.75
353.901	457.75
354.128	444.75
354.355	417.75
354.583	460.75
354.81	421.75
355.037	433.75
355.264	430.75
355.491	439.75
355.718	440.75
355.945	439.75
356.172	447.75
356.399	437.75
356.626	432.75
356.853	442.75
357.08	416.75
357.307	397.75
357.534	449.75
357.761	433.75
357.988	427.75
358.215	447.75
358.441	419.75
358.668	456.75
358.895	432.75
359.122	420.75
359.349	444.75
359.576	449.75
359.802	470.75
360.029	479.75
360.256	507.75
360.483	486.75
360.709	447.75
360.936	462.75
361.163	462.75
361.39	466.75
361.616	478.75
361.843	459.75
362.07	467.75
362.296	463.75
362.523	447.75
362.749	450.75
362.976	442.75
363.203	456.75
363.429	446.75
363.656	447.75
363.882	444.75
364.109	473.75
364.335	450.75
364.562	451.75
364.788	458.75
365.015	442.75
365.241	439.75
365.468	447.75
365.694	441.75
365.92	459.75
366.147	451.75
366.373	450.75
366.599	440.75
366.826	455.75
367.052	439.75
367.278	440.75
367.505	447.75
367.731	459.75
367.957	442.75
368.184	460.75
368.41	475.75
368.636	482.75
368.862	470.75
369.089	463.75
369.315	440.75
369.541	460.75
369.767	459.75
369.993	471.75
370.219	433.75
370.445	441.75
370.672	462.75
370.898	465.75
371.124	429.75
371.35	449.75
371.576	456.75
371.802	467.75
372.028	454.75
372.254	453.75
372.48	472.75
372.706	474.75
372.932	473.75
373.158	473.75
373.384	454.75
373.61	472.75
373.835	461.75
374.061	461.75
374.287	463.75
374.513	455.75
374.739	459.75
374.965	478.75
375.191	461.75
375.416	472.75
375.642	458.75
375.868	473.75
376.094	466.75
376.319	456.75
376.545	456.75
376.771	455.75
376.997	454.75
377.222	449.75
377.448	451.75
377.674	435.75
377.899	466.75
378.125	454.75
378.35	461.75
378.576	438.75
378.802	455.75
379.027	460.75
379.253	436.75
379.478	434.75
379.704	449.75
379.929	455.75
380.155	452.75
380.38	451.75
380.606	466.75
380.831	448.75
381.057	468.75
381.282	470.75
381.507	471.75
381.733	451.75
381.958	462.75
382.184	478.75
382.409	468.75
382.634	462.75
382.86	466.75
383.085	464.75
383.31	464.75
383.535	471.75
383.761	485.75
383.986	471.75
384.211	474.75
384.436	486.75
384.662	501.75
384.887	500.75
385.112	500.75
385.337	478.75
385.562	471.75
385.787	516.75
386.013	529.75
386.238	523.75
386.463	506.75
386.688	508.75
386.913	507.75
387.138	529.75
387.363	504.75
387.588	507.75
387.813	513.75
388.038	520.75
388.263	516.75
388.488	495.75
388.713	493.75
388.938	508.75
389.163	512.75
389.387	524.75
389.612	514.75
389.837	513.75
390.062	495.75
390.287	499.75
390.512	511.75
390.736	485.75
390.961	520.75
391.186	504.75
391.411	514.75
391.636	545.75
391.86	524.75
392.085	531.75
392.31	541.75
392.534	518.75
392.759	535.75
392.984	528.75
393.208	521.75
393.433	519.75
393.658	520.75
393.882	512.75
394.107	511.75
394.331	520.75
394.556	512.75
394.78	532.75
395.005	533.75
395.229	528.75
395.454	535.75
395.678	547.75
395.903	545.75
396.127	559.75
396.352	565.75
396.576	536.75
396.801	529.75
397.025	531.75
397.249	527.75
397.474	551.75
397.698	545.75
397.922	575.75
398.147	572.75
398.371	610.75
398.595	590.75
398.82	587.75
399.044	608.75
399.268	639.75
399.492	668.75
399.717	698.75
399.941	729.75
400.165	730.75
400.389	724.75
400.613	706.75
400.837	652.75
401.062	630.75
401.286	597.75
401.51	584.75
401.734	601.75
401.958	593.75
402.182	599.75
402.406	639.75
402.63	597.75
402.854	634.75
403.078	596.75
403.302	612.75
403.526	631.75
403.75	657.75
403.974	657.75
404.198	624.75
404.422	631.75
404.645	644.75
404.869	668.75
405.093	686.75
405.317	694.75
405.541	716.75
405.765	715.75
405.988	651.75
406.212	671.75
406.436	666.75
406.66	690.75
406.883	664.75
407.107	708.75
407.331	754.75
407.555	822.75
407.778	809.75
408.002	756.75
408.226	709.75
408.449	689.75
408.673	702.75
408.896	699.75
409.12	763.75
409.344	733.75
409.567	672.75
409.791	642.75
410.014	634.75
410.238	618.75
410.461	643.75
410.685	619.75
410.908	636.75
411.132	666.75
411.355	742.75
411.578	688.75
411.802	651.75
412.025	626.75
412.249	627.75
412.472	638.75
412.695	721.75
412.919	686.75
413.142	625.75
413.365	609.75
413.589	605.75
413.812	583.75
414.035	581.75
414.258	600.75
414.482	585.75
414.705	595.75
414.928	584.75
415.151	583.75
415.374	594.75
415.597	588.75
415.821	570.75
416.044	574.75
416.267	588.75
416.49	586.75
416.713	567.75
416.936	592.75
417.159	604.75
417.382	588.75
417.605	595.75
417.828	601.75
418.051	622.75
418.274	614.75
418.497	585.75
418.72	589.75
418.943	586.75
419.166	614.75
419.389	664.75
419.611	646.75
419.834	649.75
420.057	627.75
420.28	604.75
420.503	614.75
420.726	626.75
420.948	642.75
421.171	682.75
421.394	694.75
421.617	641.75
421.839	605.75
422.062	608.75
422.285	624.75
422.507	683.75
422.73	774.75
422.953	763.75
423.175	684.75
423.398	620.75
423.621	629.75
423.843	677.75
424.066	667.75
424.288	674.75
424.511	669.75
424.733	706.75
424.956	824.75
425.178	764.75
425.401	772.75
425.623	824.75
425.846	695.75
426.068	675.75
426.291	647.75
426.513	638.75
426.735	659.75
426.958	704.75
427.18	793.75
427.402	928.75
427.625	1008.75
427.847	858.75
428.069	776.75
428.292	710.75
428.514	637.75
428.736	632.75
428.958	622.75
429.181	609.75
429.403	613.75
429.625	621.75
429.847	640.75
430.069	739.75
430.292	729.75
430.514	621.75
430.736	601.75
430.958	593.75
431.18	596.75
431.402	591.75
431.624	582.75
431.846	577.75
432.068	571.75
432.29	567.75
432.512	580.75
432.734	599.75
432.956	582.75
433.178	614.75
433.4	587.75
433.622	561.75
433.844	579.75
434.066	574.75
434.287	547.75
434.509	574.75
434.731	598.75
434.953	613.75
435.175	641.75
435.397	642.75
435.618	634.75
435.84	681.75
436.062	797.75
436.284	874.75
436.505	732.75
436.727	655.75
436.949	602.75
437.17	618.75
437.392	595.75
437.614	609.75
437.835	628.75
438.057	747.75
438.278	834.75
438.5	847.75
438.721	919.75
438.943	914.75
439.165	722.75
439.386	657.75
439.608	666.75
439.829	652.75
440.05	671.75
440.272	731.75
440.493	696.75
440.715	644.75
440.936	637.75
441.158	610.75
441.379	611.75
441.6	604.75
441.822	659.75
442.043	697.75
442.264	795.75
442.486	839.75
442.707	684.75
442.928	664.75
443.149	682.75
443.371	707.75
443.592	733.75
443.813	843.75
444.034	896.75
444.255	776.75
444.476	700.75
444.698	681.75
444.919	678.75
445.14	794.75
445.361	738.75
445.582	705.75
445.803	745.75
446.024	859.75
446.245	857.75
446.466	810.75
446.687	674.75
446.908	640.75
447.129	653.75
447.35	602.75
447.571	596.75
447.792	601.75
448.013	598.75
448.234	601.75
448.455	652.75
448.675	802.75
448.896	900.75
449.117	761.75
449.338	728.75
449.559	857.75
449.779	960.75
450	763.75
450.221	636.75
450.442	598.75
450.662	575.75
450.883	589.75
451.104	611.75
451.324	578.75
451.545	565.75
451.766	546.75
451.986	534.75
452.207	535.75
452.428	519.75
452.648	522.75
452.869	554.75
453.089	533.75
453.31	538.75
453.53	547.75
453.751	532.75
453.971	537.75
454.192	565.75
454.412	546.75
454.633	524.75
454.853	516.75
455.073	522.75
455.294	544.75
455.514	611.75
455.734	600.75
455.955	518.75
456.175	494.75
456.395	489.75
456.616	493.75
456.836	506.75
457.056	514.75
457.276	480.75
457.497	515.75
457.717	502.75
457.937	534.75
458.157	509.75
458.377	516.75
458.598	543.75
458.818	601.75
459.038	664.75
459.258	701.75
459.478	636.75
459.698	571.75
459.918	577.75
460.138	577.75
460.358	583.75
460.578	603.75
460.798	593.75
461.018	603.75
461.238	599.75
461.458	612.75
461.678	601.75
461.898	580.75
462.118	589.75
462.338	611.75
462.558	626.75
462.777	660.75
462.997	648.75
463.217	652.75
463.437	698.75
463.657	646.75
463.876	650.75
464.096	647.75
464.316	649.75
464.536	668.75
464.755	615.75
464.975	630.75
465.195	682.75
465.414	683.75
465.634	615.75
465.854	593.75
466.073	568.75
466.293	585.75
466.512	568.75
466.732	585.75
466.951	555.75
467.171	551.75
467.391	572.75
467.61	566.75
467.829	576.75
468.049	546.75
468.268	581.75
468.488	549.75
468.707	529.75
468.927	537.75
469.146	520.75
469.365	550.75
469.585	542.75
469.804	560.75
470.023	552.75
470.243	567.75
470.462	573.75
470.681	570.75
470.901	562.75
471.12	551.75
471.339	560.75
471.558	561.75
471.777	579.75
471.997	569.75
472.216	552.75
472.435	577.75
472.654	570.75
472.873	544.75
473.092	545.75
473.311	532.75
473.53	539.75
473.749	562.75
473.968	580.75
474.187	691.75
474.406	732.75
474.625	590.75
474.844	583.75
475.063	560.75
475.282	556.75
475.501	569.75
475.72	580.75
475.939	555.75
476.158	560.75
476.377	586.75
476.596	564.75
476.814	574.75
477.033	572.75
477.252	580.75
477.471	574.75
477.69	619.75
477.908	587.75
478.127	630.75
478.346	622.75
478.564	622.75
478.783	624.75
479.002	619.75
479.22	653.75
479.439	665.75
479.658	657.75
479.876	681.75
480.095	680.75
480.313	698.75
480.532	703.75
480.751	690.75
480.969	696.75
481.188	731.75
481.406	770.75
481.624	710.75
481.843	678.75
482.061	671.75
482.28	660.75
482.498	648.75
482.717	646.75
482.935	638.75
483.153	678.75
483.372	668.75
483.59	656.75
483.808	669.75
484.027	668.75
484.245	670.75
484.463	666.75
484.681	660.75
484.9	672.75
485.118	664.75
485.336	660.75
485.554	691.75
485.772	683.75
485.99	656.75
486.209	662.75
486.427	663.75
486.645	699.75
486.863	716.75
487.081	705.75
487.299	714.75
487.517	712.75
487.735	703.75
487.953	719.75
488.171	695.75
488.389	688.75
488.607	691.75
488.825	689.75
489.043	712.75
489.261	703.75
489.479	713.75
489.696	703.75
489.914	679.75
490.132	726.75
490.35	744.75
490.568	735.75
490.786	745.75
491.003	767.75
491.221	792.75
491.439	796.75
491.657	798.75
491.874	819.75
492.092	798.75
492.31	792.75
492.527	832.75
492.745	829.75
492.963	809.75
493.18	817.75
493.398	848.75
493.615	837.75
493.833	840.75
494.05	853.75
494.268	820.75
494.485	823.75
494.703	811.75
494.92	843.75
495.138	826.75
495.355	838.75
495.573	825.75
495.79	850.75
496.008	839.75
496.225	850.75
496.442	873.75
496.66	852.75
496.877	843.75
497.094	840.75
497.312	836.75
497.529	860.75
497.746	886.75
497.963	879.75
498.181	928.75
498.398	929.75
498.615	961.75
498.832	985.75
499.049	998.75
499.267	1013.75
499.484	1072.75
499.701	1118.75
499.918	1174.75
500.135	1283.75
500.352	1299.75
500.569	1341.75
500.786	1341.75
501.003	1327.75
501.22	1249.75
501.437	1184.75
501.654	1139.75
