Data from 1974.PennyLincolnUp.Lamp.En5.5.200Scan.071719.P1.Changed Mount._HRD10591_15-53-10-856.txt Node
Date: Thu Jul 18 15:53:10 EDT 2019
User: cochatt
Spectrometer: HR+D1059
Trigger mode: 1
Integration Time (sec): 1.000000E-1
Scans to average: 1
Electric dark correction enabled: true
Nonlinearity correction enabled: false
Boxcar width: 0
XAxis mode: Wavelengths
Number of Pixels in Spectrum: 2048
>>>>>Begin Spectral Data<<<<<
223.165	-11.38
223.4	-11.38
223.635	-11.38
223.869	-13.38
224.104	-11.38
224.338	-9.38
224.573	-23.38
224.808	-0.38
225.042	-0.38
225.277	-10.38
225.511	8.62
225.746	11.62
225.98	7.62
226.215	-12.38
226.449	-1.38
226.683	10.62
226.918	21.62
227.152	33.62
227.387	53.62
227.621	36.62
227.856	38.62
228.09	39.62
228.324	39.62
228.559	58.62
228.793	63.62
229.027	105.62
229.262	79.62
229.496	119.62
229.73	135.62
229.964	151.62
230.199	128.62
230.433	120.62
230.667	122.62
230.901	122.62
231.136	119.62
231.37	126.62
231.604	119.62
231.838	124.62
232.072	111.62
232.306	110.62
232.541	115.62
232.775	110.62
233.009	122.62
233.243	127.62
233.477	127.62
233.711	115.62
233.945	138.62
234.179	111.62
234.413	126.62
234.647	125.62
234.881	128.62
235.115	135.62
235.349	138.62
235.583	116.62
235.817	119.62
236.051	125.62
236.285	120.62
236.519	138.62
236.753	137.62
236.987	142.62
237.221	184.62
237.455	232.62
237.689	186.62
237.922	149.62
238.156	133.62
238.39	134.62
238.624	139.62
238.858	126.62
239.091	135.62
239.325	126.62
239.559	126.62
239.793	136.62
240.027	121.62
240.26	141.62
240.494	161.62
240.728	160.62
240.961	145.62
241.195	160.62
241.429	142.62
241.662	156.62
241.896	150.62
242.13	129.62
242.363	146.62
242.597	156.62
242.83	149.62
243.064	146.62
243.298	147.62
243.531	154.62
243.765	165.62
243.998	150.62
244.232	149.62
244.465	145.62
244.699	152.62
244.932	154.62
245.166	145.62
245.399	166.62
245.633	160.62
245.866	156.62
246.099	178.62
246.333	153.62
246.566	171.62
246.8	160.62
247.033	175.62
247.266	160.62
247.5	151.62
247.733	188.62
247.966	179.62
248.2	198.62
248.433	182.62
248.666	175.62
248.899	194.62
249.133	204.62
249.366	220.62
249.599	207.62
249.832	194.62
250.066	204.62
250.299	196.62
250.532	216.62
250.765	220.62
250.998	238.62
251.231	242.62
251.465	227.62
251.698	219.62
251.931	221.62
252.164	203.62
252.397	203.62
252.63	196.62
252.863	232.62
253.096	230.62
253.329	252.62
253.562	225.62
253.795	220.62
254.028	247.62
254.261	227.62
254.494	220.62
254.727	265.62
254.96	303.62
255.193	281.62
255.426	272.62
255.659	252.62
255.892	235.62
256.124	249.62
256.357	244.62
256.59	232.62
256.823	216.62
257.056	235.62
257.289	244.62
257.521	232.62
257.754	231.62
257.987	219.62
258.22	224.62
258.452	224.62
258.685	231.62
258.918	226.62
259.151	238.62
259.383	240.62
259.616	249.62
259.849	244.62
260.081	260.62
260.314	285.62
260.547	271.62
260.779	241.62
261.012	235.62
261.244	263.62
261.477	247.62
261.71	222.62
261.942	242.62
262.175	241.62
262.407	250.62
262.64	256.62
262.872	238.62
263.105	221.62
263.337	248.62
263.57	232.62
263.802	238.62
264.035	227.62
264.267	224.62
264.499	229.62
264.732	233.62
264.964	239.62
265.197	227.62
265.429	222.62
265.661	243.62
265.894	249.62
266.126	239.62
266.358	238.62
266.591	244.62
266.823	258.62
267.055	262.62
267.287	243.62
267.52	240.62
267.752	245.62
267.984	251.62
268.216	235.62
268.448	250.62
268.681	260.62
268.913	261.62
269.145	290.62
269.377	312.62
269.609	287.62
269.841	282.62
270.073	282.62
270.306	309.62
270.538	331.62
270.77	333.62
271.002	316.62
271.234	327.62
271.466	322.62
271.698	354.62
271.93	339.62
272.162	341.62
272.394	328.62
272.626	327.62
272.858	325.62
273.09	312.62
273.322	300.62
273.553	290.62
273.785	291.62
274.017	282.62
274.249	293.62
274.481	291.62
274.713	300.62
274.945	297.62
275.176	291.62
275.408	299.62
275.64	279.62
275.872	287.62
276.104	292.62
276.335	264.62
276.567	286.62
276.799	306.62
277.031	316.62
277.262	335.62
277.494	342.62
277.726	336.62
277.957	334.62
278.189	319.62
278.421	290.62
278.652	290.62
278.884	297.62
279.115	288.62
279.347	279.62
279.579	274.62
279.81	308.62
280.042	303.62
280.273	289.62
280.505	307.62
280.736	316.62
280.968	278.62
281.199	300.62
281.431	291.62
281.662	296.62
281.894	301.62
282.125	320.62
282.356	317.62
282.588	325.62
282.819	327.62
283.051	322.62
283.282	308.62
283.513	323.62
283.745	292.62
283.976	302.62
284.207	318.62
284.439	297.62
284.67	288.62
284.901	328.62
285.132	306.62
285.364	332.62
285.595	303.62
285.826	301.62
286.057	332.62
286.288	306.62
286.52	324.62
286.751	303.62
286.982	278.62
287.213	307.62
287.444	310.62
287.675	308.62
287.906	332.62
288.138	343.62
288.369	338.62
288.6	334.62
288.831	328.62
289.062	331.62
289.293	351.62
289.524	333.62
289.755	322.62
289.986	327.62
290.217	308.62
290.448	306.62
290.679	323.62
290.91	327.62
291.141	325.62
291.371	340.62
291.602	327.62
291.833	324.62
292.064	315.62
292.295	314.62
292.526	323.62
292.757	336.62
292.987	328.62
293.218	308.62
293.449	342.62
293.68	325.62
293.91	330.62
294.141	317.62
294.372	314.62
294.603	329.62
294.833	348.62
295.064	334.62
295.295	311.62
295.525	339.62
295.756	334.62
295.987	340.62
296.217	372.62
296.448	366.62
296.679	346.62
296.909	346.62
297.14	324.62
297.37	350.62
297.601	329.62
297.831	321.62
298.062	345.62
298.292	340.62
298.523	349.62
298.753	358.62
298.984	329.62
299.214	335.62
299.445	351.62
299.675	347.62
299.905	370.62
300.136	347.62
300.366	357.62
300.597	346.62
300.827	367.62
301.057	339.62
301.288	367.62
301.518	350.62
301.748	359.62
301.979	358.62
302.209	360.62
302.439	375.62
302.669	343.62
302.9	356.62
303.13	373.62
303.36	362.62
303.59	363.62
303.82	371.62
304.051	375.62
304.281	371.62
304.511	385.62
304.741	347.62
304.971	376.62
305.201	358.62
305.431	354.62
305.661	373.62
305.891	374.62
306.121	357.62
306.352	366.62
306.582	392.62
306.812	348.62
307.042	365.62
307.272	370.62
307.502	365.62
307.731	354.62
307.961	356.62
308.191	359.62
308.421	395.62
308.651	376.62
308.881	361.62
309.111	382.62
309.341	373.62
309.571	378.62
309.8	364.62
310.03	388.62
310.26	411.62
310.49	413.62
310.72	406.62
310.949	404.62
311.179	406.62
311.409	393.62
311.639	385.62
311.868	403.62
312.098	418.62
312.328	406.62
312.557	426.62
312.787	427.62
313.017	409.62
313.246	417.62
313.476	402.62
313.706	418.62
313.935	427.62
314.165	410.62
314.394	412.62
314.624	440.62
314.853	399.62
315.083	411.62
315.312	415.62
315.542	410.62
315.771	399.62
316.001	401.62
316.23	407.62
316.46	389.62
316.689	424.62
316.919	414.62
317.148	436.62
317.377	423.62
317.607	409.62
317.836	407.62
318.065	413.62
318.295	400.62
318.524	414.62
318.753	420.62
318.983	418.62
319.212	404.62
319.441	406.62
319.67	436.62
319.9	401.62
320.129	407.62
320.358	432.62
320.587	400.62
320.816	435.62
321.046	424.62
321.275	427.62
321.504	431.62
321.733	438.62
321.962	434.62
322.191	459.62
322.42	442.62
322.649	451.62
322.878	469.62
323.108	460.62
323.337	480.62
323.566	505.62
323.795	514.62
324.024	568.62
324.253	642.62
324.482	866.62
324.71	1265.62
324.939	1884.62
325.168	1686.62
325.397	855.62
325.626	614.62
325.855	544.62
326.084	527.62
326.313	503.62
326.542	522.62
326.77	520.62
326.999	621.62
327.228	782.62
327.457	1153.62
327.686	1452.62
327.914	978.62
328.143	664.62
328.372	613.62
328.6	568.62
328.829	562.62
329.058	571.62
329.287	574.62
329.515	566.62
329.744	540.62
329.972	531.62
330.201	524.62
330.43	553.62
330.658	599.62
330.887	600.62
331.115	604.62
331.344	531.62
331.572	499.62
331.801	542.62
332.03	529.62
332.258	504.62
332.486	487.62
332.715	492.62
332.943	485.62
333.172	514.62
333.4	504.62
333.629	532.62
333.857	556.62
334.085	548.62
334.314	546.62
334.542	575.62
334.771	583.62
334.999	551.62
335.227	516.62
335.455	518.62
335.684	514.62
335.912	503.62
336.14	501.62
336.369	484.62
336.597	479.62
336.825	491.62
337.053	524.62
337.281	506.62
337.51	470.62
337.738	484.62
337.966	506.62
338.194	499.62
338.422	492.62
338.65	500.62
338.878	487.62
339.106	481.62
339.334	488.62
339.562	470.62
339.79	470.62
340.018	471.62
340.246	482.62
340.474	472.62
340.702	465.62
340.93	472.62
341.158	500.62
341.386	494.62
341.614	466.62
341.842	502.62
342.07	470.62
342.298	483.62
342.526	450.62
342.754	455.62
342.981	453.62
343.209	471.62
343.437	490.62
343.665	479.62
343.893	482.62
344.12	518.62
344.348	504.62
344.576	486.62
344.804	500.62
345.031	480.62
345.259	484.62
345.487	478.62
345.714	486.62
345.942	458.62
346.17	482.62
346.397	454.62
346.625	444.62
346.853	450.62
347.08	452.62
347.308	463.62
347.535	466.62
347.763	477.62
347.99	468.62
348.218	457.62
348.445	476.62
348.673	448.62
348.9	466.62
349.128	459.62
349.355	454.62
349.583	445.62
349.81	434.62
350.037	432.62
350.265	455.62
350.492	449.62
350.72	444.62
350.947	440.62
351.174	461.62
351.402	460.62
351.629	446.62
351.856	456.62
352.083	445.62
352.311	471.62
352.538	477.62
352.765	478.62
352.992	467.62
353.22	448.62
353.447	454.62
353.674	456.62
353.901	451.62
354.128	435.62
354.355	442.62
354.583	442.62
354.81	439.62
355.037	453.62
355.264	445.62
355.491	439.62
355.718	434.62
355.945	440.62
356.172	415.62
356.399	436.62
356.626	422.62
356.853	428.62
357.08	426.62
357.307	443.62
357.534	449.62
357.761	441.62
357.988	430.62
358.215	459.62
358.441	438.62
358.668	435.62
358.895	442.62
359.122	446.62
359.349	439.62
359.576	439.62
359.802	476.62
360.029	494.62
360.256	499.62
360.483	470.62
360.709	456.62
360.936	480.62
361.163	466.62
361.39	479.62
361.616	472.62
361.843	477.62
362.07	471.62
362.296	462.62
362.523	454.62
362.749	441.62
362.976	451.62
363.203	450.62
363.429	456.62
363.656	443.62
363.882	442.62
364.109	454.62
364.335	461.62
364.562	441.62
364.788	464.62
365.015	447.62
365.241	455.62
365.468	471.62
365.694	446.62
365.92	450.62
366.147	449.62
366.373	453.62
366.599	441.62
366.826	459.62
367.052	450.62
367.278	479.62
367.505	458.62
367.731	444.62
367.957	449.62
368.184	446.62
368.41	466.62
368.636	464.62
368.862	466.62
369.089	477.62
369.315	459.62
369.541	470.62
369.767	460.62
369.993	437.62
370.219	461.62
370.445	460.62
370.672	445.62
370.898	448.62
371.124	461.62
371.35	469.62
371.576	448.62
371.802	455.62
372.028	449.62
372.254	459.62
372.48	448.62
372.706	465.62
372.932	441.62
373.158	466.62
373.384	469.62
373.61	461.62
373.835	470.62
374.061	450.62
374.287	454.62
374.513	467.62
374.739	487.62
374.965	496.62
375.191	486.62
375.416	473.62
375.642	466.62
375.868	459.62
376.094	458.62
376.319	464.62
376.545	468.62
376.771	444.62
376.997	450.62
377.222	450.62
377.448	449.62
377.674	455.62
377.899	469.62
378.125	454.62
378.35	462.62
378.576	471.62
378.802	447.62
379.027	449.62
379.253	455.62
379.478	463.62
379.704	468.62
379.929	470.62
380.155	476.62
380.38	457.62
380.606	471.62
380.831	495.62
381.057	476.62
381.282	455.62
381.507	474.62
381.733	452.62
381.958	467.62
382.184	458.62
382.409	476.62
382.634	466.62
382.86	492.62
383.085	486.62
383.31	486.62
383.535	486.62
383.761	493.62
383.986	490.62
384.211	481.62
384.436	492.62
384.662	463.62
384.887	484.62
385.112	497.62
385.337	503.62
385.562	500.62
385.787	533.62
386.013	520.62
386.238	542.62
386.463	528.62
386.688	509.62
386.913	512.62
387.138	533.62
387.363	535.62
387.588	510.62
387.813	520.62
388.038	508.62
388.263	527.62
388.488	531.62
388.713	508.62
388.938	508.62
389.163	540.62
389.387	531.62
389.612	504.62
389.837	507.62
390.062	510.62
390.287	520.62
390.512	518.62
390.736	512.62
390.961	524.62
391.186	533.62
391.411	530.62
391.636	550.62
391.86	532.62
392.085	534.62
392.31	549.62
392.534	555.62
392.759	543.62
392.984	538.62
393.208	509.62
393.433	534.62
393.658	514.62
393.882	533.62
394.107	538.62
394.331	526.62
394.556	543.62
394.78	540.62
395.005	528.62
395.229	538.62
395.454	560.62
395.678	553.62
395.903	558.62
396.127	569.62
396.352	591.62
396.576	563.62
396.801	560.62
397.025	573.62
397.249	548.62
397.474	576.62
397.698	567.62
397.922	560.62
398.147	576.62
398.371	579.62
398.595	583.62
398.82	591.62
399.044	615.62
399.268	654.62
399.492	704.62
399.717	733.62
399.941	728.62
400.165	783.62
400.389	770.62
400.613	686.62
400.837	632.62
401.062	626.62
401.286	623.62
401.51	629.62
401.734	586.62
401.958	614.62
402.182	622.62
402.406	621.62
402.63	617.62
402.854	623.62
403.078	626.62
403.302	619.62
403.526	638.62
403.75	623.62
403.974	628.62
404.198	632.62
404.422	651.62
404.645	628.62
404.869	630.62
405.093	684.62
405.317	714.62
405.541	767.62
405.765	700.62
405.988	663.62
406.212	667.62
406.436	688.62
406.66	684.62
406.883	689.62
407.107	724.62
407.331	776.62
407.555	838.62
407.778	826.62
408.002	770.62
408.226	693.62
408.449	724.62
408.673	686.62
408.896	706.62
409.12	758.62
409.344	735.62
409.567	692.62
409.791	639.62
410.014	644.62
410.238	624.62
410.461	620.62
410.685	628.62
410.908	658.62
411.132	692.62
411.355	735.62
411.578	696.62
411.802	654.62
412.025	650.62
412.249	645.62
412.472	657.62
412.695	723.62
412.919	679.62
413.142	636.62
413.365	609.62
413.589	607.62
413.812	631.62
414.035	613.62
414.258	596.62
414.482	598.62
414.705	597.62
414.928	603.62
415.151	605.62
415.374	617.62
415.597	570.62
415.821	585.62
416.044	593.62
416.267	608.62
416.49	603.62
416.713	581.62
416.936	588.62
417.159	597.62
417.382	614.62
417.605	586.62
417.828	612.62
418.051	616.62
418.274	628.62
418.497	606.62
418.72	610.62
418.943	597.62
419.166	627.62
419.389	677.62
419.611	622.62
419.834	639.62
420.057	619.62
420.28	650.62
420.503	630.62
420.726	608.62
420.948	633.62
421.171	662.62
421.394	710.62
421.617	663.62
421.839	620.62
422.062	615.62
422.285	640.62
422.507	710.62
422.73	756.62
422.953	739.62
423.175	664.62
423.398	651.62
423.621	661.62
423.843	676.62
424.066	671.62
424.288	688.62
424.511	670.62
424.733	730.62
424.956	829.62
425.178	790.62
425.401	773.62
425.623	796.62
425.846	685.62
426.068	646.62
426.291	639.62
426.513	656.62
426.735	676.62
426.958	691.62
427.18	771.62
427.402	899.62
427.625	1002.62
427.847	851.62
428.069	763.62
428.292	698.62
428.514	642.62
428.736	620.62
428.958	618.62
429.181	599.62
429.403	598.62
429.625	589.62
429.847	644.62
430.069	726.62
430.292	726.62
430.514	623.62
430.736	616.62
430.958	630.62
431.18	580.62
431.402	574.62
431.624	588.62
431.846	569.62
432.068	572.62
432.29	581.62
432.512	574.62
432.734	599.62
432.956	598.62
433.178	591.62
433.4	571.62
433.622	579.62
433.844	602.62
434.066	586.62
434.287	568.62
434.509	593.62
434.731	600.62
434.953	631.62
435.175	647.62
435.397	687.62
435.618	660.62
435.84	671.62
436.062	785.62
436.284	863.62
436.505	744.62
436.727	650.62
436.949	621.62
437.17	600.62
437.392	599.62
437.614	619.62
437.835	643.62
438.057	751.62
438.278	824.62
438.5	840.62
438.721	922.62
438.943	889.62
439.165	679.62
439.386	649.62
439.608	656.62
439.829	655.62
440.05	659.62
440.272	713.62
440.493	682.62
440.715	637.62
440.936	615.62
441.158	604.62
441.379	620.62
441.6	643.62
441.822	647.62
442.043	691.62
442.264	789.62
442.486	814.62
442.707	726.62
442.928	667.62
443.149	671.62
443.371	695.62
443.592	722.62
443.813	843.62
444.034	944.62
444.255	783.62
444.476	702.62
444.698	671.62
444.919	699.62
445.14	783.62
445.361	737.62
445.582	706.62
445.803	748.62
446.024	851.62
446.245	882.62
446.466	834.62
446.687	682.62
446.908	650.62
447.129	617.62
447.35	604.62
447.571	618.62
447.792	588.62
448.013	613.62
448.234	596.62
448.455	650.62
448.675	809.62
448.896	921.62
449.117	775.62
449.338	740.62
449.559	866.62
449.779	944.62
450	774.62
450.221	649.62
450.442	606.62
450.662	582.62
450.883	589.62
451.104	606.62
451.324	586.62
451.545	570.62
451.766	567.62
451.986	558.62
452.207	548.62
452.428	530.62
452.648	551.62
452.869	546.62
453.089	550.62
453.31	567.62
453.53	543.62
453.751	545.62
453.971	536.62
454.192	542.62
454.412	523.62
454.633	520.62
454.853	532.62
455.073	510.62
455.294	542.62
455.514	607.62
455.734	604.62
455.955	550.62
456.175	512.62
456.395	518.62
456.616	513.62
456.836	511.62
457.056	504.62
457.276	503.62
457.497	514.62
457.717	500.62
457.937	528.62
458.157	511.62
458.377	527.62
458.598	551.62
458.818	591.62
459.038	671.62
459.258	699.62
459.478	615.62
459.698	579.62
459.918	568.62
460.138	559.62
460.358	603.62
460.578	572.62
460.798	635.62
461.018	614.62
461.238	602.62
461.458	608.62
461.678	589.62
461.898	615.62
462.118	587.62
462.338	611.62
462.558	632.62
462.777	652.62
462.997	665.62
463.217	686.62
463.437	710.62
463.657	666.62
463.876	640.62
464.096	675.62
464.316	655.62
464.536	661.62
464.755	648.62
464.975	647.62
465.195	670.62
465.414	684.62
465.634	660.62
465.854	621.62
466.073	609.62
466.293	583.62
466.512	555.62
466.732	563.62
466.951	559.62
467.171	554.62
467.391	557.62
467.61	578.62
467.829	590.62
468.049	596.62
468.268	561.62
468.488	533.62
468.707	540.62
468.927	562.62
469.146	550.62
469.365	559.62
469.585	550.62
469.804	546.62
470.023	530.62
470.243	575.62
470.462	569.62
470.681	576.62
470.901	592.62
471.12	570.62
471.339	546.62
471.558	574.62
471.777	566.62
471.997	563.62
472.216	565.62
472.435	579.62
472.654	572.62
472.873	548.62
473.092	564.62
473.311	537.62
473.53	566.62
473.749	559.62
473.968	605.62
474.187	708.62
474.406	724.62
474.625	603.62
474.844	601.62
475.063	570.62
475.282	575.62
475.501	570.62
475.72	573.62
475.939	559.62
476.158	582.62
476.377	597.62
476.596	584.62
476.814	594.62
477.033	615.62
477.252	592.62
477.471	610.62
477.69	604.62
477.908	597.62
478.127	638.62
478.346	612.62
478.564	637.62
478.783	623.62
479.002	639.62
479.22	661.62
479.439	652.62
479.658	665.62
479.876	668.62
480.095	668.62
480.313	735.62
480.532	708.62
480.751	701.62
480.969	691.62
481.188	740.62
481.406	757.62
481.624	730.62
481.843	683.62
482.061	660.62
482.28	674.62
482.498	640.62
482.717	642.62
482.935	648.62
483.153	653.62
483.372	666.62
483.59	662.62
483.808	654.62
484.027	671.62
484.245	678.62
484.463	652.62
484.681	655.62
484.9	694.62
485.118	680.62
485.336	659.62
485.554	667.62
485.772	701.62
485.99	688.62
486.209	681.62
486.427	671.62
486.645	687.62
486.863	706.62
487.081	720.62
487.299	687.62
487.517	692.62
487.735	686.62
487.953	721.62
488.171	692.62
488.389	717.62
488.607	714.62
488.825	714.62
489.043	692.62
489.261	711.62
489.479	744.62
489.696	725.62
489.914	716.62
490.132	724.62
490.35	734.62
490.568	724.62
490.786	771.62
491.003	770.62
491.221	803.62
491.439	783.62
491.657	791.62
491.874	799.62
492.092	802.62
492.31	824.62
492.527	834.62
492.745	816.62
492.963	828.62
493.18	837.62
493.398	828.62
493.615	827.62
493.833	845.62
494.05	845.62
494.268	843.62
494.485	849.62
494.703	839.62
494.92	860.62
495.138	850.62
495.355	822.62
495.573	823.62
495.79	857.62
496.008	869.62
496.225	854.62
496.442	847.62
496.66	847.62
496.877	846.62
497.094	854.62
497.312	840.62
497.529	861.62
497.746	869.62
497.963	885.62
498.181	912.62
498.398	936.62
498.615	943.62
498.832	978.62
499.049	1006.62
499.267	1024.62
499.484	1082.62
499.701	1108.62
499.918	1168.62
500.135	1252.62
500.352	1313.62
500.569	1357.62
500.786	1336.62
501.003	1346.62
501.22	1254.62
501.437	1192.62
501.654	1176.62
