Data from 1974.PennyLincolnUp.Lamp.En5.5.200Scan.071719.P1.Changed Mount._HRD10591_15-53-03-857.txt Node
Date: Thu Jul 18 15:53:03 EDT 2019
User: cochatt
Spectrometer: HR+D1059
Trigger mode: 1
Integration Time (sec): 1.000000E-1
Scans to average: 1
Electric dark correction enabled: true
Nonlinearity correction enabled: false
Boxcar width: 0
XAxis mode: Wavelengths
Number of Pixels in Spectrum: 2048
>>>>>Begin Spectral Data<<<<<
223.165	-1.19
223.4	-1.19
223.635	-1.19
223.869	-11.19
224.104	-25.19
224.338	-12.19
224.573	-19.19
224.808	-8.19
225.042	-2.19
225.277	-22.19
225.511	1.81
225.746	-0.19
225.98	4.81
226.215	14.81
226.449	20.81
226.683	14.81
226.918	18.81
227.152	25.81
227.387	32.81
227.621	28.81
227.856	30.81
228.09	44.81
228.324	38.81
228.559	43.81
228.793	59.81
229.027	101.81
229.262	98.81
229.496	116.81
229.73	146.81
229.964	153.81
230.199	116.81
230.433	103.81
230.667	91.81
230.901	113.81
231.136	104.81
231.37	112.81
231.604	105.81
231.838	103.81
232.072	132.81
232.306	131.81
232.541	106.81
232.775	116.81
233.009	126.81
233.243	110.81
233.477	90.81
233.711	120.81
233.945	119.81
234.179	120.81
234.413	118.81
234.647	124.81
234.881	120.81
235.115	113.81
235.349	124.81
235.583	122.81
235.817	130.81
236.051	139.81
236.285	126.81
236.519	135.81
236.753	130.81
236.987	129.81
237.221	167.81
237.455	223.81
237.689	177.81
237.922	138.81
238.156	127.81
238.39	135.81
238.624	117.81
238.858	130.81
239.091	135.81
239.325	121.81
239.559	127.81
239.793	127.81
240.027	139.81
240.26	142.81
240.494	158.81
240.728	168.81
240.961	153.81
241.195	161.81
241.429	148.81
241.662	154.81
241.896	150.81
242.13	131.81
242.363	133.81
242.597	151.81
242.83	142.81
243.064	152.81
243.298	148.81
243.531	137.81
243.765	154.81
243.998	148.81
244.232	151.81
244.465	154.81
244.699	149.81
244.932	160.81
245.166	149.81
245.399	138.81
245.633	155.81
245.866	160.81
246.099	167.81
246.333	161.81
246.566	165.81
246.8	146.81
247.033	156.81
247.266	165.81
247.5	173.81
247.733	176.81
247.966	177.81
248.2	176.81
248.433	191.81
248.666	161.81
248.899	189.81
249.133	212.81
249.366	216.81
249.599	203.81
249.832	177.81
250.066	196.81
250.299	200.81
250.532	197.81
250.765	196.81
250.998	220.81
251.231	220.81
251.465	219.81
251.698	203.81
251.931	205.81
252.164	193.81
252.397	177.81
252.63	214.81
252.863	212.81
253.096	214.81
253.329	225.81
253.562	230.81
253.795	239.81
254.028	230.81
254.261	217.81
254.494	233.81
254.727	255.81
254.96	300.81
255.193	269.81
255.426	260.81
255.659	232.81
255.892	223.81
256.124	239.81
256.357	243.81
256.59	234.81
256.823	229.81
257.056	230.81
257.289	217.81
257.521	224.81
257.754	233.81
257.987	212.81
258.22	217.81
258.452	207.81
258.685	213.81
258.918	216.81
259.151	235.81
259.383	235.81
259.616	231.81
259.849	228.81
260.081	233.81
260.314	238.81
260.547	270.81
260.779	243.81
261.012	247.81
261.244	253.81
261.477	222.81
261.71	248.81
261.942	230.81
262.175	250.81
262.407	244.81
262.64	228.81
262.872	215.81
263.105	223.81
263.337	233.81
263.57	224.81
263.802	234.81
264.035	229.81
264.267	225.81
264.499	221.81
264.732	228.81
264.964	234.81
265.197	220.81
265.429	225.81
265.661	223.81
265.894	225.81
266.126	234.81
266.358	248.81
266.591	245.81
266.823	256.81
267.055	256.81
267.287	228.81
267.52	239.81
267.752	230.81
267.984	229.81
268.216	247.81
268.448	267.81
268.681	253.81
268.913	258.81
269.145	276.81
269.377	293.81
269.609	280.81
269.841	262.81
270.073	265.81
270.306	298.81
270.538	321.81
270.77	323.81
271.002	313.81
271.234	291.81
271.466	291.81
271.698	318.81
271.93	318.81
272.162	312.81
272.394	316.81
272.626	321.81
272.858	303.81
273.09	309.81
273.322	288.81
273.553	294.81
273.785	271.81
274.017	294.81
274.249	264.81
274.481	276.81
274.713	276.81
274.945	291.81
275.176	285.81
275.408	295.81
275.64	296.81
275.872	264.81
276.104	275.81
276.335	293.81
276.567	280.81
276.799	284.81
277.031	319.81
277.262	339.81
277.494	348.81
277.726	313.81
277.957	295.81
278.189	281.81
278.421	288.81
278.652	289.81
278.884	283.81
279.115	283.81
279.347	278.81
279.579	278.81
279.81	282.81
280.042	276.81
280.273	302.81
280.505	283.81
280.736	285.81
280.968	281.81
281.199	291.81
281.431	289.81
281.662	292.81
281.894	300.81
282.125	277.81
282.356	289.81
282.588	306.81
282.819	308.81
283.051	308.81
283.282	283.81
283.513	279.81
283.745	305.81
283.976	295.81
284.207	297.81
284.439	315.81
284.67	290.81
284.901	300.81
285.132	310.81
285.364	304.81
285.595	311.81
285.826	304.81
286.057	298.81
286.288	286.81
286.52	318.81
286.751	304.81
286.982	300.81
287.213	298.81
287.444	314.81
287.675	313.81
287.906	333.81
288.138	324.81
288.369	334.81
288.6	323.81
288.831	318.81
289.062	319.81
289.293	314.81
289.524	301.81
289.755	303.81
289.986	316.81
290.217	308.81
290.448	316.81
290.679	320.81
290.91	308.81
291.141	316.81
291.371	330.81
291.602	310.81
291.833	302.81
292.064	315.81
292.295	319.81
292.526	321.81
292.757	309.81
292.987	324.81
293.218	313.81
293.449	322.81
293.68	339.81
293.91	326.81
294.141	325.81
294.372	326.81
294.603	310.81
294.833	312.81
295.064	322.81
295.295	327.81
295.525	335.81
295.756	330.81
295.987	324.81
296.217	334.81
296.448	341.81
296.679	321.81
296.909	329.81
297.14	327.81
297.37	316.81
297.601	322.81
297.831	318.81
298.062	332.81
298.292	329.81
298.523	338.81
298.753	333.81
298.984	333.81
299.214	328.81
299.445	333.81
299.675	346.81
299.905	333.81
300.136	346.81
300.366	336.81
300.597	334.81
300.827	346.81
301.057	344.81
301.288	370.81
301.518	360.81
301.748	348.81
301.979	340.81
302.209	344.81
302.439	342.81
302.669	355.81
302.9	336.81
303.13	365.81
303.36	338.81
303.59	374.81
303.82	345.81
304.051	365.81
304.281	368.81
304.511	346.81
304.741	344.81
304.971	360.81
305.201	343.81
305.431	361.81
305.661	336.81
305.891	357.81
306.121	353.81
306.352	365.81
306.582	352.81
306.812	342.81
307.042	359.81
307.272	358.81
307.502	349.81
307.731	364.81
307.961	365.81
308.191	350.81
308.421	361.81
308.651	357.81
308.881	371.81
309.111	366.81
309.341	346.81
309.571	345.81
309.8	372.81
310.03	382.81
310.26	383.81
310.49	399.81
310.72	382.81
310.949	394.81
311.179	418.81
311.409	410.81
311.639	387.81
311.868	403.81
312.098	385.81
312.328	373.81
312.557	421.81
312.787	414.81
313.017	440.81
313.246	415.81
313.476	380.81
313.706	398.81
313.935	399.81
314.165	407.81
314.394	414.81
314.624	395.81
314.853	400.81
315.083	420.81
315.312	403.81
315.542	385.81
315.771	394.81
316.001	384.81
316.23	389.81
316.46	395.81
316.689	407.81
316.919	422.81
317.148	407.81
317.377	423.81
317.607	418.81
317.836	408.81
318.065	396.81
318.295	389.81
318.524	408.81
318.753	392.81
318.983	408.81
319.212	394.81
319.441	407.81
319.67	394.81
319.9	439.81
320.129	415.81
320.358	405.81
320.587	416.81
320.816	414.81
321.046	420.81
321.275	407.81
321.504	432.81
321.733	429.81
321.962	434.81
322.191	435.81
322.42	435.81
322.649	442.81
322.878	447.81
323.108	446.81
323.337	466.81
323.566	509.81
323.795	516.81
324.024	545.81
324.253	608.81
324.482	849.81
324.71	1274.81
324.939	1890.81
325.168	1636.81
325.397	876.81
325.626	613.81
325.855	540.81
326.084	518.81
326.313	484.81
326.542	480.81
326.77	543.81
326.999	620.81
327.228	767.81
327.457	1166.81
327.686	1462.81
327.914	980.81
328.143	644.81
328.372	596.81
328.6	566.81
328.829	558.81
329.058	559.81
329.287	583.81
329.515	536.81
329.744	519.81
329.972	509.81
330.201	509.81
330.43	568.81
330.658	573.81
330.887	590.81
331.115	581.81
331.344	536.81
331.572	495.81
331.801	512.81
332.03	514.81
332.258	494.81
332.486	485.81
332.715	480.81
332.943	480.81
333.172	502.81
333.4	489.81
333.629	498.81
333.857	496.81
334.085	537.81
334.314	548.81
334.542	554.81
334.771	566.81
334.999	550.81
335.227	536.81
335.455	484.81
335.684	480.81
335.912	483.81
336.14	488.81
336.369	472.81
336.597	486.81
336.825	516.81
337.053	469.81
337.281	473.81
337.51	492.81
337.738	467.81
337.966	482.81
338.194	486.81
338.422	482.81
338.65	469.81
338.878	465.81
339.106	486.81
339.334	453.81
339.562	474.81
339.79	460.81
340.018	466.81
340.246	468.81
340.474	451.81
340.702	470.81
340.93	474.81
341.158	472.81
341.386	474.81
341.614	477.81
341.842	484.81
342.07	461.81
342.298	464.81
342.526	440.81
342.754	436.81
342.981	473.81
343.209	455.81
343.437	444.81
343.665	468.81
343.893	480.81
344.12	484.81
344.348	495.81
344.576	478.81
344.804	483.81
345.031	473.81
345.259	479.81
345.487	470.81
345.714	484.81
345.942	462.81
346.17	433.81
346.397	449.81
346.625	450.81
346.853	422.81
347.08	448.81
347.308	442.81
347.535	439.81
347.763	458.81
347.99	471.81
348.218	440.81
348.445	457.81
348.673	441.81
348.9	439.81
349.128	447.81
349.355	429.81
349.583	434.81
349.81	436.81
350.037	429.81
350.265	429.81
350.492	446.81
350.72	447.81
350.947	462.81
351.174	444.81
351.402	463.81
351.629	465.81
351.856	439.81
352.083	457.81
352.311	452.81
352.538	460.81
352.765	468.81
352.992	431.81
353.22	436.81
353.447	444.81
353.674	443.81
353.901	444.81
354.128	432.81
354.355	426.81
354.583	452.81
354.81	438.81
355.037	434.81
355.264	429.81
355.491	415.81
355.718	429.81
355.945	412.81
356.172	438.81
356.399	426.81
356.626	432.81
356.853	418.81
357.08	417.81
357.307	440.81
357.534	440.81
357.761	416.81
357.988	418.81
358.215	429.81
358.441	431.81
358.668	408.81
358.895	407.81
359.122	440.81
359.349	441.81
359.576	450.81
359.802	487.81
360.029	469.81
360.256	482.81
360.483	486.81
360.709	461.81
360.936	456.81
361.163	466.81
361.39	437.81
361.616	449.81
361.843	459.81
362.07	452.81
362.296	447.81
362.523	433.81
362.749	464.81
362.976	449.81
363.203	441.81
363.429	437.81
363.656	443.81
363.882	455.81
364.109	451.81
364.335	421.81
364.562	432.81
364.788	448.81
365.015	437.81
365.241	417.81
365.468	432.81
365.694	424.81
365.92	432.81
366.147	446.81
366.373	440.81
366.599	439.81
366.826	439.81
367.052	461.81
367.278	425.81
367.505	459.81
367.731	434.81
367.957	438.81
368.184	449.81
368.41	450.81
368.636	457.81
368.862	457.81
369.089	453.81
369.315	434.81
369.541	434.81
369.767	447.81
369.993	434.81
370.219	448.81
370.445	435.81
370.672	439.81
370.898	420.81
371.124	437.81
371.35	451.81
371.576	461.81
371.802	457.81
372.028	445.81
372.254	446.81
372.48	462.81
372.706	447.81
372.932	456.81
373.158	456.81
373.384	470.81
373.61	456.81
373.835	446.81
374.061	476.81
374.287	480.81
374.513	446.81
374.739	454.81
374.965	458.81
375.191	467.81
375.416	437.81
375.642	476.81
375.868	432.81
376.094	445.81
376.319	452.81
376.545	447.81
376.771	453.81
376.997	426.81
377.222	455.81
377.448	465.81
377.674	461.81
377.899	441.81
378.125	448.81
378.35	422.81
378.576	448.81
378.802	462.81
379.027	453.81
379.253	447.81
379.478	434.81
379.704	463.81
379.929	460.81
380.155	436.81
380.38	444.81
380.606	432.81
380.831	471.81
381.057	450.81
381.282	453.81
381.507	451.81
381.733	462.81
381.958	465.81
382.184	462.81
382.409	469.81
382.634	465.81
382.86	455.81
383.085	497.81
383.31	462.81
383.535	471.81
383.761	477.81
383.986	472.81
384.211	458.81
384.436	481.81
384.662	499.81
384.887	505.81
385.112	488.81
385.337	494.81
385.562	508.81
385.787	474.81
386.013	526.81
386.238	511.81
386.463	526.81
386.688	508.81
386.913	504.81
387.138	506.81
387.363	513.81
387.588	509.81
387.813	496.81
388.038	490.81
388.263	497.81
388.488	540.81
388.713	504.81
388.938	490.81
389.163	516.81
389.387	522.81
389.612	497.81
389.837	489.81
390.062	524.81
390.287	519.81
390.512	504.81
390.736	511.81
390.961	512.81
391.186	500.81
391.411	509.81
391.636	527.81
391.86	538.81
392.085	533.81
392.31	546.81
392.534	523.81
392.759	527.81
392.984	530.81
393.208	502.81
393.433	494.81
393.658	513.81
393.882	504.81
394.107	518.81
394.331	502.81
394.556	508.81
394.78	494.81
395.005	513.81
395.229	544.81
395.454	536.81
395.678	539.81
395.903	562.81
396.127	565.81
396.352	570.81
396.576	549.81
396.801	533.81
397.025	542.81
397.249	538.81
397.474	547.81
397.698	541.81
397.922	560.81
398.147	565.81
398.371	582.81
398.595	581.81
398.82	585.81
399.044	600.81
399.268	631.81
399.492	638.81
399.717	725.81
399.941	760.81
400.165	766.81
400.389	728.81
400.613	644.81
400.837	645.81
401.062	615.81
401.286	579.81
401.51	591.81
401.734	585.81
401.958	608.81
402.182	581.81
402.406	604.81
402.63	628.81
402.854	588.81
403.078	630.81
403.302	636.81
403.526	614.81
403.75	628.81
403.974	621.81
404.198	630.81
404.422	648.81
404.645	636.81
404.869	628.81
405.093	668.81
405.317	701.81
405.541	735.81
405.765	691.81
405.988	634.81
406.212	655.81
406.436	660.81
406.66	663.81
406.883	662.81
407.107	686.81
407.331	746.81
407.555	776.81
407.778	794.81
408.002	753.81
408.226	695.81
408.449	700.81
408.673	663.81
408.896	716.81
409.12	753.81
409.344	702.81
409.567	648.81
409.791	632.81
410.014	640.81
410.238	634.81
410.461	632.81
410.685	621.81
410.908	636.81
411.132	685.81
411.355	701.81
411.578	677.81
411.802	630.81
412.025	609.81
412.249	622.81
412.472	664.81
412.695	711.81
412.919	671.81
413.142	615.81
413.365	591.81
413.589	610.81
413.812	593.81
414.035	589.81
414.258	592.81
414.482	588.81
414.705	585.81
414.928	596.81
415.151	586.81
415.374	608.81
415.597	596.81
415.821	570.81
416.044	561.81
416.267	600.81
416.49	574.81
416.713	576.81
416.936	566.81
417.159	568.81
417.382	566.81
417.605	574.81
417.828	605.81
418.051	621.81
418.274	600.81
418.497	601.81
418.72	576.81
418.943	576.81
419.166	626.81
419.389	662.81
419.611	644.81
419.834	649.81
420.057	624.81
420.28	616.81
420.503	609.81
420.726	596.81
420.948	624.81
421.171	668.81
421.394	698.81
421.617	634.81
421.839	608.81
422.062	606.81
422.285	631.81
422.507	690.81
422.73	778.81
422.953	745.81
423.175	677.81
423.398	620.81
423.621	635.81
423.843	649.81
424.066	654.81
424.288	654.81
424.511	669.81
424.733	732.81
424.956	799.81
425.178	782.81
425.401	755.81
425.623	788.81
425.846	700.81
426.068	672.81
426.291	620.81
426.513	630.81
426.735	639.81
426.958	668.81
427.18	749.81
427.402	905.81
427.625	1001.81
427.847	854.81
428.069	774.81
428.292	694.81
428.514	614.81
428.736	608.81
428.958	616.81
429.181	573.81
429.403	602.81
429.625	606.81
429.847	628.81
430.069	702.81
430.292	688.81
430.514	609.81
430.736	579.81
430.958	575.81
431.18	575.81
431.402	597.81
431.624	570.81
431.846	557.81
432.068	576.81
432.29	566.81
432.512	572.81
432.734	586.81
432.956	577.81
433.178	576.81
433.4	593.81
433.622	589.81
433.844	590.81
434.066	574.81
434.287	571.81
434.509	564.81
434.731	615.81
434.953	605.81
435.175	628.81
435.397	623.81
435.618	638.81
435.84	684.81
436.062	796.81
436.284	846.81
436.505	719.81
436.727	642.81
436.949	596.81
437.17	606.81
437.392	597.81
437.614	602.81
437.835	626.81
438.057	744.81
438.278	833.81
438.5	839.81
438.721	909.81
438.943	892.81
439.165	684.81
439.386	655.81
439.608	642.81
439.829	657.81
440.05	657.81
440.272	707.81
440.493	670.81
440.715	634.81
440.936	586.81
441.158	595.81
441.379	602.81
441.6	617.81
441.822	652.81
442.043	680.81
442.264	791.81
442.486	805.81
442.707	702.81
442.928	628.81
443.149	654.81
443.371	653.81
443.592	705.81
443.813	840.81
444.034	935.81
444.255	745.81
444.476	681.81
444.698	677.81
444.919	670.81
445.14	750.81
445.361	724.81
445.582	698.81
445.803	751.81
446.024	842.81
446.245	883.81
446.466	793.81
446.687	679.81
446.908	633.81
447.129	610.81
447.35	604.81
447.571	577.81
447.792	566.81
448.013	590.81
448.234	586.81
448.455	638.81
448.675	784.81
448.896	896.81
449.117	740.81
449.338	713.81
449.559	852.81
449.779	942.81
450	756.81
450.221	639.81
450.442	576.81
450.662	584.81
450.883	579.81
451.104	605.81
451.324	585.81
451.545	553.81
451.766	529.81
451.986	550.81
452.207	536.81
452.428	510.81
452.648	525.81
452.869	514.81
453.089	550.81
453.31	533.81
453.53	545.81
453.751	530.81
453.971	516.81
454.192	541.81
454.412	540.81
454.633	529.81
454.853	515.81
455.073	511.81
455.294	530.81
455.514	629.81
455.734	584.81
455.955	534.81
456.175	516.81
456.395	498.81
456.616	511.81
456.836	484.81
457.056	517.81
457.276	476.81
457.497	490.81
457.717	496.81
457.937	510.81
458.157	519.81
458.377	532.81
458.598	571.81
458.818	554.81
459.038	660.81
459.258	685.81
459.478	634.81
459.698	565.81
459.918	562.81
460.138	606.81
460.358	588.81
460.578	593.81
460.798	594.81
461.018	605.81
461.238	609.81
461.458	596.81
461.678	564.81
461.898	576.81
462.118	596.81
462.338	598.81
462.558	639.81
462.777	653.81
462.997	633.81
463.217	670.81
463.437	680.81
463.657	652.81
463.876	656.81
464.096	662.81
464.316	644.81
464.536	667.81
464.755	640.81
464.975	613.81
465.195	647.81
465.414	697.81
465.634	638.81
465.854	598.81
466.073	590.81
466.293	545.81
466.512	559.81
466.732	532.81
466.951	564.81
467.171	533.81
467.391	552.81
467.61	541.81
467.829	523.81
468.049	543.81
468.268	542.81
468.488	532.81
468.707	546.81
468.927	540.81
469.146	508.81
469.365	518.81
469.585	521.81
469.804	558.81
470.023	535.81
470.243	545.81
470.462	564.81
470.681	580.81
470.901	553.81
471.12	536.81
471.339	540.81
471.558	555.81
471.777	539.81
471.997	548.81
472.216	551.81
472.435	594.81
472.654	540.81
472.873	556.81
473.092	521.81
473.311	549.81
473.53	537.81
473.749	559.81
473.968	605.81
474.187	694.81
474.406	690.81
474.625	597.81
474.844	560.81
475.063	568.81
475.282	545.81
475.501	570.81
475.72	565.81
475.939	558.81
476.158	554.81
476.377	551.81
476.596	551.81
476.814	581.81
477.033	592.81
477.252	581.81
477.471	596.81
477.69	581.81
477.908	598.81
478.127	610.81
478.346	620.81
478.564	620.81
478.783	603.81
479.002	620.81
479.22	650.81
479.439	651.81
479.658	650.81
479.876	650.81
480.095	673.81
480.313	713.81
480.532	687.81
480.751	708.81
480.969	691.81
481.188	708.81
481.406	741.81
481.624	690.81
481.843	672.81
482.061	682.81
482.28	662.81
482.498	651.81
482.717	644.81
482.935	662.81
483.153	665.81
483.372	649.81
483.59	663.81
483.808	654.81
484.027	645.81
484.245	638.81
484.463	651.81
484.681	648.81
484.9	652.81
485.118	672.81
485.336	648.81
485.554	672.81
485.772	666.81
485.99	652.81
486.209	675.81
486.427	671.81
486.645	677.81
486.863	705.81
487.081	673.81
487.299	698.81
487.517	688.81
487.735	664.81
487.953	698.81
488.171	682.81
488.389	694.81
488.607	705.81
488.825	708.81
489.043	713.81
489.261	697.81
489.479	697.81
489.696	724.81
489.914	708.81
490.132	729.81
490.35	706.81
490.568	733.81
490.786	744.81
491.003	788.81
491.221	774.81
491.439	792.81
491.657	768.81
491.874	794.81
492.092	788.81
492.31	791.81
492.527	797.81
492.745	804.81
492.963	801.81
493.18	831.81
493.398	820.81
493.615	837.81
493.833	812.81
494.05	828.81
494.268	846.81
494.485	833.81
494.703	820.81
494.92	806.81
495.138	838.81
495.355	834.81
495.573	831.81
495.79	830.81
496.008	832.81
496.225	855.81
496.442	830.81
496.66	830.81
496.877	855.81
497.094	820.81
497.312	849.81
497.529	844.81
497.746	879.81
497.963	914.81
498.181	892.81
498.398	891.81
498.615	944.81
498.832	960.81
499.049	970.81
499.267	1011.81
499.484	1063.81
499.701	1126.81
499.918	1166.81
500.135	1207.81
500.352	1336.81
500.569	1305.81
500.786	1303.81
501.003	1325.81
501.22	1262.81
501.437	1188.81
501.654	1117.81
