Data from 1974.PennyLincolnUp.Lamp.En5.5.200Scan.071719.P1.Changed Mount._HRD10591_15-54-01-857.txt Node
Date: Thu Jul 18 15:54:01 EDT 2019
User: cochatt
Spectrometer: HR+D1059
Trigger mode: 1
Integration Time (sec): 1.000000E-1
Scans to average: 1
Electric dark correction enabled: true
Nonlinearity correction enabled: false
Boxcar width: 0
XAxis mode: Wavelengths
Number of Pixels in Spectrum: 2048
>>>>>Begin Spectral Data<<<<<
223.165	0.62
223.4	0.62
223.635	0.62
223.869	-27.38
224.104	-10.38
224.338	-13.38
224.573	-26.38
224.808	-8.38
225.042	-4.38
225.277	-9.38
225.511	-9.38
225.746	-0.38
225.98	-0.38
226.215	8.62
226.449	26.62
226.683	25.62
226.918	19.62
227.152	28.62
227.387	39.62
227.621	41.62
227.856	52.62
228.09	49.62
228.324	54.62
228.559	38.62
228.793	67.62
229.027	98.62
229.262	102.62
229.496	116.62
229.73	140.62
229.964	170.62
230.199	134.62
230.433	125.62
230.667	115.62
230.901	133.62
231.136	107.62
231.37	110.62
231.604	97.62
231.838	109.62
232.072	127.62
232.306	116.62
232.541	119.62
232.775	125.62
233.009	132.62
233.243	116.62
233.477	132.62
233.711	131.62
233.945	111.62
234.179	113.62
234.413	131.62
234.647	122.62
234.881	121.62
235.115	113.62
235.349	105.62
235.583	130.62
235.817	124.62
236.051	137.62
236.285	123.62
236.519	132.62
236.753	136.62
236.987	151.62
237.221	198.62
237.455	253.62
237.689	199.62
237.922	129.62
238.156	137.62
238.39	131.62
238.624	124.62
238.858	136.62
239.091	129.62
239.325	124.62
239.559	136.62
239.793	138.62
240.027	137.62
240.26	149.62
240.494	188.62
240.728	167.62
240.961	171.62
241.195	169.62
241.429	151.62
241.662	149.62
241.896	146.62
242.13	142.62
242.363	133.62
242.597	138.62
242.83	155.62
243.064	144.62
243.298	150.62
243.531	155.62
243.765	158.62
243.998	157.62
244.232	148.62
244.465	148.62
244.699	154.62
244.932	155.62
245.166	145.62
245.399	150.62
245.633	152.62
245.866	168.62
246.099	160.62
246.333	188.62
246.566	152.62
246.8	156.62
247.033	171.62
247.266	175.62
247.5	184.62
247.733	192.62
247.966	181.62
248.2	186.62
248.433	182.62
248.666	193.62
248.899	191.62
249.133	219.62
249.366	227.62
249.599	217.62
249.832	173.62
250.066	188.62
250.299	186.62
250.532	205.62
250.765	224.62
250.998	275.62
251.231	250.62
251.465	240.62
251.698	226.62
251.931	215.62
252.164	219.62
252.397	202.62
252.63	222.62
252.863	213.62
253.096	236.62
253.329	263.62
253.562	235.62
253.795	246.62
254.028	229.62
254.261	252.62
254.494	237.62
254.727	286.62
254.96	299.62
255.193	293.62
255.426	269.62
255.659	264.62
255.892	246.62
256.124	228.62
256.357	244.62
256.59	251.62
256.823	237.62
257.056	241.62
257.289	220.62
257.521	240.62
257.754	235.62
257.987	227.62
258.22	227.62
258.452	223.62
258.685	225.62
258.918	218.62
259.151	242.62
259.383	240.62
259.616	249.62
259.849	244.62
260.081	242.62
260.314	262.62
260.547	288.62
260.779	286.62
261.012	278.62
261.244	244.62
261.477	249.62
261.71	264.62
261.942	244.62
262.175	248.62
262.407	262.62
262.64	235.62
262.872	220.62
263.105	230.62
263.337	238.62
263.57	256.62
263.802	230.62
264.035	233.62
264.267	244.62
264.499	248.62
264.732	234.62
264.964	230.62
265.197	238.62
265.429	241.62
265.661	234.62
265.894	245.62
266.126	224.62
266.358	227.62
266.591	244.62
266.823	272.62
267.055	245.62
267.287	250.62
267.52	258.62
267.752	246.62
267.984	229.62
268.216	253.62
268.448	238.62
268.681	247.62
268.913	265.62
269.145	279.62
269.377	306.62
269.609	286.62
269.841	284.62
270.073	271.62
270.306	314.62
270.538	350.62
270.77	342.62
271.002	337.62
271.234	312.62
271.466	314.62
271.698	328.62
271.93	338.62
272.162	342.62
272.394	339.62
272.626	336.62
272.858	311.62
273.09	294.62
273.322	288.62
273.553	296.62
273.785	285.62
274.017	299.62
274.249	311.62
274.481	292.62
274.713	270.62
274.945	301.62
275.176	306.62
275.408	294.62
275.64	290.62
275.872	293.62
276.104	299.62
276.335	284.62
276.567	298.62
276.799	315.62
277.031	326.62
277.262	353.62
277.494	359.62
277.726	325.62
277.957	312.62
278.189	323.62
278.421	288.62
278.652	296.62
278.884	286.62
279.115	290.62
279.347	294.62
279.579	283.62
279.81	289.62
280.042	284.62
280.273	297.62
280.505	295.62
280.736	301.62
280.968	297.62
281.199	304.62
281.431	293.62
281.662	312.62
281.894	302.62
282.125	300.62
282.356	329.62
282.588	336.62
282.819	342.62
283.051	311.62
283.282	302.62
283.513	315.62
283.745	317.62
283.976	310.62
284.207	300.62
284.439	314.62
284.67	291.62
284.901	319.62
285.132	311.62
285.364	313.62
285.595	314.62
285.826	297.62
286.057	319.62
286.288	308.62
286.52	312.62
286.751	316.62
286.982	309.62
287.213	336.62
287.444	320.62
287.675	322.62
287.906	307.62
288.138	320.62
288.369	314.62
288.6	334.62
288.831	334.62
289.062	346.62
289.293	333.62
289.524	321.62
289.755	336.62
289.986	342.62
290.217	323.62
290.448	326.62
290.679	320.62
290.91	344.62
291.141	333.62
291.371	326.62
291.602	325.62
291.833	330.62
292.064	332.62
292.295	324.62
292.526	347.62
292.757	315.62
292.987	336.62
293.218	317.62
293.449	318.62
293.68	324.62
293.91	338.62
294.141	321.62
294.372	327.62
294.603	341.62
294.833	323.62
295.064	324.62
295.295	317.62
295.525	325.62
295.756	343.62
295.987	325.62
296.217	362.62
296.448	371.62
296.679	356.62
296.909	336.62
297.14	318.62
297.37	357.62
297.601	338.62
297.831	348.62
298.062	344.62
298.292	351.62
298.523	353.62
298.753	338.62
298.984	330.62
299.214	357.62
299.445	345.62
299.675	341.62
299.905	354.62
300.136	350.62
300.366	353.62
300.597	351.62
300.827	366.62
301.057	348.62
301.288	370.62
301.518	378.62
301.748	345.62
301.979	364.62
302.209	363.62
302.439	372.62
302.669	365.62
302.9	372.62
303.13	358.62
303.36	368.62
303.59	364.62
303.82	380.62
304.051	378.62
304.281	350.62
304.511	358.62
304.741	356.62
304.971	364.62
305.201	362.62
305.431	379.62
305.661	385.62
305.891	372.62
306.121	391.62
306.352	369.62
306.582	374.62
306.812	385.62
307.042	368.62
307.272	370.62
307.502	380.62
307.731	373.62
307.961	379.62
308.191	360.62
308.421	380.62
308.651	370.62
308.881	378.62
309.111	377.62
309.341	366.62
309.571	372.62
309.8	368.62
310.03	390.62
310.26	403.62
310.49	405.62
310.72	426.62
310.949	435.62
311.179	406.62
311.409	409.62
311.639	429.62
311.868	410.62
312.098	420.62
312.328	402.62
312.557	428.62
312.787	438.62
313.017	426.62
313.246	435.62
313.476	412.62
313.706	425.62
313.935	421.62
314.165	442.62
314.394	421.62
314.624	433.62
314.853	421.62
315.083	428.62
315.312	424.62
315.542	411.62
315.771	416.62
316.001	409.62
316.23	416.62
316.46	425.62
316.689	418.62
316.919	425.62
317.148	427.62
317.377	413.62
317.607	435.62
317.836	427.62
318.065	424.62
318.295	408.62
318.524	397.62
318.753	401.62
318.983	418.62
319.212	429.62
319.441	434.62
319.67	457.62
319.9	426.62
320.129	407.62
320.358	432.62
320.587	420.62
320.816	427.62
321.046	454.62
321.275	436.62
321.504	437.62
321.733	438.62
321.962	449.62
322.191	451.62
322.42	465.62
322.649	466.62
322.878	469.62
323.108	506.62
323.337	480.62
323.566	488.62
323.795	530.62
324.024	582.62
324.253	651.62
324.482	892.62
324.71	1381.62
324.939	2034.62
325.168	1782.62
325.397	933.62
325.626	629.62
325.855	572.62
326.084	553.62
326.313	525.62
326.542	520.62
326.77	577.62
326.999	628.62
327.228	831.62
327.457	1246.62
327.686	1556.62
327.914	1046.62
328.143	692.62
328.372	616.62
328.6	584.62
328.829	586.62
329.058	590.62
329.287	596.62
329.515	557.62
329.744	547.62
329.972	539.62
330.201	525.62
330.43	583.62
330.658	614.62
330.887	617.62
331.115	624.62
331.344	568.62
331.572	529.62
331.801	538.62
332.03	542.62
332.258	521.62
332.486	518.62
332.715	496.62
332.943	498.62
333.172	520.62
333.4	523.62
333.629	534.62
333.857	536.62
334.085	540.62
334.314	571.62
334.542	588.62
334.771	596.62
334.999	563.62
335.227	540.62
335.455	529.62
335.684	520.62
335.912	506.62
336.14	516.62
336.369	518.62
336.597	502.62
336.825	506.62
337.053	500.62
337.281	503.62
337.51	494.62
337.738	492.62
337.966	512.62
338.194	481.62
338.422	480.62
338.65	484.62
338.878	492.62
339.106	499.62
339.334	488.62
339.562	493.62
339.79	489.62
340.018	469.62
340.246	496.62
340.474	482.62
340.702	468.62
340.93	481.62
341.158	461.62
341.386	467.62
341.614	521.62
341.842	497.62
342.07	506.62
342.298	466.62
342.526	458.62
342.754	483.62
342.981	459.62
343.209	492.62
343.437	477.62
343.665	480.62
343.893	522.62
344.12	532.62
344.348	502.62
344.576	489.62
344.804	512.62
345.031	512.62
345.259	509.62
345.487	485.62
345.714	470.62
345.942	473.62
346.17	477.62
346.397	489.62
346.625	462.62
346.853	443.62
347.08	455.62
347.308	454.62
347.535	486.62
347.763	466.62
347.99	455.62
348.218	496.62
348.445	470.62
348.673	480.62
348.9	478.62
349.128	456.62
349.355	468.62
349.583	436.62
349.81	458.62
350.037	452.62
350.265	440.62
350.492	451.62
350.72	472.62
350.947	453.62
351.174	456.62
351.402	457.62
351.629	463.62
351.856	464.62
352.083	477.62
352.311	477.62
352.538	499.62
352.765	489.62
352.992	471.62
353.22	461.62
353.447	465.62
353.674	458.62
353.901	442.62
354.128	441.62
354.355	444.62
354.583	449.62
354.81	436.62
355.037	423.62
355.264	460.62
355.491	457.62
355.718	448.62
355.945	432.62
356.172	436.62
356.399	450.62
356.626	451.62
356.853	440.62
357.08	420.62
357.307	441.62
357.534	443.62
357.761	454.62
357.988	438.62
358.215	430.62
358.441	426.62
358.668	443.62
358.895	458.62
359.122	465.62
359.349	478.62
359.576	468.62
359.802	485.62
360.029	520.62
360.256	529.62
360.483	498.62
360.709	488.62
360.936	477.62
361.163	462.62
361.39	460.62
361.616	453.62
361.843	473.62
362.07	443.62
362.296	458.62
362.523	487.62
362.749	456.62
362.976	447.62
363.203	443.62
363.429	446.62
363.656	456.62
363.882	469.62
364.109	451.62
364.335	468.62
364.562	478.62
364.788	440.62
365.015	439.62
365.241	456.62
365.468	461.62
365.694	460.62
365.92	458.62
366.147	460.62
366.373	466.62
366.599	449.62
366.826	458.62
367.052	448.62
367.278	456.62
367.505	430.62
367.731	468.62
367.957	460.62
368.184	445.62
368.41	462.62
368.636	465.62
368.862	474.62
369.089	467.62
369.315	456.62
369.541	475.62
369.767	467.62
369.993	452.62
370.219	460.62
370.445	448.62
370.672	453.62
370.898	454.62
371.124	481.62
371.35	450.62
371.576	488.62
371.802	478.62
372.028	469.62
372.254	449.62
372.48	469.62
372.706	484.62
372.932	469.62
373.158	466.62
373.384	482.62
373.61	476.62
373.835	460.62
374.061	469.62
374.287	472.62
374.513	492.62
374.739	498.62
374.965	489.62
375.191	478.62
375.416	477.62
375.642	485.62
375.868	488.62
376.094	486.62
376.319	491.62
376.545	486.62
376.771	485.62
376.997	473.62
377.222	489.62
377.448	468.62
377.674	459.62
377.899	460.62
378.125	464.62
378.35	458.62
378.576	461.62
378.802	470.62
379.027	464.62
379.253	437.62
379.478	471.62
379.704	451.62
379.929	465.62
380.155	470.62
380.38	471.62
380.606	446.62
380.831	457.62
381.057	466.62
381.282	472.62
381.507	480.62
381.733	459.62
381.958	483.62
382.184	485.62
382.409	472.62
382.634	488.62
382.86	485.62
383.085	468.62
383.31	485.62
383.535	492.62
383.761	488.62
383.986	501.62
384.211	468.62
384.436	508.62
384.662	494.62
384.887	522.62
385.112	520.62
385.337	519.62
385.562	498.62
385.787	512.62
386.013	542.62
386.238	528.62
386.463	541.62
386.688	530.62
386.913	524.62
387.138	515.62
387.363	538.62
387.588	524.62
387.813	518.62
388.038	525.62
388.263	522.62
388.488	521.62
388.713	520.62
388.938	547.62
389.163	540.62
389.387	535.62
389.612	501.62
389.837	551.62
390.062	519.62
390.287	510.62
390.512	520.62
390.736	530.62
390.961	509.62
391.186	525.62
391.411	527.62
391.636	532.62
391.86	546.62
392.085	557.62
392.31	549.62
392.534	549.62
392.759	563.62
392.984	532.62
393.208	508.62
393.433	538.62
393.658	536.62
393.882	530.62
394.107	544.62
394.331	537.62
394.556	532.62
394.78	541.62
395.005	570.62
395.229	545.62
395.454	555.62
395.678	560.62
395.903	572.62
396.127	575.62
396.352	589.62
396.576	560.62
396.801	552.62
397.025	539.62
397.249	555.62
397.474	551.62
397.698	572.62
397.922	587.62
398.147	592.62
398.371	594.62
398.595	598.62
398.82	596.62
399.044	625.62
399.268	668.62
399.492	682.62
399.717	725.62
399.941	763.62
400.165	761.62
400.389	748.62
400.613	664.62
400.837	660.62
401.062	639.62
401.286	632.62
401.51	613.62
401.734	602.62
401.958	632.62
402.182	638.62
402.406	605.62
402.63	630.62
402.854	626.62
403.078	657.62
403.302	651.62
403.526	656.62
403.75	621.62
403.974	636.62
404.198	621.62
404.422	664.62
404.645	681.62
404.869	656.62
405.093	670.62
405.317	753.62
405.541	770.62
405.765	704.62
405.988	675.62
406.212	692.62
406.436	684.62
406.66	706.62
406.883	692.62
407.107	707.62
407.331	780.62
407.555	849.62
407.778	845.62
408.002	764.62
408.226	730.62
408.449	714.62
408.673	735.62
408.896	733.62
409.12	758.62
409.344	728.62
409.567	653.62
409.791	667.62
410.014	644.62
410.238	633.62
410.461	646.62
410.685	634.62
410.908	672.62
411.132	700.62
411.355	717.62
411.578	713.62
411.802	654.62
412.025	628.62
412.249	636.62
412.472	681.62
412.695	726.62
412.919	694.62
413.142	644.62
413.365	635.62
413.589	615.62
413.812	605.62
414.035	601.62
414.258	608.62
414.482	598.62
414.705	600.62
414.928	618.62
415.151	579.62
415.374	597.62
415.597	618.62
415.821	597.62
416.044	608.62
416.267	616.62
416.49	601.62
416.713	603.62
416.936	607.62
417.159	589.62
417.382	612.62
417.605	605.62
417.828	612.62
418.051	638.62
418.274	627.62
418.497	606.62
418.72	616.62
418.943	595.62
419.166	636.62
419.389	668.62
419.611	662.62
419.834	631.62
420.057	651.62
420.28	653.62
420.503	635.62
420.726	640.62
420.948	669.62
421.171	658.62
421.394	723.62
421.617	654.62
421.839	640.62
422.062	665.62
422.285	640.62
422.507	698.62
422.73	781.62
422.953	767.62
423.175	699.62
423.398	640.62
423.621	667.62
423.843	686.62
424.066	666.62
424.288	674.62
424.511	684.62
424.733	771.62
424.956	857.62
425.178	798.62
425.401	789.62
425.623	827.62
425.846	707.62
426.068	668.62
426.291	666.62
426.513	668.62
426.735	679.62
426.958	722.62
427.18	816.62
427.402	927.62
427.625	1016.62
427.847	868.62
428.069	789.62
428.292	696.62
428.514	622.62
428.736	636.62
428.958	660.62
429.181	612.62
429.403	586.62
429.625	621.62
429.847	635.62
430.069	755.62
430.292	720.62
430.514	638.62
430.736	620.62
430.958	596.62
431.18	598.62
431.402	591.62
431.624	582.62
431.846	595.62
432.068	602.62
432.29	582.62
432.512	598.62
432.734	604.62
432.956	622.62
433.178	617.62
433.4	598.62
433.622	610.62
433.844	578.62
434.066	595.62
434.287	604.62
434.509	599.62
434.731	621.62
434.953	607.62
435.175	637.62
435.397	675.62
435.618	658.62
435.84	706.62
436.062	816.62
436.284	883.62
436.505	738.62
436.727	674.62
436.949	658.62
437.17	622.62
437.392	642.62
437.614	628.62
437.835	642.62
438.057	748.62
438.278	888.62
438.5	867.62
438.721	952.62
438.943	889.62
439.165	755.62
439.386	690.62
439.608	684.62
439.829	673.62
440.05	691.62
440.272	723.62
440.493	714.62
440.715	637.62
440.936	634.62
441.158	636.62
441.379	631.62
441.6	650.62
441.822	660.62
442.043	722.62
442.264	795.62
442.486	861.62
442.707	709.62
442.928	675.62
443.149	677.62
443.371	716.62
443.592	752.62
443.813	872.62
444.034	922.62
444.255	794.62
444.476	696.62
444.698	723.62
444.919	690.62
445.14	766.62
445.361	734.62
445.582	716.62
445.803	792.62
446.024	916.62
446.245	880.62
446.466	834.62
446.687	713.62
446.908	652.62
447.129	630.62
447.35	622.62
447.571	633.62
447.792	608.62
448.013	619.62
448.234	648.62
448.455	674.62
448.675	808.62
448.896	919.62
449.117	792.62
449.338	766.62
449.559	853.62
449.779	1005.62
450	776.62
450.221	644.62
450.442	615.62
450.662	596.62
450.883	608.62
451.104	617.62
451.324	611.62
451.545	553.62
451.766	571.62
451.986	553.62
452.207	544.62
452.428	547.62
452.648	534.62
452.869	539.62
453.089	538.62
453.31	580.62
453.53	548.62
453.751	539.62
453.971	548.62
454.192	555.62
454.412	565.62
454.633	540.62
454.853	557.62
455.073	526.62
455.294	563.62
455.514	648.62
455.734	630.62
455.955	537.62
456.175	523.62
456.395	530.62
456.616	513.62
456.836	517.62
457.056	493.62
457.276	498.62
457.497	525.62
457.717	517.62
457.937	534.62
458.157	538.62
458.377	524.62
458.598	551.62
458.818	632.62
459.038	690.62
459.258	734.62
459.478	632.62
459.698	577.62
459.918	593.62
460.138	574.62
460.358	604.62
460.578	617.62
460.798	624.62
461.018	621.62
461.238	604.62
461.458	594.62
461.678	592.62
461.898	631.62
462.118	619.62
462.338	601.62
462.558	626.62
462.777	637.62
462.997	683.62
463.217	664.62
463.437	692.62
463.657	672.62
463.876	679.62
464.096	664.62
464.316	655.62
464.536	657.62
464.755	653.62
464.975	657.62
465.195	680.62
465.414	714.62
465.634	634.62
465.854	604.62
466.073	612.62
466.293	593.62
466.512	573.62
466.732	591.62
466.951	566.62
467.171	579.62
467.391	570.62
467.61	582.62
467.829	578.62
468.049	553.62
468.268	568.62
468.488	556.62
468.707	548.62
468.927	562.62
469.146	571.62
469.365	560.62
469.585	570.62
469.804	567.62
470.023	590.62
470.243	571.62
470.462	580.62
470.681	593.62
470.901	596.62
471.12	584.62
471.339	558.62
471.558	577.62
471.777	552.62
471.997	553.62
472.216	572.62
472.435	581.62
472.654	590.62
472.873	546.62
473.092	548.62
473.311	562.62
473.53	550.62
473.749	566.62
473.968	612.62
474.187	710.62
474.406	738.62
474.625	631.62
474.844	564.62
475.063	571.62
475.282	578.62
475.501	580.62
475.72	592.62
475.939	601.62
476.158	570.62
476.377	575.62
476.596	589.62
476.814	587.62
477.033	599.62
477.252	616.62
477.471	618.62
477.69	604.62
477.908	646.62
478.127	635.62
478.346	626.62
478.564	638.62
478.783	666.62
479.002	666.62
479.22	647.62
479.439	674.62
479.658	674.62
479.876	684.62
480.095	692.62
480.313	729.62
480.532	726.62
480.751	703.62
480.969	682.62
481.188	765.62
481.406	776.62
481.624	726.62
481.843	680.62
482.061	664.62
482.28	677.62
482.498	685.62
482.717	649.62
482.935	681.62
483.153	658.62
483.372	664.62
483.59	694.62
483.808	660.62
484.027	651.62
484.245	693.62
484.463	666.62
484.681	712.62
484.9	679.62
485.118	686.62
485.336	684.62
485.554	692.62
485.772	681.62
485.99	704.62
486.209	705.62
486.427	697.62
486.645	698.62
486.863	729.62
487.081	724.62
487.299	706.62
487.517	722.62
487.735	734.62
487.953	710.62
488.171	735.62
488.389	716.62
488.607	716.62
488.825	725.62
489.043	703.62
489.261	739.62
489.479	745.62
489.696	728.62
489.914	740.62
490.132	766.62
490.35	744.62
490.568	756.62
490.786	731.62
491.003	766.62
491.221	801.62
491.439	809.62
491.657	815.62
491.874	813.62
492.092	851.62
492.31	852.62
492.527	839.62
492.745	861.62
492.963	851.62
493.18	858.62
493.398	881.62
493.615	885.62
493.833	843.62
494.05	867.62
494.268	858.62
494.485	872.62
494.703	841.62
494.92	844.62
495.138	853.62
495.355	862.62
495.573	870.62
495.79	867.62
496.008	849.62
496.225	855.62
496.442	870.62
496.66	866.62
496.877	845.62
497.094	874.62
497.312	889.62
497.529	888.62
497.746	894.62
497.963	905.62
498.181	940.62
498.398	964.62
498.615	961.62
498.832	1001.62
499.049	1032.62
499.267	1042.62
499.484	1142.62
499.701	1168.62
499.918	1215.62
500.135	1255.62
500.352	1331.62
500.569	1378.62
500.786	1364.62
501.003	1342.62
501.22	1293.62
501.437	1225.62
501.654	1174.62
