Data from 1974.PennyLincolnUp.Lamp.En5.5.200Scan.071719.P1.Changed Mount._HRD10591_15-53-54-857.txt Node
Date: Thu Jul 18 15:53:54 EDT 2019
User: cochatt
Spectrometer: HR+D1059
Trigger mode: 1
Integration Time (sec): 1.000000E-1
Scans to average: 1
Electric dark correction enabled: true
Nonlinearity correction enabled: false
Boxcar width: 0
XAxis mode: Wavelengths
Number of Pixels in Spectrum: 2048
>>>>>Begin Spectral Data<<<<<
223.165	-12.12
223.4	-12.12
223.635	-12.12
223.869	-20.12
224.104	-17.12
224.338	-2.12
224.573	-7.12
224.808	-29.12
225.042	-16.12
225.277	-1.12
225.511	-3.12
225.746	-0.12
225.98	-3.12
226.215	8.88
226.449	10.88
226.683	23.88
226.918	31.88
227.152	35.88
227.387	36.88
227.621	40.88
227.856	38.88
228.09	14.88
228.324	45.88
228.559	39.88
228.793	81.88
229.027	95.88
229.262	85.88
229.496	94.88
229.73	119.88
229.964	138.88
230.199	126.88
230.433	119.88
230.667	110.88
230.901	109.88
231.136	126.88
231.37	119.88
231.604	120.88
231.838	97.88
232.072	107.88
232.306	116.88
232.541	117.88
232.775	115.88
233.009	113.88
233.243	126.88
233.477	113.88
233.711	119.88
233.945	124.88
234.179	119.88
234.413	129.88
234.647	117.88
234.881	121.88
235.115	112.88
235.349	121.88
235.583	124.88
235.817	125.88
236.051	120.88
236.285	131.88
236.519	118.88
236.753	134.88
236.987	153.88
237.221	189.88
237.455	253.88
237.689	181.88
237.922	140.88
238.156	134.88
238.39	121.88
238.624	124.88
238.858	124.88
239.091	125.88
239.325	114.88
239.559	143.88
239.793	134.88
240.027	127.88
240.26	127.88
240.494	159.88
240.728	149.88
240.961	158.88
241.195	139.88
241.429	128.88
241.662	141.88
241.896	154.88
242.13	121.88
242.363	128.88
242.597	133.88
242.83	135.88
243.064	150.88
243.298	125.88
243.531	144.88
243.765	151.88
243.998	133.88
244.232	136.88
244.465	156.88
244.699	150.88
244.932	145.88
245.166	163.88
245.399	149.88
245.633	147.88
245.866	152.88
246.099	150.88
246.333	153.88
246.566	172.88
246.8	166.88
247.033	172.88
247.266	169.88
247.5	167.88
247.733	182.88
247.966	193.88
248.2	186.88
248.433	181.88
248.666	176.88
248.899	197.88
249.133	185.88
249.366	201.88
249.599	201.88
249.832	187.88
250.066	180.88
250.299	182.88
250.532	192.88
250.765	197.88
250.998	223.88
251.231	223.88
251.465	217.88
251.698	228.88
251.931	197.88
252.164	197.88
252.397	210.88
252.63	199.88
252.863	211.88
253.096	207.88
253.329	232.88
253.562	222.88
253.795	222.88
254.028	211.88
254.261	212.88
254.494	223.88
254.727	243.88
254.96	274.88
255.193	271.88
255.426	242.88
255.659	238.88
255.892	247.88
256.124	225.88
256.357	265.88
256.59	248.88
256.823	226.88
257.056	209.88
257.289	203.88
257.521	212.88
257.754	223.88
257.987	212.88
258.22	223.88
258.452	215.88
258.685	210.88
258.918	238.88
259.151	238.88
259.383	227.88
259.616	228.88
259.849	229.88
260.081	236.88
260.314	256.88
260.547	258.88
260.779	224.88
261.012	229.88
261.244	234.88
261.477	239.88
261.71	216.88
261.942	222.88
262.175	236.88
262.407	219.88
262.64	209.88
262.872	213.88
263.105	208.88
263.337	220.88
263.57	216.88
263.802	235.88
264.035	212.88
264.267	219.88
264.499	241.88
264.732	236.88
264.964	205.88
265.197	226.88
265.429	212.88
265.661	226.88
265.894	210.88
266.126	235.88
266.358	247.88
266.591	234.88
266.823	242.88
267.055	230.88
267.287	245.88
267.52	243.88
267.752	232.88
267.984	236.88
268.216	239.88
268.448	232.88
268.681	244.88
268.913	252.88
269.145	255.88
269.377	304.88
269.609	264.88
269.841	266.88
270.073	285.88
270.306	292.88
270.538	311.88
270.77	327.88
271.002	312.88
271.234	294.88
271.466	311.88
271.698	323.88
271.93	319.88
272.162	334.88
272.394	329.88
272.626	319.88
272.858	301.88
273.09	284.88
273.322	263.88
273.553	275.88
273.785	272.88
274.017	276.88
274.249	271.88
274.481	264.88
274.713	259.88
274.945	269.88
275.176	277.88
275.408	265.88
275.64	278.88
275.872	271.88
276.104	278.88
276.335	273.88
276.567	272.88
276.799	294.88
277.031	298.88
277.262	309.88
277.494	333.88
277.726	323.88
277.957	295.88
278.189	279.88
278.421	286.88
278.652	284.88
278.884	278.88
279.115	287.88
279.347	294.88
279.579	274.88
279.81	269.88
280.042	268.88
280.273	270.88
280.505	275.88
280.736	285.88
280.968	283.88
281.199	299.88
281.431	277.88
281.662	293.88
281.894	286.88
282.125	300.88
282.356	287.88
282.588	302.88
282.819	311.88
283.051	309.88
283.282	277.88
283.513	285.88
283.745	300.88
283.976	296.88
284.207	311.88
284.439	303.88
284.67	308.88
284.901	301.88
285.132	297.88
285.364	291.88
285.595	278.88
285.826	290.88
286.057	299.88
286.288	306.88
286.52	309.88
286.751	317.88
286.982	314.88
287.213	299.88
287.444	280.88
287.675	299.88
287.906	324.88
288.138	311.88
288.369	326.88
288.6	331.88
288.831	333.88
289.062	304.88
289.293	304.88
289.524	296.88
289.755	304.88
289.986	301.88
290.217	294.88
290.448	291.88
290.679	288.88
290.91	320.88
291.141	307.88
291.371	292.88
291.602	312.88
291.833	308.88
292.064	305.88
292.295	300.88
292.526	298.88
292.757	326.88
292.987	300.88
293.218	301.88
293.449	300.88
293.68	310.88
293.91	309.88
294.141	317.88
294.372	309.88
294.603	298.88
294.833	296.88
295.064	318.88
295.295	312.88
295.525	310.88
295.756	320.88
295.987	322.88
296.217	326.88
296.448	352.88
296.679	347.88
296.909	312.88
297.14	322.88
297.37	323.88
297.601	302.88
297.831	329.88
298.062	313.88
298.292	317.88
298.523	324.88
298.753	331.88
298.984	318.88
299.214	344.88
299.445	348.88
299.675	330.88
299.905	347.88
300.136	328.88
300.366	325.88
300.597	339.88
300.827	349.88
301.057	329.88
301.288	349.88
301.518	351.88
301.748	355.88
301.979	346.88
302.209	359.88
302.439	347.88
302.669	347.88
302.9	353.88
303.13	340.88
303.36	352.88
303.59	353.88
303.82	376.88
304.051	379.88
304.281	363.88
304.511	338.88
304.741	356.88
304.971	345.88
305.201	327.88
305.431	356.88
305.661	370.88
305.891	344.88
306.121	361.88
306.352	355.88
306.582	360.88
306.812	350.88
307.042	331.88
307.272	360.88
307.502	346.88
307.731	364.88
307.961	337.88
308.191	344.88
308.421	358.88
308.651	365.88
308.881	361.88
309.111	371.88
309.341	352.88
309.571	363.88
309.8	375.88
310.03	363.88
310.26	401.88
310.49	400.88
310.72	378.88
310.949	396.88
311.179	408.88
311.409	397.88
311.639	382.88
311.868	366.88
312.098	379.88
312.328	385.88
312.557	412.88
312.787	405.88
313.017	398.88
313.246	412.88
313.476	384.88
313.706	382.88
313.935	385.88
314.165	409.88
314.394	393.88
314.624	403.88
314.853	405.88
315.083	403.88
315.312	387.88
315.542	396.88
315.771	407.88
316.001	392.88
316.23	389.88
316.46	390.88
316.689	420.88
316.919	412.88
317.148	401.88
317.377	409.88
317.607	395.88
317.836	410.88
318.065	420.88
318.295	432.88
318.524	378.88
318.753	383.88
318.983	392.88
319.212	392.88
319.441	404.88
319.67	411.88
319.9	405.88
320.129	401.88
320.358	413.88
320.587	412.88
320.816	407.88
321.046	398.88
321.275	411.88
321.504	427.88
321.733	424.88
321.962	414.88
322.191	401.88
322.42	454.88
322.649	460.88
322.878	444.88
323.108	470.88
323.337	491.88
323.566	510.88
323.795	517.88
324.024	545.88
324.253	611.88
324.482	875.88
324.71	1311.88
324.939	1939.88
325.168	1673.88
325.397	878.88
325.626	629.88
325.855	504.88
326.084	490.88
326.313	473.88
326.542	505.88
326.77	548.88
326.999	601.88
327.228	808.88
327.457	1212.88
327.686	1475.88
327.914	976.88
328.143	662.88
328.372	595.88
328.6	559.88
328.829	541.88
329.058	552.88
329.287	548.88
329.515	528.88
329.744	533.88
329.972	517.88
330.201	539.88
330.43	559.88
330.658	558.88
330.887	591.88
331.115	587.88
331.344	521.88
331.572	523.88
331.801	501.88
332.03	504.88
332.258	487.88
332.486	471.88
332.715	481.88
332.943	471.88
333.172	487.88
333.4	505.88
333.629	508.88
333.857	525.88
334.085	518.88
334.314	517.88
334.542	547.88
334.771	559.88
334.999	522.88
335.227	528.88
335.455	492.88
335.684	485.88
335.912	491.88
336.14	488.88
336.369	490.88
336.597	483.88
336.825	488.88
337.053	481.88
337.281	462.88
337.51	472.88
337.738	478.88
337.966	479.88
338.194	465.88
338.422	475.88
338.65	454.88
338.878	457.88
339.106	442.88
339.334	461.88
339.562	453.88
339.79	467.88
340.018	448.88
340.246	453.88
340.474	466.88
340.702	463.88
340.93	448.88
341.158	443.88
341.386	429.88
341.614	463.88
341.842	459.88
342.07	448.88
342.298	465.88
342.526	449.88
342.754	445.88
342.981	439.88
343.209	456.88
343.437	439.88
343.665	454.88
343.893	462.88
344.12	509.88
344.348	487.88
344.576	459.88
344.804	466.88
345.031	464.88
345.259	486.88
345.487	465.88
345.714	457.88
345.942	464.88
346.17	454.88
346.397	450.88
346.625	462.88
346.853	420.88
347.08	423.88
347.308	445.88
347.535	416.88
347.763	455.88
347.99	455.88
348.218	450.88
348.445	449.88
348.673	468.88
348.9	449.88
349.128	417.88
349.355	436.88
349.583	433.88
349.81	419.88
350.037	452.88
350.265	422.88
350.492	417.88
350.72	423.88
350.947	454.88
351.174	441.88
351.402	445.88
351.629	447.88
351.856	433.88
352.083	444.88
352.311	435.88
352.538	459.88
352.765	459.88
352.992	448.88
353.22	437.88
353.447	444.88
353.674	432.88
353.901	421.88
354.128	415.88
354.355	424.88
354.583	413.88
354.81	431.88
355.037	418.88
355.264	419.88
355.491	402.88
355.718	429.88
355.945	438.88
356.172	423.88
356.399	421.88
356.626	411.88
356.853	423.88
357.08	421.88
357.307	435.88
357.534	411.88
357.761	423.88
357.988	422.88
358.215	416.88
358.441	431.88
358.668	415.88
358.895	413.88
359.122	412.88
359.349	416.88
359.576	449.88
359.802	464.88
360.029	472.88
360.256	483.88
360.483	474.88
360.709	460.88
360.936	448.88
361.163	442.88
361.39	459.88
361.616	464.88
361.843	431.88
362.07	437.88
362.296	457.88
362.523	447.88
362.749	453.88
362.976	424.88
363.203	433.88
363.429	433.88
363.656	429.88
363.882	452.88
364.109	447.88
364.335	428.88
364.562	423.88
364.788	437.88
365.015	448.88
365.241	433.88
365.468	422.88
365.694	431.88
365.92	436.88
366.147	439.88
366.373	441.88
366.599	442.88
366.826	441.88
367.052	432.88
367.278	433.88
367.505	429.88
367.731	447.88
367.957	419.88
368.184	442.88
368.41	431.88
368.636	460.88
368.862	448.88
369.089	438.88
369.315	424.88
369.541	450.88
369.767	420.88
369.993	434.88
370.219	453.88
370.445	454.88
370.672	414.88
370.898	423.88
371.124	470.88
371.35	462.88
371.576	420.88
371.802	429.88
372.028	435.88
372.254	420.88
372.48	459.88
372.706	452.88
372.932	464.88
373.158	440.88
373.384	443.88
373.61	447.88
373.835	444.88
374.061	421.88
374.287	456.88
374.513	444.88
374.739	445.88
374.965	448.88
375.191	475.88
375.416	461.88
375.642	451.88
375.868	464.88
376.094	439.88
376.319	458.88
376.545	457.88
376.771	454.88
376.997	443.88
377.222	435.88
377.448	450.88
377.674	441.88
377.899	442.88
378.125	428.88
378.35	436.88
378.576	439.88
378.802	450.88
379.027	431.88
379.253	430.88
379.478	433.88
379.704	440.88
379.929	447.88
380.155	425.88
380.38	439.88
380.606	442.88
380.831	440.88
381.057	451.88
381.282	446.88
381.507	453.88
381.733	450.88
381.958	445.88
382.184	459.88
382.409	448.88
382.634	467.88
382.86	462.88
383.085	467.88
383.31	482.88
383.535	473.88
383.761	465.88
383.986	464.88
384.211	483.88
384.436	493.88
384.662	486.88
384.887	459.88
385.112	470.88
385.337	488.88
385.562	498.88
385.787	476.88
386.013	494.88
386.238	497.88
386.463	518.88
386.688	504.88
386.913	491.88
387.138	491.88
387.363	509.88
387.588	504.88
387.813	499.88
388.038	505.88
388.263	526.88
388.488	499.88
388.713	508.88
388.938	492.88
389.163	497.88
389.387	478.88
389.612	489.88
389.837	497.88
390.062	485.88
390.287	495.88
390.512	493.88
390.736	509.88
390.961	521.88
391.186	509.88
391.411	508.88
391.636	494.88
391.86	526.88
392.085	529.88
392.31	499.88
392.534	520.88
392.759	509.88
392.984	495.88
393.208	502.88
393.433	494.88
393.658	514.88
393.882	482.88
394.107	508.88
394.331	522.88
394.556	506.88
394.78	493.88
395.005	523.88
395.229	495.88
395.454	521.88
395.678	537.88
395.903	541.88
396.127	525.88
396.352	570.88
396.576	525.88
396.801	497.88
397.025	517.88
397.249	532.88
397.474	521.88
397.698	537.88
397.922	548.88
398.147	545.88
398.371	584.88
398.595	588.88
398.82	564.88
399.044	607.88
399.268	635.88
399.492	661.88
399.717	724.88
399.941	732.88
400.165	721.88
400.389	701.88
400.613	652.88
400.837	618.88
401.062	607.88
401.286	599.88
401.51	589.88
401.734	575.88
401.958	591.88
402.182	606.88
402.406	603.88
402.63	623.88
402.854	626.88
403.078	590.88
403.302	600.88
403.526	607.88
403.75	611.88
403.974	625.88
404.198	623.88
404.422	605.88
404.645	641.88
404.869	623.88
405.093	662.88
405.317	690.88
405.541	703.88
405.765	650.88
405.988	621.88
406.212	646.88
406.436	659.88
406.66	658.88
406.883	653.88
407.107	683.88
407.331	728.88
407.555	794.88
407.778	788.88
408.002	733.88
408.226	674.88
408.449	661.88
408.673	665.88
408.896	670.88
409.12	744.88
409.344	702.88
409.567	643.88
409.791	614.88
410.014	616.88
410.238	604.88
410.461	615.88
410.685	630.88
410.908	598.88
411.132	655.88
411.355	659.88
411.578	657.88
411.802	611.88
412.025	592.88
412.249	604.88
412.472	635.88
412.695	673.88
412.919	657.88
413.142	629.88
413.365	603.88
413.589	581.88
413.812	596.88
414.035	557.88
414.258	587.88
414.482	588.88
414.705	581.88
414.928	572.88
415.151	577.88
415.374	574.88
415.597	563.88
415.821	573.88
416.044	597.88
416.267	575.88
416.49	570.88
416.713	569.88
416.936	581.88
417.159	557.88
417.382	579.88
417.605	583.88
417.828	602.88
418.051	598.88
418.274	604.88
418.497	594.88
418.72	577.88
418.943	599.88
419.166	616.88
419.389	636.88
419.611	649.88
419.834	621.88
420.057	626.88
420.28	626.88
420.503	591.88
420.726	606.88
420.948	609.88
421.171	669.88
421.394	677.88
421.617	609.88
421.839	593.88
422.062	621.88
422.285	634.88
422.507	683.88
422.73	743.88
422.953	722.88
423.175	664.88
423.398	632.88
423.621	643.88
423.843	637.88
424.066	643.88
424.288	634.88
424.511	674.88
424.733	717.88
424.956	782.88
425.178	772.88
425.401	745.88
425.623	777.88
425.846	673.88
426.068	623.88
426.291	635.88
426.513	637.88
426.735	654.88
426.958	676.88
427.18	758.88
427.402	907.88
427.625	959.88
427.847	813.88
428.069	731.88
428.292	655.88
428.514	620.88
428.736	615.88
428.958	626.88
429.181	587.88
429.403	591.88
429.625	590.88
429.847	616.88
430.069	701.88
430.292	695.88
430.514	593.88
430.736	599.88
430.958	584.88
431.18	599.88
431.402	563.88
431.624	559.88
431.846	556.88
432.068	551.88
432.29	527.88
432.512	561.88
432.734	558.88
432.956	562.88
433.178	567.88
433.4	576.88
433.622	574.88
433.844	547.88
434.066	568.88
434.287	543.88
434.509	579.88
434.731	579.88
434.953	604.88
435.175	629.88
435.397	623.88
435.618	627.88
435.84	658.88
436.062	766.88
436.284	847.88
436.505	703.88
436.727	650.88
436.949	613.88
437.17	575.88
437.392	556.88
437.614	593.88
437.835	612.88
438.057	687.88
438.278	804.88
438.5	819.88
438.721	891.88
438.943	849.88
439.165	686.88
439.386	651.88
439.608	635.88
439.829	627.88
440.05	653.88
440.272	692.88
440.493	650.88
440.715	609.88
440.936	605.88
441.158	603.88
441.379	615.88
441.6	629.88
441.822	628.88
442.043	679.88
442.264	766.88
442.486	802.88
442.707	678.88
442.928	650.88
443.149	665.88
443.371	671.88
443.592	708.88
443.813	821.88
444.034	872.88
444.255	739.88
444.476	672.88
444.698	673.88
444.919	657.88
445.14	772.88
445.361	708.88
445.582	680.88
445.803	747.88
446.024	872.88
446.245	838.88
446.466	783.88
446.687	692.88
446.908	649.88
447.129	626.88
447.35	603.88
447.571	582.88
447.792	566.88
448.013	564.88
448.234	598.88
448.455	628.88
448.675	785.88
448.896	867.88
449.117	743.88
449.338	703.88
449.559	793.88
449.779	931.88
450	736.88
450.221	616.88
450.442	583.88
450.662	556.88
450.883	574.88
451.104	598.88
451.324	540.88
451.545	529.88
451.766	551.88
451.986	535.88
452.207	507.88
452.428	510.88
452.648	519.88
452.869	518.88
453.089	521.88
453.31	531.88
453.53	510.88
453.751	491.88
453.971	495.88
454.192	509.88
454.412	519.88
454.633	501.88
454.853	518.88
455.073	513.88
455.294	545.88
455.514	592.88
455.734	587.88
455.955	525.88
456.175	501.88
456.395	500.88
456.616	511.88
456.836	489.88
457.056	476.88
457.276	499.88
457.497	485.88
457.717	507.88
457.937	479.88
458.157	480.88
458.377	492.88
458.598	545.88
458.818	574.88
459.038	665.88
459.258	675.88
459.478	581.88
459.698	552.88
459.918	551.88
460.138	548.88
460.358	565.88
460.578	561.88
460.798	575.88
461.018	612.88
461.238	599.88
461.458	559.88
461.678	564.88
461.898	583.88
462.118	575.88
462.338	583.88
462.558	613.88
462.777	621.88
462.997	645.88
463.217	633.88
463.437	665.88
463.657	650.88
463.876	636.88
464.096	619.88
464.316	615.88
464.536	627.88
464.755	628.88
464.975	603.88
465.195	629.88
465.414	697.88
465.634	627.88
465.854	584.88
466.073	555.88
466.293	555.88
466.512	561.88
466.732	551.88
466.951	559.88
467.171	545.88
467.391	559.88
467.61	543.88
467.829	559.88
468.049	533.88
468.268	527.88
468.488	539.88
468.707	518.88
468.927	524.88
469.146	531.88
469.365	522.88
469.585	544.88
469.804	538.88
470.023	564.88
470.243	543.88
470.462	549.88
470.681	579.88
470.901	573.88
471.12	556.88
471.339	535.88
471.558	537.88
471.777	572.88
471.997	566.88
472.216	526.88
472.435	574.88
472.654	560.88
472.873	533.88
473.092	524.88
473.311	538.88
473.53	556.88
473.749	564.88
473.968	572.88
474.187	664.88
474.406	681.88
474.625	584.88
474.844	539.88
475.063	535.88
475.282	534.88
475.501	533.88
475.72	547.88
475.939	567.88
476.158	576.88
476.377	564.88
476.596	541.88
476.814	575.88
477.033	585.88
477.252	576.88
477.471	594.88
477.69	577.88
477.908	606.88
478.127	591.88
478.346	598.88
478.564	620.88
478.783	616.88
479.002	605.88
479.22	625.88
479.439	639.88
479.658	631.88
479.876	655.88
480.095	643.88
480.313	703.88
480.532	707.88
480.751	692.88
480.969	689.88
481.188	727.88
481.406	747.88
481.624	677.88
481.843	656.88
482.061	662.88
482.28	624.88
482.498	628.88
482.717	632.88
482.935	629.88
483.153	633.88
483.372	636.88
483.59	630.88
483.808	629.88
484.027	669.88
484.245	641.88
484.463	624.88
484.681	655.88
484.9	661.88
485.118	673.88
485.336	644.88
485.554	651.88
485.772	643.88
485.99	664.88
486.209	664.88
486.427	662.88
486.645	687.88
486.863	675.88
487.081	659.88
487.299	676.88
487.517	678.88
487.735	675.88
487.953	680.88
488.171	696.88
488.389	659.88
488.607	675.88
488.825	695.88
489.043	664.88
489.261	701.88
489.479	710.88
489.696	697.88
489.914	687.88
490.132	696.88
490.35	727.88
490.568	704.88
490.786	745.88
491.003	739.88
491.221	753.88
491.439	769.88
491.657	763.88
491.874	785.88
492.092	787.88
492.31	781.88
492.527	787.88
492.745	789.88
492.963	774.88
493.18	829.88
493.398	813.88
493.615	792.88
493.833	831.88
494.05	804.88
494.268	796.88
494.485	798.88
494.703	796.88
494.92	822.88
495.138	826.88
495.355	801.88
495.573	819.88
495.79	791.88
496.008	819.88
496.225	848.88
496.442	815.88
496.66	820.88
496.877	813.88
497.094	823.88
497.312	849.88
497.529	848.88
497.746	862.88
497.963	855.88
498.181	881.88
498.398	905.88
498.615	903.88
498.832	964.88
499.049	975.88
499.267	998.88
499.484	1068.88
499.701	1086.88
499.918	1145.88
500.135	1184.88
500.352	1297.88
500.569	1311.88
500.786	1287.88
501.003	1289.88
501.22	1223.88
501.437	1141.88
501.654	1092.88
