Data from 1974.PennyLincolnUp.Lamp.En5.5.200Scan.071719.P1.Changed Mount._HRD10591_15-51-14-856.txt Node
Date: Thu Jul 18 15:51:14 EDT 2019
User: cochatt
Spectrometer: HR+D1059
Trigger mode: 1
Integration Time (sec): 1.000000E-1
Scans to average: 1
Electric dark correction enabled: true
Nonlinearity correction enabled: false
Boxcar width: 0
XAxis mode: Wavelengths
Number of Pixels in Spectrum: 2048
>>>>>Begin Spectral Data<<<<<
223.165	-10.94
223.4	-10.94
223.635	-10.94
223.869	-10.94
224.104	-19.94
224.338	-10.94
224.573	-16.94
224.808	-12.94
225.042	-4.94
225.277	-11.94
225.511	-12.94
225.746	0.06
225.98	11.06
226.215	18.06
226.449	13.06
226.683	22.06
226.918	13.06
227.152	35.06
227.387	45.06
227.621	47.06
227.856	55.06
228.09	50.06
228.324	56.06
228.559	40.06
228.793	73.06
229.027	86.06
229.262	102.06
229.496	111.06
229.73	125.06
229.964	141.06
230.199	119.06
230.433	109.06
230.667	115.06
230.901	119.06
231.136	112.06
231.37	117.06
231.604	115.06
231.838	119.06
232.072	113.06
232.306	113.06
232.541	106.06
232.775	100.06
233.009	122.06
233.243	111.06
233.477	127.06
233.711	118.06
233.945	115.06
234.179	115.06
234.413	118.06
234.647	126.06
234.881	121.06
235.115	111.06
235.349	115.06
235.583	125.06
235.817	100.06
236.051	127.06
236.285	135.06
236.519	130.06
236.753	122.06
236.987	124.06
237.221	169.06
237.455	190.06
237.689	173.06
237.922	143.06
238.156	139.06
238.39	129.06
238.624	133.06
238.858	129.06
239.091	125.06
239.325	120.06
239.559	112.06
239.793	141.06
240.027	131.06
240.26	142.06
240.494	155.06
240.728	144.06
240.961	165.06
241.195	146.06
241.429	142.06
241.662	129.06
241.896	134.06
242.13	123.06
242.363	144.06
242.597	130.06
242.83	127.06
243.064	129.06
243.298	140.06
243.531	144.06
243.765	153.06
243.998	153.06
244.232	125.06
244.465	142.06
244.699	141.06
244.932	147.06
245.166	157.06
245.399	157.06
245.633	140.06
245.866	156.06
246.099	161.06
246.333	135.06
246.566	151.06
246.8	152.06
247.033	142.06
247.266	158.06
247.5	160.06
247.733	168.06
247.966	169.06
248.2	164.06
248.433	170.06
248.666	179.06
248.899	181.06
249.133	187.06
249.366	182.06
249.599	174.06
249.832	181.06
250.066	177.06
250.299	175.06
250.532	188.06
250.765	177.06
250.998	200.06
251.231	218.06
251.465	200.06
251.698	192.06
251.931	206.06
252.164	183.06
252.397	181.06
252.63	192.06
252.863	207.06
253.096	206.06
253.329	211.06
253.562	210.06
253.795	208.06
254.028	191.06
254.261	205.06
254.494	222.06
254.727	229.06
254.96	241.06
255.193	229.06
255.426	219.06
255.659	223.06
255.892	215.06
256.124	234.06
256.357	215.06
256.59	209.06
256.823	211.06
257.056	185.06
257.289	189.06
257.521	185.06
257.754	190.06
257.987	215.06
258.22	210.06
258.452	205.06
258.685	206.06
258.918	199.06
259.151	197.06
259.383	206.06
259.616	218.06
259.849	216.06
260.081	231.06
260.314	249.06
260.547	259.06
260.779	239.06
261.012	221.06
261.244	211.06
261.477	192.06
261.71	181.06
261.942	210.06
262.175	218.06
262.407	227.06
262.64	215.06
262.872	211.06
263.105	196.06
263.337	204.06
263.57	212.06
263.802	216.06
264.035	221.06
264.267	210.06
264.499	209.06
264.732	210.06
264.964	207.06
265.197	211.06
265.429	201.06
265.661	211.06
265.894	208.06
266.126	212.06
266.358	216.06
266.591	222.06
266.823	217.06
267.055	209.06
267.287	205.06
267.52	222.06
267.752	207.06
267.984	220.06
268.216	234.06
268.448	235.06
268.681	223.06
268.913	230.06
269.145	236.06
269.377	251.06
269.609	234.06
269.841	238.06
270.073	256.06
270.306	266.06
270.538	272.06
270.77	269.06
271.002	255.06
271.234	256.06
271.466	271.06
271.698	281.06
271.93	280.06
272.162	276.06
272.394	295.06
272.626	293.06
272.858	267.06
273.09	268.06
273.322	239.06
273.553	248.06
273.785	249.06
274.017	245.06
274.249	250.06
274.481	265.06
274.713	252.06
274.945	245.06
275.176	245.06
275.408	218.06
275.64	262.06
275.872	273.06
276.104	264.06
276.335	264.06
276.567	259.06
276.799	269.06
277.031	270.06
277.262	281.06
277.494	287.06
277.726	285.06
277.957	265.06
278.189	255.06
278.421	254.06
278.652	258.06
278.884	250.06
279.115	259.06
279.347	259.06
279.579	262.06
279.81	265.06
280.042	261.06
280.273	257.06
280.505	273.06
280.736	279.06
280.968	267.06
281.199	261.06
281.431	271.06
281.662	240.06
281.894	245.06
282.125	261.06
282.356	269.06
282.588	282.06
282.819	284.06
283.051	263.06
283.282	273.06
283.513	292.06
283.745	290.06
283.976	269.06
284.207	281.06
284.439	268.06
284.67	280.06
284.901	282.06
285.132	268.06
285.364	262.06
285.595	275.06
285.826	255.06
286.057	278.06
286.288	268.06
286.52	273.06
286.751	274.06
286.982	285.06
287.213	282.06
287.444	284.06
287.675	280.06
287.906	271.06
288.138	305.06
288.369	287.06
288.6	289.06
288.831	303.06
289.062	293.06
289.293	282.06
289.524	275.06
289.755	305.06
289.986	299.06
290.217	283.06
290.448	274.06
290.679	301.06
290.91	289.06
291.141	283.06
291.371	269.06
291.602	287.06
291.833	291.06
292.064	292.06
292.295	309.06
292.526	269.06
292.757	294.06
292.987	280.06
293.218	280.06
293.449	282.06
293.68	287.06
293.91	292.06
294.141	298.06
294.372	268.06
294.603	292.06
294.833	303.06
295.064	302.06
295.295	313.06
295.525	321.06
295.756	295.06
295.987	291.06
296.217	298.06
296.448	300.06
296.679	309.06
296.909	292.06
297.14	293.06
297.37	298.06
297.601	309.06
297.831	305.06
298.062	309.06
298.292	296.06
298.523	288.06
298.753	316.06
298.984	304.06
299.214	315.06
299.445	301.06
299.675	287.06
299.905	313.06
300.136	322.06
300.366	315.06
300.597	309.06
300.827	315.06
301.057	317.06
301.288	327.06
301.518	291.06
301.748	315.06
301.979	309.06
302.209	331.06
302.439	345.06
302.669	323.06
302.9	317.06
303.13	316.06
303.36	331.06
303.59	316.06
303.82	339.06
304.051	337.06
304.281	321.06
304.511	320.06
304.741	332.06
304.971	296.06
305.201	326.06
305.431	317.06
305.661	313.06
305.891	328.06
306.121	316.06
306.352	317.06
306.582	319.06
306.812	328.06
307.042	325.06
307.272	318.06
307.502	329.06
307.731	331.06
307.961	317.06
308.191	310.06
308.421	335.06
308.651	327.06
308.881	323.06
309.111	334.06
309.341	337.06
309.571	314.06
309.8	349.06
310.03	343.06
310.26	348.06
310.49	333.06
310.72	359.06
310.949	359.06
311.179	383.06
311.409	331.06
311.639	338.06
311.868	345.06
312.098	336.06
312.328	360.06
312.557	376.06
312.787	352.06
313.017	363.06
313.246	358.06
313.476	337.06
313.706	359.06
313.935	353.06
314.165	357.06
314.394	380.06
314.624	363.06
314.853	356.06
315.083	342.06
315.312	358.06
315.542	340.06
315.771	364.06
316.001	335.06
316.23	331.06
316.46	352.06
316.689	349.06
316.919	360.06
317.148	352.06
317.377	366.06
317.607	362.06
317.836	359.06
318.065	349.06
318.295	368.06
318.524	368.06
318.753	338.06
318.983	360.06
319.212	346.06
319.441	352.06
319.67	368.06
319.9	365.06
320.129	374.06
320.358	365.06
320.587	375.06
320.816	363.06
321.046	381.06
321.275	360.06
321.504	375.06
321.733	366.06
321.962	391.06
322.191	381.06
322.42	381.06
322.649	386.06
322.878	405.06
323.108	398.06
323.337	427.06
323.566	409.06
323.795	424.06
324.024	428.06
324.253	493.06
324.482	672.06
324.71	1001.06
324.939	1451.06
325.168	1234.06
325.397	653.06
325.626	479.06
325.855	430.06
326.084	408.06
326.313	405.06
326.542	407.06
326.77	451.06
326.999	499.06
327.228	605.06
327.457	903.06
327.686	1100.06
327.914	751.06
328.143	508.06
328.372	474.06
328.6	459.06
328.829	437.06
329.058	457.06
329.287	448.06
329.515	446.06
329.744	435.06
329.972	424.06
330.201	428.06
330.43	440.06
330.658	471.06
330.887	485.06
331.115	477.06
331.344	460.06
331.572	427.06
331.801	443.06
332.03	431.06
332.258	410.06
332.486	433.06
332.715	416.06
332.943	437.06
333.172	437.06
333.4	437.06
333.629	433.06
333.857	438.06
334.085	455.06
334.314	472.06
334.542	472.06
334.771	475.06
334.999	472.06
335.227	450.06
335.455	429.06
335.684	451.06
335.912	444.06
336.14	437.06
336.369	439.06
336.597	416.06
336.825	429.06
337.053	423.06
337.281	424.06
337.51	426.06
337.738	449.06
337.966	430.06
338.194	422.06
338.422	421.06
338.65	415.06
338.878	431.06
339.106	407.06
339.334	412.06
339.562	436.06
339.79	428.06
340.018	388.06
340.246	419.06
340.474	420.06
340.702	423.06
340.93	396.06
341.158	399.06
341.386	423.06
341.614	408.06
341.842	415.06
342.07	394.06
342.298	399.06
342.526	398.06
342.754	402.06
342.981	412.06
343.209	400.06
343.437	410.06
343.665	397.06
343.893	427.06
344.12	461.06
344.348	443.06
344.576	440.06
344.804	444.06
345.031	423.06
345.259	430.06
345.487	420.06
345.714	415.06
345.942	411.06
346.17	417.06
346.397	394.06
346.625	405.06
346.853	400.06
347.08	398.06
347.308	386.06
347.535	380.06
347.763	414.06
347.99	413.06
348.218	397.06
348.445	407.06
348.673	419.06
348.9	387.06
349.128	406.06
349.355	384.06
349.583	387.06
349.81	383.06
350.037	391.06
350.265	394.06
350.492	404.06
350.72	389.06
350.947	396.06
351.174	407.06
351.402	414.06
351.629	392.06
351.856	392.06
352.083	395.06
352.311	396.06
352.538	392.06
352.765	412.06
352.992	406.06
353.22	392.06
353.447	404.06
353.674	400.06
353.901	419.06
354.128	387.06
354.355	381.06
354.583	401.06
354.81	395.06
355.037	390.06
355.264	386.06
355.491	379.06
355.718	387.06
355.945	390.06
356.172	377.06
356.399	391.06
356.626	384.06
356.853	378.06
357.08	380.06
357.307	390.06
357.534	383.06
357.761	389.06
357.988	406.06
358.215	373.06
358.441	392.06
358.668	398.06
358.895	405.06
359.122	380.06
359.349	412.06
359.576	397.06
359.802	404.06
360.029	432.06
360.256	418.06
360.483	421.06
360.709	407.06
360.936	422.06
361.163	417.06
361.39	397.06
361.616	415.06
361.843	392.06
362.07	417.06
362.296	401.06
362.523	405.06
362.749	411.06
362.976	412.06
363.203	409.06
363.429	386.06
363.656	389.06
363.882	396.06
364.109	410.06
364.335	392.06
364.562	399.06
364.788	402.06
365.015	395.06
365.241	398.06
365.468	391.06
365.694	392.06
365.92	407.06
366.147	375.06
366.373	406.06
366.599	403.06
366.826	413.06
367.052	400.06
367.278	389.06
367.505	390.06
367.731	402.06
367.957	414.06
368.184	399.06
368.41	399.06
368.636	410.06
368.862	395.06
369.089	397.06
369.315	420.06
369.541	396.06
369.767	407.06
369.993	405.06
370.219	405.06
370.445	398.06
370.672	394.06
370.898	398.06
371.124	420.06
371.35	403.06
371.576	402.06
371.802	398.06
372.028	413.06
372.254	405.06
372.48	408.06
372.706	405.06
372.932	418.06
373.158	403.06
373.384	426.06
373.61	382.06
373.835	414.06
374.061	415.06
374.287	415.06
374.513	415.06
374.739	422.06
374.965	445.06
375.191	427.06
375.416	403.06
375.642	419.06
375.868	433.06
376.094	418.06
376.319	415.06
376.545	405.06
376.771	435.06
376.997	423.06
377.222	393.06
377.448	419.06
377.674	418.06
377.899	403.06
378.125	400.06
378.35	399.06
378.576	410.06
378.802	407.06
379.027	407.06
379.253	409.06
379.478	425.06
379.704	413.06
379.929	406.06
380.155	411.06
380.38	432.06
380.606	413.06
380.831	417.06
381.057	417.06
381.282	413.06
381.507	437.06
381.733	407.06
381.958	429.06
382.184	431.06
382.409	447.06
382.634	430.06
382.86	424.06
383.085	433.06
383.31	448.06
383.535	434.06
383.761	452.06
383.986	450.06
384.211	452.06
384.436	455.06
384.662	463.06
384.887	470.06
385.112	460.06
385.337	463.06
385.562	475.06
385.787	464.06
386.013	479.06
386.238	502.06
386.463	487.06
386.688	485.06
386.913	484.06
387.138	490.06
387.363	484.06
387.588	466.06
387.813	462.06
388.038	468.06
388.263	460.06
388.488	477.06
388.713	471.06
388.938	460.06
389.163	465.06
389.387	464.06
389.612	449.06
389.837	449.06
390.062	461.06
390.287	472.06
390.512	436.06
390.736	457.06
390.961	453.06
391.186	465.06
391.411	476.06
391.636	460.06
391.86	507.06
392.085	492.06
392.31	478.06
392.534	467.06
392.759	469.06
392.984	468.06
393.208	483.06
393.433	492.06
393.658	466.06
393.882	439.06
394.107	475.06
394.331	466.06
394.556	477.06
394.78	478.06
395.005	484.06
395.229	473.06
395.454	475.06
395.678	473.06
395.903	510.06
396.127	523.06
396.352	520.06
396.576	492.06
396.801	485.06
397.025	496.06
397.249	509.06
397.474	511.06
397.698	476.06
397.922	509.06
398.147	524.06
398.371	526.06
398.595	505.06
398.82	509.06
399.044	581.06
399.268	589.06
399.492	585.06
399.717	650.06
399.941	657.06
400.165	697.06
400.389	663.06
400.613	615.06
400.837	590.06
401.062	547.06
401.286	542.06
401.51	537.06
401.734	542.06
401.958	549.06
402.182	541.06
402.406	543.06
402.63	550.06
402.854	541.06
403.078	549.06
403.302	523.06
403.526	576.06
403.75	575.06
403.974	579.06
404.198	570.06
404.422	548.06
404.645	567.06
404.869	571.06
405.093	614.06
405.317	614.06
405.541	648.06
405.765	612.06
405.988	578.06
406.212	568.06
406.436	594.06
406.66	585.06
406.883	593.06
407.107	650.06
407.331	666.06
407.555	734.06
407.778	728.06
408.002	655.06
408.226	617.06
408.449	610.06
408.673	637.06
408.896	637.06
409.12	657.06
409.344	622.06
409.567	589.06
409.791	596.06
410.014	571.06
410.238	557.06
410.461	552.06
410.685	582.06
410.908	591.06
411.132	614.06
411.355	629.06
411.578	601.06
411.802	570.06
412.025	552.06
412.249	570.06
412.472	577.06
412.695	598.06
412.919	573.06
413.142	560.06
413.365	531.06
413.589	554.06
413.812	536.06
414.035	522.06
414.258	515.06
414.482	531.06
414.705	550.06
414.928	523.06
415.151	532.06
415.374	526.06
415.597	547.06
415.821	525.06
416.044	529.06
416.267	536.06
416.49	538.06
416.713	554.06
416.936	523.06
417.159	528.06
417.382	539.06
417.605	533.06
417.828	571.06
418.051	528.06
418.274	547.06
418.497	547.06
418.72	519.06
418.943	506.06
419.166	580.06
419.389	581.06
419.611	575.06
419.834	563.06
420.057	557.06
420.28	558.06
420.503	552.06
420.726	533.06
420.948	572.06
421.171	612.06
421.394	636.06
421.617	557.06
421.839	565.06
422.062	563.06
422.285	570.06
422.507	611.06
422.73	685.06
422.953	670.06
423.175	593.06
423.398	560.06
423.621	561.06
423.843	597.06
424.066	575.06
424.288	575.06
424.511	598.06
424.733	643.06
424.956	726.06
425.178	677.06
425.401	682.06
425.623	687.06
425.846	609.06
426.068	599.06
426.291	571.06
426.513	574.06
426.735	569.06
426.958	618.06
427.18	672.06
427.402	803.06
427.625	872.06
427.847	736.06
428.069	651.06
428.292	586.06
428.514	583.06
428.736	547.06
428.958	530.06
429.181	508.06
429.403	529.06
429.625	536.06
429.847	575.06
430.069	614.06
430.292	618.06
430.514	566.06
430.736	528.06
430.958	513.06
431.18	509.06
431.402	512.06
431.624	531.06
431.846	504.06
432.068	524.06
432.29	503.06
432.512	493.06
432.734	510.06
432.956	525.06
433.178	514.06
433.4	521.06
433.622	513.06
433.844	541.06
434.066	516.06
434.287	535.06
434.509	521.06
434.731	542.06
434.953	553.06
435.175	569.06
435.397	575.06
435.618	564.06
435.84	617.06
436.062	696.06
436.284	733.06
436.505	622.06
436.727	573.06
436.949	553.06
437.17	535.06
437.392	510.06
437.614	524.06
437.835	541.06
438.057	627.06
438.278	720.06
438.5	739.06
438.721	821.06
438.943	786.06
439.165	606.06
439.386	597.06
439.608	587.06
439.829	565.06
440.05	570.06
440.272	640.06
440.493	602.06
440.715	559.06
440.936	583.06
441.158	519.06
441.379	527.06
441.6	556.06
441.822	563.06
442.043	614.06
442.264	666.06
442.486	719.06
442.707	643.06
442.928	586.06
443.149	608.06
443.371	608.06
443.592	639.06
443.813	748.06
444.034	776.06
444.255	658.06
444.476	613.06
444.698	622.06
444.919	581.06
445.14	739.06
445.361	652.06
445.582	620.06
445.803	656.06
446.024	747.06
446.245	748.06
446.466	726.06
446.687	610.06
446.908	556.06
447.129	552.06
447.35	528.06
447.571	510.06
447.792	537.06
448.013	491.06
448.234	534.06
448.455	583.06
448.675	684.06
448.896	779.06
449.117	643.06
449.338	619.06
449.559	700.06
449.779	848.06
450	667.06
450.221	579.06
450.442	531.06
450.662	522.06
450.883	533.06
451.104	500.06
451.324	505.06
451.545	484.06
451.766	501.06
451.986	480.06
452.207	465.06
452.428	473.06
452.648	469.06
452.869	451.06
453.089	471.06
453.31	475.06
453.53	481.06
453.751	484.06
453.971	486.06
454.192	474.06
454.412	472.06
454.633	456.06
454.853	464.06
455.073	484.06
455.294	491.06
455.514	533.06
455.734	544.06
455.955	492.06
456.175	469.06
456.395	435.06
456.616	454.06
456.836	438.06
457.056	450.06
457.276	446.06
457.497	439.06
457.717	455.06
457.937	471.06
458.157	460.06
458.377	458.06
458.598	487.06
458.818	511.06
459.038	544.06
459.258	586.06
459.478	539.06
459.698	523.06
459.918	522.06
460.138	526.06
460.358	545.06
460.578	543.06
460.798	536.06
461.018	551.06
461.238	535.06
461.458	542.06
461.678	539.06
461.898	519.06
462.118	526.06
462.338	563.06
462.558	579.06
462.777	567.06
462.997	591.06
463.217	603.06
463.437	620.06
463.657	599.06
463.876	591.06
464.096	612.06
464.316	579.06
464.536	586.06
464.755	611.06
464.975	575.06
465.195	570.06
465.414	592.06
465.634	563.06
465.854	541.06
466.073	515.06
466.293	515.06
466.512	500.06
466.732	488.06
466.951	501.06
467.171	488.06
467.391	525.06
467.61	518.06
467.829	514.06
468.049	506.06
468.268	504.06
468.488	492.06
468.707	487.06
468.927	496.06
469.146	490.06
469.365	495.06
469.585	468.06
469.804	486.06
470.023	510.06
470.243	495.06
470.462	519.06
470.681	502.06
470.901	526.06
471.12	511.06
471.339	518.06
471.558	529.06
471.777	502.06
471.997	495.06
472.216	493.06
472.435	522.06
472.654	492.06
472.873	503.06
473.092	500.06
473.311	481.06
473.53	491.06
473.749	518.06
473.968	521.06
474.187	601.06
474.406	625.06
474.625	534.06
474.844	516.06
475.063	504.06
475.282	496.06
475.501	514.06
475.72	519.06
475.939	509.06
476.158	501.06
476.377	527.06
476.596	497.06
476.814	528.06
477.033	528.06
477.252	529.06
477.471	557.06
477.69	538.06
477.908	571.06
478.127	558.06
478.346	565.06
478.564	591.06
478.783	561.06
479.002	601.06
479.22	592.06
479.439	587.06
479.658	587.06
479.876	594.06
480.095	601.06
480.313	659.06
480.532	622.06
480.751	597.06
480.969	616.06
481.188	632.06
481.406	641.06
481.624	611.06
481.843	572.06
482.061	591.06
482.28	589.06
482.498	589.06
482.717	602.06
482.935	602.06
483.153	568.06
483.372	585.06
483.59	583.06
483.808	585.06
484.027	569.06
484.245	603.06
484.463	590.06
484.681	606.06
484.9	582.06
485.118	592.06
485.336	610.06
485.554	619.06
485.772	590.06
485.99	586.06
486.209	601.06
486.427	590.06
486.645	625.06
486.863	637.06
487.081	628.06
487.299	583.06
487.517	615.06
487.735	625.06
487.953	635.06
488.171	631.06
488.389	627.06
488.607	614.06
488.825	654.06
489.043	623.06
489.261	632.06
489.479	638.06
489.696	636.06
489.914	646.06
490.132	647.06
490.35	646.06
490.568	671.06
490.786	675.06
491.003	665.06
491.221	665.06
491.439	678.06
491.657	700.06
491.874	706.06
492.092	721.06
492.31	720.06
492.527	728.06
492.745	733.06
492.963	738.06
493.18	749.06
493.398	728.06
493.615	732.06
493.833	711.06
494.05	732.06
494.268	730.06
494.485	748.06
494.703	718.06
494.92	738.06
495.138	741.06
495.355	743.06
495.573	739.06
495.79	718.06
496.008	774.06
496.225	743.06
496.442	769.06
496.66	763.06
496.877	747.06
497.094	737.06
497.312	772.06
497.529	761.06
497.746	757.06
497.963	777.06
498.181	786.06
498.398	807.06
498.615	863.06
498.832	862.06
499.049	899.06
499.267	937.06
499.484	940.06
499.701	1008.06
499.918	1060.06
500.135	1125.06
500.352	1181.06
500.569	1195.06
500.786	1224.06
501.003	1201.06
501.22	1143.06
501.437	1095.06
501.654	1000.06
