Data from 1974.PennyLincolnUp.Lamp.En5.5.200Scan.071719.P1.Changed Mount._HRD10591_15-53-30-857.txt Node
Date: Thu Jul 18 15:53:30 EDT 2019
User: cochatt
Spectrometer: HR+D1059
Trigger mode: 1
Integration Time (sec): 1.000000E-1
Scans to average: 1
Electric dark correction enabled: true
Nonlinearity correction enabled: false
Boxcar width: 0
XAxis mode: Wavelengths
Number of Pixels in Spectrum: 2048
>>>>>Begin Spectral Data<<<<<
223.165	-7.12
223.4	-7.12
223.635	-7.12
223.869	-3.12
224.104	-28.12
224.338	-12.12
224.573	-8.12
224.808	-19.12
225.042	-11.12
225.277	-8.12
225.511	-6.12
225.746	1.88
225.98	12.88
226.215	3.88
226.449	3.88
226.683	19.88
226.918	36.88
227.152	23.88
227.387	24.88
227.621	35.88
227.856	50.88
228.09	49.88
228.324	58.88
228.559	77.88
228.793	68.88
229.027	98.88
229.262	108.88
229.496	102.88
229.73	130.88
229.964	145.88
230.199	126.88
230.433	111.88
230.667	117.88
230.901	109.88
231.136	96.88
231.37	106.88
231.604	121.88
231.838	124.88
232.072	133.88
232.306	122.88
232.541	124.88
232.775	111.88
233.009	123.88
233.243	108.88
233.477	121.88
233.711	116.88
233.945	114.88
234.179	135.88
234.413	132.88
234.647	122.88
234.881	114.88
235.115	129.88
235.349	134.88
235.583	135.88
235.817	134.88
236.051	122.88
236.285	116.88
236.519	127.88
236.753	140.88
236.987	135.88
237.221	169.88
237.455	240.88
237.689	198.88
237.922	140.88
238.156	122.88
238.39	132.88
238.624	142.88
238.858	138.88
239.091	122.88
239.325	121.88
239.559	118.88
239.793	114.88
240.027	144.88
240.26	143.88
240.494	148.88
240.728	148.88
240.961	168.88
241.195	145.88
241.429	140.88
241.662	154.88
241.896	130.88
242.13	132.88
242.363	140.88
242.597	172.88
242.83	141.88
243.064	140.88
243.298	148.88
243.531	153.88
243.765	141.88
243.998	130.88
244.232	155.88
244.465	154.88
244.699	161.88
244.932	141.88
245.166	151.88
245.399	159.88
245.633	142.88
245.866	152.88
246.099	144.88
246.333	158.88
246.566	157.88
246.8	161.88
247.033	171.88
247.266	173.88
247.5	178.88
247.733	168.88
247.966	194.88
248.2	172.88
248.433	180.88
248.666	170.88
248.899	190.88
249.133	213.88
249.366	198.88
249.599	190.88
249.832	194.88
250.066	196.88
250.299	176.88
250.532	219.88
250.765	201.88
250.998	217.88
251.231	243.88
251.465	212.88
251.698	200.88
251.931	202.88
252.164	202.88
252.397	220.88
252.63	215.88
252.863	211.88
253.096	231.88
253.329	238.88
253.562	222.88
253.795	218.88
254.028	221.88
254.261	229.88
254.494	231.88
254.727	242.88
254.96	281.88
255.193	258.88
255.426	270.88
255.659	249.88
255.892	246.88
256.124	249.88
256.357	233.88
256.59	232.88
256.823	229.88
257.056	209.88
257.289	213.88
257.521	211.88
257.754	213.88
257.987	220.88
258.22	231.88
258.452	228.88
258.685	218.88
258.918	213.88
259.151	239.88
259.383	209.88
259.616	222.88
259.849	238.88
260.081	244.88
260.314	270.88
260.547	264.88
260.779	261.88
261.012	237.88
261.244	238.88
261.477	238.88
261.71	235.88
261.942	234.88
262.175	239.88
262.407	251.88
262.64	234.88
262.872	219.88
263.105	222.88
263.337	233.88
263.57	212.88
263.802	223.88
264.035	222.88
264.267	203.88
264.499	233.88
264.732	236.88
264.964	232.88
265.197	234.88
265.429	233.88
265.661	231.88
265.894	227.88
266.126	232.88
266.358	244.88
266.591	234.88
266.823	251.88
267.055	229.88
267.287	245.88
267.52	243.88
267.752	237.88
267.984	256.88
268.216	231.88
268.448	264.88
268.681	250.88
268.913	252.88
269.145	273.88
269.377	288.88
269.609	286.88
269.841	286.88
270.073	272.88
270.306	297.88
270.538	314.88
270.77	314.88
271.002	309.88
271.234	285.88
271.466	310.88
271.698	318.88
271.93	335.88
272.162	323.88
272.394	303.88
272.626	314.88
272.858	296.88
273.09	302.88
273.322	276.88
273.553	292.88
273.785	282.88
274.017	265.88
274.249	294.88
274.481	277.88
274.713	290.88
274.945	289.88
275.176	263.88
275.408	298.88
275.64	280.88
275.872	286.88
276.104	285.88
276.335	284.88
276.567	298.88
276.799	308.88
277.031	322.88
277.262	322.88
277.494	314.88
277.726	318.88
277.957	314.88
278.189	308.88
278.421	287.88
278.652	300.88
278.884	291.88
279.115	294.88
279.347	299.88
279.579	272.88
279.81	282.88
280.042	283.88
280.273	299.88
280.505	298.88
280.736	301.88
280.968	297.88
281.199	301.88
281.431	279.88
281.662	264.88
281.894	296.88
282.125	290.88
282.356	292.88
282.588	327.88
282.819	318.88
283.051	301.88
283.282	276.88
283.513	312.88
283.745	311.88
283.976	293.88
284.207	301.88
284.439	296.88
284.67	294.88
284.901	280.88
285.132	298.88
285.364	290.88
285.595	293.88
285.826	315.88
286.057	293.88
286.288	318.88
286.52	310.88
286.751	296.88
286.982	298.88
287.213	309.88
287.444	296.88
287.675	300.88
287.906	317.88
288.138	336.88
288.369	321.88
288.6	312.88
288.831	315.88
289.062	294.88
289.293	324.88
289.524	306.88
289.755	326.88
289.986	315.88
290.217	308.88
290.448	307.88
290.679	327.88
290.91	325.88
291.141	296.88
291.371	319.88
291.602	314.88
291.833	310.88
292.064	323.88
292.295	308.88
292.526	343.88
292.757	308.88
292.987	327.88
293.218	300.88
293.449	319.88
293.68	337.88
293.91	324.88
294.141	320.88
294.372	338.88
294.603	331.88
294.833	328.88
295.064	338.88
295.295	320.88
295.525	314.88
295.756	323.88
295.987	326.88
296.217	327.88
296.448	331.88
296.679	327.88
296.909	335.88
297.14	341.88
297.37	333.88
297.601	313.88
297.831	326.88
298.062	335.88
298.292	321.88
298.523	318.88
298.753	342.88
298.984	331.88
299.214	340.88
299.445	324.88
299.675	316.88
299.905	347.88
300.136	341.88
300.366	326.88
300.597	335.88
300.827	335.88
301.057	358.88
301.288	361.88
301.518	348.88
301.748	350.88
301.979	350.88
302.209	354.88
302.439	367.88
302.669	351.88
302.9	356.88
303.13	358.88
303.36	354.88
303.59	358.88
303.82	365.88
304.051	362.88
304.281	359.88
304.511	347.88
304.741	334.88
304.971	339.88
305.201	351.88
305.431	352.88
305.661	364.88
305.891	359.88
306.121	336.88
306.352	347.88
306.582	332.88
306.812	352.88
307.042	378.88
307.272	365.88
307.502	358.88
307.731	356.88
307.961	366.88
308.191	371.88
308.421	351.88
308.651	370.88
308.881	374.88
309.111	366.88
309.341	363.88
309.571	371.88
309.8	396.88
310.03	380.88
310.26	399.88
310.49	393.88
310.72	383.88
310.949	392.88
311.179	422.88
311.409	400.88
311.639	405.88
311.868	400.88
312.098	408.88
312.328	411.88
312.557	414.88
312.787	422.88
313.017	403.88
313.246	398.88
313.476	392.88
313.706	414.88
313.935	393.88
314.165	414.88
314.394	398.88
314.624	405.88
314.853	423.88
315.083	414.88
315.312	384.88
315.542	407.88
315.771	411.88
316.001	399.88
316.23	398.88
316.46	404.88
316.689	414.88
316.919	391.88
317.148	394.88
317.377	408.88
317.607	411.88
317.836	393.88
318.065	391.88
318.295	397.88
318.524	402.88
318.753	392.88
318.983	414.88
319.212	381.88
319.441	401.88
319.67	410.88
319.9	413.88
320.129	399.88
320.358	406.88
320.587	414.88
320.816	396.88
321.046	427.88
321.275	418.88
321.504	417.88
321.733	416.88
321.962	407.88
322.191	438.88
322.42	431.88
322.649	447.88
322.878	444.88
323.108	454.88
323.337	470.88
323.566	487.88
323.795	502.88
324.024	528.88
324.253	623.88
324.482	838.88
324.71	1232.88
324.939	1848.88
325.168	1645.88
325.397	856.88
325.626	603.88
325.855	520.88
326.084	539.88
326.313	492.88
326.542	494.88
326.77	543.88
326.999	606.88
327.228	780.88
327.457	1142.88
327.686	1410.88
327.914	966.88
328.143	629.88
328.372	566.88
328.6	536.88
328.829	542.88
329.058	546.88
329.287	574.88
329.515	522.88
329.744	490.88
329.972	500.88
330.201	526.88
330.43	545.88
330.658	572.88
330.887	602.88
331.115	573.88
331.344	533.88
331.572	489.88
331.801	487.88
332.03	520.88
332.258	485.88
332.486	492.88
332.715	503.88
332.943	477.88
333.172	517.88
333.4	490.88
333.629	515.88
333.857	530.88
334.085	526.88
334.314	532.88
334.542	556.88
334.771	588.88
334.999	541.88
335.227	511.88
335.455	506.88
335.684	502.88
335.912	491.88
336.14	480.88
336.369	484.88
336.597	490.88
336.825	501.88
337.053	488.88
337.281	468.88
337.51	473.88
337.738	475.88
337.966	472.88
338.194	486.88
338.422	489.88
338.65	489.88
338.878	470.88
339.106	464.88
339.334	476.88
339.562	448.88
339.79	452.88
340.018	453.88
340.246	450.88
340.474	456.88
340.702	458.88
340.93	482.88
341.158	463.88
341.386	457.88
341.614	444.88
341.842	463.88
342.07	464.88
342.298	447.88
342.526	442.88
342.754	425.88
342.981	451.88
343.209	455.88
343.437	464.88
343.665	484.88
343.893	500.88
344.12	498.88
344.348	490.88
344.576	485.88
344.804	473.88
345.031	470.88
345.259	480.88
345.487	488.88
345.714	461.88
345.942	445.88
346.17	469.88
346.397	452.88
346.625	446.88
346.853	456.88
347.08	448.88
347.308	446.88
347.535	448.88
347.763	457.88
347.99	461.88
348.218	441.88
348.445	458.88
348.673	469.88
348.9	446.88
349.128	464.88
349.355	457.88
349.583	430.88
349.81	432.88
350.037	430.88
350.265	444.88
350.492	432.88
350.72	449.88
350.947	463.88
351.174	460.88
351.402	453.88
351.629	437.88
351.856	463.88
352.083	458.88
352.311	442.88
352.538	448.88
352.765	459.88
352.992	446.88
353.22	447.88
353.447	469.88
353.674	440.88
353.901	456.88
354.128	436.88
354.355	425.88
354.583	412.88
354.81	431.88
355.037	428.88
355.264	409.88
355.491	436.88
355.718	440.88
355.945	405.88
356.172	434.88
356.399	443.88
356.626	429.88
356.853	446.88
357.08	422.88
357.307	442.88
357.534	414.88
357.761	424.88
357.988	441.88
358.215	443.88
358.441	447.88
358.668	426.88
358.895	437.88
359.122	436.88
359.349	444.88
359.576	435.88
359.802	462.88
360.029	481.88
360.256	475.88
360.483	471.88
360.709	453.88
360.936	462.88
361.163	448.88
361.39	448.88
361.616	450.88
361.843	452.88
362.07	450.88
362.296	458.88
362.523	436.88
362.749	455.88
362.976	454.88
363.203	440.88
363.429	438.88
363.656	413.88
363.882	426.88
364.109	449.88
364.335	449.88
364.562	421.88
364.788	427.88
365.015	419.88
365.241	430.88
365.468	447.88
365.694	462.88
365.92	438.88
366.147	436.88
366.373	432.88
366.599	443.88
366.826	429.88
367.052	430.88
367.278	451.88
367.505	440.88
367.731	444.88
367.957	437.88
368.184	419.88
368.41	450.88
368.636	463.88
368.862	458.88
369.089	441.88
369.315	464.88
369.541	469.88
369.767	459.88
369.993	444.88
370.219	458.88
370.445	452.88
370.672	465.88
370.898	447.88
371.124	469.88
371.35	437.88
371.576	441.88
371.802	452.88
372.028	463.88
372.254	441.88
372.48	428.88
372.706	460.88
372.932	441.88
373.158	451.88
373.384	444.88
373.61	475.88
373.835	455.88
374.061	434.88
374.287	454.88
374.513	440.88
374.739	438.88
374.965	471.88
375.191	470.88
375.416	462.88
375.642	466.88
375.868	460.88
376.094	455.88
376.319	464.88
376.545	456.88
376.771	463.88
376.997	455.88
377.222	446.88
377.448	457.88
377.674	448.88
377.899	443.88
378.125	440.88
378.35	451.88
378.576	462.88
378.802	459.88
379.027	431.88
379.253	446.88
379.478	446.88
379.704	456.88
379.929	467.88
380.155	450.88
380.38	458.88
380.606	461.88
380.831	443.88
381.057	430.88
381.282	432.88
381.507	445.88
381.733	467.88
381.958	441.88
382.184	466.88
382.409	442.88
382.634	453.88
382.86	480.88
383.085	462.88
383.31	458.88
383.535	491.88
383.761	506.88
383.986	485.88
384.211	481.88
384.436	499.88
384.662	507.88
384.887	472.88
385.112	486.88
385.337	491.88
385.562	490.88
385.787	504.88
386.013	514.88
386.238	509.88
386.463	516.88
386.688	506.88
386.913	496.88
387.138	489.88
387.363	502.88
387.588	500.88
387.813	489.88
388.038	504.88
388.263	511.88
388.488	505.88
388.713	518.88
388.938	492.88
389.163	495.88
389.387	490.88
389.612	516.88
389.837	505.88
390.062	479.88
390.287	503.88
390.512	495.88
390.736	520.88
390.961	531.88
391.186	524.88
391.411	534.88
391.636	508.88
391.86	514.88
392.085	515.88
392.31	526.88
392.534	524.88
392.759	517.88
392.984	523.88
393.208	526.88
393.433	516.88
393.658	502.88
393.882	502.88
394.107	493.88
394.331	545.88
394.556	483.88
394.78	521.88
395.005	520.88
395.229	498.88
395.454	536.88
395.678	534.88
395.903	559.88
396.127	570.88
396.352	584.88
396.576	547.88
396.801	506.88
397.025	524.88
397.249	525.88
397.474	550.88
397.698	546.88
397.922	551.88
398.147	571.88
398.371	588.88
398.595	588.88
398.82	570.88
399.044	604.88
399.268	608.88
399.492	663.88
399.717	694.88
399.941	727.88
400.165	742.88
400.389	735.88
400.613	669.88
400.837	630.88
401.062	594.88
401.286	604.88
401.51	611.88
401.734	596.88
401.958	616.88
402.182	587.88
402.406	630.88
402.63	597.88
402.854	603.88
403.078	610.88
403.302	596.88
403.526	592.88
403.75	619.88
403.974	605.88
404.198	603.88
404.422	634.88
404.645	626.88
404.869	630.88
405.093	641.88
405.317	703.88
405.541	714.88
405.765	676.88
405.988	666.88
406.212	663.88
406.436	637.88
406.66	674.88
406.883	669.88
407.107	711.88
407.331	760.88
407.555	798.88
407.778	805.88
408.002	724.88
408.226	697.88
408.449	694.88
408.673	662.88
408.896	679.88
409.12	744.88
409.344	684.88
409.567	623.88
409.791	630.88
410.014	622.88
410.238	629.88
410.461	610.88
410.685	615.88
410.908	626.88
411.132	632.88
411.355	688.88
411.578	664.88
411.802	631.88
412.025	610.88
412.249	632.88
412.472	646.88
412.695	674.88
412.919	667.88
413.142	603.88
413.365	596.88
413.589	605.88
413.812	594.88
414.035	594.88
414.258	567.88
414.482	571.88
414.705	592.88
414.928	600.88
415.151	599.88
415.374	607.88
415.597	574.88
415.821	564.88
416.044	589.88
416.267	607.88
416.49	584.88
416.713	557.88
416.936	596.88
417.159	570.88
417.382	589.88
417.605	602.88
417.828	596.88
418.051	603.88
418.274	614.88
418.497	592.88
418.72	588.88
418.943	590.88
419.166	596.88
419.389	640.88
419.611	641.88
419.834	611.88
420.057	619.88
420.28	630.88
420.503	592.88
420.726	631.88
420.948	610.88
421.171	672.88
421.394	695.88
421.617	636.88
421.839	612.88
422.062	597.88
422.285	603.88
422.507	674.88
422.73	744.88
422.953	742.88
423.175	659.88
423.398	635.88
423.621	638.88
423.843	651.88
424.066	656.88
424.288	648.88
424.511	667.88
424.733	731.88
424.956	807.88
425.178	788.88
425.401	770.88
425.623	779.88
425.846	679.88
426.068	640.88
426.291	656.88
426.513	646.88
426.735	656.88
426.958	673.88
427.18	758.88
427.402	897.88
427.625	996.88
427.847	834.88
428.069	711.88
428.292	677.88
428.514	633.88
428.736	598.88
428.958	607.88
429.181	556.88
429.403	597.88
429.625	607.88
429.847	635.88
430.069	680.88
430.292	688.88
430.514	638.88
430.736	583.88
430.958	592.88
431.18	568.88
431.402	587.88
431.624	546.88
431.846	546.88
432.068	534.88
432.29	580.88
432.512	569.88
432.734	586.88
432.956	596.88
433.178	581.88
433.4	590.88
433.622	602.88
433.844	576.88
434.066	572.88
434.287	559.88
434.509	564.88
434.731	574.88
434.953	581.88
435.175	628.88
435.397	644.88
435.618	637.88
435.84	683.88
436.062	775.88
436.284	842.88
436.505	720.88
436.727	640.88
436.949	582.88
437.17	586.88
437.392	598.88
437.614	610.88
437.835	622.88
438.057	720.88
438.278	831.88
438.5	792.88
438.721	912.88
438.943	879.88
439.165	716.88
439.386	634.88
439.608	623.88
439.829	646.88
440.05	645.88
440.272	692.88
440.493	658.88
440.715	628.88
440.936	607.88
441.158	612.88
441.379	584.88
441.6	623.88
441.822	622.88
442.043	687.88
442.264	760.88
442.486	815.88
442.707	688.88
442.928	664.88
443.149	642.88
443.371	666.88
443.592	722.88
443.813	830.88
444.034	923.88
444.255	774.88
444.476	680.88
444.698	658.88
444.919	704.88
445.14	800.88
445.361	685.88
445.582	686.88
445.803	715.88
446.024	854.88
446.245	862.88
446.466	763.88
446.687	670.88
446.908	642.88
447.129	596.88
447.35	599.88
447.571	575.88
447.792	580.88
448.013	557.88
448.234	606.88
448.455	645.88
448.675	770.88
448.896	877.88
449.117	749.88
449.338	729.88
449.559	828.88
449.779	912.88
450	753.88
450.221	636.88
450.442	592.88
450.662	568.88
450.883	580.88
451.104	600.88
451.324	579.88
451.545	568.88
451.766	559.88
451.986	523.88
452.207	532.88
452.428	521.88
452.648	517.88
452.869	509.88
453.089	531.88
453.31	542.88
453.53	535.88
453.751	528.88
453.971	529.88
454.192	509.88
454.412	526.88
454.633	519.88
454.853	518.88
455.073	516.88
455.294	535.88
455.514	589.88
455.734	622.88
455.955	530.88
456.175	502.88
456.395	504.88
456.616	481.88
456.836	513.88
457.056	506.88
457.276	479.88
457.497	512.88
457.717	500.88
457.937	498.88
458.157	534.88
458.377	506.88
458.598	548.88
458.818	590.88
459.038	652.88
459.258	682.88
459.478	628.88
459.698	567.88
459.918	573.88
460.138	602.88
460.358	599.88
460.578	592.88
460.798	606.88
461.018	593.88
461.238	601.88
461.458	579.88
461.678	582.88
461.898	598.88
462.118	615.88
462.338	617.88
462.558	609.88
462.777	629.88
462.997	648.88
463.217	660.88
463.437	698.88
463.657	644.88
463.876	651.88
464.096	634.88
464.316	664.88
464.536	611.88
464.755	647.88
464.975	645.88
465.195	650.88
465.414	697.88
465.634	627.88
465.854	622.88
466.073	576.88
466.293	546.88
466.512	555.88
466.732	554.88
466.951	554.88
467.171	535.88
467.391	535.88
467.61	527.88
467.829	542.88
468.049	543.88
468.268	551.88
468.488	515.88
468.707	539.88
468.927	527.88
469.146	528.88
469.365	537.88
469.585	539.88
469.804	546.88
470.023	542.88
470.243	547.88
470.462	541.88
470.681	571.88
470.901	589.88
471.12	550.88
471.339	540.88
471.558	551.88
471.777	547.88
471.997	537.88
472.216	525.88
472.435	559.88
472.654	573.88
472.873	564.88
473.092	556.88
473.311	534.88
473.53	558.88
473.749	564.88
473.968	578.88
474.187	655.88
474.406	696.88
474.625	603.88
474.844	578.88
475.063	550.88
475.282	564.88
475.501	572.88
475.72	553.88
475.939	567.88
476.158	564.88
476.377	587.88
476.596	553.88
476.814	574.88
477.033	588.88
477.252	583.88
477.471	586.88
477.69	586.88
477.908	599.88
478.127	624.88
478.346	620.88
478.564	622.88
478.783	613.88
479.002	605.88
479.22	633.88
479.439	663.88
479.658	657.88
479.876	647.88
480.095	668.88
480.313	696.88
480.532	703.88
480.751	671.88
480.969	695.88
481.188	705.88
481.406	775.88
481.624	680.88
481.843	660.88
482.061	655.88
482.28	648.88
482.498	649.88
482.717	638.88
482.935	666.88
483.153	643.88
483.372	637.88
483.59	663.88
483.808	646.88
484.027	635.88
484.245	644.88
484.463	638.88
484.681	673.88
484.9	644.88
485.118	645.88
485.336	650.88
485.554	664.88
485.772	661.88
485.99	665.88
486.209	648.88
486.427	692.88
486.645	698.88
486.863	683.88
487.081	716.88
487.299	683.88
487.517	680.88
487.735	666.88
487.953	677.88
488.171	686.88
488.389	706.88
488.607	678.88
488.825	707.88
489.043	700.88
489.261	710.88
489.479	678.88
489.696	709.88
489.914	716.88
490.132	711.88
490.35	726.88
490.568	697.88
490.786	756.88
491.003	748.88
491.221	755.88
491.439	773.88
491.657	773.88
491.874	773.88
492.092	754.88
492.31	751.88
492.527	811.88
492.745	804.88
492.963	772.88
493.18	809.88
493.398	829.88
493.615	818.88
493.833	805.88
494.05	796.88
494.268	805.88
494.485	802.88
494.703	779.88
494.92	809.88
495.138	810.88
495.355	810.88
495.573	831.88
495.79	814.88
496.008	825.88
496.225	829.88
496.442	840.88
496.66	810.88
496.877	844.88
497.094	845.88
497.312	831.88
497.529	835.88
497.746	843.88
497.963	874.88
498.181	920.88
498.398	904.88
498.615	927.88
498.832	958.88
499.049	990.88
499.267	1001.88
499.484	1060.88
499.701	1111.88
499.918	1148.88
500.135	1231.88
500.352	1275.88
500.569	1333.88
500.786	1320.88
501.003	1254.88
501.22	1238.88
501.437	1174.88
501.654	1120.88
