Data from 1974.PennyLincolnUp.Lamp.En5.5.200Scan.071719.P1.Changed Mount._HRD10591_15-52-08-856.txt Node
Date: Thu Jul 18 15:52:08 EDT 2019
User: cochatt
Spectrometer: HR+D1059
Trigger mode: 1
Integration Time (sec): 1.000000E-1
Scans to average: 1
Electric dark correction enabled: true
Nonlinearity correction enabled: false
Boxcar width: 0
XAxis mode: Wavelengths
Number of Pixels in Spectrum: 2048
>>>>>Begin Spectral Data<<<<<
223.165	-17.81
223.4	-17.81
223.635	-17.81
223.869	-15.81
224.104	-25.81
224.338	-12.81
224.573	-9.81
224.808	-3.81
225.042	-15.81
225.277	3.19
225.511	-12.81
225.746	6.19
225.98	2.19
226.215	19.19
226.449	10.19
226.683	18.19
226.918	26.19
227.152	29.19
227.387	38.19
227.621	39.19
227.856	49.19
228.09	54.19
228.324	57.19
228.559	60.19
228.793	73.19
229.027	102.19
229.262	88.19
229.496	114.19
229.73	136.19
229.964	154.19
230.199	132.19
230.433	120.19
230.667	114.19
230.901	127.19
231.136	122.19
231.37	114.19
231.604	138.19
231.838	125.19
232.072	118.19
232.306	126.19
232.541	105.19
232.775	120.19
233.009	114.19
233.243	124.19
233.477	112.19
233.711	116.19
233.945	113.19
234.179	116.19
234.413	127.19
234.647	116.19
234.881	119.19
235.115	137.19
235.349	108.19
235.583	124.19
235.817	126.19
236.051	118.19
236.285	140.19
236.519	132.19
236.753	135.19
236.987	130.19
237.221	181.19
237.455	238.19
237.689	189.19
237.922	162.19
238.156	148.19
238.39	152.19
238.624	127.19
238.858	128.19
239.091	131.19
239.325	118.19
239.559	138.19
239.793	138.19
240.027	137.19
240.26	153.19
240.494	166.19
240.728	156.19
240.961	164.19
241.195	151.19
241.429	150.19
241.662	130.19
241.896	140.19
242.13	137.19
242.363	151.19
242.597	132.19
242.83	143.19
243.064	154.19
243.298	146.19
243.531	140.19
243.765	156.19
243.998	150.19
244.232	150.19
244.465	163.19
244.699	164.19
244.932	145.19
245.166	142.19
245.399	137.19
245.633	160.19
245.866	156.19
246.099	162.19
246.333	154.19
246.566	160.19
246.8	165.19
247.033	161.19
247.266	160.19
247.5	178.19
247.733	190.19
247.966	193.19
248.2	186.19
248.433	180.19
248.666	185.19
248.899	215.19
249.133	202.19
249.366	205.19
249.599	207.19
249.832	201.19
250.066	196.19
250.299	183.19
250.532	195.19
250.765	216.19
250.998	231.19
251.231	228.19
251.465	227.19
251.698	213.19
251.931	205.19
252.164	194.19
252.397	202.19
252.63	211.19
252.863	212.19
253.096	220.19
253.329	244.19
253.562	214.19
253.795	226.19
254.028	223.19
254.261	227.19
254.494	246.19
254.727	258.19
254.96	275.19
255.193	269.19
255.426	243.19
255.659	236.19
255.892	240.19
256.124	242.19
256.357	243.19
256.59	224.19
256.823	232.19
257.056	227.19
257.289	233.19
257.521	226.19
257.754	213.19
257.987	216.19
258.22	216.19
258.452	221.19
258.685	235.19
258.918	227.19
259.151	226.19
259.383	240.19
259.616	236.19
259.849	246.19
260.081	253.19
260.314	255.19
260.547	260.19
260.779	253.19
261.012	247.19
261.244	258.19
261.477	246.19
261.71	230.19
261.942	235.19
262.175	260.19
262.407	242.19
262.64	214.19
262.872	230.19
263.105	223.19
263.337	213.19
263.57	202.19
263.802	231.19
264.035	237.19
264.267	231.19
264.499	222.19
264.732	234.19
264.964	217.19
265.197	234.19
265.429	227.19
265.661	231.19
265.894	222.19
266.126	244.19
266.358	232.19
266.591	212.19
266.823	237.19
267.055	242.19
267.287	238.19
267.52	250.19
267.752	234.19
267.984	242.19
268.216	234.19
268.448	243.19
268.681	242.19
268.913	273.19
269.145	260.19
269.377	276.19
269.609	282.19
269.841	286.19
270.073	286.19
270.306	299.19
270.538	322.19
270.77	323.19
271.002	297.19
271.234	314.19
271.466	316.19
271.698	314.19
271.93	323.19
272.162	315.19
272.394	324.19
272.626	312.19
272.858	292.19
273.09	282.19
273.322	286.19
273.553	270.19
273.785	268.19
274.017	266.19
274.249	278.19
274.481	291.19
274.713	283.19
274.945	283.19
275.176	274.19
275.408	271.19
275.64	296.19
275.872	280.19
276.104	274.19
276.335	282.19
276.567	280.19
276.799	297.19
277.031	315.19
277.262	331.19
277.494	312.19
277.726	321.19
277.957	314.19
278.189	307.19
278.421	294.19
278.652	287.19
278.884	303.19
279.115	273.19
279.347	290.19
279.579	281.19
279.81	290.19
280.042	279.19
280.273	281.19
280.505	303.19
280.736	290.19
280.968	284.19
281.199	289.19
281.431	287.19
281.662	282.19
281.894	290.19
282.125	307.19
282.356	288.19
282.588	298.19
282.819	297.19
283.051	289.19
283.282	275.19
283.513	303.19
283.745	308.19
283.976	296.19
284.207	296.19
284.439	293.19
284.67	314.19
284.901	296.19
285.132	303.19
285.364	297.19
285.595	299.19
285.826	317.19
286.057	300.19
286.288	298.19
286.52	301.19
286.751	291.19
286.982	309.19
287.213	308.19
287.444	302.19
287.675	306.19
287.906	308.19
288.138	314.19
288.369	324.19
288.6	330.19
288.831	312.19
289.062	323.19
289.293	297.19
289.524	314.19
289.755	304.19
289.986	306.19
290.217	308.19
290.448	311.19
290.679	306.19
290.91	328.19
291.141	331.19
291.371	329.19
291.602	318.19
291.833	317.19
292.064	318.19
292.295	325.19
292.526	307.19
292.757	295.19
292.987	338.19
293.218	306.19
293.449	316.19
293.68	300.19
293.91	302.19
294.141	337.19
294.372	318.19
294.603	302.19
294.833	341.19
295.064	327.19
295.295	328.19
295.525	327.19
295.756	334.19
295.987	322.19
296.217	349.19
296.448	336.19
296.679	312.19
296.909	319.19
297.14	314.19
297.37	332.19
297.601	326.19
297.831	331.19
298.062	338.19
298.292	314.19
298.523	331.19
298.753	351.19
298.984	327.19
299.214	311.19
299.445	323.19
299.675	333.19
299.905	343.19
300.136	330.19
300.366	333.19
300.597	341.19
300.827	347.19
301.057	337.19
301.288	356.19
301.518	362.19
301.748	353.19
301.979	352.19
302.209	340.19
302.439	364.19
302.669	350.19
302.9	364.19
303.13	338.19
303.36	357.19
303.59	359.19
303.82	348.19
304.051	356.19
304.281	357.19
304.511	358.19
304.741	356.19
304.971	374.19
305.201	352.19
305.431	370.19
305.661	350.19
305.891	342.19
306.121	355.19
306.352	349.19
306.582	355.19
306.812	357.19
307.042	362.19
307.272	355.19
307.502	342.19
307.731	335.19
307.961	365.19
308.191	365.19
308.421	366.19
308.651	354.19
308.881	360.19
309.111	362.19
309.341	374.19
309.571	367.19
309.8	372.19
310.03	380.19
310.26	406.19
310.49	375.19
310.72	381.19
310.949	389.19
311.179	402.19
311.409	386.19
311.639	383.19
311.868	384.19
312.098	394.19
312.328	390.19
312.557	421.19
312.787	410.19
313.017	410.19
313.246	416.19
313.476	384.19
313.706	383.19
313.935	392.19
314.165	405.19
314.394	402.19
314.624	420.19
314.853	390.19
315.083	378.19
315.312	396.19
315.542	414.19
315.771	366.19
316.001	386.19
316.23	407.19
316.46	390.19
316.689	404.19
316.919	398.19
317.148	408.19
317.377	417.19
317.607	400.19
317.836	386.19
318.065	394.19
318.295	379.19
318.524	388.19
318.753	378.19
318.983	401.19
319.212	403.19
319.441	395.19
319.67	399.19
319.9	405.19
320.129	400.19
320.358	396.19
320.587	402.19
320.816	404.19
321.046	389.19
321.275	411.19
321.504	421.19
321.733	411.19
321.962	425.19
322.191	437.19
322.42	430.19
322.649	448.19
322.878	446.19
323.108	438.19
323.337	466.19
323.566	474.19
323.795	495.19
324.024	525.19
324.253	602.19
324.482	819.19
324.71	1242.19
324.939	1770.19
325.168	1592.19
325.397	831.19
325.626	590.19
325.855	496.19
326.084	492.19
326.313	451.19
326.542	486.19
326.77	529.19
326.999	566.19
327.228	757.19
327.457	1122.19
327.686	1398.19
327.914	916.19
328.143	630.19
328.372	563.19
328.6	523.19
328.829	531.19
329.058	522.19
329.287	540.19
329.515	524.19
329.744	501.19
329.972	500.19
330.201	511.19
330.43	546.19
330.658	548.19
330.887	554.19
331.115	555.19
331.344	506.19
331.572	487.19
331.801	502.19
332.03	508.19
332.258	471.19
332.486	462.19
332.715	485.19
332.943	472.19
333.172	464.19
333.4	496.19
333.629	510.19
333.857	508.19
334.085	511.19
334.314	514.19
334.542	522.19
334.771	553.19
334.999	531.19
335.227	505.19
335.455	487.19
335.684	484.19
335.912	489.19
336.14	480.19
336.369	480.19
336.597	487.19
336.825	485.19
337.053	461.19
337.281	468.19
337.51	460.19
337.738	480.19
337.966	460.19
338.194	481.19
338.422	469.19
338.65	454.19
338.878	467.19
339.106	458.19
339.334	453.19
339.562	445.19
339.79	447.19
340.018	446.19
340.246	454.19
340.474	478.19
340.702	462.19
340.93	470.19
341.158	459.19
341.386	458.19
341.614	453.19
341.842	468.19
342.07	448.19
342.298	464.19
342.526	455.19
342.754	446.19
342.981	442.19
343.209	436.19
343.437	445.19
343.665	470.19
343.893	489.19
344.12	493.19
344.348	494.19
344.576	479.19
344.804	459.19
345.031	483.19
345.259	446.19
345.487	453.19
345.714	461.19
345.942	459.19
346.17	442.19
346.397	459.19
346.625	452.19
346.853	442.19
347.08	431.19
347.308	450.19
347.535	450.19
347.763	478.19
347.99	463.19
348.218	450.19
348.445	448.19
348.673	436.19
348.9	463.19
349.128	438.19
349.355	426.19
349.583	436.19
349.81	418.19
350.037	427.19
350.265	435.19
350.492	438.19
350.72	441.19
350.947	406.19
351.174	436.19
351.402	452.19
351.629	448.19
351.856	434.19
352.083	463.19
352.311	452.19
352.538	460.19
352.765	437.19
352.992	446.19
353.22	444.19
353.447	457.19
353.674	443.19
353.901	441.19
354.128	409.19
354.355	404.19
354.583	420.19
354.81	415.19
355.037	443.19
355.264	416.19
355.491	435.19
355.718	423.19
355.945	430.19
356.172	415.19
356.399	409.19
356.626	430.19
356.853	408.19
357.08	417.19
357.307	424.19
357.534	411.19
357.761	408.19
357.988	415.19
358.215	443.19
358.441	423.19
358.668	416.19
358.895	422.19
359.122	439.19
359.349	432.19
359.576	440.19
359.802	477.19
360.029	475.19
360.256	470.19
360.483	482.19
360.709	453.19
360.936	472.19
361.163	447.19
361.39	451.19
361.616	444.19
361.843	453.19
362.07	436.19
362.296	448.19
362.523	428.19
362.749	439.19
362.976	440.19
363.203	450.19
363.429	469.19
363.656	426.19
363.882	424.19
364.109	437.19
364.335	423.19
364.562	436.19
364.788	422.19
365.015	443.19
365.241	435.19
365.468	449.19
365.694	421.19
365.92	454.19
366.147	442.19
366.373	439.19
366.599	437.19
366.826	429.19
367.052	422.19
367.278	431.19
367.505	415.19
367.731	446.19
367.957	430.19
368.184	432.19
368.41	454.19
368.636	434.19
368.862	471.19
369.089	452.19
369.315	433.19
369.541	443.19
369.767	445.19
369.993	436.19
370.219	448.19
370.445	446.19
370.672	459.19
370.898	434.19
371.124	430.19
371.35	429.19
371.576	450.19
371.802	437.19
372.028	445.19
372.254	447.19
372.48	457.19
372.706	461.19
372.932	450.19
373.158	446.19
373.384	461.19
373.61	469.19
373.835	448.19
374.061	459.19
374.287	451.19
374.513	455.19
374.739	462.19
374.965	481.19
375.191	485.19
375.416	482.19
375.642	453.19
375.868	448.19
376.094	459.19
376.319	464.19
376.545	437.19
376.771	462.19
376.997	440.19
377.222	447.19
377.448	450.19
377.674	449.19
377.899	436.19
378.125	456.19
378.35	432.19
378.576	452.19
378.802	456.19
379.027	436.19
379.253	431.19
379.478	447.19
379.704	459.19
379.929	458.19
380.155	439.19
380.38	462.19
380.606	449.19
380.831	472.19
381.057	451.19
381.282	448.19
381.507	438.19
381.733	457.19
381.958	462.19
382.184	472.19
382.409	450.19
382.634	464.19
382.86	469.19
383.085	462.19
383.31	481.19
383.535	470.19
383.761	466.19
383.986	454.19
384.211	470.19
384.436	467.19
384.662	485.19
384.887	476.19
385.112	489.19
385.337	497.19
385.562	478.19
385.787	488.19
386.013	520.19
386.238	513.19
386.463	504.19
386.688	528.19
386.913	487.19
387.138	514.19
387.363	508.19
387.588	485.19
387.813	497.19
388.038	503.19
388.263	492.19
388.488	510.19
388.713	507.19
388.938	509.19
389.163	520.19
389.387	504.19
389.612	483.19
389.837	492.19
390.062	495.19
390.287	501.19
390.512	491.19
390.736	486.19
390.961	516.19
391.186	502.19
391.411	493.19
391.636	514.19
391.86	503.19
392.085	526.19
392.31	530.19
392.534	538.19
392.759	523.19
392.984	507.19
393.208	521.19
393.433	506.19
393.658	511.19
393.882	504.19
394.107	508.19
394.331	524.19
394.556	524.19
394.78	537.19
395.005	523.19
395.229	514.19
395.454	514.19
395.678	517.19
395.903	531.19
396.127	543.19
396.352	555.19
396.576	511.19
396.801	504.19
397.025	528.19
397.249	555.19
397.474	540.19
397.698	555.19
397.922	554.19
398.147	559.19
398.371	577.19
398.595	563.19
398.82	556.19
399.044	614.19
399.268	608.19
399.492	654.19
399.717	704.19
399.941	732.19
400.165	733.19
400.389	739.19
400.613	650.19
400.837	611.19
401.062	608.19
401.286	590.19
401.51	592.19
401.734	613.19
401.958	592.19
402.182	583.19
402.406	587.19
402.63	581.19
402.854	621.19
403.078	597.19
403.302	632.19
403.526	603.19
403.75	610.19
403.974	623.19
404.198	618.19
404.422	596.19
404.645	618.19
404.869	609.19
405.093	657.19
405.317	716.19
405.541	706.19
405.765	660.19
405.988	634.19
406.212	654.19
406.436	651.19
406.66	653.19
406.883	658.19
407.107	676.19
407.331	717.19
407.555	789.19
407.778	792.19
408.002	738.19
408.226	666.19
408.449	668.19
408.673	678.19
408.896	688.19
409.12	740.19
409.344	679.19
409.567	621.19
409.791	617.19
410.014	608.19
410.238	606.19
410.461	623.19
410.685	631.19
410.908	614.19
411.132	666.19
411.355	710.19
411.578	662.19
411.802	611.19
412.025	619.19
412.249	613.19
412.472	635.19
412.695	676.19
412.919	687.19
413.142	627.19
413.365	587.19
413.589	597.19
413.812	574.19
414.035	566.19
414.258	586.19
414.482	582.19
414.705	560.19
414.928	605.19
415.151	590.19
415.374	582.19
415.597	560.19
415.821	576.19
416.044	567.19
416.267	562.19
416.49	556.19
416.713	552.19
416.936	569.19
417.159	546.19
417.382	574.19
417.605	562.19
417.828	584.19
418.051	587.19
418.274	618.19
418.497	584.19
418.72	586.19
418.943	594.19
419.166	606.19
419.389	653.19
419.611	602.19
419.834	623.19
420.057	616.19
420.28	596.19
420.503	605.19
420.726	592.19
420.948	614.19
421.171	675.19
421.394	711.19
421.617	605.19
421.839	607.19
422.062	610.19
422.285	599.19
422.507	671.19
422.73	719.19
422.953	697.19
423.175	650.19
423.398	607.19
423.621	596.19
423.843	634.19
424.066	668.19
424.288	634.19
424.511	648.19
424.733	699.19
424.956	805.19
425.178	770.19
425.401	774.19
425.623	779.19
425.846	668.19
426.068	634.19
426.291	621.19
426.513	637.19
426.735	610.19
426.958	672.19
427.18	744.19
427.402	887.19
427.625	951.19
427.847	829.19
428.069	700.19
428.292	653.19
428.514	598.19
428.736	621.19
428.958	595.19
429.181	580.19
429.403	581.19
429.625	598.19
429.847	632.19
430.069	694.19
430.292	687.19
430.514	619.19
430.736	578.19
430.958	563.19
431.18	566.19
431.402	567.19
431.624	546.19
431.846	576.19
432.068	580.19
432.29	557.19
432.512	536.19
432.734	573.19
432.956	573.19
433.178	556.19
433.4	563.19
433.622	546.19
433.844	550.19
434.066	574.19
434.287	544.19
434.509	580.19
434.731	592.19
434.953	571.19
435.175	607.19
435.397	631.19
435.618	636.19
435.84	647.19
436.062	756.19
436.284	854.19
436.505	719.19
436.727	642.19
436.949	600.19
437.17	600.19
437.392	577.19
437.614	583.19
437.835	641.19
438.057	700.19
438.278	814.19
438.5	814.19
438.721	885.19
438.943	858.19
439.165	692.19
439.386	650.19
439.608	647.19
439.829	637.19
440.05	640.19
440.272	675.19
440.493	662.19
440.715	602.19
440.936	588.19
441.158	603.19
441.379	595.19
441.6	616.19
441.822	642.19
442.043	681.19
442.264	734.19
442.486	816.19
442.707	688.19
442.928	641.19
443.149	641.19
443.371	668.19
443.592	720.19
443.813	800.19
444.034	894.19
444.255	731.19
444.476	682.19
444.698	672.19
444.919	653.19
445.14	752.19
445.361	726.19
445.582	703.19
445.803	742.19
446.024	810.19
446.245	843.19
446.466	762.19
446.687	653.19
446.908	630.19
447.129	606.19
447.35	582.19
447.571	573.19
447.792	586.19
448.013	574.19
448.234	598.19
448.455	637.19
448.675	749.19
448.896	837.19
449.117	743.19
449.338	706.19
449.559	829.19
449.779	918.19
450	751.19
450.221	622.19
450.442	567.19
450.662	566.19
450.883	581.19
451.104	589.19
451.324	550.19
451.545	550.19
451.766	531.19
451.986	498.19
452.207	527.19
452.428	522.19
452.648	523.19
452.869	513.19
453.089	518.19
453.31	529.19
453.53	512.19
453.751	518.19
453.971	543.19
454.192	518.19
454.412	518.19
454.633	515.19
454.853	502.19
455.073	503.19
455.294	527.19
455.514	606.19
455.734	621.19
455.955	524.19
456.175	523.19
456.395	494.19
456.616	494.19
456.836	486.19
457.056	479.19
457.276	490.19
457.497	495.19
457.717	488.19
457.937	502.19
458.157	519.19
458.377	514.19
458.598	505.19
458.818	589.19
459.038	627.19
459.258	692.19
459.478	593.19
459.698	565.19
459.918	581.19
460.138	551.19
460.358	589.19
460.578	578.19
460.798	581.19
461.018	587.19
461.238	599.19
461.458	589.19
461.678	581.19
461.898	610.19
462.118	590.19
462.338	590.19
462.558	607.19
462.777	639.19
462.997	638.19
463.217	655.19
463.437	663.19
463.657	667.19
463.876	646.19
464.096	634.19
464.316	631.19
464.536	637.19
464.755	638.19
464.975	640.19
465.195	640.19
465.414	687.19
465.634	635.19
465.854	605.19
466.073	592.19
466.293	550.19
466.512	532.19
466.732	510.19
466.951	554.19
467.171	515.19
467.391	516.19
467.61	548.19
467.829	542.19
468.049	558.19
468.268	546.19
468.488	533.19
468.707	542.19
468.927	531.19
469.146	514.19
469.365	518.19
469.585	523.19
469.804	518.19
470.023	524.19
470.243	532.19
470.462	546.19
470.681	562.19
470.901	556.19
471.12	553.19
471.339	544.19
471.558	525.19
471.777	528.19
471.997	548.19
472.216	555.19
472.435	571.19
472.654	532.19
472.873	529.19
473.092	535.19
473.311	527.19
473.53	536.19
473.749	544.19
473.968	580.19
474.187	661.19
474.406	688.19
474.625	608.19
474.844	563.19
475.063	540.19
475.282	568.19
475.501	555.19
475.72	565.19
475.939	568.19
476.158	580.19
476.377	559.19
476.596	579.19
476.814	566.19
477.033	555.19
477.252	570.19
477.471	578.19
477.69	578.19
477.908	590.19
478.127	635.19
478.346	603.19
478.564	609.19
478.783	623.19
479.002	623.19
479.22	651.19
479.439	646.19
479.658	634.19
479.876	670.19
480.095	672.19
480.313	691.19
480.532	692.19
480.751	683.19
480.969	692.19
481.188	727.19
481.406	730.19
481.624	670.19
481.843	672.19
482.061	657.19
482.28	646.19
482.498	649.19
482.717	643.19
482.935	602.19
483.153	638.19
483.372	624.19
483.59	642.19
483.808	620.19
484.027	637.19
484.245	640.19
484.463	635.19
484.681	658.19
484.9	641.19
485.118	660.19
485.336	676.19
485.554	670.19
485.772	634.19
485.99	632.19
486.209	673.19
486.427	652.19
486.645	658.19
486.863	681.19
487.081	678.19
487.299	701.19
487.517	685.19
487.735	690.19
487.953	674.19
488.171	708.19
488.389	694.19
488.607	713.19
488.825	674.19
489.043	690.19
489.261	670.19
489.479	703.19
489.696	689.19
489.914	694.19
490.132	700.19
490.35	709.19
490.568	703.19
490.786	729.19
491.003	745.19
491.221	744.19
491.439	777.19
491.657	766.19
491.874	784.19
492.092	784.19
492.31	802.19
492.527	802.19
492.745	803.19
492.963	788.19
493.18	818.19
493.398	835.19
493.615	814.19
493.833	801.19
494.05	799.19
494.268	820.19
494.485	789.19
494.703	792.19
494.92	808.19
495.138	806.19
495.355	798.19
495.573	788.19
495.79	788.19
496.008	789.19
496.225	798.19
496.442	804.19
496.66	822.19
496.877	824.19
497.094	826.19
497.312	849.19
497.529	837.19
497.746	838.19
497.963	874.19
498.181	907.19
498.398	935.19
498.615	947.19
498.832	922.19
499.049	985.19
499.267	1000.19
499.484	1028.19
499.701	1094.19
499.918	1146.19
500.135	1230.19
500.352	1264.19
500.569	1289.19
500.786	1302.19
501.003	1294.19
501.22	1246.19
501.437	1151.19
501.654	1115.19
