Data from 1974.PennyLincolnUp.Lamp.En5.5.200Scan.071719.P1.Changed Mount._HRD10591_15-52-53-856.txt Node
Date: Thu Jul 18 15:52:53 EDT 2019
User: cochatt
Spectrometer: HR+D1059
Trigger mode: 1
Integration Time (sec): 1.000000E-1
Scans to average: 1
Electric dark correction enabled: true
Nonlinearity correction enabled: false
Boxcar width: 0
XAxis mode: Wavelengths
Number of Pixels in Spectrum: 2048
>>>>>Begin Spectral Data<<<<<
223.165	-15
223.4	-15
223.635	-15
223.869	-20
224.104	-26
224.338	-25
224.573	-20
224.808	-2
225.042	-2
225.277	-17
225.511	5
225.746	7
225.98	6
226.215	7
226.449	18
226.683	24
226.918	35
227.152	25
227.387	38
227.621	33
227.856	29
228.09	37
228.324	55
228.559	57
228.793	74
229.027	98
229.262	102
229.496	124
229.73	137
229.964	164
230.199	133
230.433	106
230.667	123
230.901	111
231.136	111
231.37	121
231.604	113
231.838	122
232.072	122
232.306	131
232.541	123
232.775	132
233.009	115
233.243	112
233.477	133
233.711	110
233.945	131
234.179	117
234.413	134
234.647	124
234.881	121
235.115	127
235.349	137
235.583	121
235.817	103
236.051	130
236.285	130
236.519	136
236.753	121
236.987	146
237.221	173
237.455	228
237.689	175
237.922	141
238.156	125
238.39	128
238.624	120
238.858	123
239.091	141
239.325	126
239.559	121
239.793	123
240.027	124
240.26	133
240.494	150
240.728	160
240.961	158
241.195	153
241.429	143
241.662	150
241.896	142
242.13	148
242.363	168
242.597	148
242.83	136
243.064	145
243.298	133
243.531	145
243.765	161
243.998	155
244.232	148
244.465	138
244.699	147
244.932	156
245.166	150
245.399	147
245.633	148
245.866	170
246.099	155
246.333	155
246.566	169
246.8	162
247.033	159
247.266	155
247.5	167
247.733	172
247.966	172
248.2	190
248.433	177
248.666	185
248.899	174
249.133	196
249.366	212
249.599	194
249.832	178
250.066	182
250.299	197
250.532	189
250.765	206
250.998	233
251.231	228
251.465	228
251.698	210
251.931	223
252.164	211
252.397	205
252.63	222
252.863	207
253.096	212
253.329	224
253.562	222
253.795	223
254.028	230
254.261	237
254.494	234
254.727	255
254.96	273
255.193	258
255.426	246
255.659	244
255.892	234
256.124	234
256.357	225
256.59	239
256.823	233
257.056	202
257.289	216
257.521	221
257.754	222
257.987	207
258.22	236
258.452	225
258.685	210
258.918	214
259.151	225
259.383	235
259.616	214
259.849	237
260.081	244
260.314	255
260.547	279
260.779	244
261.012	251
261.244	221
261.477	216
261.71	230
261.942	237
262.175	259
262.407	225
262.64	231
262.872	241
263.105	232
263.337	233
263.57	233
263.802	224
264.035	227
264.267	237
264.499	228
264.732	240
264.964	230
265.197	218
265.429	225
265.661	236
265.894	232
266.126	245
266.358	224
266.591	224
266.823	229
267.055	231
267.287	261
267.52	225
267.752	231
267.984	227
268.216	232
268.448	243
268.681	251
268.913	269
269.145	264
269.377	283
269.609	276
269.841	268
270.073	267
270.306	285
270.538	319
270.77	315
271.002	294
271.234	294
271.466	294
271.698	321
271.93	317
272.162	321
272.394	309
272.626	317
272.858	298
273.09	303
273.322	293
273.553	286
273.785	293
274.017	268
274.249	259
274.481	280
274.713	275
274.945	281
275.176	281
275.408	285
275.64	257
275.872	284
276.104	277
276.335	264
276.567	282
276.799	283
277.031	327
277.262	316
277.494	328
277.726	321
277.957	313
278.189	298
278.421	280
278.652	284
278.884	286
279.115	289
279.347	271
279.579	273
279.81	280
280.042	287
280.273	277
280.505	286
280.736	271
280.968	283
281.199	273
281.431	276
281.662	293
281.894	306
282.125	289
282.356	293
282.588	305
282.819	313
283.051	289
283.282	300
283.513	300
283.745	282
283.976	291
284.207	298
284.439	289
284.67	282
284.901	298
285.132	287
285.364	293
285.595	276
285.826	307
286.057	316
286.288	305
286.52	291
286.751	292
286.982	311
287.213	291
287.444	306
287.675	293
287.906	307
288.138	311
288.369	320
288.6	335
288.831	315
289.062	305
289.293	311
289.524	331
289.755	312
289.986	312
290.217	297
290.448	303
290.679	313
290.91	311
291.141	302
291.371	311
291.602	327
291.833	326
292.064	309
292.295	327
292.526	330
292.757	318
292.987	315
293.218	300
293.449	316
293.68	302
293.91	323
294.141	332
294.372	313
294.603	307
294.833	308
295.064	308
295.295	321
295.525	317
295.756	316
295.987	320
296.217	335
296.448	346
296.679	326
296.909	332
297.14	302
297.37	343
297.601	315
297.831	331
298.062	315
298.292	323
298.523	337
298.753	347
298.984	324
299.214	336
299.445	315
299.675	317
299.905	336
300.136	352
300.366	331
300.597	348
300.827	355
301.057	334
301.288	345
301.518	347
301.748	335
301.979	353
302.209	347
302.439	335
302.669	357
302.9	337
303.13	350
303.36	337
303.59	357
303.82	359
304.051	353
304.281	353
304.511	351
304.741	347
304.971	345
305.201	359
305.431	345
305.661	338
305.891	333
306.121	346
306.352	366
306.582	364
306.812	363
307.042	343
307.272	341
307.502	350
307.731	353
307.961	356
308.191	345
308.421	380
308.651	349
308.881	362
309.111	365
309.341	372
309.571	361
309.8	380
310.03	373
310.26	383
310.49	366
310.72	371
310.949	398
311.179	392
311.409	400
311.639	366
311.868	391
312.098	395
312.328	401
312.557	411
312.787	391
313.017	416
313.246	404
313.476	391
313.706	372
313.935	396
314.165	408
314.394	404
314.624	398
314.853	394
315.083	399
315.312	408
315.542	407
315.771	390
316.001	390
316.23	387
316.46	378
316.689	397
316.919	399
317.148	405
317.377	396
317.607	389
317.836	395
318.065	373
318.295	381
318.524	390
318.753	388
318.983	397
319.212	399
319.441	406
319.67	401
319.9	376
320.129	393
320.358	399
320.587	403
320.816	418
321.046	414
321.275	419
321.504	401
321.733	394
321.962	405
322.191	405
322.42	438
322.649	429
322.878	437
323.108	456
323.337	479
323.566	458
323.795	501
324.024	511
324.253	612
324.482	817
324.71	1235
324.939	1765
325.168	1577
325.397	826
325.626	600
325.855	504
326.084	509
326.313	478
326.542	498
326.77	527
326.999	563
327.228	766
327.457	1114
327.686	1378
327.914	950
328.143	645
328.372	579
328.6	563
328.829	522
329.058	540
329.287	547
329.515	531
329.744	515
329.972	522
330.201	533
330.43	547
330.658	570
330.887	581
331.115	556
331.344	518
331.572	500
331.801	501
332.03	501
332.258	488
332.486	487
332.715	506
332.943	468
333.172	492
333.4	484
333.629	497
333.857	492
334.085	518
334.314	551
334.542	543
334.771	551
334.999	539
335.227	493
335.455	497
335.684	501
335.912	477
336.14	482
336.369	479
336.597	484
336.825	501
337.053	472
337.281	488
337.51	460
337.738	479
337.966	477
338.194	470
338.422	466
338.65	466
338.878	468
339.106	454
339.334	447
339.562	461
339.79	463
340.018	447
340.246	469
340.474	467
340.702	472
340.93	455
341.158	454
341.386	449
341.614	455
341.842	460
342.07	470
342.298	440
342.526	434
342.754	412
342.981	447
343.209	455
343.437	449
343.665	474
343.893	464
344.12	492
344.348	474
344.576	480
344.804	489
345.031	473
345.259	462
345.487	483
345.714	460
345.942	457
346.17	442
346.397	448
346.625	437
346.853	447
347.08	449
347.308	453
347.535	479
347.763	450
347.99	457
348.218	456
348.445	456
348.673	455
348.9	437
349.128	437
349.355	445
349.583	429
349.81	437
350.037	441
350.265	424
350.492	425
350.72	440
350.947	451
351.174	455
351.402	449
351.629	443
351.856	441
352.083	437
352.311	451
352.538	446
352.765	444
352.992	433
353.22	451
353.447	417
353.674	433
353.901	432
354.128	425
354.355	425
354.583	439
354.81	420
355.037	417
355.264	401
355.491	429
355.718	428
355.945	416
356.172	415
356.399	409
356.626	420
356.853	408
357.08	396
357.307	434
357.534	407
357.761	417
357.988	431
358.215	431
358.441	425
358.668	433
358.895	423
359.122	421
359.349	448
359.576	453
359.802	460
360.029	468
360.256	485
360.483	458
360.709	440
360.936	447
361.163	440
361.39	431
361.616	436
361.843	436
362.07	454
362.296	431
362.523	444
362.749	443
362.976	441
363.203	437
363.429	440
363.656	420
363.882	441
364.109	421
364.335	441
364.562	428
364.788	427
365.015	435
365.241	443
365.468	434
365.694	423
365.92	426
366.147	438
366.373	455
366.599	428
366.826	397
367.052	446
367.278	435
367.505	436
367.731	434
367.957	434
368.184	443
368.41	433
368.636	451
368.862	467
369.089	463
369.315	424
369.541	433
369.767	437
369.993	444
370.219	426
370.445	438
370.672	422
370.898	425
371.124	441
371.35	449
371.576	439
371.802	450
372.028	438
372.254	436
372.48	437
372.706	434
372.932	448
373.158	445
373.384	440
373.61	451
373.835	442
374.061	451
374.287	429
374.513	456
374.739	469
374.965	453
375.191	472
375.416	478
375.642	443
375.868	447
376.094	448
376.319	443
376.545	456
376.771	438
376.997	431
377.222	449
377.448	437
377.674	433
377.899	436
378.125	439
378.35	430
378.576	443
378.802	457
379.027	453
379.253	452
379.478	442
379.704	446
379.929	458
380.155	447
380.38	453
380.606	461
380.831	445
381.057	444
381.282	452
381.507	447
381.733	438
381.958	443
382.184	468
382.409	458
382.634	457
382.86	472
383.085	461
383.31	466
383.535	475
383.761	483
383.986	487
384.211	481
384.436	486
384.662	500
384.887	475
385.112	495
385.337	476
385.562	484
385.787	510
386.013	515
386.238	504
386.463	488
386.688	484
386.913	494
387.138	511
387.363	492
387.588	490
387.813	501
388.038	507
388.263	499
388.488	483
388.713	494
388.938	485
389.163	502
389.387	502
389.612	491
389.837	505
390.062	501
390.287	510
390.512	479
390.736	498
390.961	529
391.186	528
391.411	521
391.636	505
391.86	525
392.085	544
392.31	510
392.534	507
392.759	529
392.984	515
393.208	526
393.433	521
393.658	510
393.882	489
394.107	509
394.331	514
394.556	510
394.78	484
395.005	501
395.229	508
395.454	549
395.678	551
395.903	536
396.127	580
396.352	575
396.576	543
396.801	522
397.025	517
397.249	524
397.474	540
397.698	531
397.922	567
398.147	558
398.371	582
398.595	588
398.82	566
399.044	583
399.268	622
399.492	649
399.717	709
399.941	730
400.165	749
400.389	731
400.613	667
400.837	652
401.062	609
401.286	604
401.51	588
401.734	597
401.958	588
402.182	598
402.406	590
402.63	593
402.854	594
403.078	586
403.302	603
403.526	602
403.75	629
403.974	619
404.198	625
404.422	603
404.645	603
404.869	643
405.093	645
405.317	697
405.541	712
405.765	656
405.988	652
406.212	651
406.436	642
406.66	659
406.883	650
407.107	675
407.331	709
407.555	799
407.778	794
408.002	728
408.226	677
408.449	685
408.673	695
408.896	695
409.12	705
409.344	685
409.567	654
409.791	622
410.014	609
410.238	610
410.461	592
410.685	602
410.908	649
411.132	651
411.355	706
411.578	652
411.802	635
412.025	627
412.249	595
412.472	634
412.695	678
412.919	657
413.142	612
413.365	628
413.589	603
413.812	584
414.035	579
414.258	566
414.482	573
414.705	577
414.928	559
415.151	587
415.374	556
415.597	581
415.821	558
416.044	596
416.267	596
416.49	574
416.713	561
416.936	571
417.159	553
417.382	560
417.605	568
417.828	595
418.051	604
418.274	565
418.497	562
418.72	594
418.943	587
419.166	589
419.389	625
419.611	626
419.834	634
420.057	587
420.28	622
420.503	590
420.726	587
420.948	615
421.171	643
421.394	687
421.617	619
421.839	596
422.062	595
422.285	632
422.507	653
422.73	747
422.953	726
423.175	651
423.398	605
423.621	631
423.843	617
424.066	638
424.288	655
424.511	663
424.733	719
424.956	773
425.178	764
425.401	763
425.623	769
425.846	664
426.068	647
426.291	641
426.513	626
426.735	628
426.958	660
427.18	742
427.402	877
427.625	982
427.847	803
428.069	751
428.292	655
428.514	628
428.736	569
428.958	606
429.181	561
429.403	562
429.625	589
429.847	608
430.069	696
430.292	683
430.514	598
430.736	604
430.958	581
431.18	573
431.402	561
431.624	563
431.846	575
432.068	558
432.29	564
432.512	561
432.734	573
432.956	568
433.178	605
433.4	585
433.622	584
433.844	586
434.066	557
434.287	572
434.509	554
434.731	588
434.953	591
435.175	594
435.397	629
435.618	631
435.84	683
436.062	733
436.284	848
436.505	722
436.727	640
436.949	612
437.17	607
437.392	551
437.614	594
437.835	634
438.057	706
438.278	807
438.5	787
438.721	882
438.943	863
439.165	680
439.386	633
439.608	636
439.829	641
440.05	653
440.272	693
440.493	654
440.715	629
440.936	625
441.158	570
441.379	587
441.6	609
441.822	641
442.043	658
442.264	765
442.486	801
442.707	701
442.928	655
443.149	650
443.371	680
443.592	734
443.813	821
444.034	863
444.255	734
444.476	671
444.698	673
444.919	676
445.14	728
445.361	687
445.582	675
445.803	719
446.024	825
446.245	830
446.466	773
446.687	691
446.908	668
447.129	616
447.35	592
447.571	595
447.792	573
448.013	582
448.234	594
448.455	637
448.675	738
448.896	869
449.117	733
449.338	679
449.559	783
449.779	912
450	729
450.221	621
450.442	570
450.662	550
450.883	560
451.104	575
451.324	552
451.545	549
451.766	535
451.986	498
452.207	503
452.428	529
452.648	505
452.869	486
453.089	548
453.31	544
453.53	522
453.751	501
453.971	525
454.192	529
454.412	526
454.633	495
454.853	514
455.073	518
455.294	533
455.514	606
455.734	607
455.955	525
456.175	487
456.395	478
456.616	487
456.836	500
457.056	504
457.276	468
457.497	500
457.717	492
457.937	490
458.157	509
458.377	494
458.598	521
458.818	563
459.038	634
459.258	675
459.478	596
459.698	582
459.918	574
460.138	587
460.358	581
460.578	579
460.798	595
461.018	589
461.238	590
461.458	594
461.678	589
461.898	597
462.118	595
462.338	610
462.558	620
462.777	628
462.997	617
463.217	653
463.437	651
463.657	639
463.876	637
464.096	626
464.316	625
464.536	640
464.755	614
464.975	622
465.195	646
465.414	681
465.634	631
465.854	590
466.073	565
466.293	567
466.512	535
466.732	526
466.951	540
467.171	544
467.391	539
467.61	538
467.829	523
468.049	515
468.268	525
468.488	532
468.707	539
468.927	519
469.146	531
469.365	542
469.585	521
469.804	517
470.023	540
470.243	570
470.462	545
470.681	565
470.901	573
471.12	570
471.339	550
471.558	538
471.777	550
471.997	527
472.216	551
472.435	548
472.654	553
472.873	516
473.092	527
473.311	527
473.53	537
473.749	566
473.968	575
474.187	665
474.406	694
474.625	620
474.844	552
475.063	549
475.282	531
475.501	545
475.72	550
475.939	542
476.158	537
476.377	573
476.596	546
476.814	569
477.033	576
477.252	561
477.471	572
477.69	559
477.908	589
478.127	598
478.346	584
478.564	617
478.783	602
479.002	629
479.22	639
479.439	670
479.658	656
479.876	669
480.095	665
480.313	676
480.532	686
480.751	670
480.969	678
481.188	711
481.406	743
481.624	659
481.843	646
482.061	629
482.28	643
482.498	645
482.717	632
482.935	635
483.153	642
483.372	626
483.59	637
483.808	645
484.027	638
484.245	614
484.463	634
484.681	660
484.9	637
485.118	634
485.336	615
485.554	664
485.772	659
485.99	649
486.209	654
486.427	691
486.645	656
486.863	679
487.081	682
487.299	681
487.517	689
487.735	698
487.953	667
488.171	677
488.389	671
488.607	693
488.825	671
489.043	675
489.261	699
489.479	694
489.696	702
489.914	707
490.132	709
490.35	710
490.568	724
490.786	731
491.003	714
491.221	755
491.439	757
491.657	767
491.874	773
492.092	795
492.31	781
492.527	823
492.745	789
492.963	780
493.18	803
493.398	803
493.615	826
493.833	791
494.05	803
494.268	775
494.485	813
494.703	830
494.92	808
495.138	783
495.355	806
495.573	810
495.79	822
496.008	822
496.225	823
496.442	824
496.66	813
496.877	823
497.094	824
497.312	824
497.529	853
497.746	860
497.963	864
498.181	906
498.398	918
498.615	932
498.832	955
499.049	977
499.267	1007
499.484	1059
499.701	1100
499.918	1130
500.135	1213
500.352	1259
500.569	1299
500.786	1299
501.003	1282
501.22	1193
501.437	1173
501.654	1130
501.871	1077
502.088	1065
502.305	980
502.522	953
502.739	936
502.956	887
503.172	864
503.389	837
503.606	851
503.823	847
504.04	852
504.256	854
504.473	843
504.69	837
504.907	841
505.123	826
505.34	766
505.557	791
505.773	743
505.99	768
506.207	771
506.423	747
506.64	748
506.856	739
507.073	742
507.289	748
507.506	745
507.722	735
507.939	739
508.155	721
508.372	689
508.588	715
508.805	718
509.021	706
509.238	720
509.454	725
509.67	718
509.887	718
510.103	685
510.319	679
510.536	770
510.752	1100
510.968	957
511.184	677
511.401	691
511.617	654
511.833	686
512.049	658
512.265	653
512.481	665
512.698	657
512.914	664
513.13	691
513.346	675
513.562	683
513.778	662
513.994	661
514.21	683
514.426	695
514.642	721
514.858	754
515.074	767
515.29	854
515.506	1117
515.721	959
515.937	785
516.153	711
516.369	726
516.585	691
516.801	689
517.016	721
517.232	704
517.448	724
517.664	720
517.879	718
518.095	719
518.311	716
518.527	709
518.742	687
518.958	698
519.173	692
519.389	683
519.605	643
519.82	691
520.036	698
520.251	698
520.467	705
520.682	693
520.898	725
521.113	701
521.329	721
521.544	774
521.76	917
521.975	1347
522.19	1328
522.406	859
522.621	681
522.836	633
523.052	653
523.267	634
523.482	611
523.698	612
523.913	631
524.128	598
524.343	589
524.559	592
524.774	554
524.989	578
525.204	574
525.419	570
525.634	568
525.849	569
526.064	568
526.28	557
526.495	567
526.71	589
526.925	554
527.14	546
527.355	565
527.57	567
527.785	549
527.999	561
528.214	551
528.429	558
528.644	555
528.859	568
529.074	551
529.289	577
529.503	634
529.718	618
529.933	569
530.148	556
530.363	574
530.577	566
530.792	559
531.007	550
531.221	548
531.436	533
531.651	542
531.865	536
532.08	542
532.295	530
532.509	559
532.724	543
532.938	538
533.153	538
533.367	532
533.582	546
533.796	521
534.011	518
534.225	521
534.44	515
534.654	538
534.868	519
535.083	537
535.297	533
535.511	539
535.726	535
535.94	535
536.154	539
536.369	508
536.583	524
536.797	509
537.011	498
537.225	510
537.44	493
537.654	506
537.868	528
538.082	544
538.296	511
538.51	514
538.724	542
538.938	506
539.153	523
539.367	533
539.581	524
539.795	515
540.009	501
540.222	520
540.436	500
540.65	507
540.864	533
541.078	515
541.292	515
541.506	507
541.72	508
541.934	510
542.147	521
542.361	508
542.575	505
542.789	498
543.002	517
543.216	521
543.43	507
543.644	479
543.857	556
544.071	516
544.285	519
544.498	527
544.712	519
544.925	499
545.139	519
545.352	505
545.566	505
545.779	526
545.993	533
546.206	517
546.42	494
546.633	517
546.847	501
547.06	509
547.274	501
547.487	498
547.7	511
547.914	509
548.127	491
548.34	494
548.554	499
548.767	515
548.98	499
549.193	517
549.407	486
549.62	492
549.833	507
550.046	513
550.259	504
550.473	491
550.686	505
550.899	499
551.112	492
551.325	485
551.538	498
551.751	501
551.964	507
552.177	500
552.39	495
552.603	508
552.816	509
553.029	524
553.242	511
553.455	525
553.667	518
553.88	510
554.093	534
554.306	537
554.519	505
554.732	516
554.944	483
555.157	494
555.37	483
555.583	487
555.795	461
556.008	461
556.221	467
556.433	470
556.646	480
556.859	452
557.071	467
557.284	437
557.496	462
557.709	449
557.921	460
558.134	436
558.346	441
558.559	446
558.771	449
558.984	442
559.196	443
559.409	453
559.621	455
559.833	447
560.046	427
560.258	441
560.47	443
560.683	445
560.895	427
561.107	449
561.32	443
561.532	451
561.744	435
561.956	455
562.168	457
562.381	436
562.593	445
562.805	457
563.017	455
