Data from 1974.PennyLincolnUp.Lamp.En5.5.200Scan.071719.P1.Changed Mount._HRD10591_15-52-15-856.txt Node
Date: Thu Jul 18 15:52:15 EDT 2019
User: cochatt
Spectrometer: HR+D1059
Trigger mode: 1
Integration Time (sec): 1.000000E-1
Scans to average: 1
Electric dark correction enabled: true
Nonlinearity correction enabled: false
Boxcar width: 0
XAxis mode: Wavelengths
Number of Pixels in Spectrum: 2048
>>>>>Begin Spectral Data<<<<<
223.165	-2.19
223.4	-2.19
223.635	-2.19
223.869	-19.19
224.104	-24.19
224.338	-12.19
224.573	-14.19
224.808	-7.19
225.042	-13.19
225.277	7.81
225.511	0.81
225.746	-6.19
225.98	3.81
226.215	18.81
226.449	9.81
226.683	18.81
226.918	21.81
227.152	16.81
227.387	39.81
227.621	35.81
227.856	45.81
228.09	49.81
228.324	40.81
228.559	61.81
228.793	68.81
229.027	109.81
229.262	124.81
229.496	103.81
229.73	137.81
229.964	160.81
230.199	123.81
230.433	125.81
230.667	107.81
230.901	105.81
231.136	127.81
231.37	92.81
231.604	107.81
231.838	109.81
232.072	116.81
232.306	120.81
232.541	111.81
232.775	123.81
233.009	135.81
233.243	125.81
233.477	113.81
233.711	124.81
233.945	129.81
234.179	127.81
234.413	112.81
234.647	117.81
234.881	121.81
235.115	123.81
235.349	100.81
235.583	140.81
235.817	131.81
236.051	127.81
236.285	137.81
236.519	125.81
236.753	135.81
236.987	172.81
237.221	189.81
237.455	223.81
237.689	187.81
237.922	156.81
238.156	149.81
238.39	142.81
238.624	131.81
238.858	143.81
239.091	135.81
239.325	125.81
239.559	119.81
239.793	142.81
240.027	164.81
240.26	141.81
240.494	151.81
240.728	155.81
240.961	151.81
241.195	149.81
241.429	154.81
241.662	145.81
241.896	127.81
242.13	140.81
242.363	157.81
242.597	149.81
242.83	137.81
243.064	131.81
243.298	133.81
243.531	142.81
243.765	146.81
243.998	156.81
244.232	147.81
244.465	159.81
244.699	143.81
244.932	163.81
245.166	154.81
245.399	170.81
245.633	158.81
245.866	158.81
246.099	154.81
246.333	169.81
246.566	154.81
246.8	170.81
247.033	168.81
247.266	168.81
247.5	185.81
247.733	172.81
247.966	173.81
248.2	177.81
248.433	211.81
248.666	185.81
248.899	186.81
249.133	218.81
249.366	221.81
249.599	208.81
249.832	173.81
250.066	202.81
250.299	202.81
250.532	192.81
250.765	222.81
250.998	223.81
251.231	242.81
251.465	239.81
251.698	219.81
251.931	208.81
252.164	199.81
252.397	206.81
252.63	207.81
252.863	211.81
253.096	231.81
253.329	244.81
253.562	249.81
253.795	229.81
254.028	241.81
254.261	224.81
254.494	225.81
254.727	265.81
254.96	269.81
255.193	264.81
255.426	263.81
255.659	222.81
255.892	236.81
256.124	252.81
256.357	245.81
256.59	234.81
256.823	204.81
257.056	222.81
257.289	215.81
257.521	227.81
257.754	215.81
257.987	219.81
258.22	207.81
258.452	216.81
258.685	218.81
258.918	230.81
259.151	212.81
259.383	230.81
259.616	227.81
259.849	227.81
260.081	256.81
260.314	258.81
260.547	280.81
260.779	248.81
261.012	259.81
261.244	234.81
261.477	222.81
261.71	228.81
261.942	263.81
262.175	243.81
262.407	230.81
262.64	235.81
262.872	225.81
263.105	227.81
263.337	246.81
263.57	229.81
263.802	227.81
264.035	224.81
264.267	211.81
264.499	234.81
264.732	225.81
264.964	222.81
265.197	217.81
265.429	236.81
265.661	239.81
265.894	234.81
266.126	225.81
266.358	239.81
266.591	225.81
266.823	223.81
267.055	251.81
267.287	221.81
267.52	232.81
267.752	248.81
267.984	232.81
268.216	234.81
268.448	238.81
268.681	254.81
268.913	259.81
269.145	284.81
269.377	289.81
269.609	287.81
269.841	288.81
270.073	269.81
270.306	290.81
270.538	326.81
270.77	319.81
271.002	301.81
271.234	303.81
271.466	303.81
271.698	313.81
271.93	315.81
272.162	317.81
272.394	346.81
272.626	336.81
272.858	308.81
273.09	294.81
273.322	283.81
273.553	287.81
273.785	297.81
274.017	277.81
274.249	271.81
274.481	288.81
274.713	279.81
274.945	291.81
275.176	284.81
275.408	281.81
275.64	271.81
275.872	277.81
276.104	293.81
276.335	288.81
276.567	292.81
276.799	293.81
277.031	310.81
277.262	331.81
277.494	325.81
277.726	316.81
277.957	313.81
278.189	292.81
278.421	283.81
278.652	304.81
278.884	284.81
279.115	280.81
279.347	266.81
279.579	296.81
279.81	279.81
280.042	291.81
280.273	310.81
280.505	280.81
280.736	277.81
280.968	285.81
281.199	273.81
281.431	280.81
281.662	287.81
281.894	295.81
282.125	285.81
282.356	305.81
282.588	310.81
282.819	303.81
283.051	277.81
283.282	279.81
283.513	296.81
283.745	289.81
283.976	282.81
284.207	287.81
284.439	289.81
284.67	290.81
284.901	300.81
285.132	312.81
285.364	289.81
285.595	306.81
285.826	292.81
286.057	294.81
286.288	302.81
286.52	302.81
286.751	312.81
286.982	288.81
287.213	301.81
287.444	308.81
287.675	301.81
287.906	299.81
288.138	314.81
288.369	324.81
288.6	327.81
288.831	309.81
289.062	311.81
289.293	312.81
289.524	316.81
289.755	316.81
289.986	316.81
290.217	308.81
290.448	312.81
290.679	318.81
290.91	307.81
291.141	313.81
291.371	326.81
291.602	325.81
291.833	313.81
292.064	322.81
292.295	316.81
292.526	296.81
292.757	295.81
292.987	318.81
293.218	306.81
293.449	316.81
293.68	295.81
293.91	294.81
294.141	314.81
294.372	303.81
294.603	304.81
294.833	315.81
295.064	310.81
295.295	334.81
295.525	310.81
295.756	313.81
295.987	318.81
296.217	351.81
296.448	357.81
296.679	338.81
296.909	325.81
297.14	312.81
297.37	317.81
297.601	345.81
297.831	330.81
298.062	340.81
298.292	327.81
298.523	335.81
298.753	351.81
298.984	334.81
299.214	334.81
299.445	337.81
299.675	333.81
299.905	314.81
300.136	324.81
300.366	335.81
300.597	340.81
300.827	331.81
301.057	342.81
301.288	343.81
301.518	353.81
301.748	346.81
301.979	356.81
302.209	342.81
302.439	344.81
302.669	376.81
302.9	346.81
303.13	349.81
303.36	355.81
303.59	340.81
303.82	364.81
304.051	358.81
304.281	352.81
304.511	345.81
304.741	354.81
304.971	348.81
305.201	355.81
305.431	382.81
305.661	349.81
305.891	345.81
306.121	347.81
306.352	370.81
306.582	357.81
306.812	343.81
307.042	342.81
307.272	354.81
307.502	332.81
307.731	373.81
307.961	367.81
308.191	346.81
308.421	339.81
308.651	364.81
308.881	368.81
309.111	377.81
309.341	352.81
309.571	369.81
309.8	357.81
310.03	387.81
310.26	391.81
310.49	380.81
310.72	383.81
310.949	415.81
311.179	400.81
311.409	394.81
311.639	393.81
311.868	410.81
312.098	407.81
312.328	392.81
312.557	400.81
312.787	416.81
313.017	398.81
313.246	406.81
313.476	397.81
313.706	395.81
313.935	395.81
314.165	412.81
314.394	423.81
314.624	402.81
314.853	401.81
315.083	396.81
315.312	412.81
315.542	396.81
315.771	407.81
316.001	408.81
316.23	408.81
316.46	396.81
316.689	389.81
316.919	383.81
317.148	410.81
317.377	417.81
317.607	418.81
317.836	408.81
318.065	391.81
318.295	396.81
318.524	401.81
318.753	380.81
318.983	398.81
319.212	405.81
319.441	410.81
319.67	408.81
319.9	392.81
320.129	405.81
320.358	373.81
320.587	400.81
320.816	403.81
321.046	419.81
321.275	406.81
321.504	409.81
321.733	431.81
321.962	405.81
322.191	434.81
322.42	413.81
322.649	446.81
322.878	441.81
323.108	435.81
323.337	471.81
323.566	469.81
323.795	504.81
324.024	527.81
324.253	619.81
324.482	833.81
324.71	1284.81
324.939	1901.81
325.168	1647.81
325.397	848.81
325.626	608.81
325.855	529.81
326.084	477.81
326.313	486.81
326.542	494.81
326.77	534.81
326.999	624.81
327.228	788.81
327.457	1155.81
327.686	1446.81
327.914	995.81
328.143	659.81
328.372	581.81
328.6	574.81
328.829	559.81
329.058	553.81
329.287	576.81
329.515	509.81
329.744	491.81
329.972	495.81
330.201	523.81
330.43	546.81
330.658	583.81
330.887	557.81
331.115	587.81
331.344	531.81
331.572	477.81
331.801	494.81
332.03	481.81
332.258	476.81
332.486	486.81
332.715	484.81
332.943	477.81
333.172	492.81
333.4	490.81
333.629	491.81
333.857	517.81
334.085	560.81
334.314	518.81
334.542	568.81
334.771	570.81
334.999	523.81
335.227	519.81
335.455	505.81
335.684	494.81
335.912	477.81
336.14	498.81
336.369	475.81
336.597	480.81
336.825	484.81
337.053	471.81
337.281	476.81
337.51	477.81
337.738	464.81
337.966	465.81
338.194	472.81
338.422	481.81
338.65	462.81
338.878	452.81
339.106	470.81
339.334	451.81
339.562	453.81
339.79	443.81
340.018	457.81
340.246	445.81
340.474	465.81
340.702	450.81
340.93	443.81
341.158	450.81
341.386	439.81
341.614	456.81
341.842	444.81
342.07	443.81
342.298	459.81
342.526	450.81
342.754	454.81
342.981	430.81
343.209	464.81
343.437	460.81
343.665	458.81
343.893	466.81
344.12	476.81
344.348	483.81
344.576	475.81
344.804	475.81
345.031	458.81
345.259	484.81
345.487	494.81
345.714	461.81
345.942	458.81
346.17	426.81
346.397	461.81
346.625	431.81
346.853	438.81
347.08	426.81
347.308	458.81
347.535	444.81
347.763	466.81
347.99	430.81
348.218	443.81
348.445	455.81
348.673	459.81
348.9	457.81
349.128	460.81
349.355	444.81
349.583	430.81
349.81	444.81
350.037	416.81
350.265	437.81
350.492	431.81
350.72	433.81
350.947	451.81
351.174	452.81
351.402	447.81
351.629	435.81
351.856	419.81
352.083	443.81
352.311	451.81
352.538	453.81
352.765	464.81
352.992	459.81
353.22	442.81
353.447	461.81
353.674	424.81
353.901	444.81
354.128	423.81
354.355	437.81
354.583	435.81
354.81	425.81
355.037	423.81
355.264	423.81
355.491	422.81
355.718	401.81
355.945	429.81
356.172	417.81
356.399	407.81
356.626	406.81
356.853	413.81
357.08	402.81
357.307	429.81
357.534	420.81
357.761	427.81
357.988	425.81
358.215	418.81
358.441	423.81
358.668	407.81
358.895	432.81
359.122	431.81
359.349	444.81
359.576	463.81
359.802	443.81
360.029	476.81
360.256	515.81
360.483	484.81
360.709	471.81
360.936	432.81
361.163	447.81
361.39	437.81
361.616	441.81
361.843	454.81
362.07	459.81
362.296	468.81
362.523	446.81
362.749	420.81
362.976	451.81
363.203	453.81
363.429	430.81
363.656	428.81
363.882	447.81
364.109	438.81
364.335	447.81
364.562	439.81
364.788	428.81
365.015	431.81
365.241	439.81
365.468	443.81
365.694	431.81
365.92	446.81
366.147	433.81
366.373	440.81
366.599	429.81
366.826	424.81
367.052	430.81
367.278	443.81
367.505	428.81
367.731	441.81
367.957	433.81
368.184	447.81
368.41	437.81
368.636	457.81
368.862	448.81
369.089	439.81
369.315	446.81
369.541	437.81
369.767	428.81
369.993	449.81
370.219	448.81
370.445	438.81
370.672	430.81
370.898	428.81
371.124	423.81
371.35	446.81
371.576	410.81
371.802	432.81
372.028	441.81
372.254	439.81
372.48	444.81
372.706	443.81
372.932	448.81
373.158	460.81
373.384	444.81
373.61	440.81
373.835	441.81
374.061	438.81
374.287	461.81
374.513	452.81
374.739	443.81
374.965	456.81
375.191	444.81
375.416	435.81
375.642	464.81
375.868	453.81
376.094	439.81
376.319	438.81
376.545	428.81
376.771	406.81
376.997	430.81
377.222	428.81
377.448	432.81
377.674	443.81
377.899	430.81
378.125	441.81
378.35	441.81
378.576	438.81
378.802	426.81
379.027	434.81
379.253	445.81
379.478	443.81
379.704	427.81
379.929	435.81
380.155	443.81
380.38	442.81
380.606	445.81
380.831	438.81
381.057	446.81
381.282	446.81
381.507	439.81
381.733	459.81
381.958	445.81
382.184	467.81
382.409	428.81
382.634	475.81
382.86	439.81
383.085	462.81
383.31	473.81
383.535	479.81
383.761	459.81
383.986	484.81
384.211	480.81
384.436	480.81
384.662	484.81
384.887	492.81
385.112	503.81
385.337	475.81
385.562	487.81
385.787	489.81
386.013	497.81
386.238	478.81
386.463	504.81
386.688	492.81
386.913	475.81
387.138	505.81
387.363	488.81
387.588	497.81
387.813	491.81
388.038	493.81
388.263	491.81
388.488	473.81
388.713	496.81
388.938	490.81
389.163	481.81
389.387	495.81
389.612	493.81
389.837	469.81
390.062	488.81
390.287	486.81
390.512	481.81
390.736	485.81
390.961	493.81
391.186	485.81
391.411	532.81
391.636	523.81
391.86	501.81
392.085	507.81
392.31	513.81
392.534	518.81
392.759	507.81
392.984	506.81
393.208	515.81
393.433	509.81
393.658	524.81
393.882	536.81
394.107	490.81
394.331	506.81
394.556	513.81
394.78	507.81
395.005	530.81
395.229	518.81
395.454	519.81
395.678	529.81
395.903	537.81
396.127	556.81
396.352	552.81
396.576	533.81
396.801	495.81
397.025	511.81
397.249	527.81
397.474	533.81
397.698	542.81
397.922	547.81
398.147	545.81
398.371	588.81
398.595	573.81
398.82	566.81
399.044	587.81
399.268	631.81
399.492	651.81
399.717	680.81
399.941	721.81
400.165	729.81
400.389	712.81
400.613	655.81
400.837	646.81
401.062	611.81
401.286	593.81
401.51	582.81
401.734	595.81
401.958	588.81
402.182	593.81
402.406	584.81
402.63	580.81
402.854	599.81
403.078	582.81
403.302	596.81
403.526	608.81
403.75	599.81
403.974	601.81
404.198	596.81
404.422	611.81
404.645	600.81
404.869	600.81
405.093	656.81
405.317	685.81
405.541	707.81
405.765	678.81
405.988	639.81
406.212	615.81
406.436	667.81
406.66	662.81
406.883	672.81
407.107	686.81
407.331	731.81
407.555	792.81
407.778	794.81
408.002	722.81
408.226	652.81
408.449	675.81
408.673	676.81
408.896	720.81
409.12	746.81
409.344	680.81
409.567	641.81
409.791	622.81
410.014	593.81
410.238	593.81
410.461	604.81
410.685	614.81
410.908	623.81
411.132	672.81
411.355	713.81
411.578	664.81
411.802	597.81
412.025	603.81
412.249	619.81
412.472	629.81
412.695	664.81
412.919	665.81
413.142	642.81
413.365	610.81
413.589	580.81
413.812	582.81
414.035	584.81
414.258	559.81
414.482	579.81
414.705	587.81
414.928	586.81
415.151	576.81
415.374	580.81
415.597	580.81
415.821	546.81
416.044	565.81
416.267	581.81
416.49	571.81
416.713	573.81
416.936	572.81
417.159	581.81
417.382	581.81
417.605	571.81
417.828	560.81
418.051	610.81
418.274	599.81
418.497	555.81
418.72	597.81
418.943	578.81
419.166	597.81
419.389	617.81
419.611	640.81
419.834	600.81
420.057	620.81
420.28	598.81
420.503	615.81
420.726	597.81
420.948	606.81
421.171	665.81
421.394	657.81
421.617	611.81
421.839	573.81
422.062	615.81
422.285	614.81
422.507	669.81
422.73	731.81
422.953	701.81
423.175	639.81
423.398	631.81
423.621	625.81
423.843	647.81
424.066	630.81
424.288	651.81
424.511	653.81
424.733	729.81
424.956	779.81
425.178	752.81
425.401	741.81
425.623	769.81
425.846	683.81
426.068	645.81
426.291	621.81
426.513	613.81
426.735	651.81
426.958	675.81
427.18	731.81
427.402	889.81
427.625	985.81
427.847	830.81
428.069	725.81
428.292	685.81
428.514	608.81
428.736	599.81
428.958	611.81
429.181	593.81
429.403	579.81
429.625	587.81
429.847	613.81
430.069	680.81
430.292	676.81
430.514	574.81
430.736	594.81
430.958	584.81
431.18	567.81
431.402	573.81
431.624	568.81
431.846	552.81
432.068	563.81
432.29	540.81
432.512	566.81
432.734	563.81
432.956	563.81
433.178	565.81
433.4	584.81
433.622	552.81
433.844	573.81
434.066	559.81
434.287	566.81
434.509	576.81
434.731	587.81
434.953	580.81
435.175	616.81
435.397	638.81
435.618	613.81
435.84	649.81
436.062	755.81
436.284	830.81
436.505	670.81
436.727	634.81
436.949	580.81
437.17	582.81
437.392	570.81
437.614	573.81
437.835	619.81
438.057	711.81
438.278	800.81
438.5	846.81
438.721	883.81
438.943	860.81
439.165	691.81
439.386	625.81
439.608	640.81
439.829	631.81
440.05	640.81
440.272	698.81
440.493	657.81
440.715	611.81
440.936	586.81
441.158	577.81
441.379	594.81
441.6	606.81
441.822	609.81
442.043	693.81
442.264	730.81
442.486	806.81
442.707	680.81
442.928	673.81
443.149	663.81
443.371	662.81
443.592	714.81
443.813	807.81
444.034	876.81
444.255	727.81
444.476	663.81
444.698	653.81
444.919	653.81
445.14	774.81
445.361	691.81
445.582	691.81
445.803	705.81
446.024	831.81
446.245	835.81
446.466	783.81
446.687	665.81
446.908	613.81
447.129	593.81
447.35	579.81
447.571	592.81
447.792	580.81
448.013	576.81
448.234	588.81
448.455	626.81
448.675	715.81
448.896	879.81
449.117	743.81
449.338	696.81
449.559	804.81
449.779	913.81
450	752.81
450.221	636.81
450.442	575.81
450.662	574.81
450.883	555.81
451.104	579.81
451.324	568.81
451.545	539.81
451.766	547.81
451.986	535.81
452.207	510.81
452.428	519.81
452.648	500.81
452.869	519.81
453.089	527.81
453.31	552.81
453.53	524.81
453.751	504.81
453.971	539.81
454.192	525.81
454.412	517.81
454.633	512.81
454.853	499.81
455.073	497.81
455.294	559.81
455.514	602.81
455.734	588.81
455.955	507.81
456.175	486.81
456.395	488.81
456.616	450.81
456.836	516.81
457.056	496.81
457.276	480.81
457.497	491.81
457.717	488.81
457.937	481.81
458.157	483.81
458.377	491.81
458.598	525.81
458.818	562.81
459.038	638.81
459.258	677.81
459.478	587.81
459.698	556.81
459.918	550.81
460.138	569.81
460.358	569.81
460.578	591.81
460.798	556.81
461.018	581.81
461.238	575.81
461.458	573.81
461.678	559.81
461.898	559.81
462.118	575.81
462.338	596.81
462.558	599.81
462.777	609.81
462.997	641.81
463.217	642.81
463.437	652.81
463.657	648.81
463.876	630.81
464.096	624.81
464.316	616.81
464.536	623.81
464.755	612.81
464.975	629.81
465.195	628.81
465.414	672.81
465.634	631.81
465.854	584.81
466.073	568.81
466.293	544.81
466.512	545.81
466.732	525.81
466.951	544.81
467.171	527.81
467.391	529.81
467.61	547.81
467.829	561.81
468.049	528.81
468.268	540.81
468.488	527.81
468.707	509.81
468.927	505.81
469.146	509.81
469.365	494.81
469.585	524.81
469.804	510.81
470.023	525.81
470.243	542.81
470.462	555.81
470.681	553.81
470.901	558.81
471.12	538.81
471.339	541.81
471.558	538.81
471.777	547.81
471.997	543.81
472.216	541.81
472.435	572.81
472.654	579.81
472.873	531.81
473.092	531.81
473.311	507.81
473.53	516.81
473.749	539.81
473.968	587.81
474.187	689.81
474.406	696.81
474.625	576.81
474.844	543.81
475.063	548.81
475.282	547.81
475.501	550.81
475.72	528.81
475.939	538.81
476.158	520.81
476.377	565.81
476.596	541.81
476.814	557.81
477.033	582.81
477.252	579.81
477.471	554.81
477.69	591.81
477.908	585.81
478.127	589.81
478.346	589.81
478.564	608.81
478.783	620.81
479.002	607.81
479.22	623.81
479.439	628.81
479.658	659.81
479.876	659.81
480.095	661.81
480.313	684.81
480.532	681.81
480.751	665.81
480.969	674.81
481.188	712.81
481.406	735.81
481.624	664.81
481.843	676.81
482.061	659.81
482.28	652.81
482.498	631.81
482.717	633.81
482.935	632.81
483.153	651.81
483.372	653.81
483.59	644.81
483.808	632.81
484.027	628.81
484.245	636.81
484.463	642.81
484.681	648.81
484.9	633.81
485.118	647.81
485.336	625.81
485.554	656.81
485.772	667.81
485.99	632.81
486.209	662.81
486.427	639.81
486.645	665.81
486.863	671.81
487.081	673.81
487.299	681.81
487.517	669.81
487.735	685.81
487.953	658.81
488.171	687.81
488.389	681.81
488.607	681.81
488.825	680.81
489.043	669.81
489.261	657.81
489.479	678.81
489.696	702.81
489.914	684.81
490.132	718.81
490.35	728.81
490.568	717.81
490.786	740.81
491.003	754.81
491.221	749.81
491.439	751.81
491.657	796.81
491.874	744.81
492.092	794.81
492.31	772.81
492.527	785.81
492.745	779.81
492.963	810.81
493.18	801.81
493.398	806.81
493.615	808.81
493.833	819.81
494.05	805.81
494.268	824.81
494.485	792.81
494.703	809.81
494.92	809.81
495.138	810.81
495.355	808.81
495.573	804.81
495.79	834.81
496.008	832.81
496.225	817.81
496.442	799.81
496.66	816.81
496.877	816.81
497.094	822.81
497.312	826.81
497.529	824.81
497.746	833.81
497.963	857.81
498.181	869.81
498.398	890.81
498.615	917.81
498.832	945.81
499.049	967.81
499.267	993.81
499.484	1060.81
499.701	1088.81
499.918	1138.81
500.135	1173.81
500.352	1249.81
500.569	1277.81
500.786	1281.81
501.003	1258.81
501.22	1232.81
501.437	1168.81
501.654	1068.81
