Data from 1974.PennyLincolnUp.Lamp.En5.5.200Scan.071719.P1.Changed Mount._HRD10591_15-53-22-857.txt Node
Date: Thu Jul 18 15:53:22 EDT 2019
User: cochatt
Spectrometer: HR+D1059
Trigger mode: 1
Integration Time (sec): 1.000000E-1
Scans to average: 1
Electric dark correction enabled: true
Nonlinearity correction enabled: false
Boxcar width: 0
XAxis mode: Wavelengths
Number of Pixels in Spectrum: 2048
>>>>>Begin Spectral Data<<<<<
223.165	-15.81
223.4	-15.81
223.635	-15.81
223.869	-20.81
224.104	-23.81
224.338	-9.81
224.573	-20.81
224.808	-8.81
225.042	1.19
225.277	-13.81
225.511	-5.81
225.746	0.19
225.98	4.19
226.215	14.19
226.449	10.19
226.683	23.19
226.918	33.19
227.152	33.19
227.387	32.19
227.621	58.19
227.856	43.19
228.09	47.19
228.324	52.19
228.559	46.19
228.793	63.19
229.027	92.19
229.262	120.19
229.496	124.19
229.73	133.19
229.964	148.19
230.199	123.19
230.433	123.19
230.667	113.19
230.901	119.19
231.136	117.19
231.37	108.19
231.604	129.19
231.838	121.19
232.072	116.19
232.306	123.19
232.541	128.19
232.775	124.19
233.009	129.19
233.243	110.19
233.477	119.19
233.711	128.19
233.945	121.19
234.179	121.19
234.413	115.19
234.647	122.19
234.881	128.19
235.115	131.19
235.349	135.19
235.583	130.19
235.817	125.19
236.051	129.19
236.285	136.19
236.519	135.19
236.753	134.19
236.987	154.19
237.221	177.19
237.455	237.19
237.689	192.19
237.922	148.19
238.156	130.19
238.39	153.19
238.624	129.19
238.858	133.19
239.091	121.19
239.325	118.19
239.559	138.19
239.793	136.19
240.027	143.19
240.26	142.19
240.494	171.19
240.728	164.19
240.961	156.19
241.195	156.19
241.429	150.19
241.662	153.19
241.896	147.19
242.13	148.19
242.363	138.19
242.597	151.19
242.83	150.19
243.064	158.19
243.298	155.19
243.531	140.19
243.765	137.19
243.998	148.19
244.232	139.19
244.465	157.19
244.699	147.19
244.932	164.19
245.166	155.19
245.399	156.19
245.633	160.19
245.866	156.19
246.099	156.19
246.333	157.19
246.566	168.19
246.8	163.19
247.033	161.19
247.266	172.19
247.5	161.19
247.733	175.19
247.966	185.19
248.2	185.19
248.433	171.19
248.666	173.19
248.899	196.19
249.133	201.19
249.366	223.19
249.599	185.19
249.832	183.19
250.066	185.19
250.299	196.19
250.532	196.19
250.765	222.19
250.998	253.19
251.231	242.19
251.465	210.19
251.698	237.19
251.931	216.19
252.164	202.19
252.397	211.19
252.63	204.19
252.863	219.19
253.096	223.19
253.329	234.19
253.562	239.19
253.795	224.19
254.028	219.19
254.261	222.19
254.494	231.19
254.727	269.19
254.96	317.19
255.193	285.19
255.426	260.19
255.659	234.19
255.892	245.19
256.124	253.19
256.357	230.19
256.59	257.19
256.823	223.19
257.056	213.19
257.289	235.19
257.521	238.19
257.754	244.19
257.987	229.19
258.22	228.19
258.452	219.19
258.685	215.19
258.918	251.19
259.151	233.19
259.383	239.19
259.616	230.19
259.849	234.19
260.081	264.19
260.314	273.19
260.547	273.19
260.779	261.19
261.012	236.19
261.244	230.19
261.477	236.19
261.71	234.19
261.942	233.19
262.175	235.19
262.407	255.19
262.64	207.19
262.872	215.19
263.105	229.19
263.337	227.19
263.57	217.19
263.802	234.19
264.035	209.19
264.267	234.19
264.499	238.19
264.732	214.19
264.964	231.19
265.197	221.19
265.429	235.19
265.661	223.19
265.894	229.19
266.126	231.19
266.358	234.19
266.591	225.19
266.823	239.19
267.055	247.19
267.287	244.19
267.52	235.19
267.752	254.19
267.984	261.19
268.216	255.19
268.448	243.19
268.681	263.19
268.913	266.19
269.145	281.19
269.377	289.19
269.609	299.19
269.841	293.19
270.073	313.19
270.306	305.19
270.538	348.19
270.77	333.19
271.002	324.19
271.234	299.19
271.466	305.19
271.698	341.19
271.93	322.19
272.162	317.19
272.394	338.19
272.626	325.19
272.858	323.19
273.09	296.19
273.322	285.19
273.553	299.19
273.785	282.19
274.017	286.19
274.249	274.19
274.481	290.19
274.713	303.19
274.945	299.19
275.176	295.19
275.408	291.19
275.64	289.19
275.872	286.19
276.104	281.19
276.335	292.19
276.567	299.19
276.799	294.19
277.031	335.19
277.262	345.19
277.494	366.19
277.726	329.19
277.957	321.19
278.189	302.19
278.421	321.19
278.652	292.19
278.884	294.19
279.115	286.19
279.347	300.19
279.579	285.19
279.81	290.19
280.042	293.19
280.273	286.19
280.505	270.19
280.736	286.19
280.968	301.19
281.199	273.19
281.431	271.19
281.662	293.19
281.894	301.19
282.125	309.19
282.356	303.19
282.588	321.19
282.819	336.19
283.051	301.19
283.282	286.19
283.513	293.19
283.745	305.19
283.976	296.19
284.207	313.19
284.439	300.19
284.67	308.19
284.901	295.19
285.132	322.19
285.364	292.19
285.595	299.19
285.826	300.19
286.057	301.19
286.288	309.19
286.52	321.19
286.751	304.19
286.982	314.19
287.213	288.19
287.444	307.19
287.675	295.19
287.906	344.19
288.138	319.19
288.369	343.19
288.6	339.19
288.831	329.19
289.062	321.19
289.293	334.19
289.524	326.19
289.755	320.19
289.986	320.19
290.217	318.19
290.448	299.19
290.679	300.19
290.91	325.19
291.141	326.19
291.371	334.19
291.602	324.19
291.833	325.19
292.064	328.19
292.295	340.19
292.526	348.19
292.757	333.19
292.987	329.19
293.218	322.19
293.449	317.19
293.68	342.19
293.91	318.19
294.141	329.19
294.372	337.19
294.603	334.19
294.833	326.19
295.064	326.19
295.295	322.19
295.525	323.19
295.756	335.19
295.987	347.19
296.217	361.19
296.448	387.19
296.679	334.19
296.909	330.19
297.14	331.19
297.37	335.19
297.601	341.19
297.831	344.19
298.062	342.19
298.292	330.19
298.523	339.19
298.753	349.19
298.984	330.19
299.214	340.19
299.445	332.19
299.675	334.19
299.905	369.19
300.136	348.19
300.366	329.19
300.597	335.19
300.827	372.19
301.057	353.19
301.288	366.19
301.518	349.19
301.748	369.19
301.979	341.19
302.209	355.19
302.439	375.19
302.669	375.19
302.9	382.19
303.13	382.19
303.36	385.19
303.59	351.19
303.82	391.19
304.051	379.19
304.281	348.19
304.511	357.19
304.741	363.19
304.971	357.19
305.201	377.19
305.431	357.19
305.661	375.19
305.891	363.19
306.121	347.19
306.352	375.19
306.582	370.19
306.812	366.19
307.042	363.19
307.272	379.19
307.502	378.19
307.731	366.19
307.961	379.19
308.191	380.19
308.421	359.19
308.651	371.19
308.881	369.19
309.111	383.19
309.341	381.19
309.571	375.19
309.8	387.19
310.03	395.19
310.26	396.19
310.49	391.19
310.72	418.19
310.949	417.19
311.179	418.19
311.409	418.19
311.639	405.19
311.868	398.19
312.098	407.19
312.328	414.19
312.557	411.19
312.787	437.19
313.017	435.19
313.246	423.19
313.476	418.19
313.706	423.19
313.935	407.19
314.165	421.19
314.394	430.19
314.624	419.19
314.853	411.19
315.083	395.19
315.312	407.19
315.542	426.19
315.771	413.19
316.001	409.19
316.23	398.19
316.46	402.19
316.689	427.19
316.919	412.19
317.148	419.19
317.377	419.19
317.607	398.19
317.836	410.19
318.065	407.19
318.295	398.19
318.524	394.19
318.753	383.19
318.983	398.19
319.212	417.19
319.441	414.19
319.67	425.19
319.9	425.19
320.129	434.19
320.358	416.19
320.587	413.19
320.816	429.19
321.046	420.19
321.275	437.19
321.504	447.19
321.733	435.19
321.962	438.19
322.191	452.19
322.42	444.19
322.649	486.19
322.878	460.19
323.108	473.19
323.337	514.19
323.566	513.19
323.795	538.19
324.024	545.19
324.253	649.19
324.482	895.19
324.71	1319.19
324.939	1923.19
325.168	1707.19
325.397	879.19
325.626	603.19
325.855	528.19
326.084	517.19
326.313	516.19
326.542	518.19
326.77	562.19
326.999	609.19
327.228	807.19
327.457	1177.19
327.686	1491.19
327.914	1002.19
328.143	699.19
328.372	612.19
328.6	561.19
328.829	563.19
329.058	566.19
329.287	565.19
329.515	554.19
329.744	519.19
329.972	524.19
330.201	535.19
330.43	558.19
330.658	579.19
330.887	604.19
331.115	589.19
331.344	527.19
331.572	496.19
331.801	519.19
332.03	516.19
332.258	535.19
332.486	488.19
332.715	494.19
332.943	500.19
333.172	526.19
333.4	521.19
333.629	535.19
333.857	543.19
334.085	564.19
334.314	532.19
334.542	569.19
334.771	576.19
334.999	545.19
335.227	554.19
335.455	504.19
335.684	527.19
335.912	500.19
336.14	504.19
336.369	529.19
336.597	505.19
336.825	487.19
337.053	460.19
337.281	478.19
337.51	482.19
337.738	488.19
337.966	477.19
338.194	491.19
338.422	497.19
338.65	479.19
338.878	497.19
339.106	474.19
339.334	467.19
339.562	484.19
339.79	484.19
340.018	469.19
340.246	481.19
340.474	471.19
340.702	485.19
340.93	471.19
341.158	466.19
341.386	493.19
341.614	461.19
341.842	466.19
342.07	482.19
342.298	482.19
342.526	467.19
342.754	474.19
342.981	459.19
343.209	488.19
343.437	470.19
343.665	471.19
343.893	494.19
344.12	503.19
344.348	509.19
344.576	501.19
344.804	500.19
345.031	490.19
345.259	524.19
345.487	489.19
345.714	485.19
345.942	487.19
346.17	464.19
346.397	444.19
346.625	449.19
346.853	450.19
347.08	445.19
347.308	467.19
347.535	455.19
347.763	463.19
347.99	470.19
348.218	467.19
348.445	475.19
348.673	462.19
348.9	451.19
349.128	464.19
349.355	449.19
349.583	444.19
349.81	451.19
350.037	444.19
350.265	436.19
350.492	456.19
350.72	456.19
350.947	452.19
351.174	450.19
351.402	450.19
351.629	454.19
351.856	465.19
352.083	460.19
352.311	455.19
352.538	445.19
352.765	471.19
352.992	452.19
353.22	475.19
353.447	467.19
353.674	455.19
353.901	476.19
354.128	453.19
354.355	442.19
354.583	455.19
354.81	442.19
355.037	439.19
355.264	446.19
355.491	438.19
355.718	459.19
355.945	439.19
356.172	444.19
356.399	429.19
356.626	443.19
356.853	430.19
357.08	443.19
357.307	452.19
357.534	423.19
357.761	409.19
357.988	455.19
358.215	437.19
358.441	447.19
358.668	421.19
358.895	438.19
359.122	450.19
359.349	440.19
359.576	449.19
359.802	482.19
360.029	502.19
360.256	499.19
360.483	508.19
360.709	482.19
360.936	472.19
361.163	442.19
361.39	467.19
361.616	458.19
361.843	455.19
362.07	463.19
362.296	468.19
362.523	466.19
362.749	458.19
362.976	444.19
363.203	463.19
363.429	451.19
363.656	464.19
363.882	450.19
364.109	457.19
364.335	449.19
364.562	445.19
364.788	449.19
365.015	449.19
365.241	463.19
365.468	439.19
365.694	467.19
365.92	480.19
366.147	429.19
366.373	423.19
366.599	427.19
366.826	469.19
367.052	435.19
367.278	443.19
367.505	466.19
367.731	461.19
367.957	458.19
368.184	447.19
368.41	466.19
368.636	470.19
368.862	472.19
369.089	444.19
369.315	459.19
369.541	476.19
369.767	460.19
369.993	450.19
370.219	463.19
370.445	459.19
370.672	463.19
370.898	434.19
371.124	441.19
371.35	450.19
371.576	437.19
371.802	448.19
372.028	467.19
372.254	457.19
372.48	446.19
372.706	474.19
372.932	463.19
373.158	480.19
373.384	454.19
373.61	458.19
373.835	457.19
374.061	457.19
374.287	471.19
374.513	455.19
374.739	483.19
374.965	491.19
375.191	464.19
375.416	478.19
375.642	466.19
375.868	449.19
376.094	461.19
376.319	468.19
376.545	461.19
376.771	445.19
376.997	444.19
377.222	442.19
377.448	450.19
377.674	457.19
377.899	439.19
378.125	458.19
378.35	449.19
378.576	462.19
378.802	462.19
379.027	489.19
379.253	453.19
379.478	453.19
379.704	460.19
379.929	466.19
380.155	456.19
380.38	463.19
380.606	434.19
380.831	443.19
381.057	466.19
381.282	466.19
381.507	473.19
381.733	456.19
381.958	471.19
382.184	474.19
382.409	508.19
382.634	494.19
382.86	462.19
383.085	471.19
383.31	480.19
383.535	484.19
383.761	478.19
383.986	494.19
384.211	488.19
384.436	476.19
384.662	489.19
384.887	482.19
385.112	479.19
385.337	520.19
385.562	514.19
385.787	520.19
386.013	523.19
386.238	542.19
386.463	509.19
386.688	506.19
386.913	531.19
387.138	497.19
387.363	509.19
387.588	493.19
387.813	533.19
388.038	511.19
388.263	514.19
388.488	522.19
388.713	518.19
388.938	488.19
389.163	513.19
389.387	519.19
389.612	510.19
389.837	508.19
390.062	516.19
390.287	519.19
390.512	494.19
390.736	495.19
390.961	531.19
391.186	543.19
391.411	512.19
391.636	539.19
391.86	551.19
392.085	542.19
392.31	535.19
392.534	535.19
392.759	536.19
392.984	548.19
393.208	524.19
393.433	543.19
393.658	524.19
393.882	508.19
394.107	537.19
394.331	519.19
394.556	520.19
394.78	551.19
395.005	533.19
395.229	540.19
395.454	543.19
395.678	553.19
395.903	582.19
396.127	563.19
396.352	576.19
396.576	550.19
396.801	538.19
397.025	540.19
397.249	537.19
397.474	576.19
397.698	557.19
397.922	579.19
398.147	614.19
398.371	595.19
398.595	567.19
398.82	595.19
399.044	601.19
399.268	635.19
399.492	689.19
399.717	710.19
399.941	766.19
400.165	768.19
400.389	764.19
400.613	684.19
400.837	623.19
401.062	621.19
401.286	632.19
401.51	593.19
401.734	603.19
401.958	601.19
402.182	609.19
402.406	625.19
402.63	601.19
402.854	631.19
403.078	625.19
403.302	632.19
403.526	638.19
403.75	636.19
403.974	635.19
404.198	633.19
404.422	656.19
404.645	645.19
404.869	653.19
405.093	675.19
405.317	713.19
405.541	725.19
405.765	697.19
405.988	647.19
406.212	659.19
406.436	679.19
406.66	702.19
406.883	681.19
407.107	709.19
407.331	740.19
407.555	835.19
407.778	822.19
408.002	751.19
408.226	708.19
408.449	695.19
408.673	701.19
408.896	712.19
409.12	757.19
409.344	724.19
409.567	669.19
409.791	654.19
410.014	633.19
410.238	628.19
410.461	619.19
410.685	638.19
410.908	651.19
411.132	680.19
411.355	707.19
411.578	691.19
411.802	660.19
412.025	632.19
412.249	643.19
412.472	663.19
412.695	707.19
412.919	698.19
413.142	650.19
413.365	614.19
413.589	632.19
413.812	582.19
414.035	595.19
414.258	613.19
414.482	598.19
414.705	596.19
414.928	575.19
415.151	575.19
415.374	611.19
415.597	596.19
415.821	600.19
416.044	587.19
416.267	597.19
416.49	617.19
416.713	603.19
416.936	586.19
417.159	584.19
417.382	582.19
417.605	595.19
417.828	623.19
418.051	625.19
418.274	621.19
418.497	607.19
418.72	591.19
418.943	592.19
419.166	620.19
419.389	643.19
419.611	651.19
419.834	643.19
420.057	628.19
420.28	626.19
420.503	626.19
420.726	622.19
420.948	645.19
421.171	681.19
421.394	701.19
421.617	630.19
421.839	635.19
422.062	614.19
422.285	631.19
422.507	707.19
422.73	761.19
422.953	714.19
423.175	668.19
423.398	653.19
423.621	652.19
423.843	683.19
424.066	686.19
424.288	678.19
424.511	685.19
424.733	761.19
424.956	832.19
425.178	814.19
425.401	791.19
425.623	810.19
425.846	710.19
426.068	674.19
426.291	659.19
426.513	642.19
426.735	661.19
426.958	698.19
427.18	779.19
427.402	935.19
427.625	970.19
427.847	871.19
428.069	759.19
428.292	685.19
428.514	626.19
428.736	614.19
428.958	624.19
429.181	608.19
429.403	599.19
429.625	607.19
429.847	635.19
430.069	729.19
430.292	726.19
430.514	621.19
430.736	592.19
430.958	607.19
431.18	587.19
431.402	591.19
431.624	575.19
431.846	549.19
432.068	569.19
432.29	586.19
432.512	588.19
432.734	590.19
432.956	602.19
433.178	607.19
433.4	587.19
433.622	581.19
433.844	590.19
434.066	592.19
434.287	570.19
434.509	601.19
434.731	592.19
434.953	630.19
435.175	615.19
435.397	673.19
435.618	653.19
435.84	702.19
436.062	802.19
436.284	869.19
436.505	705.19
436.727	668.19
436.949	633.19
437.17	612.19
437.392	613.19
437.614	611.19
437.835	637.19
438.057	726.19
438.278	827.19
438.5	836.19
438.721	942.19
438.943	890.19
439.165	721.19
439.386	667.19
439.608	648.19
439.829	655.19
440.05	666.19
440.272	723.19
440.493	687.19
440.715	651.19
440.936	633.19
441.158	630.19
441.379	591.19
441.6	633.19
441.822	624.19
442.043	706.19
442.264	780.19
442.486	829.19
442.707	728.19
442.928	673.19
443.149	671.19
443.371	701.19
443.592	762.19
443.813	821.19
444.034	899.19
444.255	773.19
444.476	681.19
444.698	682.19
444.919	711.19
445.14	788.19
445.361	729.19
445.582	693.19
445.803	745.19
446.024	858.19
446.245	889.19
446.466	805.19
446.687	701.19
446.908	643.19
447.129	632.19
447.35	597.19
447.571	617.19
447.792	596.19
448.013	612.19
448.234	618.19
448.455	645.19
448.675	808.19
448.896	895.19
449.117	779.19
449.338	745.19
449.559	861.19
449.779	970.19
450	766.19
450.221	655.19
450.442	607.19
450.662	593.19
450.883	582.19
451.104	595.19
451.324	571.19
451.545	575.19
451.766	549.19
451.986	548.19
452.207	516.19
452.428	558.19
452.648	533.19
452.869	539.19
453.089	526.19
453.31	528.19
453.53	539.19
453.751	529.19
453.971	552.19
454.192	550.19
454.412	537.19
454.633	510.19
454.853	506.19
455.073	519.19
455.294	549.19
455.514	630.19
455.734	603.19
455.955	524.19
456.175	499.19
456.395	485.19
456.616	502.19
456.836	498.19
457.056	489.19
457.276	511.19
457.497	499.19
457.717	504.19
457.937	495.19
458.157	501.19
458.377	553.19
458.598	546.19
458.818	595.19
459.038	654.19
459.258	697.19
459.478	621.19
459.698	586.19
459.918	590.19
460.138	563.19
460.358	599.19
460.578	618.19
460.798	597.19
461.018	610.19
461.238	595.19
461.458	594.19
461.678	588.19
461.898	591.19
462.118	606.19
462.338	602.19
462.558	631.19
462.777	633.19
462.997	649.19
463.217	678.19
463.437	709.19
463.657	649.19
463.876	666.19
464.096	654.19
464.316	668.19
464.536	665.19
464.755	648.19
464.975	643.19
465.195	676.19
465.414	715.19
465.634	657.19
465.854	602.19
466.073	598.19
466.293	584.19
466.512	565.19
466.732	531.19
466.951	552.19
467.171	556.19
467.391	566.19
467.61	572.19
467.829	568.19
468.049	567.19
468.268	555.19
468.488	558.19
468.707	537.19
468.927	545.19
469.146	538.19
469.365	549.19
469.585	537.19
469.804	564.19
470.023	569.19
470.243	576.19
470.462	583.19
470.681	572.19
470.901	559.19
471.12	575.19
471.339	573.19
471.558	563.19
471.777	573.19
471.997	565.19
472.216	584.19
472.435	599.19
472.654	561.19
472.873	549.19
473.092	562.19
473.311	569.19
473.53	573.19
473.749	583.19
473.968	598.19
474.187	710.19
474.406	744.19
474.625	639.19
474.844	589.19
475.063	561.19
475.282	565.19
475.501	575.19
475.72	556.19
475.939	582.19
476.158	581.19
476.377	575.19
476.596	585.19
476.814	578.19
477.033	562.19
477.252	575.19
477.471	593.19
477.69	613.19
477.908	616.19
478.127	638.19
478.346	628.19
478.564	619.19
478.783	629.19
479.002	651.19
479.22	667.19
479.439	645.19
479.658	655.19
479.876	705.19
480.095	689.19
480.313	710.19
480.532	717.19
480.751	721.19
480.969	701.19
481.188	737.19
481.406	796.19
481.624	727.19
481.843	675.19
482.061	674.19
482.28	674.19
482.498	692.19
482.717	638.19
482.935	634.19
483.153	653.19
483.372	662.19
483.59	657.19
483.808	645.19
484.027	652.19
484.245	674.19
484.463	666.19
484.681	673.19
484.9	662.19
485.118	677.19
485.336	680.19
485.554	681.19
485.772	684.19
485.99	654.19
486.209	674.19
486.427	684.19
486.645	697.19
486.863	715.19
487.081	702.19
487.299	697.19
487.517	728.19
487.735	700.19
487.953	694.19
488.171	728.19
488.389	712.19
488.607	710.19
488.825	702.19
489.043	718.19
489.261	714.19
489.479	708.19
489.696	727.19
489.914	717.19
490.132	734.19
490.35	735.19
490.568	739.19
490.786	757.19
491.003	772.19
491.221	762.19
491.439	789.19
491.657	805.19
491.874	806.19
492.092	831.19
492.31	841.19
492.527	810.19
492.745	818.19
492.963	810.19
493.18	826.19
493.398	830.19
493.615	834.19
493.833	824.19
494.05	830.19
494.268	828.19
494.485	849.19
494.703	837.19
494.92	858.19
495.138	846.19
495.355	837.19
495.573	843.19
495.79	860.19
496.008	857.19
496.225	845.19
496.442	855.19
496.66	857.19
496.877	827.19
497.094	859.19
497.312	890.19
497.529	886.19
497.746	906.19
497.963	910.19
498.181	927.19
498.398	941.19
498.615	940.19
498.832	991.19
499.049	1001.19
499.267	1022.19
499.484	1095.19
499.701	1137.19
499.918	1157.19
500.135	1235.19
500.352	1347.19
500.569	1352.19
500.786	1303.19
501.003	1281.19
501.22	1242.19
501.437	1203.19
501.654	1153.19
