Data from 1974.PennyLincolnUp.Lamp.En5.5.200Scan.071719.P1.Changed Mount._HRD10591_15-53-00-857.txt Node
Date: Thu Jul 18 15:53:00 EDT 2019
User: cochatt
Spectrometer: HR+D1059
Trigger mode: 1
Integration Time (sec): 1.000000E-1
Scans to average: 1
Electric dark correction enabled: true
Nonlinearity correction enabled: false
Boxcar width: 0
XAxis mode: Wavelengths
Number of Pixels in Spectrum: 2048
>>>>>Begin Spectral Data<<<<<
223.165	-19.38
223.4	-19.38
223.635	-19.38
223.869	-10.38
224.104	-13.38
224.338	-12.38
224.573	-18.38
224.808	-13.38
225.042	-11.38
225.277	-2.38
225.511	-3.38
225.746	8.62
225.98	2.62
226.215	3.62
226.449	13.62
226.683	24.62
226.918	26.62
227.152	24.62
227.387	21.62
227.621	40.62
227.856	56.62
228.09	46.62
228.324	57.62
228.559	42.62
228.793	63.62
229.027	98.62
229.262	107.62
229.496	117.62
229.73	141.62
229.964	153.62
230.199	137.62
230.433	129.62
230.667	105.62
230.901	121.62
231.136	104.62
231.37	125.62
231.604	117.62
231.838	120.62
232.072	123.62
232.306	113.62
232.541	130.62
232.775	120.62
233.009	120.62
233.243	109.62
233.477	117.62
233.711	136.62
233.945	121.62
234.179	123.62
234.413	121.62
234.647	128.62
234.881	114.62
235.115	123.62
235.349	123.62
235.583	117.62
235.817	116.62
236.051	110.62
236.285	134.62
236.519	115.62
236.753	125.62
236.987	162.62
237.221	183.62
237.455	230.62
237.689	188.62
237.922	153.62
238.156	142.62
238.39	142.62
238.624	131.62
238.858	121.62
239.091	128.62
239.325	120.62
239.559	122.62
239.793	130.62
240.027	131.62
240.26	135.62
240.494	157.62
240.728	166.62
240.961	163.62
241.195	161.62
241.429	151.62
241.662	139.62
241.896	142.62
242.13	131.62
242.363	147.62
242.597	134.62
242.83	143.62
243.064	156.62
243.298	155.62
243.531	142.62
243.765	145.62
243.998	143.62
244.232	149.62
244.465	153.62
244.699	153.62
244.932	151.62
245.166	142.62
245.399	156.62
245.633	161.62
245.866	162.62
246.099	152.62
246.333	160.62
246.566	159.62
246.8	169.62
247.033	187.62
247.266	179.62
247.5	173.62
247.733	179.62
247.966	175.62
248.2	190.62
248.433	172.62
248.666	190.62
248.899	188.62
249.133	214.62
249.366	214.62
249.599	211.62
249.832	196.62
250.066	186.62
250.299	190.62
250.532	207.62
250.765	220.62
250.998	238.62
251.231	230.62
251.465	226.62
251.698	217.62
251.931	214.62
252.164	211.62
252.397	214.62
252.63	203.62
252.863	221.62
253.096	225.62
253.329	242.62
253.562	231.62
253.795	224.62
254.028	223.62
254.261	223.62
254.494	232.62
254.727	259.62
254.96	297.62
255.193	274.62
255.426	238.62
255.659	269.62
255.892	246.62
256.124	244.62
256.357	261.62
256.59	228.62
256.823	226.62
257.056	226.62
257.289	224.62
257.521	227.62
257.754	230.62
257.987	243.62
258.22	226.62
258.452	209.62
258.685	226.62
258.918	221.62
259.151	240.62
259.383	223.62
259.616	230.62
259.849	251.62
260.081	239.62
260.314	269.62
260.547	290.62
260.779	261.62
261.012	244.62
261.244	234.62
261.477	239.62
261.71	234.62
261.942	227.62
262.175	240.62
262.407	218.62
262.64	217.62
262.872	207.62
263.105	218.62
263.337	229.62
263.57	221.62
263.802	220.62
264.035	225.62
264.267	216.62
264.499	250.62
264.732	243.62
264.964	231.62
265.197	234.62
265.429	238.62
265.661	244.62
265.894	218.62
266.126	243.62
266.358	224.62
266.591	238.62
266.823	247.62
267.055	243.62
267.287	235.62
267.52	237.62
267.752	231.62
267.984	236.62
268.216	249.62
268.448	236.62
268.681	257.62
268.913	262.62
269.145	297.62
269.377	309.62
269.609	276.62
269.841	289.62
270.073	284.62
270.306	299.62
270.538	342.62
270.77	335.62
271.002	338.62
271.234	315.62
271.466	293.62
271.698	321.62
271.93	318.62
272.162	339.62
272.394	330.62
272.626	298.62
272.858	290.62
273.09	301.62
273.322	294.62
273.553	281.62
273.785	293.62
274.017	283.62
274.249	277.62
274.481	289.62
274.713	281.62
274.945	295.62
275.176	305.62
275.408	289.62
275.64	281.62
275.872	286.62
276.104	280.62
276.335	282.62
276.567	287.62
276.799	317.62
277.031	323.62
277.262	338.62
277.494	324.62
277.726	323.62
277.957	318.62
278.189	294.62
278.421	305.62
278.652	286.62
278.884	290.62
279.115	300.62
279.347	283.62
279.579	279.62
279.81	308.62
280.042	300.62
280.273	298.62
280.505	300.62
280.736	283.62
280.968	289.62
281.199	273.62
281.431	293.62
281.662	287.62
281.894	301.62
282.125	299.62
282.356	320.62
282.588	334.62
282.819	307.62
283.051	293.62
283.282	295.62
283.513	290.62
283.745	298.62
283.976	309.62
284.207	309.62
284.439	285.62
284.67	308.62
284.901	300.62
285.132	296.62
285.364	282.62
285.595	314.62
285.826	306.62
286.057	285.62
286.288	316.62
286.52	291.62
286.751	328.62
286.982	301.62
287.213	294.62
287.444	305.62
287.675	315.62
287.906	313.62
288.138	298.62
288.369	337.62
288.6	354.62
288.831	321.62
289.062	331.62
289.293	329.62
289.524	307.62
289.755	326.62
289.986	323.62
290.217	312.62
290.448	309.62
290.679	332.62
290.91	312.62
291.141	333.62
291.371	322.62
291.602	311.62
291.833	326.62
292.064	323.62
292.295	294.62
292.526	308.62
292.757	320.62
292.987	340.62
293.218	318.62
293.449	326.62
293.68	315.62
293.91	339.62
294.141	309.62
294.372	318.62
294.603	317.62
294.833	323.62
295.064	321.62
295.295	316.62
295.525	310.62
295.756	315.62
295.987	324.62
296.217	336.62
296.448	346.62
296.679	319.62
296.909	328.62
297.14	336.62
297.37	337.62
297.601	330.62
297.831	327.62
298.062	325.62
298.292	347.62
298.523	339.62
298.753	330.62
298.984	340.62
299.214	332.62
299.445	322.62
299.675	336.62
299.905	323.62
300.136	338.62
300.366	324.62
300.597	325.62
300.827	346.62
301.057	357.62
301.288	350.62
301.518	362.62
301.748	346.62
301.979	361.62
302.209	355.62
302.439	365.62
302.669	351.62
302.9	370.62
303.13	351.62
303.36	364.62
303.59	374.62
303.82	369.62
304.051	360.62
304.281	353.62
304.511	352.62
304.741	353.62
304.971	355.62
305.201	374.62
305.431	364.62
305.661	369.62
305.891	360.62
306.121	349.62
306.352	365.62
306.582	358.62
306.812	360.62
307.042	344.62
307.272	367.62
307.502	365.62
307.731	375.62
307.961	350.62
308.191	349.62
308.421	382.62
308.651	358.62
308.881	378.62
309.111	357.62
309.341	364.62
309.571	383.62
309.8	377.62
310.03	388.62
310.26	404.62
310.49	401.62
310.72	399.62
310.949	407.62
311.179	408.62
311.409	398.62
311.639	404.62
311.868	391.62
312.098	388.62
312.328	388.62
312.557	419.62
312.787	430.62
313.017	435.62
313.246	414.62
313.476	392.62
313.706	405.62
313.935	425.62
314.165	413.62
314.394	410.62
314.624	434.62
314.853	431.62
315.083	410.62
315.312	398.62
315.542	381.62
315.771	401.62
316.001	411.62
316.23	424.62
316.46	403.62
316.689	415.62
316.919	404.62
317.148	407.62
317.377	406.62
317.607	419.62
317.836	401.62
318.065	403.62
318.295	421.62
318.524	415.62
318.753	412.62
318.983	393.62
319.212	400.62
319.441	434.62
319.67	419.62
319.9	411.62
320.129	407.62
320.358	411.62
320.587	423.62
320.816	411.62
321.046	419.62
321.275	411.62
321.504	414.62
321.733	441.62
321.962	425.62
322.191	443.62
322.42	436.62
322.649	449.62
322.878	468.62
323.108	476.62
323.337	479.62
323.566	511.62
323.795	546.62
324.024	554.62
324.253	635.62
324.482	880.62
324.71	1285.62
324.939	1883.62
325.168	1667.62
325.397	873.62
325.626	626.62
325.855	526.62
326.084	512.62
326.313	515.62
326.542	504.62
326.77	547.62
326.999	596.62
327.228	778.62
327.457	1139.62
327.686	1445.62
327.914	979.62
328.143	669.62
328.372	600.62
328.6	561.62
328.829	539.62
329.058	565.62
329.287	577.62
329.515	539.62
329.744	534.62
329.972	517.62
330.201	527.62
330.43	561.62
330.658	565.62
330.887	591.62
331.115	579.62
331.344	525.62
331.572	538.62
331.801	485.62
332.03	490.62
332.258	506.62
332.486	503.62
332.715	488.62
332.943	478.62
333.172	503.62
333.4	507.62
333.629	500.62
333.857	544.62
334.085	540.62
334.314	551.62
334.542	552.62
334.771	590.62
334.999	573.62
335.227	531.62
335.455	518.62
335.684	500.62
335.912	505.62
336.14	489.62
336.369	513.62
336.597	475.62
336.825	487.62
337.053	484.62
337.281	493.62
337.51	470.62
337.738	483.62
337.966	479.62
338.194	454.62
338.422	484.62
338.65	482.62
338.878	468.62
339.106	464.62
339.334	467.62
339.562	479.62
339.79	468.62
340.018	462.62
340.246	459.62
340.474	454.62
340.702	493.62
340.93	498.62
341.158	470.62
341.386	458.62
341.614	477.62
341.842	465.62
342.07	454.62
342.298	473.62
342.526	478.62
342.754	465.62
342.981	458.62
343.209	470.62
343.437	458.62
343.665	469.62
343.893	489.62
344.12	515.62
344.348	492.62
344.576	498.62
344.804	474.62
345.031	471.62
345.259	501.62
345.487	456.62
345.714	475.62
345.942	462.62
346.17	438.62
346.397	467.62
346.625	458.62
346.853	448.62
347.08	448.62
347.308	446.62
347.535	481.62
347.763	458.62
347.99	490.62
348.218	442.62
348.445	461.62
348.673	481.62
348.9	437.62
349.128	445.62
349.355	429.62
349.583	446.62
349.81	455.62
350.037	438.62
350.265	447.62
350.492	435.62
350.72	441.62
350.947	439.62
351.174	454.62
351.402	447.62
351.629	446.62
351.856	462.62
352.083	454.62
352.311	477.62
352.538	462.62
352.765	457.62
352.992	444.62
353.22	450.62
353.447	451.62
353.674	450.62
353.901	427.62
354.128	424.62
354.355	434.62
354.583	457.62
354.81	452.62
355.037	446.62
355.264	439.62
355.491	428.62
355.718	429.62
355.945	448.62
356.172	422.62
356.399	456.62
356.626	433.62
356.853	433.62
357.08	417.62
357.307	431.62
357.534	440.62
357.761	425.62
357.988	438.62
358.215	438.62
358.441	399.62
358.668	444.62
358.895	440.62
359.122	425.62
359.349	441.62
359.576	456.62
359.802	479.62
360.029	485.62
360.256	495.62
360.483	480.62
360.709	452.62
360.936	459.62
361.163	461.62
361.39	458.62
361.616	466.62
361.843	443.62
362.07	445.62
362.296	478.62
362.523	446.62
362.749	465.62
362.976	447.62
363.203	461.62
363.429	455.62
363.656	443.62
363.882	451.62
364.109	459.62
364.335	455.62
364.562	451.62
364.788	458.62
365.015	430.62
365.241	453.62
365.468	457.62
365.694	459.62
365.92	452.62
366.147	443.62
366.373	467.62
366.599	445.62
366.826	426.62
367.052	421.62
367.278	446.62
367.505	445.62
367.731	443.62
367.957	456.62
368.184	444.62
368.41	447.62
368.636	463.62
368.862	443.62
369.089	463.62
369.315	436.62
369.541	445.62
369.767	451.62
369.993	447.62
370.219	451.62
370.445	462.62
370.672	463.62
370.898	454.62
371.124	456.62
371.35	456.62
371.576	438.62
371.802	461.62
372.028	445.62
372.254	457.62
372.48	462.62
372.706	466.62
372.932	466.62
373.158	464.62
373.384	472.62
373.61	465.62
373.835	471.62
374.061	468.62
374.287	443.62
374.513	461.62
374.739	470.62
374.965	456.62
375.191	453.62
375.416	475.62
375.642	462.62
375.868	477.62
376.094	445.62
376.319	466.62
376.545	471.62
376.771	464.62
376.997	472.62
377.222	485.62
377.448	456.62
377.674	447.62
377.899	458.62
378.125	440.62
378.35	447.62
378.576	458.62
378.802	444.62
379.027	449.62
379.253	441.62
379.478	433.62
379.704	454.62
379.929	454.62
380.155	463.62
380.38	446.62
380.606	460.62
380.831	457.62
381.057	454.62
381.282	471.62
381.507	465.62
381.733	463.62
381.958	439.62
382.184	473.62
382.409	474.62
382.634	458.62
382.86	481.62
383.085	459.62
383.31	480.62
383.535	457.62
383.761	479.62
383.986	483.62
384.211	484.62
384.436	477.62
384.662	483.62
384.887	484.62
385.112	491.62
385.337	491.62
385.562	499.62
385.787	492.62
386.013	523.62
386.238	521.62
386.463	530.62
386.688	503.62
386.913	505.62
387.138	515.62
387.363	511.62
387.588	517.62
387.813	507.62
388.038	507.62
388.263	521.62
388.488	541.62
388.713	525.62
388.938	517.62
389.163	511.62
389.387	521.62
389.612	499.62
389.837	510.62
390.062	499.62
390.287	523.62
390.512	502.62
390.736	525.62
390.961	508.62
391.186	493.62
391.411	533.62
391.636	527.62
391.86	526.62
392.085	551.62
392.31	549.62
392.534	538.62
392.759	540.62
392.984	535.62
393.208	510.62
393.433	522.62
393.658	539.62
393.882	500.62
394.107	500.62
394.331	525.62
394.556	526.62
394.78	529.62
395.005	527.62
395.229	525.62
395.454	530.62
395.678	563.62
395.903	544.62
396.127	570.62
396.352	581.62
396.576	536.62
396.801	545.62
397.025	551.62
397.249	565.62
397.474	557.62
397.698	557.62
397.922	578.62
398.147	552.62
398.371	578.62
398.595	569.62
398.82	591.62
399.044	614.62
399.268	628.62
399.492	679.62
399.717	737.62
399.941	746.62
400.165	769.62
400.389	771.62
400.613	699.62
400.837	645.62
401.062	627.62
401.286	613.62
401.51	549.62
401.734	581.62
401.958	604.62
402.182	604.62
402.406	622.62
402.63	612.62
402.854	626.62
403.078	625.62
403.302	636.62
403.526	617.62
403.75	641.62
403.974	608.62
404.198	612.62
404.422	604.62
404.645	635.62
404.869	643.62
405.093	662.62
405.317	716.62
405.541	726.62
405.765	687.62
405.988	678.62
406.212	674.62
406.436	663.62
406.66	668.62
406.883	678.62
407.107	714.62
407.331	734.62
407.555	832.62
407.778	825.62
408.002	752.62
408.226	699.62
408.449	704.62
408.673	700.62
408.896	723.62
409.12	741.62
409.344	716.62
409.567	654.62
409.791	666.62
410.014	637.62
410.238	637.62
410.461	636.62
410.685	644.62
410.908	638.62
411.132	665.62
411.355	716.62
411.578	675.62
411.802	622.62
412.025	619.62
412.249	625.62
412.472	649.62
412.695	707.62
412.919	689.62
413.142	654.62
413.365	598.62
413.589	599.62
413.812	581.62
414.035	598.62
414.258	600.62
414.482	596.62
414.705	588.62
414.928	598.62
415.151	573.62
415.374	610.62
415.597	601.62
415.821	570.62
416.044	588.62
416.267	589.62
416.49	594.62
416.713	569.62
416.936	585.62
417.159	578.62
417.382	602.62
417.605	594.62
417.828	606.62
418.051	607.62
418.274	610.62
418.497	583.62
418.72	604.62
418.943	603.62
419.166	615.62
419.389	635.62
419.611	675.62
419.834	604.62
420.057	614.62
420.28	629.62
420.503	622.62
420.726	627.62
420.948	633.62
421.171	680.62
421.394	707.62
421.617	631.62
421.839	619.62
422.062	637.62
422.285	643.62
422.507	697.62
422.73	781.62
422.953	731.62
423.175	664.62
423.398	633.62
423.621	644.62
423.843	670.62
424.066	685.62
424.288	639.62
424.511	692.62
424.733	734.62
424.956	796.62
425.178	753.62
425.401	775.62
425.623	815.62
425.846	707.62
426.068	645.62
426.291	625.62
426.513	658.62
426.735	666.62
426.958	679.62
427.18	787.62
427.402	906.62
427.625	990.62
427.847	858.62
428.069	780.62
428.292	660.62
428.514	633.62
428.736	618.62
428.958	587.62
429.181	598.62
429.403	586.62
429.625	610.62
429.847	636.62
430.069	714.62
430.292	712.62
430.514	617.62
430.736	585.62
430.958	578.62
431.18	572.62
431.402	581.62
431.624	569.62
431.846	564.62
432.068	571.62
432.29	583.62
432.512	568.62
432.734	588.62
432.956	565.62
433.178	590.62
433.4	597.62
433.622	578.62
433.844	556.62
434.066	592.62
434.287	574.62
434.509	597.62
434.731	613.62
434.953	599.62
435.175	603.62
435.397	615.62
435.618	649.62
435.84	702.62
436.062	783.62
436.284	851.62
436.505	713.62
436.727	645.62
436.949	654.62
437.17	586.62
437.392	601.62
437.614	611.62
437.835	634.62
438.057	725.62
438.278	827.62
438.5	826.62
438.721	918.62
438.943	877.62
439.165	715.62
439.386	704.62
439.608	653.62
439.829	617.62
440.05	641.62
440.272	705.62
440.493	658.62
440.715	621.62
440.936	614.62
441.158	627.62
441.379	606.62
441.6	645.62
441.822	667.62
442.043	689.62
442.264	755.62
442.486	833.62
442.707	697.62
442.928	671.62
443.149	667.62
443.371	687.62
443.592	750.62
443.813	848.62
444.034	907.62
444.255	794.62
444.476	695.62
444.698	664.62
444.919	673.62
445.14	742.62
445.361	717.62
445.582	732.62
445.803	741.62
446.024	841.62
446.245	858.62
446.466	786.62
446.687	695.62
446.908	671.62
447.129	627.62
447.35	605.62
447.571	594.62
447.792	559.62
448.013	589.62
448.234	622.62
448.455	651.62
448.675	766.62
448.896	875.62
449.117	780.62
449.338	713.62
449.559	839.62
449.779	972.62
450	780.62
450.221	648.62
450.442	591.62
450.662	603.62
450.883	582.62
451.104	609.62
451.324	590.62
451.545	570.62
451.766	571.62
451.986	540.62
452.207	551.62
452.428	527.62
452.648	521.62
452.869	524.62
453.089	554.62
453.31	575.62
453.53	543.62
453.751	527.62
453.971	545.62
454.192	549.62
454.412	538.62
454.633	521.62
454.853	495.62
455.073	517.62
455.294	531.62
455.514	622.62
455.734	639.62
455.955	546.62
456.175	531.62
456.395	486.62
456.616	507.62
456.836	529.62
457.056	499.62
457.276	493.62
457.497	504.62
457.717	494.62
457.937	497.62
458.157	526.62
458.377	510.62
458.598	552.62
458.818	567.62
459.038	657.62
459.258	681.62
459.478	605.62
459.698	575.62
459.918	581.62
460.138	580.62
460.358	596.62
460.578	605.62
460.798	592.62
461.018	616.62
461.238	602.62
461.458	618.62
461.678	597.62
461.898	576.62
462.118	573.62
462.338	604.62
462.558	621.62
462.777	625.62
462.997	651.62
463.217	692.62
463.437	664.62
463.657	669.62
463.876	651.62
464.096	643.62
464.316	638.62
464.536	646.62
464.755	651.62
464.975	638.62
465.195	654.62
465.414	700.62
465.634	633.62
465.854	609.62
466.073	597.62
466.293	581.62
466.512	567.62
466.732	550.62
466.951	564.62
467.171	543.62
467.391	550.62
467.61	557.62
467.829	563.62
468.049	541.62
468.268	546.62
468.488	529.62
468.707	519.62
468.927	544.62
469.146	547.62
469.365	540.62
469.585	525.62
469.804	552.62
470.023	569.62
470.243	587.62
470.462	580.62
470.681	561.62
470.901	601.62
471.12	538.62
471.339	561.62
471.558	569.62
471.777	551.62
471.997	536.62
472.216	553.62
472.435	569.62
472.654	550.62
472.873	571.62
473.092	559.62
473.311	557.62
473.53	559.62
473.749	573.62
473.968	591.62
474.187	707.62
474.406	738.62
474.625	629.62
474.844	574.62
475.063	571.62
475.282	557.62
475.501	565.62
475.72	543.62
475.939	572.62
476.158	564.62
476.377	578.62
476.596	585.62
476.814	583.62
477.033	577.62
477.252	581.62
477.471	580.62
477.69	589.62
477.908	629.62
478.127	619.62
478.346	614.62
478.564	618.62
478.783	639.62
479.002	655.62
479.22	643.62
479.439	651.62
479.658	650.62
479.876	649.62
480.095	666.62
480.313	709.62
480.532	674.62
480.751	699.62
480.969	663.62
481.188	731.62
481.406	749.62
481.624	693.62
481.843	693.62
482.061	655.62
482.28	660.62
482.498	651.62
482.717	622.62
482.935	654.62
483.153	668.62
483.372	636.62
483.59	667.62
483.808	645.62
484.027	629.62
484.245	663.62
484.463	641.62
484.681	660.62
484.9	673.62
485.118	659.62
485.336	650.62
485.554	670.62
485.772	667.62
485.99	666.62
486.209	666.62
486.427	662.62
486.645	676.62
486.863	712.62
487.081	700.62
487.299	683.62
487.517	715.62
487.735	697.62
487.953	690.62
488.171	696.62
488.389	721.62
488.607	715.62
488.825	695.62
489.043	717.62
489.261	724.62
489.479	695.62
489.696	699.62
489.914	725.62
490.132	727.62
490.35	742.62
490.568	731.62
490.786	746.62
491.003	746.62
491.221	743.62
491.439	787.62
491.657	825.62
491.874	797.62
492.092	787.62
492.31	810.62
492.527	792.62
492.745	815.62
492.963	818.62
493.18	852.62
493.398	812.62
493.615	841.62
493.833	836.62
494.05	839.62
494.268	844.62
494.485	817.62
494.703	825.62
494.92	814.62
495.138	852.62
495.355	827.62
495.573	838.62
495.79	831.62
496.008	846.62
496.225	822.62
496.442	831.62
496.66	856.62
496.877	841.62
497.094	865.62
497.312	844.62
497.529	874.62
497.746	883.62
497.963	877.62
498.181	908.62
498.398	901.62
498.615	946.62
498.832	957.62
499.049	1014.62
499.267	1041.62
499.484	1081.62
499.701	1114.62
499.918	1164.62
500.135	1237.62
500.352	1326.62
500.569	1326.62
500.786	1337.62
501.003	1301.62
501.22	1238.62
501.437	1210.62
501.654	1157.62
