Data from 1974.PennyLincolnUp.Lamp.En5.5.200Scan.071719.P1.Changed Mount._HRD10591_15-52-36-856.txt Node
Date: Thu Jul 18 15:52:36 EDT 2019
User: cochatt
Spectrometer: HR+D1059
Trigger mode: 1
Integration Time (sec): 1.000000E-1
Scans to average: 1
Electric dark correction enabled: true
Nonlinearity correction enabled: false
Boxcar width: 0
XAxis mode: Wavelengths
Number of Pixels in Spectrum: 2048
>>>>>Begin Spectral Data<<<<<
223.165	-15.12
223.4	-15.12
223.635	-15.12
223.869	-18.12
224.104	-20.12
224.338	-8.12
224.573	-13.12
224.808	-4.12
225.042	-3.12
225.277	-16.12
225.511	9.88
225.746	-2.12
225.98	-7.12
226.215	5.88
226.449	14.88
226.683	22.88
226.918	24.88
227.152	28.88
227.387	20.88
227.621	42.88
227.856	52.88
228.09	43.88
228.324	50.88
228.559	62.88
228.793	68.88
229.027	109.88
229.262	109.88
229.496	122.88
229.73	135.88
229.964	159.88
230.199	131.88
230.433	111.88
230.667	121.88
230.901	125.88
231.136	119.88
231.37	128.88
231.604	118.88
231.838	120.88
232.072	128.88
232.306	119.88
232.541	126.88
232.775	122.88
233.009	118.88
233.243	114.88
233.477	123.88
233.711	124.88
233.945	127.88
234.179	122.88
234.413	131.88
234.647	119.88
234.881	126.88
235.115	129.88
235.349	122.88
235.583	133.88
235.817	119.88
236.051	127.88
236.285	122.88
236.519	138.88
236.753	145.88
236.987	166.88
237.221	175.88
237.455	224.88
237.689	186.88
237.922	150.88
238.156	124.88
238.39	122.88
238.624	133.88
238.858	118.88
239.091	130.88
239.325	141.88
239.559	147.88
239.793	146.88
240.027	145.88
240.26	151.88
240.494	159.88
240.728	151.88
240.961	154.88
241.195	152.88
241.429	148.88
241.662	158.88
241.896	144.88
242.13	137.88
242.363	160.88
242.597	141.88
242.83	140.88
243.064	136.88
243.298	144.88
243.531	150.88
243.765	141.88
243.998	145.88
244.232	161.88
244.465	157.88
244.699	152.88
244.932	152.88
245.166	152.88
245.399	157.88
245.633	143.88
245.866	150.88
246.099	172.88
246.333	160.88
246.566	153.88
246.8	166.88
247.033	164.88
247.266	174.88
247.5	168.88
247.733	185.88
247.966	190.88
248.2	187.88
248.433	184.88
248.666	180.88
248.899	200.88
249.133	216.88
249.366	202.88
249.599	190.88
249.832	189.88
250.066	207.88
250.299	195.88
250.532	185.88
250.765	215.88
250.998	220.88
251.231	229.88
251.465	223.88
251.698	227.88
251.931	194.88
252.164	212.88
252.397	202.88
252.63	218.88
252.863	214.88
253.096	229.88
253.329	242.88
253.562	217.88
253.795	235.88
254.028	249.88
254.261	229.88
254.494	249.88
254.727	253.88
254.96	295.88
255.193	299.88
255.426	266.88
255.659	232.88
255.892	244.88
256.124	245.88
256.357	238.88
256.59	247.88
256.823	208.88
257.056	221.88
257.289	213.88
257.521	226.88
257.754	230.88
257.987	212.88
258.22	214.88
258.452	206.88
258.685	215.88
258.918	218.88
259.151	221.88
259.383	227.88
259.616	254.88
259.849	239.88
260.081	224.88
260.314	262.88
260.547	285.88
260.779	268.88
261.012	248.88
261.244	235.88
261.477	240.88
261.71	242.88
261.942	232.88
262.175	242.88
262.407	243.88
262.64	225.88
262.872	239.88
263.105	246.88
263.337	217.88
263.57	223.88
263.802	222.88
264.035	237.88
264.267	224.88
264.499	212.88
264.732	233.88
264.964	224.88
265.197	251.88
265.429	245.88
265.661	223.88
265.894	231.88
266.126	224.88
266.358	248.88
266.591	223.88
266.823	237.88
267.055	263.88
267.287	234.88
267.52	242.88
267.752	238.88
267.984	226.88
268.216	231.88
268.448	234.88
268.681	269.88
268.913	267.88
269.145	294.88
269.377	290.88
269.609	287.88
269.841	272.88
270.073	275.88
270.306	305.88
270.538	344.88
270.77	336.88
271.002	327.88
271.234	309.88
271.466	306.88
271.698	311.88
271.93	323.88
272.162	311.88
272.394	333.88
272.626	308.88
272.858	308.88
273.09	298.88
273.322	270.88
273.553	278.88
273.785	295.88
274.017	290.88
274.249	310.88
274.481	289.88
274.713	291.88
274.945	286.88
275.176	290.88
275.408	272.88
275.64	284.88
275.872	285.88
276.104	278.88
276.335	277.88
276.567	299.88
276.799	298.88
277.031	309.88
277.262	340.88
277.494	332.88
277.726	325.88
277.957	302.88
278.189	308.88
278.421	282.88
278.652	276.88
278.884	297.88
279.115	296.88
279.347	298.88
279.579	292.88
279.81	296.88
280.042	287.88
280.273	289.88
280.505	295.88
280.736	298.88
280.968	300.88
281.199	296.88
281.431	281.88
281.662	293.88
281.894	302.88
282.125	293.88
282.356	299.88
282.588	308.88
282.819	314.88
283.051	302.88
283.282	297.88
283.513	294.88
283.745	310.88
283.976	290.88
284.207	315.88
284.439	312.88
284.67	297.88
284.901	294.88
285.132	308.88
285.364	301.88
285.595	300.88
285.826	295.88
286.057	302.88
286.288	290.88
286.52	315.88
286.751	298.88
286.982	307.88
287.213	323.88
287.444	318.88
287.675	313.88
287.906	304.88
288.138	329.88
288.369	327.88
288.6	328.88
288.831	329.88
289.062	336.88
289.293	321.88
289.524	322.88
289.755	309.88
289.986	312.88
290.217	323.88
290.448	306.88
290.679	330.88
290.91	306.88
291.141	314.88
291.371	331.88
291.602	306.88
291.833	328.88
292.064	303.88
292.295	328.88
292.526	333.88
292.757	308.88
292.987	310.88
293.218	309.88
293.449	315.88
293.68	331.88
293.91	321.88
294.141	331.88
294.372	310.88
294.603	311.88
294.833	336.88
295.064	332.88
295.295	346.88
295.525	331.88
295.756	344.88
295.987	331.88
296.217	341.88
296.448	364.88
296.679	344.88
296.909	321.88
297.14	333.88
297.37	332.88
297.601	319.88
297.831	343.88
298.062	344.88
298.292	330.88
298.523	324.88
298.753	338.88
298.984	343.88
299.214	338.88
299.445	345.88
299.675	332.88
299.905	328.88
300.136	341.88
300.366	337.88
300.597	348.88
300.827	345.88
301.057	338.88
301.288	364.88
301.518	338.88
301.748	344.88
301.979	359.88
302.209	360.88
302.439	358.88
302.669	363.88
302.9	374.88
303.13	370.88
303.36	342.88
303.59	350.88
303.82	363.88
304.051	350.88
304.281	374.88
304.511	356.88
304.741	365.88
304.971	365.88
305.201	360.88
305.431	359.88
305.661	357.88
305.891	357.88
306.121	364.88
306.352	348.88
306.582	360.88
306.812	352.88
307.042	353.88
307.272	372.88
307.502	358.88
307.731	362.88
307.961	360.88
308.191	378.88
308.421	353.88
308.651	347.88
308.881	367.88
309.111	376.88
309.341	351.88
309.571	380.88
309.8	380.88
310.03	401.88
310.26	395.88
310.49	389.88
310.72	413.88
310.949	410.88
311.179	411.88
311.409	405.88
311.639	390.88
311.868	402.88
312.098	406.88
312.328	407.88
312.557	419.88
312.787	422.88
313.017	415.88
313.246	406.88
313.476	389.88
313.706	397.88
313.935	410.88
314.165	409.88
314.394	424.88
314.624	412.88
314.853	403.88
315.083	416.88
315.312	418.88
315.542	403.88
315.771	412.88
316.001	397.88
316.23	394.88
316.46	408.88
316.689	416.88
316.919	385.88
317.148	384.88
317.377	424.88
317.607	405.88
317.836	400.88
318.065	413.88
318.295	407.88
318.524	404.88
318.753	422.88
318.983	384.88
319.212	415.88
319.441	401.88
319.67	414.88
319.9	409.88
320.129	411.88
320.358	414.88
320.587	424.88
320.816	418.88
321.046	413.88
321.275	452.88
321.504	426.88
321.733	416.88
321.962	457.88
322.191	421.88
322.42	444.88
322.649	459.88
322.878	446.88
323.108	481.88
323.337	466.88
323.566	487.88
323.795	518.88
324.024	552.88
324.253	637.88
324.482	825.88
324.71	1239.88
324.939	1802.88
325.168	1618.88
325.397	837.88
325.626	576.88
325.855	533.88
326.084	511.88
326.313	487.88
326.542	524.88
326.77	529.88
326.999	586.88
327.228	773.88
327.457	1111.88
327.686	1416.88
327.914	948.88
328.143	651.88
328.372	601.88
328.6	574.88
328.829	528.88
329.058	548.88
329.287	543.88
329.515	540.88
329.744	494.88
329.972	524.88
330.201	528.88
330.43	549.88
330.658	575.88
330.887	583.88
331.115	570.88
331.344	528.88
331.572	500.88
331.801	492.88
332.03	506.88
332.258	491.88
332.486	478.88
332.715	478.88
332.943	498.88
333.172	493.88
333.4	501.88
333.629	511.88
333.857	532.88
334.085	523.88
334.314	538.88
334.542	570.88
334.771	581.88
334.999	557.88
335.227	516.88
335.455	495.88
335.684	488.88
335.912	499.88
336.14	471.88
336.369	491.88
336.597	479.88
336.825	478.88
337.053	490.88
337.281	470.88
337.51	461.88
337.738	483.88
337.966	480.88
338.194	488.88
338.422	475.88
338.65	471.88
338.878	472.88
339.106	478.88
339.334	474.88
339.562	458.88
339.79	468.88
340.018	454.88
340.246	454.88
340.474	468.88
340.702	476.88
340.93	463.88
341.158	482.88
341.386	468.88
341.614	491.88
341.842	465.88
342.07	465.88
342.298	448.88
342.526	464.88
342.754	462.88
342.981	458.88
343.209	442.88
343.437	459.88
343.665	485.88
343.893	494.88
344.12	519.88
344.348	513.88
344.576	485.88
344.804	481.88
345.031	483.88
345.259	475.88
345.487	470.88
345.714	476.88
345.942	440.88
346.17	458.88
346.397	443.88
346.625	452.88
346.853	463.88
347.08	461.88
347.308	436.88
347.535	466.88
347.763	480.88
347.99	471.88
348.218	455.88
348.445	454.88
348.673	446.88
348.9	430.88
349.128	457.88
349.355	437.88
349.583	421.88
349.81	463.88
350.037	453.88
350.265	451.88
350.492	429.88
350.72	453.88
350.947	434.88
351.174	436.88
351.402	464.88
351.629	456.88
351.856	456.88
352.083	464.88
352.311	444.88
352.538	485.88
352.765	474.88
352.992	464.88
353.22	443.88
353.447	464.88
353.674	446.88
353.901	459.88
354.128	447.88
354.355	427.88
354.583	452.88
354.81	437.88
355.037	430.88
355.264	447.88
355.491	419.88
355.718	429.88
355.945	434.88
356.172	440.88
356.399	414.88
356.626	418.88
356.853	431.88
357.08	419.88
357.307	449.88
357.534	416.88
357.761	430.88
357.988	437.88
358.215	420.88
358.441	452.88
358.668	442.88
358.895	437.88
359.122	446.88
359.349	413.88
359.576	463.88
359.802	487.88
360.029	470.88
360.256	492.88
360.483	469.88
360.709	456.88
360.936	472.88
361.163	461.88
361.39	441.88
361.616	456.88
361.843	475.88
362.07	450.88
362.296	454.88
362.523	452.88
362.749	465.88
362.976	462.88
363.203	465.88
363.429	450.88
363.656	444.88
363.882	440.88
364.109	459.88
364.335	416.88
364.562	437.88
364.788	446.88
365.015	446.88
365.241	440.88
365.468	458.88
365.694	460.88
365.92	446.88
366.147	442.88
366.373	434.88
366.599	444.88
366.826	439.88
367.052	448.88
367.278	438.88
367.505	451.88
367.731	462.88
367.957	459.88
368.184	446.88
368.41	456.88
368.636	470.88
368.862	470.88
369.089	443.88
369.315	455.88
369.541	446.88
369.767	440.88
369.993	446.88
370.219	432.88
370.445	447.88
370.672	452.88
370.898	445.88
371.124	462.88
371.35	443.88
371.576	463.88
371.802	458.88
372.028	452.88
372.254	475.88
372.48	454.88
372.706	456.88
372.932	463.88
373.158	467.88
373.384	457.88
373.61	453.88
373.835	473.88
374.061	463.88
374.287	464.88
374.513	474.88
374.739	472.88
374.965	489.88
375.191	492.88
375.416	490.88
375.642	467.88
375.868	470.88
376.094	446.88
376.319	444.88
376.545	479.88
376.771	475.88
376.997	455.88
377.222	446.88
377.448	454.88
377.674	469.88
377.899	451.88
378.125	443.88
378.35	464.88
378.576	445.88
378.802	462.88
379.027	440.88
379.253	442.88
379.478	465.88
379.704	453.88
379.929	451.88
380.155	463.88
380.38	432.88
380.606	461.88
380.831	467.88
381.057	484.88
381.282	445.88
381.507	476.88
381.733	452.88
381.958	466.88
382.184	467.88
382.409	468.88
382.634	480.88
382.86	479.88
383.085	473.88
383.31	476.88
383.535	472.88
383.761	500.88
383.986	473.88
384.211	487.88
384.436	483.88
384.662	501.88
384.887	485.88
385.112	487.88
385.337	492.88
385.562	510.88
385.787	524.88
386.013	521.88
386.238	523.88
386.463	523.88
386.688	514.88
386.913	498.88
387.138	520.88
387.363	499.88
387.588	500.88
387.813	502.88
388.038	531.88
388.263	509.88
388.488	508.88
388.713	493.88
388.938	512.88
389.163	521.88
389.387	528.88
389.612	517.88
389.837	511.88
390.062	502.88
390.287	510.88
390.512	520.88
390.736	519.88
390.961	510.88
391.186	511.88
391.411	491.88
391.636	554.88
391.86	537.88
392.085	540.88
392.31	526.88
392.534	538.88
392.759	526.88
392.984	535.88
393.208	520.88
393.433	511.88
393.658	517.88
393.882	510.88
394.107	517.88
394.331	526.88
394.556	516.88
394.78	513.88
395.005	530.88
395.229	543.88
395.454	530.88
395.678	542.88
395.903	528.88
396.127	575.88
396.352	579.88
396.576	538.88
396.801	538.88
397.025	554.88
397.249	549.88
397.474	565.88
397.698	554.88
397.922	580.88
398.147	596.88
398.371	593.88
398.595	619.88
398.82	594.88
399.044	609.88
399.268	640.88
399.492	666.88
399.717	726.88
399.941	746.88
400.165	741.88
400.389	735.88
400.613	694.88
400.837	647.88
401.062	627.88
401.286	604.88
401.51	573.88
401.734	584.88
401.958	602.88
402.182	610.88
402.406	619.88
402.63	628.88
402.854	604.88
403.078	592.88
403.302	631.88
403.526	650.88
403.75	643.88
403.974	636.88
404.198	646.88
404.422	655.88
404.645	651.88
404.869	653.88
405.093	666.88
405.317	692.88
405.541	751.88
405.765	674.88
405.988	653.88
406.212	672.88
406.436	675.88
406.66	685.88
406.883	693.88
407.107	678.88
407.331	743.88
407.555	816.88
407.778	811.88
408.002	738.88
408.226	687.88
408.449	685.88
408.673	687.88
408.896	708.88
409.12	743.88
409.344	712.88
409.567	647.88
409.791	679.88
410.014	623.88
410.238	632.88
410.461	640.88
410.685	620.88
410.908	647.88
411.132	682.88
411.355	706.88
411.578	688.88
411.802	606.88
412.025	604.88
412.249	642.88
412.472	662.88
412.695	662.88
412.919	676.88
413.142	629.88
413.365	648.88
413.589	619.88
413.812	580.88
414.035	576.88
414.258	588.88
414.482	592.88
414.705	586.88
414.928	580.88
415.151	596.88
415.374	587.88
415.597	573.88
415.821	566.88
416.044	578.88
416.267	575.88
416.49	600.88
416.713	574.88
416.936	600.88
417.159	580.88
417.382	595.88
417.605	608.88
417.828	615.88
418.051	617.88
418.274	606.88
418.497	600.88
418.72	599.88
418.943	618.88
419.166	629.88
419.389	640.88
419.611	637.88
419.834	615.88
420.057	633.88
420.28	625.88
420.503	605.88
420.726	628.88
420.948	646.88
421.171	690.88
421.394	700.88
421.617	623.88
421.839	611.88
422.062	619.88
422.285	638.88
422.507	697.88
422.73	756.88
422.953	745.88
423.175	642.88
423.398	648.88
423.621	635.88
423.843	677.88
424.066	644.88
424.288	667.88
424.511	679.88
424.733	711.88
424.956	801.88
425.178	788.88
425.401	771.88
425.623	802.88
425.846	689.88
426.068	649.88
426.291	644.88
426.513	656.88
426.735	648.88
426.958	670.88
427.18	768.88
427.402	882.88
427.625	968.88
427.847	858.88
428.069	740.88
428.292	670.88
428.514	646.88
428.736	611.88
428.958	598.88
429.181	576.88
429.403	567.88
429.625	603.88
429.847	651.88
430.069	702.88
430.292	711.88
430.514	618.88
430.736	595.88
430.958	592.88
431.18	576.88
431.402	565.88
431.624	562.88
431.846	569.88
432.068	568.88
432.29	589.88
432.512	559.88
432.734	586.88
432.956	585.88
433.178	561.88
433.4	568.88
433.622	568.88
433.844	586.88
434.066	583.88
434.287	586.88
434.509	597.88
434.731	574.88
434.953	612.88
435.175	614.88
435.397	650.88
435.618	679.88
435.84	692.88
436.062	743.88
436.284	848.88
436.505	692.88
436.727	635.88
436.949	615.88
437.17	587.88
437.392	574.88
437.614	619.88
437.835	637.88
438.057	702.88
438.278	811.88
438.5	839.88
438.721	917.88
438.943	879.88
439.165	696.88
439.386	654.88
439.608	664.88
439.829	647.88
440.05	647.88
440.272	701.88
440.493	670.88
440.715	614.88
440.936	596.88
441.158	599.88
441.379	610.88
441.6	616.88
441.822	656.88
442.043	692.88
442.264	769.88
442.486	805.88
442.707	732.88
442.928	673.88
443.149	662.88
443.371	671.88
443.592	733.88
443.813	831.88
444.034	890.88
444.255	776.88
444.476	687.88
444.698	688.88
444.919	660.88
445.14	760.88
445.361	695.88
445.582	687.88
445.803	757.88
446.024	834.88
446.245	845.88
446.466	767.88
446.687	672.88
446.908	657.88
447.129	592.88
447.35	600.88
447.571	570.88
447.792	592.88
448.013	607.88
448.234	598.88
448.455	648.88
448.675	756.88
448.896	875.88
449.117	776.88
449.338	709.88
449.559	808.88
449.779	934.88
450	746.88
450.221	638.88
450.442	602.88
450.662	580.88
450.883	556.88
451.104	594.88
451.324	557.88
451.545	541.88
451.766	563.88
451.986	525.88
452.207	508.88
452.428	536.88
452.648	514.88
452.869	511.88
453.089	512.88
453.31	529.88
453.53	542.88
453.751	517.88
453.971	536.88
454.192	524.88
454.412	522.88
454.633	517.88
454.853	506.88
455.073	525.88
455.294	554.88
455.514	602.88
455.734	596.88
455.955	528.88
456.175	514.88
456.395	507.88
456.616	516.88
456.836	501.88
457.056	498.88
457.276	485.88
457.497	527.88
457.717	519.88
457.937	507.88
458.157	494.88
458.377	506.88
458.598	518.88
458.818	589.88
459.038	648.88
459.258	684.88
459.478	618.88
459.698	565.88
459.918	584.88
460.138	577.88
460.358	588.88
460.578	597.88
460.798	602.88
461.018	608.88
461.238	599.88
461.458	598.88
461.678	592.88
461.898	592.88
462.118	620.88
462.338	599.88
462.558	626.88
462.777	638.88
462.997	674.88
463.217	693.88
463.437	687.88
463.657	678.88
463.876	668.88
464.096	650.88
464.316	640.88
464.536	643.88
464.755	638.88
464.975	654.88
465.195	672.88
465.414	694.88
465.634	639.88
465.854	623.88
466.073	579.88
466.293	592.88
466.512	562.88
466.732	520.88
466.951	546.88
467.171	542.88
467.391	540.88
467.61	579.88
467.829	558.88
468.049	563.88
468.268	554.88
468.488	512.88
468.707	533.88
468.927	531.88
469.146	523.88
469.365	535.88
469.585	529.88
469.804	564.88
470.023	568.88
470.243	556.88
470.462	576.88
470.681	583.88
470.901	590.88
471.12	535.88
471.339	554.88
471.558	553.88
471.777	555.88
471.997	534.88
472.216	558.88
472.435	570.88
472.654	564.88
472.873	554.88
473.092	547.88
473.311	538.88
473.53	552.88
473.749	533.88
473.968	586.88
474.187	702.88
474.406	726.88
474.625	606.88
474.844	582.88
475.063	541.88
475.282	564.88
475.501	559.88
475.72	552.88
475.939	572.88
476.158	582.88
476.377	551.88
476.596	559.88
476.814	576.88
477.033	581.88
477.252	594.88
477.471	568.88
477.69	584.88
477.908	583.88
478.127	613.88
478.346	622.88
478.564	628.88
478.783	632.88
479.002	642.88
479.22	650.88
479.439	661.88
479.658	656.88
479.876	653.88
480.095	692.88
480.313	715.88
480.532	699.88
480.751	697.88
480.969	699.88
481.188	728.88
481.406	743.88
481.624	670.88
481.843	660.88
482.061	667.88
482.28	653.88
482.498	662.88
482.717	651.88
482.935	660.88
483.153	677.88
483.372	646.88
483.59	636.88
483.808	636.88
484.027	650.88
484.245	664.88
484.463	684.88
484.681	685.88
484.9	681.88
485.118	672.88
485.336	651.88
485.554	670.88
485.772	678.88
485.99	667.88
486.209	676.88
486.427	696.88
486.645	701.88
486.863	709.88
487.081	694.88
487.299	687.88
487.517	689.88
487.735	678.88
487.953	712.88
488.171	722.88
488.389	716.88
488.607	711.88
488.825	715.88
489.043	704.88
489.261	726.88
489.479	716.88
489.696	714.88
489.914	722.88
490.132	712.88
490.35	722.88
490.568	733.88
490.786	774.88
491.003	744.88
491.221	759.88
491.439	770.88
491.657	814.88
491.874	784.88
492.092	783.88
492.31	796.88
492.527	829.88
492.745	821.88
492.963	822.88
493.18	808.88
493.398	812.88
493.615	810.88
493.833	838.88
494.05	838.88
494.268	823.88
494.485	822.88
494.703	814.88
494.92	824.88
495.138	823.88
495.355	833.88
495.573	836.88
495.79	828.88
496.008	862.88
496.225	854.88
496.442	855.88
496.66	852.88
496.877	825.88
497.094	836.88
497.312	870.88
497.529	866.88
497.746	874.88
497.963	906.88
498.181	911.88
498.398	913.88
498.615	948.88
498.832	991.88
499.049	974.88
499.267	1024.88
499.484	1094.88
499.701	1133.88
499.918	1159.88
500.135	1248.88
500.352	1317.88
500.569	1292.88
500.786	1352.88
501.003	1323.88
501.22	1247.88
501.437	1200.88
501.654	1146.88
