Data from 1974.PennyLincolnUp.Lamp.En5.5.200Scan.071719.P1.Changed Mount._HRD10591_15-52-12-857.txt Node
Date: Thu Jul 18 15:52:12 EDT 2019
User: cochatt
Spectrometer: HR+D1059
Trigger mode: 1
Integration Time (sec): 1.000000E-1
Scans to average: 1
Electric dark correction enabled: true
Nonlinearity correction enabled: false
Boxcar width: 0
XAxis mode: Wavelengths
Number of Pixels in Spectrum: 2048
>>>>>Begin Spectral Data<<<<<
223.165	-3.5
223.4	-3.5
223.635	-3.5
223.869	-10.5
224.104	-14.5
224.338	-27.5
224.573	-17.5
224.808	-14.5
225.042	-3.5
225.277	-1.5
225.511	-11.5
225.746	3.5
225.98	-1.5
226.215	0.5
226.449	20.5
226.683	22.5
226.918	29.5
227.152	29.5
227.387	35.5
227.621	37.5
227.856	49.5
228.09	39.5
228.324	39.5
228.559	47.5
228.793	53.5
229.027	91.5
229.262	111.5
229.496	121.5
229.73	130.5
229.964	165.5
230.199	119.5
230.433	104.5
230.667	127.5
230.901	111.5
231.136	111.5
231.37	104.5
231.604	118.5
231.838	127.5
232.072	102.5
232.306	110.5
232.541	118.5
232.775	105.5
233.009	120.5
233.243	115.5
233.477	119.5
233.711	122.5
233.945	108.5
234.179	114.5
234.413	110.5
234.647	114.5
234.881	124.5
235.115	115.5
235.349	109.5
235.583	117.5
235.817	116.5
236.051	126.5
236.285	134.5
236.519	122.5
236.753	122.5
236.987	140.5
237.221	176.5
237.455	223.5
237.689	177.5
237.922	147.5
238.156	128.5
238.39	130.5
238.624	129.5
238.858	125.5
239.091	127.5
239.325	134.5
239.559	128.5
239.793	134.5
240.027	129.5
240.26	147.5
240.494	151.5
240.728	157.5
240.961	168.5
241.195	151.5
241.429	140.5
241.662	154.5
241.896	147.5
242.13	138.5
242.363	144.5
242.597	150.5
242.83	151.5
243.064	136.5
243.298	148.5
243.531	152.5
243.765	146.5
243.998	154.5
244.232	140.5
244.465	138.5
244.699	154.5
244.932	135.5
245.166	169.5
245.399	150.5
245.633	169.5
245.866	179.5
246.099	174.5
246.333	172.5
246.566	162.5
246.8	164.5
247.033	166.5
247.266	170.5
247.5	184.5
247.733	181.5
247.966	184.5
248.2	175.5
248.433	167.5
248.666	180.5
248.899	192.5
249.133	190.5
249.366	214.5
249.599	195.5
249.832	190.5
250.066	211.5
250.299	200.5
250.532	206.5
250.765	208.5
250.998	239.5
251.231	223.5
251.465	219.5
251.698	224.5
251.931	220.5
252.164	219.5
252.397	215.5
252.63	204.5
252.863	227.5
253.096	227.5
253.329	255.5
253.562	228.5
253.795	212.5
254.028	217.5
254.261	222.5
254.494	249.5
254.727	279.5
254.96	290.5
255.193	281.5
255.426	266.5
255.659	256.5
255.892	248.5
256.124	226.5
256.357	235.5
256.59	246.5
256.823	238.5
257.056	231.5
257.289	227.5
257.521	228.5
257.754	232.5
257.987	213.5
258.22	203.5
258.452	212.5
258.685	218.5
258.918	231.5
259.151	234.5
259.383	218.5
259.616	266.5
259.849	229.5
260.081	258.5
260.314	254.5
260.547	261.5
260.779	265.5
261.012	246.5
261.244	245.5
261.477	246.5
261.71	225.5
261.942	232.5
262.175	247.5
262.407	221.5
262.64	230.5
262.872	231.5
263.105	224.5
263.337	224.5
263.57	224.5
263.802	215.5
264.035	211.5
264.267	232.5
264.499	223.5
264.732	242.5
264.964	227.5
265.197	224.5
265.429	239.5
265.661	234.5
265.894	228.5
266.126	232.5
266.358	216.5
266.591	234.5
266.823	229.5
267.055	246.5
267.287	238.5
267.52	254.5
267.752	261.5
267.984	234.5
268.216	251.5
268.448	244.5
268.681	235.5
268.913	267.5
269.145	266.5
269.377	289.5
269.609	270.5
269.841	278.5
270.073	292.5
270.306	294.5
270.538	335.5
270.77	324.5
271.002	310.5
271.234	291.5
271.466	306.5
271.698	320.5
271.93	315.5
272.162	311.5
272.394	324.5
272.626	319.5
272.858	296.5
273.09	308.5
273.322	308.5
273.553	283.5
273.785	268.5
274.017	272.5
274.249	291.5
274.481	266.5
274.713	296.5
274.945	295.5
275.176	286.5
275.408	287.5
275.64	275.5
275.872	274.5
276.104	272.5
276.335	282.5
276.567	275.5
276.799	288.5
277.031	311.5
277.262	331.5
277.494	353.5
277.726	328.5
277.957	292.5
278.189	304.5
278.421	310.5
278.652	294.5
278.884	290.5
279.115	289.5
279.347	281.5
279.579	283.5
279.81	297.5
280.042	304.5
280.273	299.5
280.505	287.5
280.736	295.5
280.968	289.5
281.199	292.5
281.431	306.5
281.662	283.5
281.894	285.5
282.125	280.5
282.356	298.5
282.588	302.5
282.819	314.5
283.051	299.5
283.282	294.5
283.513	299.5
283.745	292.5
283.976	286.5
284.207	307.5
284.439	316.5
284.67	294.5
284.901	289.5
285.132	292.5
285.364	294.5
285.595	298.5
285.826	298.5
286.057	312.5
286.288	307.5
286.52	309.5
286.751	328.5
286.982	303.5
287.213	295.5
287.444	314.5
287.675	314.5
287.906	316.5
288.138	327.5
288.369	307.5
288.6	333.5
288.831	347.5
289.062	311.5
289.293	330.5
289.524	308.5
289.755	309.5
289.986	324.5
290.217	316.5
290.448	320.5
290.679	336.5
290.91	304.5
291.141	330.5
291.371	300.5
291.602	328.5
291.833	334.5
292.064	321.5
292.295	316.5
292.526	322.5
292.757	329.5
292.987	331.5
293.218	312.5
293.449	329.5
293.68	311.5
293.91	321.5
294.141	314.5
294.372	317.5
294.603	319.5
294.833	321.5
295.064	306.5
295.295	319.5
295.525	311.5
295.756	324.5
295.987	318.5
296.217	332.5
296.448	341.5
296.679	325.5
296.909	331.5
297.14	327.5
297.37	351.5
297.601	345.5
297.831	314.5
298.062	325.5
298.292	348.5
298.523	343.5
298.753	333.5
298.984	335.5
299.214	315.5
299.445	341.5
299.675	344.5
299.905	332.5
300.136	342.5
300.366	345.5
300.597	356.5
300.827	343.5
301.057	356.5
301.288	379.5
301.518	352.5
301.748	346.5
301.979	366.5
302.209	342.5
302.439	359.5
302.669	340.5
302.9	335.5
303.13	354.5
303.36	368.5
303.59	352.5
303.82	368.5
304.051	368.5
304.281	334.5
304.511	366.5
304.741	363.5
304.971	373.5
305.201	368.5
305.431	352.5
305.661	366.5
305.891	376.5
306.121	350.5
306.352	368.5
306.582	345.5
306.812	349.5
307.042	366.5
307.272	363.5
307.502	349.5
307.731	353.5
307.961	362.5
308.191	369.5
308.421	357.5
308.651	366.5
308.881	366.5
309.111	363.5
309.341	370.5
309.571	362.5
309.8	386.5
310.03	378.5
310.26	404.5
310.49	392.5
310.72	388.5
310.949	401.5
311.179	410.5
311.409	401.5
311.639	386.5
311.868	387.5
312.098	393.5
312.328	397.5
312.557	408.5
312.787	407.5
313.017	386.5
313.246	410.5
313.476	389.5
313.706	384.5
313.935	384.5
314.165	421.5
314.394	434.5
314.624	420.5
314.853	410.5
315.083	402.5
315.312	384.5
315.542	394.5
315.771	393.5
316.001	390.5
316.23	407.5
316.46	389.5
316.689	397.5
316.919	387.5
317.148	413.5
317.377	417.5
317.607	402.5
317.836	384.5
318.065	415.5
318.295	403.5
318.524	422.5
318.753	384.5
318.983	417.5
319.212	392.5
319.441	408.5
319.67	410.5
319.9	400.5
320.129	405.5
320.358	407.5
320.587	425.5
320.816	422.5
321.046	430.5
321.275	422.5
321.504	400.5
321.733	419.5
321.962	425.5
322.191	432.5
322.42	449.5
322.649	460.5
322.878	460.5
323.108	443.5
323.337	465.5
323.566	505.5
323.795	514.5
324.024	537.5
324.253	618.5
324.482	805.5
324.71	1234.5
324.939	1802.5
325.168	1624.5
325.397	830.5
325.626	600.5
325.855	542.5
326.084	492.5
326.313	476.5
326.542	487.5
326.77	528.5
326.999	594.5
327.228	749.5
327.457	1118.5
327.686	1435.5
327.914	958.5
328.143	661.5
328.372	570.5
328.6	546.5
328.829	538.5
329.058	541.5
329.287	544.5
329.515	524.5
329.744	514.5
329.972	503.5
330.201	518.5
330.43	544.5
330.658	571.5
330.887	594.5
331.115	559.5
331.344	528.5
331.572	512.5
331.801	512.5
332.03	497.5
332.258	495.5
332.486	486.5
332.715	464.5
332.943	490.5
333.172	506.5
333.4	499.5
333.629	518.5
333.857	526.5
334.085	534.5
334.314	523.5
334.542	560.5
334.771	571.5
334.999	532.5
335.227	518.5
335.455	516.5
335.684	488.5
335.912	508.5
336.14	486.5
336.369	510.5
336.597	499.5
336.825	503.5
337.053	499.5
337.281	491.5
337.51	473.5
337.738	483.5
337.966	467.5
338.194	479.5
338.422	485.5
338.65	491.5
338.878	461.5
339.106	474.5
339.334	454.5
339.562	467.5
339.79	458.5
340.018	470.5
340.246	469.5
340.474	465.5
340.702	447.5
340.93	464.5
341.158	456.5
341.386	458.5
341.614	478.5
341.842	458.5
342.07	445.5
342.298	455.5
342.526	464.5
342.754	434.5
342.981	455.5
343.209	464.5
343.437	442.5
343.665	479.5
343.893	474.5
344.12	514.5
344.348	501.5
344.576	483.5
344.804	502.5
345.031	478.5
345.259	495.5
345.487	483.5
345.714	468.5
345.942	448.5
346.17	445.5
346.397	458.5
346.625	463.5
346.853	455.5
347.08	434.5
347.308	448.5
347.535	455.5
347.763	436.5
347.99	436.5
348.218	459.5
348.445	458.5
348.673	462.5
348.9	463.5
349.128	442.5
349.355	435.5
349.583	432.5
349.81	455.5
350.037	449.5
350.265	440.5
350.492	471.5
350.72	436.5
350.947	444.5
351.174	451.5
351.402	467.5
351.629	442.5
351.856	456.5
352.083	450.5
352.311	468.5
352.538	457.5
352.765	436.5
352.992	425.5
353.22	458.5
353.447	427.5
353.674	446.5
353.901	440.5
354.128	433.5
354.355	433.5
354.583	407.5
354.81	427.5
355.037	441.5
355.264	427.5
355.491	440.5
355.718	446.5
355.945	455.5
356.172	432.5
356.399	431.5
356.626	426.5
356.853	418.5
357.08	433.5
357.307	422.5
357.534	440.5
357.761	434.5
357.988	408.5
358.215	442.5
358.441	423.5
358.668	446.5
358.895	435.5
359.122	463.5
359.349	428.5
359.576	454.5
359.802	446.5
360.029	465.5
360.256	487.5
360.483	480.5
360.709	452.5
360.936	451.5
361.163	468.5
361.39	452.5
361.616	445.5
361.843	462.5
362.07	444.5
362.296	446.5
362.523	440.5
362.749	433.5
362.976	440.5
363.203	448.5
363.429	458.5
363.656	439.5
363.882	428.5
364.109	458.5
364.335	447.5
364.562	447.5
364.788	447.5
365.015	439.5
365.241	438.5
365.468	436.5
365.694	440.5
365.92	452.5
366.147	456.5
366.373	425.5
366.599	450.5
366.826	449.5
367.052	431.5
367.278	416.5
367.505	464.5
367.731	453.5
367.957	440.5
368.184	425.5
368.41	448.5
368.636	448.5
368.862	460.5
369.089	468.5
369.315	455.5
369.541	447.5
369.767	471.5
369.993	449.5
370.219	441.5
370.445	447.5
370.672	456.5
370.898	461.5
371.124	452.5
371.35	448.5
371.576	450.5
371.802	441.5
372.028	435.5
372.254	447.5
372.48	457.5
372.706	456.5
372.932	463.5
373.158	458.5
373.384	458.5
373.61	465.5
373.835	479.5
374.061	451.5
374.287	464.5
374.513	464.5
374.739	473.5
374.965	464.5
375.191	462.5
375.416	474.5
375.642	468.5
375.868	471.5
376.094	450.5
376.319	480.5
376.545	459.5
376.771	446.5
376.997	447.5
377.222	453.5
377.448	458.5
377.674	455.5
377.899	466.5
378.125	457.5
378.35	450.5
378.576	447.5
378.802	435.5
379.027	464.5
379.253	455.5
379.478	451.5
379.704	458.5
379.929	444.5
380.155	440.5
380.38	450.5
380.606	444.5
380.831	458.5
381.057	460.5
381.282	446.5
381.507	455.5
381.733	459.5
381.958	457.5
382.184	461.5
382.409	481.5
382.634	456.5
382.86	459.5
383.085	469.5
383.31	460.5
383.535	489.5
383.761	457.5
383.986	486.5
384.211	496.5
384.436	468.5
384.662	480.5
384.887	491.5
385.112	495.5
385.337	508.5
385.562	492.5
385.787	475.5
386.013	525.5
386.238	523.5
386.463	506.5
386.688	538.5
386.913	502.5
387.138	491.5
387.363	513.5
387.588	535.5
387.813	512.5
388.038	525.5
388.263	505.5
388.488	511.5
388.713	508.5
388.938	487.5
389.163	515.5
389.387	498.5
389.612	496.5
389.837	523.5
390.062	497.5
390.287	491.5
390.512	498.5
390.736	513.5
390.961	517.5
391.186	516.5
391.411	515.5
391.636	516.5
391.86	531.5
392.085	532.5
392.31	530.5
392.534	551.5
392.759	522.5
392.984	522.5
393.208	515.5
393.433	568.5
393.658	537.5
393.882	493.5
394.107	527.5
394.331	519.5
394.556	528.5
394.78	515.5
395.005	539.5
395.229	530.5
395.454	550.5
395.678	555.5
395.903	532.5
396.127	564.5
396.352	559.5
396.576	564.5
396.801	527.5
397.025	554.5
397.249	542.5
397.474	563.5
397.698	558.5
397.922	556.5
398.147	556.5
398.371	582.5
398.595	560.5
398.82	583.5
399.044	594.5
399.268	626.5
399.492	681.5
399.717	731.5
399.941	727.5
400.165	724.5
400.389	738.5
400.613	681.5
400.837	642.5
401.062	610.5
401.286	618.5
401.51	596.5
401.734	605.5
401.958	605.5
402.182	583.5
402.406	612.5
402.63	620.5
402.854	601.5
403.078	610.5
403.302	620.5
403.526	633.5
403.75	615.5
403.974	617.5
404.198	617.5
404.422	653.5
404.645	610.5
404.869	632.5
405.093	662.5
405.317	683.5
405.541	718.5
405.765	702.5
405.988	637.5
406.212	662.5
406.436	665.5
406.66	681.5
406.883	664.5
407.107	706.5
407.331	743.5
407.555	834.5
407.778	810.5
408.002	747.5
408.226	706.5
408.449	698.5
408.673	698.5
408.896	735.5
409.12	747.5
409.344	727.5
409.567	646.5
409.791	637.5
410.014	630.5
410.238	628.5
410.461	624.5
410.685	631.5
410.908	653.5
411.132	689.5
411.355	675.5
411.578	697.5
411.802	639.5
412.025	603.5
412.249	623.5
412.472	660.5
412.695	673.5
412.919	668.5
413.142	648.5
413.365	618.5
413.589	598.5
413.812	606.5
414.035	592.5
414.258	602.5
414.482	606.5
414.705	575.5
414.928	598.5
415.151	586.5
415.374	604.5
415.597	578.5
415.821	566.5
416.044	570.5
416.267	583.5
416.49	609.5
416.713	560.5
416.936	575.5
417.159	593.5
417.382	604.5
417.605	571.5
417.828	606.5
418.051	624.5
418.274	635.5
418.497	578.5
418.72	610.5
418.943	600.5
419.166	582.5
419.389	633.5
419.611	646.5
419.834	613.5
420.057	644.5
420.28	610.5
420.503	599.5
420.726	612.5
420.948	636.5
421.171	662.5
421.394	689.5
421.617	664.5
421.839	612.5
422.062	608.5
422.285	625.5
422.507	680.5
422.73	768.5
422.953	750.5
423.175	659.5
423.398	619.5
423.621	624.5
423.843	664.5
424.066	678.5
424.288	642.5
424.511	680.5
424.733	727.5
424.956	800.5
425.178	762.5
425.401	757.5
425.623	800.5
425.846	683.5
426.068	643.5
426.291	652.5
426.513	636.5
426.735	676.5
426.958	698.5
427.18	748.5
427.402	916.5
427.625	984.5
427.847	850.5
428.069	740.5
428.292	683.5
428.514	622.5
428.736	610.5
428.958	597.5
429.181	588.5
429.403	570.5
429.625	607.5
429.847	633.5
430.069	696.5
430.292	692.5
430.514	614.5
430.736	585.5
430.958	598.5
431.18	579.5
431.402	586.5
431.624	595.5
431.846	561.5
432.068	572.5
432.29	576.5
432.512	553.5
432.734	565.5
432.956	562.5
433.178	584.5
433.4	603.5
433.622	567.5
433.844	574.5
434.066	564.5
434.287	555.5
434.509	586.5
434.731	600.5
434.953	594.5
435.175	618.5
435.397	658.5
435.618	651.5
435.84	695.5
436.062	760.5
436.284	860.5
436.505	720.5
436.727	660.5
436.949	604.5
437.17	600.5
437.392	603.5
437.614	585.5
437.835	607.5
438.057	715.5
438.278	821.5
438.5	814.5
438.721	907.5
438.943	880.5
439.165	676.5
439.386	652.5
439.608	639.5
439.829	627.5
440.05	652.5
440.272	712.5
440.493	679.5
440.715	639.5
440.936	603.5
441.158	587.5
441.379	586.5
441.6	631.5
441.822	658.5
442.043	668.5
442.264	740.5
442.486	803.5
442.707	705.5
442.928	656.5
443.149	653.5
443.371	682.5
443.592	709.5
443.813	839.5
444.034	897.5
444.255	776.5
444.476	674.5
444.698	664.5
444.919	667.5
445.14	747.5
445.361	716.5
445.582	712.5
445.803	725.5
446.024	838.5
446.245	855.5
446.466	800.5
446.687	655.5
446.908	644.5
447.129	600.5
447.35	576.5
447.571	593.5
447.792	583.5
448.013	582.5
448.234	598.5
448.455	658.5
448.675	743.5
448.896	876.5
449.117	752.5
449.338	712.5
449.559	842.5
449.779	924.5
450	754.5
450.221	619.5
450.442	598.5
450.662	565.5
450.883	574.5
451.104	583.5
451.324	568.5
451.545	559.5
451.766	540.5
451.986	519.5
452.207	517.5
452.428	501.5
452.648	527.5
452.869	554.5
453.089	502.5
453.31	540.5
453.53	532.5
453.751	537.5
453.971	511.5
454.192	529.5
454.412	520.5
454.633	530.5
454.853	520.5
455.073	501.5
455.294	547.5
455.514	618.5
455.734	597.5
455.955	547.5
456.175	507.5
456.395	530.5
456.616	470.5
456.836	518.5
457.056	498.5
457.276	472.5
457.497	495.5
457.717	491.5
457.937	506.5
458.157	506.5
458.377	525.5
458.598	548.5
458.818	591.5
459.038	645.5
459.258	662.5
459.478	602.5
459.698	588.5
459.918	585.5
460.138	552.5
460.358	576.5
460.578	569.5
460.798	607.5
461.018	604.5
461.238	611.5
461.458	595.5
461.678	618.5
461.898	600.5
462.118	592.5
462.338	614.5
462.558	606.5
462.777	641.5
462.997	651.5
463.217	669.5
463.437	659.5
463.657	654.5
463.876	655.5
464.096	651.5
464.316	630.5
464.536	639.5
464.755	643.5
464.975	635.5
465.195	673.5
465.414	700.5
465.634	640.5
465.854	596.5
466.073	567.5
466.293	567.5
466.512	552.5
466.732	544.5
466.951	551.5
467.171	539.5
467.391	563.5
467.61	560.5
467.829	558.5
468.049	553.5
468.268	546.5
468.488	544.5
468.707	539.5
468.927	520.5
469.146	542.5
469.365	535.5
469.585	533.5
469.804	555.5
470.023	575.5
470.243	548.5
470.462	562.5
470.681	570.5
470.901	584.5
471.12	546.5
471.339	558.5
471.558	539.5
471.777	569.5
471.997	546.5
472.216	542.5
472.435	575.5
472.654	542.5
472.873	550.5
473.092	521.5
473.311	545.5
473.53	543.5
473.749	547.5
473.968	583.5
474.187	668.5
474.406	724.5
474.625	599.5
474.844	567.5
475.063	547.5
475.282	535.5
475.501	552.5
475.72	549.5
475.939	549.5
476.158	561.5
476.377	564.5
476.596	546.5
476.814	561.5
477.033	593.5
477.252	587.5
477.471	572.5
477.69	587.5
477.908	610.5
478.127	602.5
478.346	593.5
478.564	615.5
478.783	666.5
479.002	632.5
479.22	644.5
479.439	639.5
479.658	666.5
479.876	677.5
480.095	652.5
480.313	681.5
480.532	681.5
480.751	671.5
480.969	671.5
481.188	708.5
481.406	762.5
481.624	711.5
481.843	670.5
482.061	644.5
482.28	635.5
482.498	666.5
482.717	644.5
482.935	651.5
483.153	650.5
483.372	642.5
483.59	625.5
483.808	644.5
484.027	647.5
484.245	654.5
484.463	638.5
484.681	653.5
484.9	660.5
485.118	671.5
485.336	668.5
485.554	658.5
485.772	686.5
485.99	687.5
486.209	680.5
486.427	658.5
486.645	660.5
486.863	710.5
487.081	709.5
487.299	678.5
487.517	710.5
487.735	699.5
487.953	682.5
488.171	687.5
488.389	691.5
488.607	706.5
488.825	682.5
489.043	692.5
489.261	692.5
489.479	689.5
489.696	723.5
489.914	746.5
490.132	711.5
490.35	752.5
490.568	735.5
490.786	765.5
491.003	766.5
491.221	773.5
491.439	796.5
491.657	812.5
491.874	795.5
492.092	789.5
492.31	767.5
492.527	833.5
492.745	822.5
492.963	841.5
493.18	838.5
493.398	835.5
493.615	807.5
493.833	831.5
494.05	831.5
494.268	809.5
494.485	821.5
494.703	816.5
494.92	811.5
495.138	830.5
495.355	810.5
495.573	837.5
495.79	825.5
496.008	820.5
496.225	820.5
496.442	823.5
496.66	817.5
496.877	818.5
497.094	847.5
497.312	862.5
497.529	866.5
497.746	871.5
497.963	880.5
498.181	903.5
498.398	917.5
498.615	954.5
498.832	980.5
499.049	980.5
499.267	1017.5
499.484	1080.5
499.701	1103.5
499.918	1162.5
500.135	1232.5
500.352	1330.5
500.569	1344.5
500.786	1316.5
501.003	1302.5
501.22	1264.5
501.437	1198.5
501.654	1173.5
501.871	1110.5
502.088	1036.5
502.305	994.5
502.522	992.5
502.739	951.5
502.956	888.5
503.172	901.5
503.389	865.5
503.606	852.5
503.823	847.5
504.04	870.5
504.256	843.5
504.473	849.5
504.69	875.5
504.907	842.5
505.123	829.5
505.34	841.5
505.557	787.5
505.773	799.5
505.99	783.5
506.207	769.5
506.423	784.5
506.64	786.5
506.856	761.5
507.073	753.5
507.289	743.5
507.506	744.5
507.722	751.5
507.939	762.5
508.155	753.5
508.372	724.5
508.588	733.5
508.805	715.5
509.021	718.5
509.238	724.5
509.454	738.5
509.67	743.5
509.887	712.5
510.103	721.5
510.319	720.5
510.536	769.5
510.752	1123.5
510.968	977.5
511.184	734.5
511.401	687.5
511.617	688.5
511.833	682.5
512.049	692.5
512.265	686.5
512.481	679.5
512.698	675.5
512.914	689.5
513.13	688.5
513.346	666.5
513.562	682.5
513.778	684.5
513.994	691.5
514.21	683.5
514.426	705.5
514.642	738.5
514.858	745.5
515.074	756.5
515.29	867.5
515.506	1116.5
515.721	973.5
515.937	748.5
516.153	748.5
516.369	710.5
516.585	700.5
516.801	732.5
517.016	713.5
517.232	717.5
517.448	728.5
517.664	747.5
517.879	731.5
518.095	734.5
518.311	738.5
518.527	743.5
518.742	704.5
518.958	681.5
519.173	700.5
519.389	682.5
