Data from 1974.PennyLincolnUp.Lamp.En5.5.200Scan.071719.P1.Changed Mount._HRD10591_15-53-52-856.txt Node
Date: Thu Jul 18 15:53:52 EDT 2019
User: cochatt
Spectrometer: HR+D1059
Trigger mode: 1
Integration Time (sec): 1.000000E-1
Scans to average: 1
Electric dark correction enabled: true
Nonlinearity correction enabled: false
Boxcar width: 0
XAxis mode: Wavelengths
Number of Pixels in Spectrum: 2048
>>>>>Begin Spectral Data<<<<<
223.165	-21.38
223.4	-21.38
223.635	-21.38
223.869	-25.38
224.104	-17.38
224.338	-9.38
224.573	-27.38
224.808	-12.38
225.042	-10.38
225.277	-7.38
225.511	2.62
225.746	4.62
225.98	6.62
226.215	21.62
226.449	11.62
226.683	16.62
226.918	31.62
227.152	35.62
227.387	38.62
227.621	35.62
227.856	38.62
228.09	44.62
228.324	44.62
228.559	50.62
228.793	78.62
229.027	90.62
229.262	94.62
229.496	102.62
229.73	147.62
229.964	163.62
230.199	129.62
230.433	97.62
230.667	114.62
230.901	113.62
231.136	115.62
231.37	114.62
231.604	120.62
231.838	116.62
232.072	118.62
232.306	108.62
232.541	115.62
232.775	114.62
233.009	115.62
233.243	121.62
233.477	110.62
233.711	123.62
233.945	122.62
234.179	126.62
234.413	129.62
234.647	131.62
234.881	126.62
235.115	122.62
235.349	124.62
235.583	118.62
235.817	140.62
236.051	119.62
236.285	135.62
236.519	118.62
236.753	139.62
236.987	148.62
237.221	183.62
237.455	232.62
237.689	183.62
237.922	157.62
238.156	139.62
238.39	129.62
238.624	142.62
238.858	145.62
239.091	129.62
239.325	130.62
239.559	117.62
239.793	123.62
240.027	139.62
240.26	158.62
240.494	155.62
240.728	152.62
240.961	162.62
241.195	165.62
241.429	139.62
241.662	137.62
241.896	131.62
242.13	132.62
242.363	144.62
242.597	144.62
242.83	157.62
243.064	166.62
243.298	147.62
243.531	139.62
243.765	137.62
243.998	154.62
244.232	152.62
244.465	168.62
244.699	148.62
244.932	141.62
245.166	151.62
245.399	155.62
245.633	163.62
245.866	152.62
246.099	151.62
246.333	147.62
246.566	147.62
246.8	159.62
247.033	164.62
247.266	161.62
247.5	161.62
247.733	181.62
247.966	186.62
248.2	193.62
248.433	177.62
248.666	198.62
248.899	197.62
249.133	206.62
249.366	228.62
249.599	214.62
249.832	195.62
250.066	183.62
250.299	189.62
250.532	212.62
250.765	207.62
250.998	217.62
251.231	238.62
251.465	225.62
251.698	217.62
251.931	228.62
252.164	207.62
252.397	204.62
252.63	207.62
252.863	215.62
253.096	220.62
253.329	225.62
253.562	235.62
253.795	226.62
254.028	230.62
254.261	220.62
254.494	232.62
254.727	272.62
254.96	287.62
255.193	290.62
255.426	265.62
255.659	237.62
255.892	247.62
256.124	243.62
256.357	262.62
256.59	235.62
256.823	225.62
257.056	231.62
257.289	232.62
257.521	220.62
257.754	222.62
257.987	215.62
258.22	215.62
258.452	220.62
258.685	219.62
258.918	224.62
259.151	234.62
259.383	234.62
259.616	226.62
259.849	246.62
260.081	257.62
260.314	276.62
260.547	263.62
260.779	234.62
261.012	253.62
261.244	244.62
261.477	245.62
261.71	245.62
261.942	237.62
262.175	242.62
262.407	228.62
262.64	237.62
262.872	237.62
263.105	238.62
263.337	242.62
263.57	227.62
263.802	226.62
264.035	229.62
264.267	226.62
264.499	226.62
264.732	241.62
264.964	241.62
265.197	221.62
265.429	238.62
265.661	223.62
265.894	251.62
266.126	227.62
266.358	224.62
266.591	249.62
266.823	243.62
267.055	269.62
267.287	249.62
267.52	224.62
267.752	237.62
267.984	231.62
268.216	260.62
268.448	246.62
268.681	259.62
268.913	252.62
269.145	243.62
269.377	294.62
269.609	308.62
269.841	278.62
270.073	285.62
270.306	308.62
270.538	313.62
270.77	337.62
271.002	315.62
271.234	304.62
271.466	307.62
271.698	327.62
271.93	338.62
272.162	339.62
272.394	341.62
272.626	320.62
272.858	291.62
273.09	283.62
273.322	297.62
273.553	291.62
273.785	289.62
274.017	263.62
274.249	283.62
274.481	276.62
274.713	287.62
274.945	298.62
275.176	301.62
275.408	278.62
275.64	281.62
275.872	265.62
276.104	287.62
276.335	298.62
276.567	285.62
276.799	306.62
277.031	311.62
277.262	307.62
277.494	329.62
277.726	321.62
277.957	318.62
278.189	310.62
278.421	294.62
278.652	293.62
278.884	299.62
279.115	302.62
279.347	292.62
279.579	300.62
279.81	291.62
280.042	302.62
280.273	292.62
280.505	281.62
280.736	317.62
280.968	282.62
281.199	277.62
281.431	284.62
281.662	284.62
281.894	269.62
282.125	269.62
282.356	311.62
282.588	314.62
282.819	315.62
283.051	290.62
283.282	311.62
283.513	288.62
283.745	304.62
283.976	302.62
284.207	326.62
284.439	313.62
284.67	323.62
284.901	306.62
285.132	317.62
285.364	281.62
285.595	315.62
285.826	296.62
286.057	297.62
286.288	311.62
286.52	307.62
286.751	293.62
286.982	303.62
287.213	313.62
287.444	309.62
287.675	317.62
287.906	318.62
288.138	310.62
288.369	317.62
288.6	321.62
288.831	314.62
289.062	309.62
289.293	318.62
289.524	315.62
289.755	311.62
289.986	324.62
290.217	295.62
290.448	318.62
290.679	318.62
290.91	310.62
291.141	311.62
291.371	321.62
291.602	329.62
291.833	321.62
292.064	324.62
292.295	307.62
292.526	319.62
292.757	303.62
292.987	327.62
293.218	317.62
293.449	321.62
293.68	306.62
293.91	333.62
294.141	315.62
294.372	330.62
294.603	334.62
294.833	326.62
295.064	312.62
295.295	324.62
295.525	329.62
295.756	332.62
295.987	339.62
296.217	348.62
296.448	350.62
296.679	333.62
296.909	325.62
297.14	333.62
297.37	327.62
297.601	325.62
297.831	324.62
298.062	317.62
298.292	330.62
298.523	333.62
298.753	338.62
298.984	332.62
299.214	321.62
299.445	328.62
299.675	350.62
299.905	345.62
300.136	333.62
300.366	353.62
300.597	359.62
300.827	338.62
301.057	344.62
301.288	374.62
301.518	361.62
301.748	345.62
301.979	347.62
302.209	355.62
302.439	364.62
302.669	331.62
302.9	340.62
303.13	355.62
303.36	365.62
303.59	348.62
303.82	353.62
304.051	370.62
304.281	379.62
304.511	354.62
304.741	332.62
304.971	351.62
305.201	361.62
305.431	355.62
305.661	370.62
305.891	346.62
306.121	359.62
306.352	386.62
306.582	363.62
306.812	348.62
307.042	363.62
307.272	350.62
307.502	369.62
307.731	370.62
307.961	364.62
308.191	337.62
308.421	363.62
308.651	370.62
308.881	349.62
309.111	365.62
309.341	369.62
309.571	371.62
309.8	366.62
310.03	370.62
310.26	400.62
310.49	402.62
310.72	372.62
310.949	408.62
311.179	405.62
311.409	400.62
311.639	398.62
311.868	397.62
312.098	409.62
312.328	412.62
312.557	417.62
312.787	422.62
313.017	397.62
313.246	405.62
313.476	407.62
313.706	394.62
313.935	388.62
314.165	406.62
314.394	410.62
314.624	413.62
314.853	403.62
315.083	409.62
315.312	407.62
315.542	400.62
315.771	411.62
316.001	380.62
316.23	394.62
316.46	415.62
316.689	406.62
316.919	400.62
317.148	402.62
317.377	412.62
317.607	415.62
317.836	409.62
318.065	388.62
318.295	405.62
318.524	418.62
318.753	403.62
318.983	398.62
319.212	399.62
319.441	399.62
319.67	403.62
319.9	402.62
320.129	406.62
320.358	408.62
320.587	400.62
320.816	434.62
321.046	436.62
321.275	429.62
321.504	438.62
321.733	439.62
321.962	429.62
322.191	435.62
322.42	442.62
322.649	446.62
322.878	453.62
323.108	475.62
323.337	499.62
323.566	488.62
323.795	485.62
324.024	545.62
324.253	620.62
324.482	845.62
324.71	1291.62
324.939	1893.62
325.168	1665.62
325.397	887.62
325.626	609.62
325.855	538.62
326.084	504.62
326.313	489.62
326.542	499.62
326.77	518.62
326.999	586.62
327.228	802.62
327.457	1186.62
327.686	1478.62
327.914	989.62
328.143	647.62
328.372	594.62
328.6	569.62
328.829	558.62
329.058	561.62
329.287	577.62
329.515	558.62
329.744	527.62
329.972	533.62
330.201	556.62
330.43	563.62
330.658	584.62
330.887	599.62
331.115	591.62
331.344	544.62
331.572	521.62
331.801	517.62
332.03	522.62
332.258	485.62
332.486	490.62
332.715	489.62
332.943	481.62
333.172	495.62
333.4	501.62
333.629	539.62
333.857	523.62
334.085	526.62
334.314	561.62
334.542	558.62
334.771	611.62
334.999	550.62
335.227	516.62
335.455	513.62
335.684	493.62
335.912	517.62
336.14	486.62
336.369	495.62
336.597	500.62
336.825	500.62
337.053	473.62
337.281	481.62
337.51	452.62
337.738	483.62
337.966	473.62
338.194	481.62
338.422	490.62
338.65	460.62
338.878	484.62
339.106	458.62
339.334	476.62
339.562	462.62
339.79	471.62
340.018	455.62
340.246	443.62
340.474	465.62
340.702	448.62
340.93	478.62
341.158	477.62
341.386	458.62
341.614	463.62
341.842	454.62
342.07	488.62
342.298	447.62
342.526	491.62
342.754	460.62
342.981	457.62
343.209	471.62
343.437	478.62
343.665	470.62
343.893	494.62
344.12	499.62
344.348	490.62
344.576	463.62
344.804	480.62
345.031	467.62
345.259	465.62
345.487	455.62
345.714	479.62
345.942	464.62
346.17	454.62
346.397	478.62
346.625	452.62
346.853	461.62
347.08	466.62
347.308	461.62
347.535	481.62
347.763	453.62
347.99	441.62
348.218	447.62
348.445	441.62
348.673	450.62
348.9	451.62
349.128	441.62
349.355	450.62
349.583	425.62
349.81	451.62
350.037	432.62
350.265	433.62
350.492	431.62
350.72	438.62
350.947	445.62
351.174	457.62
351.402	451.62
351.629	446.62
351.856	441.62
352.083	459.62
352.311	448.62
352.538	470.62
352.765	456.62
352.992	461.62
353.22	450.62
353.447	429.62
353.674	425.62
353.901	431.62
354.128	428.62
354.355	439.62
354.583	437.62
354.81	437.62
355.037	437.62
355.264	438.62
355.491	426.62
355.718	414.62
355.945	438.62
356.172	406.62
356.399	406.62
356.626	441.62
356.853	421.62
357.08	420.62
357.307	426.62
357.534	427.62
357.761	438.62
357.988	426.62
358.215	430.62
358.441	436.62
358.668	432.62
358.895	433.62
359.122	446.62
359.349	425.62
359.576	437.62
359.802	449.62
360.029	513.62
360.256	504.62
360.483	493.62
360.709	467.62
360.936	467.62
361.163	454.62
361.39	469.62
361.616	475.62
361.843	449.62
362.07	457.62
362.296	451.62
362.523	450.62
362.749	453.62
362.976	444.62
363.203	448.62
363.429	427.62
363.656	445.62
363.882	437.62
364.109	439.62
364.335	449.62
364.562	442.62
364.788	447.62
365.015	422.62
365.241	430.62
365.468	439.62
365.694	456.62
365.92	449.62
366.147	459.62
366.373	441.62
366.599	449.62
366.826	440.62
367.052	431.62
367.278	446.62
367.505	428.62
367.731	447.62
367.957	435.62
368.184	449.62
368.41	463.62
368.636	470.62
368.862	466.62
369.089	475.62
369.315	447.62
369.541	428.62
369.767	443.62
369.993	418.62
370.219	437.62
370.445	452.62
370.672	461.62
370.898	442.62
371.124	443.62
371.35	441.62
371.576	418.62
371.802	438.62
372.028	472.62
372.254	445.62
372.48	451.62
372.706	458.62
372.932	455.62
373.158	461.62
373.384	454.62
373.61	446.62
373.835	461.62
374.061	449.62
374.287	468.62
374.513	458.62
374.739	478.62
374.965	477.62
375.191	483.62
375.416	470.62
375.642	453.62
375.868	477.62
376.094	462.62
376.319	455.62
376.545	451.62
376.771	451.62
376.997	454.62
377.222	438.62
377.448	454.62
377.674	452.62
377.899	466.62
378.125	448.62
378.35	432.62
378.576	456.62
378.802	449.62
379.027	433.62
379.253	455.62
379.478	453.62
379.704	457.62
379.929	452.62
380.155	456.62
380.38	451.62
380.606	437.62
380.831	441.62
381.057	442.62
381.282	438.62
381.507	467.62
381.733	473.62
381.958	437.62
382.184	478.62
382.409	466.62
382.634	445.62
382.86	454.62
383.085	469.62
383.31	469.62
383.535	463.62
383.761	478.62
383.986	473.62
384.211	490.62
384.436	495.62
384.662	489.62
384.887	486.62
385.112	481.62
385.337	497.62
385.562	506.62
385.787	517.62
386.013	502.62
386.238	509.62
386.463	531.62
386.688	524.62
386.913	503.62
387.138	491.62
387.363	479.62
387.588	497.62
387.813	504.62
388.038	531.62
388.263	505.62
388.488	505.62
388.713	499.62
388.938	499.62
389.163	524.62
389.387	507.62
389.612	511.62
389.837	504.62
390.062	517.62
390.287	526.62
390.512	503.62
390.736	534.62
390.961	514.62
391.186	513.62
391.411	499.62
391.636	521.62
391.86	531.62
392.085	519.62
392.31	526.62
392.534	522.62
392.759	521.62
392.984	529.62
393.208	537.62
393.433	516.62
393.658	509.62
393.882	521.62
394.107	485.62
394.331	504.62
394.556	518.62
394.78	529.62
395.005	522.62
395.229	508.62
395.454	545.62
395.678	543.62
395.903	537.62
396.127	541.62
396.352	570.62
396.576	531.62
396.801	534.62
397.025	549.62
397.249	545.62
397.474	554.62
397.698	558.62
397.922	569.62
398.147	570.62
398.371	581.62
398.595	555.62
398.82	571.62
399.044	620.62
399.268	633.62
399.492	677.62
399.717	679.62
399.941	741.62
400.165	738.62
400.389	730.62
400.613	702.62
400.837	620.62
401.062	606.62
401.286	612.62
401.51	609.62
401.734	589.62
401.958	575.62
402.182	603.62
402.406	610.62
402.63	599.62
402.854	602.62
403.078	603.62
403.302	625.62
403.526	626.62
403.75	628.62
403.974	619.62
404.198	625.62
404.422	644.62
404.645	641.62
404.869	645.62
405.093	629.62
405.317	705.62
405.541	737.62
405.765	684.62
405.988	645.62
406.212	634.62
406.436	653.62
406.66	662.62
406.883	663.62
407.107	687.62
407.331	729.62
407.555	779.62
407.778	801.62
408.002	723.62
408.226	717.62
408.449	701.62
408.673	681.62
408.896	677.62
409.12	743.62
409.344	711.62
409.567	641.62
409.791	656.62
410.014	603.62
410.238	605.62
410.461	642.62
410.685	633.62
410.908	628.62
411.132	685.62
411.355	708.62
411.578	698.62
411.802	627.62
412.025	632.62
412.249	614.62
412.472	641.62
412.695	679.62
412.919	659.62
413.142	635.62
413.365	617.62
413.589	618.62
413.812	599.62
414.035	561.62
414.258	570.62
414.482	586.62
414.705	601.62
414.928	595.62
415.151	603.62
415.374	579.62
415.597	585.62
415.821	597.62
416.044	600.62
416.267	577.62
416.49	579.62
416.713	589.62
416.936	579.62
417.159	577.62
417.382	613.62
417.605	573.62
417.828	592.62
418.051	605.62
418.274	596.62
418.497	610.62
418.72	584.62
418.943	592.62
419.166	616.62
419.389	669.62
419.611	634.62
419.834	634.62
420.057	638.62
420.28	626.62
420.503	612.62
420.726	605.62
420.948	618.62
421.171	662.62
421.394	676.62
421.617	639.62
421.839	581.62
422.062	624.62
422.285	620.62
422.507	681.62
422.73	771.62
422.953	723.62
423.175	658.62
423.398	654.62
423.621	635.62
423.843	650.62
424.066	680.62
424.288	648.62
424.511	655.62
424.733	727.62
424.956	793.62
425.178	743.62
425.401	756.62
425.623	797.62
425.846	698.62
426.068	665.62
426.291	645.62
426.513	670.62
426.735	666.62
426.958	708.62
427.18	773.62
427.402	906.62
427.625	979.62
427.847	854.62
428.069	726.62
428.292	696.62
428.514	633.62
428.736	623.62
428.958	634.62
429.181	603.62
429.403	569.62
429.625	595.62
429.847	639.62
430.069	709.62
430.292	690.62
430.514	605.62
430.736	579.62
430.958	588.62
431.18	597.62
431.402	568.62
431.624	561.62
431.846	577.62
432.068	557.62
432.29	581.62
432.512	562.62
432.734	575.62
432.956	575.62
433.178	599.62
433.4	591.62
433.622	588.62
433.844	587.62
434.066	566.62
434.287	570.62
434.509	570.62
434.731	615.62
434.953	609.62
435.175	647.62
435.397	649.62
435.618	647.62
435.84	664.62
436.062	782.62
436.284	832.62
436.505	709.62
436.727	636.62
436.949	617.62
437.17	603.62
437.392	597.62
437.614	614.62
437.835	645.62
438.057	734.62
438.278	801.62
438.5	803.62
438.721	899.62
438.943	866.62
439.165	710.62
439.386	659.62
439.608	645.62
439.829	619.62
440.05	644.62
440.272	698.62
440.493	677.62
440.715	635.62
440.936	591.62
441.158	610.62
441.379	616.62
441.6	637.62
441.822	645.62
442.043	651.62
442.264	770.62
442.486	820.62
442.707	733.62
442.928	669.62
443.149	697.62
443.371	703.62
443.592	734.62
443.813	833.62
444.034	886.62
444.255	742.62
444.476	666.62
444.698	666.62
444.919	685.62
445.14	777.62
445.361	731.62
445.582	709.62
445.803	762.62
446.024	858.62
446.245	846.62
446.466	808.62
446.687	689.62
446.908	638.62
447.129	619.62
447.35	572.62
447.571	582.62
447.792	568.62
448.013	583.62
448.234	608.62
448.455	657.62
448.675	777.62
448.896	888.62
449.117	742.62
449.338	704.62
449.559	801.62
449.779	945.62
450	775.62
450.221	635.62
450.442	615.62
450.662	569.62
450.883	597.62
451.104	587.62
451.324	584.62
451.545	571.62
451.766	535.62
451.986	529.62
452.207	535.62
452.428	520.62
452.648	522.62
452.869	527.62
453.089	549.62
453.31	567.62
453.53	523.62
453.751	538.62
453.971	564.62
454.192	533.62
454.412	545.62
454.633	526.62
454.853	506.62
455.073	532.62
455.294	541.62
455.514	630.62
455.734	612.62
455.955	537.62
456.175	500.62
456.395	486.62
456.616	512.62
456.836	485.62
457.056	498.62
457.276	493.62
457.497	507.62
457.717	486.62
457.937	487.62
458.157	510.62
458.377	513.62
458.598	527.62
458.818	594.62
459.038	649.62
459.258	683.62
459.478	633.62
459.698	582.62
459.918	570.62
460.138	575.62
460.358	595.62
460.578	583.62
460.798	600.62
461.018	625.62
461.238	613.62
461.458	595.62
461.678	586.62
461.898	584.62
462.118	597.62
462.338	604.62
462.558	650.62
462.777	634.62
462.997	654.62
463.217	670.62
463.437	674.62
463.657	648.62
463.876	639.62
464.096	644.62
464.316	641.62
464.536	643.62
464.755	633.62
464.975	627.62
465.195	680.62
465.414	672.62
465.634	639.62
465.854	603.62
466.073	579.62
466.293	570.62
466.512	565.62
466.732	557.62
466.951	539.62
467.171	546.62
467.391	551.62
467.61	573.62
467.829	543.62
468.049	573.62
468.268	559.62
468.488	525.62
468.707	520.62
468.927	539.62
469.146	511.62
469.365	549.62
469.585	521.62
469.804	540.62
470.023	561.62
470.243	558.62
470.462	577.62
470.681	573.62
470.901	554.62
471.12	561.62
471.339	533.62
471.558	545.62
471.777	552.62
471.997	553.62
472.216	549.62
472.435	566.62
472.654	569.62
472.873	558.62
473.092	527.62
473.311	532.62
473.53	566.62
473.749	579.62
473.968	618.62
474.187	685.62
474.406	713.62
474.625	616.62
474.844	561.62
475.063	539.62
475.282	553.62
475.501	562.62
475.72	561.62
475.939	569.62
476.158	572.62
476.377	578.62
476.596	568.62
476.814	597.62
477.033	581.62
477.252	574.62
477.471	606.62
477.69	594.62
477.908	611.62
478.127	639.62
478.346	620.62
478.564	619.62
478.783	636.62
479.002	651.62
479.22	657.62
479.439	657.62
479.658	672.62
479.876	661.62
480.095	683.62
480.313	687.62
480.532	716.62
480.751	714.62
480.969	709.62
481.188	748.62
481.406	763.62
481.624	681.62
481.843	665.62
482.061	671.62
482.28	647.62
482.498	676.62
482.717	653.62
482.935	651.62
483.153	639.62
483.372	653.62
483.59	660.62
483.808	636.62
484.027	625.62
484.245	668.62
484.463	617.62
484.681	670.62
484.9	655.62
485.118	642.62
485.336	661.62
485.554	674.62
485.772	659.62
485.99	674.62
486.209	685.62
486.427	669.62
486.645	674.62
486.863	706.62
487.081	699.62
487.299	673.62
487.517	699.62
487.735	693.62
487.953	705.62
488.171	693.62
488.389	703.62
488.607	680.62
488.825	714.62
489.043	710.62
489.261	696.62
489.479	694.62
489.696	730.62
489.914	703.62
490.132	715.62
490.35	714.62
490.568	713.62
490.786	755.62
491.003	752.62
491.221	774.62
491.439	805.62
491.657	808.62
491.874	805.62
492.092	794.62
492.31	802.62
492.527	813.62
492.745	790.62
492.963	819.62
493.18	822.62
493.398	811.62
493.615	839.62
493.833	825.62
494.05	815.62
494.268	819.62
494.485	803.62
494.703	794.62
494.92	823.62
495.138	848.62
495.355	821.62
495.573	822.62
495.79	838.62
496.008	818.62
496.225	822.62
496.442	812.62
496.66	837.62
496.877	815.62
497.094	830.62
497.312	843.62
497.529	865.62
497.746	865.62
497.963	848.62
498.181	929.62
498.398	893.62
498.615	932.62
498.832	974.62
499.049	990.62
499.267	986.62
499.484	1070.62
499.701	1105.62
499.918	1170.62
500.135	1238.62
500.352	1303.62
500.569	1329.62
500.786	1320.62
501.003	1275.62
501.22	1225.62
501.437	1201.62
501.654	1148.62
