Data from 1974.PennyLincolnUp.Lamp.En5.5.200Scan.071719.P1.Changed Mount._HRD10591_15-52-41-856.txt Node
Date: Thu Jul 18 15:52:41 EDT 2019
User: cochatt
Spectrometer: HR+D1059
Trigger mode: 1
Integration Time (sec): 1.000000E-1
Scans to average: 1
Electric dark correction enabled: true
Nonlinearity correction enabled: false
Boxcar width: 0
XAxis mode: Wavelengths
Number of Pixels in Spectrum: 2048
>>>>>Begin Spectral Data<<<<<
223.165	-19.75
223.4	-19.75
223.635	-19.75
223.869	-28.75
224.104	-12.75
224.338	-20.75
224.573	-17.75
224.808	-13.75
225.042	-14.75
225.277	1.25
225.511	-1.75
225.746	7.25
225.98	20.25
226.215	0.25
226.449	21.25
226.683	22.25
226.918	32.25
227.152	25.25
227.387	27.25
227.621	30.25
227.856	42.25
228.09	46.25
228.324	60.25
228.559	38.25
228.793	66.25
229.027	91.25
229.262	126.25
229.496	128.25
229.73	143.25
229.964	150.25
230.199	148.25
230.433	117.25
230.667	110.25
230.901	103.25
231.136	113.25
231.37	125.25
231.604	126.25
231.838	101.25
232.072	114.25
232.306	124.25
232.541	123.25
232.775	118.25
233.009	137.25
233.243	120.25
233.477	121.25
233.711	129.25
233.945	121.25
234.179	108.25
234.413	122.25
234.647	123.25
234.881	119.25
235.115	115.25
235.349	123.25
235.583	132.25
235.817	124.25
236.051	134.25
236.285	123.25
236.519	126.25
236.753	122.25
236.987	140.25
237.221	168.25
237.455	259.25
237.689	180.25
237.922	132.25
238.156	141.25
238.39	153.25
238.624	143.25
238.858	132.25
239.091	136.25
239.325	136.25
239.559	137.25
239.793	127.25
240.027	141.25
240.26	152.25
240.494	172.25
240.728	155.25
240.961	145.25
241.195	152.25
241.429	152.25
241.662	160.25
241.896	143.25
242.13	138.25
242.363	148.25
242.597	136.25
242.83	152.25
243.064	151.25
243.298	133.25
243.531	135.25
243.765	136.25
243.998	153.25
244.232	140.25
244.465	156.25
244.699	165.25
244.932	147.25
245.166	171.25
245.399	166.25
245.633	143.25
245.866	173.25
246.099	152.25
246.333	171.25
246.566	176.25
246.8	158.25
247.033	173.25
247.266	175.25
247.5	175.25
247.733	171.25
247.966	185.25
248.2	182.25
248.433	186.25
248.666	188.25
248.899	200.25
249.133	215.25
249.366	219.25
249.599	213.25
249.832	205.25
250.066	200.25
250.299	186.25
250.532	225.25
250.765	209.25
250.998	232.25
251.231	238.25
251.465	230.25
251.698	223.25
251.931	212.25
252.164	229.25
252.397	212.25
252.63	222.25
252.863	210.25
253.096	220.25
253.329	233.25
253.562	254.25
253.795	232.25
254.028	224.25
254.261	228.25
254.494	223.25
254.727	260.25
254.96	299.25
255.193	287.25
255.426	254.25
255.659	227.25
255.892	250.25
256.124	245.25
256.357	268.25
256.59	255.25
256.823	245.25
257.056	227.25
257.289	236.25
257.521	210.25
257.754	220.25
257.987	230.25
258.22	228.25
258.452	229.25
258.685	222.25
258.918	226.25
259.151	228.25
259.383	231.25
259.616	204.25
259.849	263.25
260.081	240.25
260.314	245.25
260.547	261.25
260.779	270.25
261.012	235.25
261.244	230.25
261.477	238.25
261.71	251.25
261.942	250.25
262.175	237.25
262.407	240.25
262.64	228.25
262.872	224.25
263.105	240.25
263.337	258.25
263.57	251.25
263.802	231.25
264.035	234.25
264.267	221.25
264.499	244.25
264.732	227.25
264.964	228.25
265.197	221.25
265.429	237.25
265.661	226.25
265.894	240.25
266.126	239.25
266.358	213.25
266.591	256.25
266.823	246.25
267.055	233.25
267.287	247.25
267.52	258.25
267.752	255.25
267.984	268.25
268.216	246.25
268.448	251.25
268.681	244.25
268.913	268.25
269.145	283.25
269.377	301.25
269.609	301.25
269.841	296.25
270.073	297.25
270.306	314.25
270.538	333.25
270.77	332.25
271.002	345.25
271.234	317.25
271.466	322.25
271.698	309.25
271.93	341.25
272.162	353.25
272.394	339.25
272.626	330.25
272.858	306.25
273.09	317.25
273.322	297.25
273.553	299.25
273.785	293.25
274.017	285.25
274.249	294.25
274.481	302.25
274.713	284.25
274.945	311.25
275.176	290.25
275.408	285.25
275.64	278.25
275.872	263.25
276.104	286.25
276.335	272.25
276.567	295.25
276.799	306.25
277.031	320.25
277.262	325.25
277.494	341.25
277.726	315.25
277.957	324.25
278.189	311.25
278.421	298.25
278.652	285.25
278.884	276.25
279.115	304.25
279.347	304.25
279.579	312.25
279.81	294.25
280.042	294.25
280.273	292.25
280.505	303.25
280.736	304.25
280.968	310.25
281.199	291.25
281.431	320.25
281.662	284.25
281.894	288.25
282.125	304.25
282.356	306.25
282.588	334.25
282.819	338.25
283.051	311.25
283.282	294.25
283.513	312.25
283.745	297.25
283.976	333.25
284.207	303.25
284.439	310.25
284.67	315.25
284.901	293.25
285.132	305.25
285.364	293.25
285.595	317.25
285.826	310.25
286.057	307.25
286.288	302.25
286.52	321.25
286.751	304.25
286.982	320.25
287.213	320.25
287.444	308.25
287.675	304.25
287.906	326.25
288.138	349.25
288.369	337.25
288.6	326.25
288.831	316.25
289.062	336.25
289.293	326.25
289.524	318.25
289.755	334.25
289.986	321.25
290.217	342.25
290.448	316.25
290.679	319.25
290.91	308.25
291.141	312.25
291.371	326.25
291.602	308.25
291.833	326.25
292.064	341.25
292.295	339.25
292.526	328.25
292.757	321.25
292.987	327.25
293.218	338.25
293.449	324.25
293.68	316.25
293.91	301.25
294.141	318.25
294.372	328.25
294.603	329.25
294.833	321.25
295.064	335.25
295.295	307.25
295.525	315.25
295.756	339.25
295.987	332.25
296.217	350.25
296.448	342.25
296.679	321.25
296.909	330.25
297.14	355.25
297.37	342.25
297.601	325.25
297.831	348.25
298.062	326.25
298.292	349.25
298.523	346.25
298.753	350.25
298.984	357.25
299.214	360.25
299.445	349.25
299.675	343.25
299.905	349.25
300.136	350.25
300.366	357.25
300.597	334.25
300.827	372.25
301.057	355.25
301.288	363.25
301.518	377.25
301.748	358.25
301.979	341.25
302.209	367.25
302.439	379.25
302.669	372.25
302.9	377.25
303.13	360.25
303.36	359.25
303.59	361.25
303.82	384.25
304.051	365.25
304.281	352.25
304.511	364.25
304.741	365.25
304.971	368.25
305.201	376.25
305.431	362.25
305.661	363.25
305.891	368.25
306.121	366.25
306.352	354.25
306.582	366.25
306.812	382.25
307.042	365.25
307.272	372.25
307.502	366.25
307.731	400.25
307.961	370.25
308.191	364.25
308.421	384.25
308.651	374.25
308.881	365.25
309.111	357.25
309.341	399.25
309.571	388.25
309.8	394.25
310.03	356.25
310.26	400.25
310.49	384.25
310.72	385.25
310.949	425.25
311.179	453.25
311.409	424.25
311.639	398.25
311.868	397.25
312.098	391.25
312.328	406.25
312.557	424.25
312.787	432.25
313.017	411.25
313.246	414.25
313.476	401.25
313.706	399.25
313.935	407.25
314.165	421.25
314.394	430.25
314.624	417.25
314.853	411.25
315.083	403.25
315.312	407.25
315.542	412.25
315.771	422.25
316.001	398.25
316.23	397.25
316.46	398.25
316.689	422.25
316.919	410.25
317.148	415.25
317.377	429.25
317.607	429.25
317.836	426.25
318.065	412.25
318.295	410.25
318.524	417.25
318.753	417.25
318.983	420.25
319.212	414.25
319.441	409.25
319.67	416.25
319.9	410.25
320.129	407.25
320.358	405.25
320.587	432.25
320.816	406.25
321.046	408.25
321.275	426.25
321.504	439.25
321.733	422.25
321.962	436.25
322.191	440.25
322.42	451.25
322.649	478.25
322.878	486.25
323.108	470.25
323.337	505.25
323.566	512.25
323.795	521.25
324.024	530.25
324.253	658.25
324.482	855.25
324.71	1306.25
324.939	1930.25
325.168	1712.25
325.397	880.25
325.626	613.25
325.855	534.25
326.084	505.25
326.313	513.25
326.542	490.25
326.77	541.25
326.999	614.25
327.228	804.25
327.457	1189.25
327.686	1490.25
327.914	990.25
328.143	668.25
328.372	584.25
328.6	564.25
328.829	554.25
329.058	576.25
329.287	591.25
329.515	557.25
329.744	519.25
329.972	527.25
330.201	538.25
330.43	569.25
330.658	560.25
330.887	620.25
331.115	593.25
331.344	549.25
331.572	527.25
331.801	493.25
332.03	535.25
332.258	510.25
332.486	480.25
332.715	508.25
332.943	514.25
333.172	506.25
333.4	519.25
333.629	504.25
333.857	537.25
334.085	554.25
334.314	566.25
334.542	568.25
334.771	574.25
334.999	561.25
335.227	541.25
335.455	494.25
335.684	500.25
335.912	524.25
336.14	500.25
336.369	480.25
336.597	495.25
336.825	513.25
337.053	500.25
337.281	466.25
337.51	492.25
337.738	490.25
337.966	469.25
338.194	511.25
338.422	482.25
338.65	495.25
338.878	468.25
339.106	484.25
339.334	484.25
339.562	477.25
339.79	460.25
340.018	510.25
340.246	460.25
340.474	468.25
340.702	484.25
340.93	477.25
341.158	496.25
341.386	460.25
341.614	492.25
341.842	474.25
342.07	474.25
342.298	475.25
342.526	464.25
342.754	469.25
342.981	470.25
343.209	462.25
343.437	490.25
343.665	486.25
343.893	490.25
344.12	502.25
344.348	504.25
344.576	493.25
344.804	492.25
345.031	487.25
345.259	497.25
345.487	476.25
345.714	476.25
345.942	472.25
346.17	460.25
346.397	467.25
346.625	460.25
346.853	424.25
347.08	462.25
347.308	462.25
347.535	474.25
347.763	470.25
347.99	444.25
348.218	454.25
348.445	465.25
348.673	456.25
348.9	476.25
349.128	466.25
349.355	438.25
349.583	466.25
349.81	468.25
350.037	430.25
350.265	457.25
350.492	455.25
350.72	438.25
350.947	455.25
351.174	470.25
351.402	466.25
351.629	461.25
351.856	465.25
352.083	466.25
352.311	461.25
352.538	463.25
352.765	476.25
352.992	459.25
353.22	459.25
353.447	462.25
353.674	454.25
353.901	426.25
354.128	444.25
354.355	448.25
354.583	413.25
354.81	445.25
355.037	428.25
355.264	426.25
355.491	441.25
355.718	435.25
355.945	427.25
356.172	449.25
356.399	445.25
356.626	445.25
356.853	445.25
357.08	435.25
357.307	421.25
357.534	459.25
357.761	413.25
357.988	451.25
358.215	442.25
358.441	429.25
358.668	433.25
358.895	436.25
359.122	453.25
359.349	451.25
359.576	455.25
359.802	452.25
360.029	484.25
360.256	502.25
360.483	483.25
360.709	476.25
360.936	477.25
361.163	445.25
361.39	450.25
361.616	466.25
361.843	457.25
362.07	442.25
362.296	457.25
362.523	456.25
362.749	474.25
362.976	447.25
363.203	452.25
363.429	448.25
363.656	439.25
363.882	452.25
364.109	462.25
364.335	424.25
364.562	441.25
364.788	438.25
365.015	457.25
365.241	446.25
365.468	451.25
365.694	460.25
365.92	442.25
366.147	464.25
366.373	427.25
366.599	453.25
366.826	436.25
367.052	458.25
367.278	452.25
367.505	462.25
367.731	444.25
367.957	449.25
368.184	457.25
368.41	460.25
368.636	448.25
368.862	485.25
369.089	468.25
369.315	458.25
369.541	480.25
369.767	458.25
369.993	456.25
370.219	450.25
370.445	456.25
370.672	451.25
370.898	463.25
371.124	461.25
371.35	467.25
371.576	451.25
371.802	451.25
372.028	467.25
372.254	443.25
372.48	460.25
372.706	460.25
372.932	464.25
373.158	470.25
373.384	465.25
373.61	473.25
373.835	465.25
374.061	458.25
374.287	468.25
374.513	459.25
374.739	454.25
374.965	460.25
375.191	461.25
375.416	486.25
375.642	456.25
375.868	452.25
376.094	447.25
376.319	474.25
376.545	457.25
376.771	447.25
376.997	455.25
377.222	469.25
377.448	476.25
377.674	449.25
377.899	466.25
378.125	444.25
378.35	465.25
378.576	474.25
378.802	464.25
379.027	472.25
379.253	457.25
379.478	460.25
379.704	449.25
379.929	453.25
380.155	435.25
380.38	477.25
380.606	472.25
380.831	437.25
381.057	468.25
381.282	476.25
381.507	451.25
381.733	457.25
381.958	457.25
382.184	457.25
382.409	461.25
382.634	461.25
382.86	470.25
383.085	487.25
383.31	487.25
383.535	480.25
383.761	511.25
383.986	482.25
384.211	504.25
384.436	491.25
384.662	487.25
384.887	506.25
385.112	512.25
385.337	509.25
385.562	505.25
385.787	499.25
386.013	527.25
386.238	525.25
386.463	536.25
386.688	534.25
386.913	514.25
387.138	506.25
387.363	525.25
387.588	499.25
387.813	512.25
388.038	512.25
388.263	521.25
388.488	488.25
388.713	532.25
388.938	512.25
389.163	532.25
389.387	523.25
389.612	512.25
389.837	501.25
390.062	533.25
390.287	497.25
390.512	500.25
390.736	516.25
390.961	514.25
391.186	517.25
391.411	513.25
391.636	529.25
391.86	547.25
392.085	554.25
392.31	537.25
392.534	554.25
392.759	548.25
392.984	514.25
393.208	541.25
393.433	516.25
393.658	525.25
393.882	555.25
394.107	513.25
394.331	526.25
394.556	526.25
394.78	529.25
395.005	531.25
395.229	545.25
395.454	531.25
395.678	523.25
395.903	557.25
396.127	574.25
396.352	589.25
396.576	552.25
396.801	531.25
397.025	570.25
397.249	552.25
397.474	532.25
397.698	574.25
397.922	578.25
398.147	571.25
398.371	595.25
398.595	586.25
398.82	616.25
399.044	635.25
399.268	636.25
399.492	660.25
399.717	714.25
399.941	756.25
400.165	786.25
400.389	759.25
400.613	695.25
400.837	637.25
401.062	628.25
401.286	624.25
401.51	599.25
401.734	620.25
401.958	599.25
402.182	602.25
402.406	635.25
402.63	614.25
402.854	629.25
403.078	616.25
403.302	617.25
403.526	639.25
403.75	642.25
403.974	675.25
404.198	645.25
404.422	646.25
404.645	643.25
404.869	675.25
405.093	683.25
405.317	721.25
405.541	760.25
405.765	698.25
405.988	668.25
406.212	649.25
406.436	673.25
406.66	707.25
406.883	684.25
407.107	715.25
407.331	756.25
407.555	847.25
407.778	826.25
408.002	746.25
408.226	721.25
408.449	684.25
408.673	681.25
408.896	701.25
409.12	756.25
409.344	727.25
409.567	661.25
409.791	654.25
410.014	660.25
410.238	645.25
410.461	615.25
410.685	630.25
410.908	661.25
411.132	685.25
411.355	723.25
411.578	696.25
411.802	622.25
412.025	619.25
412.249	638.25
412.472	664.25
412.695	725.25
412.919	692.25
413.142	649.25
413.365	642.25
413.589	614.25
413.812	620.25
414.035	609.25
414.258	585.25
414.482	598.25
414.705	604.25
414.928	588.25
415.151	584.25
415.374	594.25
415.597	589.25
415.821	597.25
416.044	617.25
416.267	600.25
416.49	597.25
416.713	580.25
416.936	621.25
417.159	599.25
417.382	613.25
417.605	597.25
417.828	618.25
418.051	625.25
418.274	614.25
418.497	606.25
418.72	593.25
418.943	608.25
419.166	618.25
419.389	635.25
419.611	652.25
419.834	651.25
420.057	638.25
420.28	638.25
420.503	606.25
420.726	632.25
420.948	649.25
421.171	689.25
421.394	718.25
421.617	634.25
421.839	621.25
422.062	625.25
422.285	608.25
422.507	695.25
422.73	740.25
422.953	749.25
423.175	655.25
423.398	656.25
423.621	653.25
423.843	668.25
424.066	680.25
424.288	676.25
424.511	670.25
424.733	755.25
424.956	822.25
425.178	789.25
425.401	770.25
425.623	794.25
425.846	685.25
426.068	677.25
426.291	655.25
426.513	654.25
426.735	656.25
426.958	685.25
427.18	772.25
427.402	897.25
427.625	1010.25
427.847	871.25
428.069	773.25
428.292	684.25
428.514	636.25
428.736	611.25
428.958	641.25
429.181	631.25
429.403	636.25
429.625	611.25
429.847	632.25
430.069	722.25
430.292	709.25
430.514	646.25
430.736	592.25
430.958	606.25
431.18	583.25
431.402	583.25
431.624	551.25
431.846	572.25
432.068	553.25
432.29	590.25
432.512	573.25
432.734	595.25
432.956	578.25
433.178	590.25
433.4	596.25
433.622	603.25
433.844	597.25
434.066	571.25
434.287	604.25
434.509	598.25
434.731	590.25
434.953	596.25
435.175	645.25
435.397	654.25
435.618	661.25
435.84	673.25
436.062	800.25
436.284	887.25
436.505	731.25
436.727	647.25
436.949	648.25
437.17	604.25
437.392	596.25
437.614	609.25
437.835	666.25
438.057	720.25
438.278	835.25
438.5	855.25
438.721	961.25
438.943	910.25
439.165	695.25
439.386	668.25
439.608	671.25
439.829	635.25
440.05	653.25
440.272	709.25
440.493	682.25
440.715	631.25
440.936	637.25
441.158	639.25
441.379	610.25
441.6	644.25
441.822	658.25
442.043	669.25
442.264	788.25
442.486	821.25
442.707	709.25
442.928	681.25
443.149	672.25
443.371	679.25
443.592	768.25
443.813	843.25
444.034	925.25
444.255	776.25
444.476	704.25
444.698	704.25
444.919	690.25
445.14	797.25
445.361	749.25
445.582	712.25
445.803	752.25
446.024	845.25
446.245	852.25
446.466	816.25
446.687	685.25
446.908	650.25
447.129	611.25
447.35	621.25
447.571	602.25
447.792	597.25
448.013	597.25
448.234	591.25
448.455	645.25
448.675	786.25
448.896	872.25
449.117	802.25
449.338	726.25
449.559	842.25
449.779	945.25
450	784.25
450.221	646.25
450.442	610.25
450.662	556.25
450.883	576.25
451.104	569.25
451.324	607.25
451.545	562.25
451.766	586.25
451.986	523.25
452.207	543.25
452.428	532.25
452.648	538.25
452.869	529.25
453.089	545.25
453.31	563.25
453.53	551.25
453.751	530.25
453.971	546.25
454.192	546.25
454.412	531.25
454.633	510.25
454.853	487.25
455.073	532.25
455.294	575.25
455.514	624.25
455.734	631.25
455.955	537.25
456.175	514.25
456.395	516.25
456.616	502.25
456.836	517.25
457.056	491.25
457.276	498.25
457.497	508.25
457.717	487.25
457.937	516.25
458.157	516.25
458.377	526.25
458.598	562.25
458.818	596.25
459.038	668.25
459.258	705.25
459.478	617.25
459.698	588.25
459.918	585.25
460.138	583.25
460.358	613.25
460.578	588.25
460.798	618.25
461.018	603.25
461.238	608.25
461.458	618.25
461.678	579.25
461.898	621.25
462.118	628.25
462.338	622.25
462.558	628.25
462.777	654.25
462.997	649.25
463.217	704.25
463.437	672.25
463.657	658.25
463.876	639.25
464.096	656.25
464.316	647.25
464.536	664.25
464.755	670.25
464.975	661.25
465.195	667.25
465.414	731.25
465.634	652.25
465.854	617.25
466.073	586.25
466.293	565.25
466.512	564.25
466.732	576.25
466.951	526.25
467.171	549.25
467.391	547.25
467.61	576.25
467.829	571.25
468.049	560.25
468.268	549.25
468.488	560.25
468.707	547.25
468.927	540.25
469.146	547.25
469.365	528.25
469.585	563.25
469.804	552.25
470.023	560.25
470.243	571.25
470.462	578.25
470.681	599.25
470.901	579.25
471.12	580.25
471.339	545.25
471.558	568.25
471.777	561.25
471.997	560.25
472.216	562.25
472.435	588.25
472.654	577.25
472.873	561.25
473.092	577.25
473.311	561.25
473.53	562.25
473.749	570.25
473.968	605.25
474.187	693.25
474.406	747.25
474.625	617.25
474.844	572.25
475.063	563.25
475.282	581.25
475.501	568.25
475.72	580.25
475.939	585.25
476.158	583.25
476.377	570.25
476.596	584.25
476.814	580.25
477.033	590.25
477.252	591.25
477.471	587.25
477.69	589.25
477.908	631.25
478.127	612.25
478.346	645.25
478.564	641.25
478.783	599.25
479.002	648.25
479.22	659.25
479.439	650.25
479.658	664.25
479.876	667.25
480.095	689.25
480.313	725.25
480.532	710.25
480.751	694.25
480.969	715.25
481.188	728.25
481.406	776.25
481.624	714.25
481.843	678.25
482.061	684.25
482.28	679.25
482.498	676.25
482.717	673.25
482.935	657.25
483.153	667.25
483.372	678.25
483.59	654.25
483.808	641.25
484.027	669.25
484.245	665.25
484.463	648.25
484.681	664.25
484.9	653.25
485.118	663.25
485.336	652.25
485.554	685.25
485.772	696.25
485.99	672.25
486.209	665.25
486.427	689.25
486.645	686.25
486.863	724.25
487.081	712.25
487.299	741.25
487.517	734.25
487.735	694.25
487.953	726.25
488.171	721.25
488.389	727.25
488.607	722.25
488.825	700.25
489.043	710.25
489.261	713.25
489.479	714.25
489.696	737.25
489.914	746.25
490.132	718.25
490.35	742.25
490.568	758.25
490.786	755.25
491.003	767.25
491.221	788.25
491.439	820.25
491.657	789.25
491.874	782.25
492.092	814.25
492.31	792.25
492.527	802.25
492.745	838.25
492.963	850.25
493.18	833.25
493.398	832.25
493.615	827.25
493.833	844.25
494.05	857.25
494.268	838.25
494.485	858.25
494.703	859.25
494.92	841.25
495.138	856.25
495.355	841.25
495.573	853.25
495.79	840.25
496.008	861.25
496.225	868.25
496.442	846.25
496.66	853.25
496.877	874.25
497.094	893.25
497.312	895.25
497.529	892.25
497.746	871.25
497.963	892.25
498.181	918.25
498.398	918.25
498.615	953.25
498.832	981.25
499.049	981.25
499.267	1051.25
499.484	1104.25
499.701	1141.25
499.918	1192.25
500.135	1269.25
500.352	1332.25
500.569	1356.25
500.786	1376.25
501.003	1327.25
501.22	1264.25
501.437	1222.25
501.654	1200.25
