Data from 1974.PennyLincolnUp.Lamp.En5.5.200Scan.071719.P1.Changed Mount._HRD10591_15-52-17-857.txt Node
Date: Thu Jul 18 15:52:17 EDT 2019
User: cochatt
Spectrometer: HR+D1059
Trigger mode: 1
Integration Time (sec): 1.000000E-1
Scans to average: 1
Electric dark correction enabled: true
Nonlinearity correction enabled: false
Boxcar width: 0
XAxis mode: Wavelengths
Number of Pixels in Spectrum: 2048
>>>>>Begin Spectral Data<<<<<
223.165	-5.75
223.4	-5.75
223.635	-5.75
223.869	-15.75
224.104	-12.75
224.338	-22.75
224.573	-8.75
224.808	-21.75
225.042	-6.75
225.277	-5.75
225.511	2.25
225.746	-6.75
225.98	6.25
226.215	6.25
226.449	18.25
226.683	19.25
226.918	16.25
227.152	38.25
227.387	34.25
227.621	46.25
227.856	37.25
228.09	53.25
228.324	49.25
228.559	67.25
228.793	66.25
229.027	85.25
229.262	119.25
229.496	114.25
229.73	118.25
229.964	143.25
230.199	122.25
230.433	113.25
230.667	109.25
230.901	110.25
231.136	104.25
231.37	130.25
231.604	109.25
231.838	112.25
232.072	122.25
232.306	125.25
232.541	120.25
232.775	110.25
233.009	104.25
233.243	123.25
233.477	105.25
233.711	128.25
233.945	130.25
234.179	120.25
234.413	119.25
234.647	112.25
234.881	115.25
235.115	113.25
235.349	116.25
235.583	126.25
235.817	134.25
236.051	121.25
236.285	140.25
236.519	131.25
236.753	128.25
236.987	142.25
237.221	168.25
237.455	228.25
237.689	199.25
237.922	146.25
238.156	131.25
238.39	131.25
238.624	136.25
238.858	147.25
239.091	131.25
239.325	123.25
239.559	142.25
239.793	142.25
240.027	144.25
240.26	163.25
240.494	164.25
240.728	166.25
240.961	158.25
241.195	138.25
241.429	147.25
241.662	131.25
241.896	132.25
242.13	145.25
242.363	146.25
242.597	139.25
242.83	129.25
243.064	131.25
243.298	152.25
243.531	156.25
243.765	131.25
243.998	148.25
244.232	148.25
244.465	138.25
244.699	160.25
244.932	159.25
245.166	161.25
245.399	151.25
245.633	144.25
245.866	164.25
246.099	156.25
246.333	156.25
246.566	168.25
246.8	162.25
247.033	164.25
247.266	166.25
247.5	166.25
247.733	150.25
247.966	181.25
248.2	179.25
248.433	162.25
248.666	176.25
248.899	193.25
249.133	199.25
249.366	211.25
249.599	209.25
249.832	202.25
250.066	196.25
250.299	186.25
250.532	185.25
250.765	212.25
250.998	214.25
251.231	233.25
251.465	224.25
251.698	222.25
251.931	211.25
252.164	205.25
252.397	202.25
252.63	212.25
252.863	205.25
253.096	228.25
253.329	242.25
253.562	221.25
253.795	233.25
254.028	211.25
254.261	215.25
254.494	244.25
254.727	263.25
254.96	285.25
255.193	255.25
255.426	261.25
255.659	234.25
255.892	240.25
256.124	242.25
256.357	248.25
256.59	235.25
256.823	232.25
257.056	216.25
257.289	205.25
257.521	227.25
257.754	208.25
257.987	218.25
258.22	225.25
258.452	223.25
258.685	216.25
258.918	213.25
259.151	235.25
259.383	238.25
259.616	224.25
259.849	232.25
260.081	258.25
260.314	266.25
260.547	265.25
260.779	237.25
261.012	235.25
261.244	220.25
261.477	243.25
261.71	232.25
261.942	242.25
262.175	235.25
262.407	231.25
262.64	217.25
262.872	225.25
263.105	233.25
263.337	225.25
263.57	223.25
263.802	228.25
264.035	241.25
264.267	218.25
264.499	243.25
264.732	214.25
264.964	226.25
265.197	240.25
265.429	226.25
265.661	212.25
265.894	233.25
266.126	242.25
266.358	221.25
266.591	227.25
266.823	237.25
267.055	245.25
267.287	235.25
267.52	231.25
267.752	228.25
267.984	238.25
268.216	231.25
268.448	263.25
268.681	247.25
268.913	253.25
269.145	278.25
269.377	281.25
269.609	269.25
269.841	282.25
270.073	275.25
270.306	300.25
270.538	320.25
270.77	345.25
271.002	316.25
271.234	296.25
271.466	312.25
271.698	329.25
271.93	327.25
272.162	331.25
272.394	341.25
272.626	304.25
272.858	299.25
273.09	290.25
273.322	281.25
273.553	285.25
273.785	280.25
274.017	271.25
274.249	291.25
274.481	273.25
274.713	271.25
274.945	272.25
275.176	272.25
275.408	297.25
275.64	285.25
275.872	275.25
276.104	277.25
276.335	259.25
276.567	291.25
276.799	300.25
277.031	328.25
277.262	324.25
277.494	340.25
277.726	331.25
277.957	317.25
278.189	296.25
278.421	264.25
278.652	285.25
278.884	279.25
279.115	289.25
279.347	292.25
279.579	287.25
279.81	252.25
280.042	277.25
280.273	273.25
280.505	289.25
280.736	283.25
280.968	282.25
281.199	268.25
281.431	278.25
281.662	299.25
281.894	282.25
282.125	277.25
282.356	304.25
282.588	321.25
282.819	326.25
283.051	300.25
283.282	291.25
283.513	287.25
283.745	313.25
283.976	302.25
284.207	295.25
284.439	304.25
284.67	294.25
284.901	286.25
285.132	282.25
285.364	305.25
285.595	303.25
285.826	302.25
286.057	326.25
286.288	295.25
286.52	301.25
286.751	318.25
286.982	320.25
287.213	317.25
287.444	308.25
287.675	325.25
287.906	308.25
288.138	338.25
288.369	308.25
288.6	325.25
288.831	335.25
289.062	299.25
289.293	317.25
289.524	320.25
289.755	312.25
289.986	304.25
290.217	330.25
290.448	304.25
290.679	333.25
290.91	317.25
291.141	323.25
291.371	319.25
291.602	307.25
291.833	320.25
292.064	319.25
292.295	320.25
292.526	321.25
292.757	325.25
292.987	325.25
293.218	305.25
293.449	331.25
293.68	314.25
293.91	317.25
294.141	337.25
294.372	313.25
294.603	313.25
294.833	342.25
295.064	320.25
295.295	317.25
295.525	324.25
295.756	312.25
295.987	328.25
296.217	336.25
296.448	351.25
296.679	314.25
296.909	338.25
297.14	348.25
297.37	318.25
297.601	323.25
297.831	347.25
298.062	310.25
298.292	334.25
298.523	334.25
298.753	315.25
298.984	320.25
299.214	345.25
299.445	327.25
299.675	321.25
299.905	347.25
300.136	310.25
300.366	334.25
300.597	342.25
300.827	331.25
301.057	334.25
301.288	356.25
301.518	342.25
301.748	340.25
301.979	364.25
302.209	343.25
302.439	350.25
302.669	352.25
302.9	348.25
303.13	346.25
303.36	352.25
303.59	357.25
303.82	369.25
304.051	359.25
304.281	371.25
304.511	358.25
304.741	346.25
304.971	370.25
305.201	362.25
305.431	324.25
305.661	327.25
305.891	361.25
306.121	345.25
306.352	355.25
306.582	370.25
306.812	365.25
307.042	347.25
307.272	364.25
307.502	362.25
307.731	372.25
307.961	354.25
308.191	368.25
308.421	356.25
308.651	348.25
308.881	354.25
309.111	352.25
309.341	360.25
309.571	386.25
309.8	374.25
310.03	368.25
310.26	373.25
310.49	389.25
310.72	391.25
310.949	398.25
311.179	404.25
311.409	389.25
311.639	382.25
311.868	394.25
312.098	395.25
312.328	402.25
312.557	396.25
312.787	412.25
313.017	410.25
313.246	403.25
313.476	386.25
313.706	380.25
313.935	377.25
314.165	394.25
314.394	410.25
314.624	398.25
314.853	399.25
315.083	400.25
315.312	399.25
315.542	395.25
315.771	403.25
316.001	390.25
316.23	395.25
316.46	389.25
316.689	395.25
316.919	412.25
317.148	392.25
317.377	390.25
317.607	417.25
317.836	414.25
318.065	420.25
318.295	397.25
318.524	405.25
318.753	398.25
318.983	393.25
319.212	403.25
319.441	394.25
319.67	422.25
319.9	406.25
320.129	416.25
320.358	409.25
320.587	398.25
320.816	411.25
321.046	413.25
321.275	428.25
321.504	417.25
321.733	415.25
321.962	430.25
322.191	431.25
322.42	442.25
322.649	429.25
322.878	451.25
323.108	454.25
323.337	464.25
323.566	481.25
323.795	493.25
324.024	530.25
324.253	600.25
324.482	825.25
324.71	1206.25
324.939	1771.25
325.168	1540.25
325.397	826.25
325.626	587.25
325.855	520.25
326.084	488.25
326.313	484.25
326.542	484.25
326.77	523.25
326.999	609.25
327.228	747.25
327.457	1100.25
327.686	1343.25
327.914	941.25
328.143	634.25
328.372	566.25
328.6	540.25
328.829	535.25
329.058	521.25
329.287	544.25
329.515	535.25
329.744	504.25
329.972	483.25
330.201	544.25
330.43	561.25
330.658	538.25
330.887	584.25
331.115	568.25
331.344	503.25
331.572	498.25
331.801	478.25
332.03	508.25
332.258	486.25
332.486	483.25
332.715	489.25
332.943	463.25
333.172	492.25
333.4	494.25
333.629	497.25
333.857	504.25
334.085	526.25
334.314	525.25
334.542	558.25
334.771	531.25
334.999	540.25
335.227	499.25
335.455	513.25
335.684	506.25
335.912	504.25
336.14	491.25
336.369	503.25
336.597	489.25
336.825	482.25
337.053	474.25
337.281	485.25
337.51	463.25
337.738	456.25
337.966	473.25
338.194	477.25
338.422	483.25
338.65	468.25
338.878	461.25
339.106	445.25
339.334	471.25
339.562	473.25
339.79	467.25
340.018	466.25
340.246	482.25
340.474	484.25
340.702	476.25
340.93	469.25
341.158	453.25
341.386	460.25
341.614	454.25
341.842	461.25
342.07	461.25
342.298	445.25
342.526	446.25
342.754	456.25
342.981	445.25
343.209	438.25
343.437	445.25
343.665	472.25
343.893	493.25
344.12	508.25
344.348	488.25
344.576	460.25
344.804	497.25
345.031	466.25
345.259	494.25
345.487	452.25
345.714	476.25
345.942	450.25
346.17	454.25
346.397	460.25
346.625	436.25
346.853	454.25
347.08	412.25
347.308	446.25
347.535	449.25
347.763	432.25
347.99	445.25
348.218	443.25
348.445	449.25
348.673	452.25
348.9	448.25
349.128	433.25
349.355	426.25
349.583	446.25
349.81	437.25
350.037	428.25
350.265	457.25
350.492	429.25
350.72	422.25
350.947	444.25
351.174	432.25
351.402	453.25
351.629	450.25
351.856	445.25
352.083	441.25
352.311	450.25
352.538	452.25
352.765	450.25
352.992	448.25
353.22	436.25
353.447	445.25
353.674	439.25
353.901	404.25
354.128	419.25
354.355	438.25
354.583	402.25
354.81	413.25
355.037	434.25
355.264	408.25
355.491	415.25
355.718	412.25
355.945	437.25
356.172	444.25
356.399	421.25
356.626	432.25
356.853	418.25
357.08	404.25
357.307	448.25
357.534	426.25
357.761	412.25
357.988	412.25
358.215	422.25
358.441	428.25
358.668	432.25
358.895	426.25
359.122	436.25
359.349	434.25
359.576	428.25
359.802	459.25
360.029	483.25
360.256	513.25
360.483	462.25
360.709	447.25
360.936	444.25
361.163	435.25
361.39	446.25
361.616	453.25
361.843	453.25
362.07	432.25
362.296	445.25
362.523	426.25
362.749	456.25
362.976	442.25
363.203	459.25
363.429	456.25
363.656	445.25
363.882	432.25
364.109	432.25
364.335	437.25
364.562	433.25
364.788	427.25
365.015	448.25
365.241	439.25
365.468	446.25
365.694	451.25
365.92	440.25
366.147	435.25
366.373	454.25
366.599	436.25
366.826	431.25
367.052	428.25
367.278	463.25
367.505	428.25
367.731	435.25
367.957	438.25
368.184	436.25
368.41	426.25
368.636	451.25
368.862	450.25
369.089	442.25
369.315	427.25
369.541	448.25
369.767	433.25
369.993	442.25
370.219	426.25
370.445	430.25
370.672	447.25
370.898	417.25
371.124	433.25
371.35	443.25
371.576	428.25
371.802	433.25
372.028	442.25
372.254	444.25
372.48	452.25
372.706	447.25
372.932	456.25
373.158	439.25
373.384	449.25
373.61	450.25
373.835	454.25
374.061	464.25
374.287	458.25
374.513	457.25
374.739	467.25
374.965	471.25
375.191	461.25
375.416	466.25
375.642	458.25
375.868	460.25
376.094	454.25
376.319	435.25
376.545	468.25
376.771	451.25
376.997	452.25
377.222	442.25
377.448	444.25
377.674	441.25
377.899	446.25
378.125	458.25
378.35	429.25
378.576	441.25
378.802	464.25
379.027	451.25
379.253	457.25
379.478	432.25
379.704	416.25
379.929	459.25
380.155	457.25
380.38	445.25
380.606	447.25
380.831	455.25
381.057	454.25
381.282	462.25
381.507	478.25
381.733	457.25
381.958	458.25
382.184	459.25
382.409	455.25
382.634	461.25
382.86	475.25
383.085	461.25
383.31	467.25
383.535	489.25
383.761	478.25
383.986	468.25
384.211	480.25
384.436	466.25
384.662	478.25
384.887	505.25
385.112	500.25
385.337	495.25
385.562	497.25
385.787	507.25
386.013	488.25
386.238	485.25
386.463	514.25
386.688	509.25
386.913	496.25
387.138	502.25
387.363	499.25
387.588	499.25
387.813	509.25
388.038	524.25
388.263	515.25
388.488	470.25
388.713	517.25
388.938	536.25
389.163	488.25
389.387	507.25
389.612	496.25
389.837	501.25
390.062	497.25
390.287	500.25
390.512	516.25
390.736	493.25
390.961	511.25
391.186	522.25
391.411	529.25
391.636	527.25
391.86	513.25
392.085	539.25
392.31	534.25
392.534	506.25
392.759	525.25
392.984	519.25
393.208	525.25
393.433	516.25
393.658	512.25
393.882	505.25
394.107	488.25
394.331	504.25
394.556	512.25
394.78	487.25
395.005	499.25
395.229	522.25
395.454	538.25
395.678	538.25
395.903	527.25
396.127	557.25
396.352	582.25
396.576	538.25
396.801	539.25
397.025	522.25
397.249	514.25
397.474	540.25
397.698	546.25
397.922	571.25
398.147	575.25
398.371	562.25
398.595	573.25
398.82	589.25
399.044	588.25
399.268	635.25
399.492	674.25
399.717	726.25
399.941	736.25
400.165	741.25
400.389	753.25
400.613	680.25
400.837	642.25
401.062	614.25
401.286	594.25
401.51	585.25
401.734	596.25
401.958	614.25
402.182	608.25
402.406	596.25
402.63	609.25
402.854	609.25
403.078	599.25
403.302	603.25
403.526	625.25
403.75	625.25
403.974	617.25
404.198	608.25
404.422	612.25
404.645	627.25
404.869	626.25
405.093	670.25
405.317	717.25
405.541	728.25
405.765	699.25
405.988	650.25
406.212	637.25
406.436	674.25
406.66	698.25
406.883	647.25
407.107	701.25
407.331	721.25
407.555	802.25
407.778	806.25
408.002	762.25
408.226	693.25
408.449	692.25
408.673	674.25
408.896	696.25
409.12	745.25
409.344	715.25
409.567	637.25
409.791	620.25
410.014	624.25
410.238	606.25
410.461	604.25
410.685	635.25
410.908	639.25
411.132	662.25
411.355	680.25
411.578	678.25
411.802	632.25
412.025	619.25
412.249	609.25
412.472	645.25
412.695	681.25
412.919	672.25
413.142	630.25
413.365	606.25
413.589	592.25
413.812	569.25
414.035	589.25
414.258	588.25
414.482	592.25
414.705	590.25
414.928	585.25
415.151	582.25
415.374	575.25
415.597	551.25
415.821	571.25
416.044	592.25
416.267	587.25
416.49	576.25
416.713	570.25
416.936	585.25
417.159	574.25
417.382	573.25
417.605	597.25
417.828	567.25
418.051	605.25
418.274	604.25
418.497	587.25
418.72	599.25
418.943	597.25
419.166	595.25
419.389	614.25
419.611	650.25
419.834	622.25
420.057	625.25
420.28	629.25
420.503	601.25
420.726	625.25
420.948	618.25
421.171	658.25
421.394	699.25
421.617	611.25
421.839	603.25
422.062	594.25
422.285	626.25
422.507	666.25
422.73	755.25
422.953	740.25
423.175	645.25
423.398	648.25
423.621	636.25
423.843	661.25
424.066	651.25
424.288	652.25
424.511	665.25
424.733	723.25
424.956	769.25
425.178	777.25
425.401	730.25
425.623	754.25
425.846	671.25
426.068	652.25
426.291	624.25
426.513	620.25
426.735	638.25
426.958	699.25
427.18	769.25
427.402	903.25
427.625	992.25
427.847	827.25
428.069	737.25
428.292	662.25
428.514	610.25
428.736	584.25
428.958	602.25
429.181	604.25
429.403	598.25
429.625	591.25
429.847	613.25
430.069	674.25
430.292	689.25
430.514	586.25
430.736	579.25
430.958	583.25
431.18	580.25
431.402	557.25
431.624	570.25
431.846	566.25
432.068	544.25
432.29	564.25
432.512	549.25
432.734	552.25
432.956	580.25
433.178	568.25
433.4	565.25
433.622	579.25
433.844	584.25
434.066	573.25
434.287	549.25
434.509	571.25
434.731	566.25
434.953	590.25
435.175	610.25
435.397	620.25
435.618	634.25
435.84	652.25
436.062	745.25
436.284	853.25
436.505	688.25
436.727	632.25
436.949	588.25
437.17	585.25
437.392	588.25
437.614	583.25
437.835	624.25
438.057	718.25
438.278	808.25
438.5	828.25
438.721	871.25
438.943	857.25
439.165	691.25
439.386	650.25
439.608	637.25
439.829	644.25
440.05	662.25
440.272	704.25
440.493	678.25
440.715	605.25
440.936	597.25
441.158	594.25
441.379	615.25
441.6	594.25
441.822	646.25
442.043	667.25
442.264	756.25
442.486	833.25
442.707	705.25
442.928	670.25
443.149	662.25
443.371	684.25
443.592	724.25
443.813	818.25
444.034	882.25
444.255	732.25
444.476	684.25
444.698	679.25
444.919	653.25
445.14	752.25
445.361	689.25
445.582	661.25
445.803	730.25
446.024	857.25
446.245	818.25
446.466	766.25
446.687	649.25
446.908	616.25
447.129	588.25
447.35	583.25
447.571	582.25
447.792	582.25
448.013	581.25
448.234	587.25
448.455	626.25
448.675	766.25
448.896	869.25
449.117	735.25
449.338	722.25
449.559	832.25
449.779	909.25
450	745.25
450.221	611.25
450.442	582.25
450.662	561.25
450.883	558.25
451.104	580.25
451.324	576.25
451.545	534.25
451.766	540.25
451.986	535.25
452.207	525.25
452.428	510.25
452.648	504.25
452.869	517.25
453.089	531.25
453.31	558.25
453.53	539.25
453.751	505.25
453.971	519.25
454.192	539.25
454.412	535.25
454.633	522.25
454.853	536.25
455.073	519.25
455.294	539.25
455.514	612.25
455.734	595.25
455.955	515.25
456.175	513.25
456.395	496.25
456.616	481.25
456.836	500.25
457.056	496.25
457.276	478.25
457.497	485.25
457.717	476.25
457.937	491.25
458.157	498.25
458.377	506.25
458.598	527.25
458.818	594.25
459.038	649.25
459.258	670.25
459.478	592.25
459.698	570.25
459.918	547.25
460.138	546.25
460.358	588.25
460.578	587.25
460.798	576.25
461.018	579.25
461.238	598.25
461.458	567.25
461.678	602.25
461.898	601.25
462.118	593.25
462.338	605.25
462.558	619.25
462.777	617.25
462.997	646.25
463.217	670.25
463.437	676.25
463.657	665.25
463.876	647.25
464.096	650.25
464.316	617.25
464.536	654.25
464.755	654.25
464.975	628.25
465.195	654.25
465.414	654.25
465.634	637.25
465.854	586.25
466.073	578.25
466.293	562.25
466.512	542.25
466.732	537.25
466.951	555.25
467.171	541.25
467.391	534.25
467.61	561.25
467.829	559.25
468.049	543.25
468.268	531.25
468.488	537.25
468.707	532.25
468.927	522.25
469.146	508.25
469.365	542.25
469.585	530.25
469.804	540.25
470.023	577.25
470.243	562.25
470.462	545.25
470.681	577.25
470.901	555.25
471.12	542.25
471.339	551.25
471.558	534.25
471.777	524.25
471.997	546.25
472.216	540.25
472.435	567.25
472.654	553.25
472.873	535.25
473.092	545.25
473.311	562.25
473.53	535.25
473.749	567.25
473.968	592.25
474.187	689.25
474.406	713.25
474.625	603.25
474.844	570.25
475.063	551.25
475.282	530.25
475.501	560.25
475.72	580.25
475.939	549.25
476.158	570.25
476.377	566.25
476.596	572.25
476.814	558.25
477.033	582.25
477.252	537.25
477.471	577.25
477.69	597.25
477.908	601.25
478.127	601.25
478.346	597.25
478.564	606.25
478.783	640.25
479.002	628.25
479.22	641.25
479.439	646.25
479.658	645.25
479.876	656.25
480.095	662.25
480.313	685.25
480.532	667.25
480.751	677.25
480.969	691.25
481.188	699.25
481.406	727.25
481.624	698.25
481.843	672.25
482.061	647.25
482.28	659.25
482.498	628.25
482.717	632.25
482.935	640.25
483.153	649.25
483.372	638.25
483.59	643.25
483.808	646.25
484.027	638.25
484.245	640.25
484.463	628.25
484.681	648.25
484.9	644.25
485.118	661.25
485.336	645.25
485.554	668.25
485.772	672.25
485.99	700.25
486.209	652.25
486.427	647.25
486.645	684.25
486.863	706.25
487.081	658.25
487.299	675.25
487.517	682.25
487.735	688.25
487.953	672.25
488.171	695.25
488.389	707.25
488.607	679.25
488.825	689.25
489.043	672.25
489.261	719.25
489.479	701.25
489.696	725.25
489.914	732.25
490.132	704.25
490.35	699.25
490.568	743.25
490.786	724.25
491.003	757.25
491.221	768.25
491.439	769.25
491.657	794.25
491.874	803.25
492.092	781.25
492.31	784.25
492.527	778.25
492.745	791.25
492.963	831.25
493.18	805.25
493.398	832.25
493.615	810.25
493.833	818.25
494.05	810.25
494.268	824.25
494.485	819.25
494.703	798.25
494.92	805.25
495.138	808.25
495.355	824.25
495.573	815.25
495.79	797.25
496.008	832.25
496.225	818.25
496.442	817.25
496.66	850.25
496.877	837.25
497.094	828.25
497.312	839.25
497.529	859.25
497.746	862.25
497.963	870.25
498.181	888.25
498.398	932.25
498.615	961.25
498.832	952.25
499.049	965.25
499.267	1019.25
499.484	1065.25
499.701	1082.25
499.918	1161.25
500.135	1224.25
500.352	1322.25
500.569	1326.25
500.786	1339.25
501.003	1247.25
501.22	1218.25
501.437	1188.25
501.654	1122.25
