Data from 1974.PennyLincolnUp.Lamp.En5.5.200Scan.071719.P1.Changed Mount._HRD10591_15-51-57-857.txt Node
Date: Thu Jul 18 15:51:57 EDT 2019
User: cochatt
Spectrometer: HR+D1059
Trigger mode: 1
Integration Time (sec): 1.000000E-1
Scans to average: 1
Electric dark correction enabled: true
Nonlinearity correction enabled: false
Boxcar width: 0
XAxis mode: Wavelengths
Number of Pixels in Spectrum: 2048
>>>>>Begin Spectral Data<<<<<
223.165	-13.62
223.4	-13.62
223.635	-13.62
223.869	-13.62
224.104	-17.62
224.338	-12.62
224.573	-14.62
224.808	-7.62
225.042	6.38
225.277	-12.62
225.511	-13.62
225.746	-1.62
225.98	6.38
226.215	6.38
226.449	16.38
226.683	22.38
226.918	17.38
227.152	32.38
227.387	26.38
227.621	32.38
227.856	60.38
228.09	31.38
228.324	48.38
228.559	48.38
228.793	67.38
229.027	95.38
229.262	104.38
229.496	111.38
229.73	114.38
229.964	141.38
230.199	118.38
230.433	124.38
230.667	122.38
230.901	109.38
231.136	96.38
231.37	128.38
231.604	114.38
231.838	111.38
232.072	118.38
232.306	121.38
232.541	112.38
232.775	107.38
233.009	127.38
233.243	120.38
233.477	115.38
233.711	110.38
233.945	122.38
234.179	111.38
234.413	116.38
234.647	116.38
234.881	124.38
235.115	137.38
235.349	120.38
235.583	124.38
235.817	126.38
236.051	130.38
236.285	125.38
236.519	142.38
236.753	136.38
236.987	133.38
237.221	172.38
237.455	217.38
237.689	189.38
237.922	138.38
238.156	124.38
238.39	119.38
238.624	138.38
238.858	136.38
239.091	132.38
239.325	126.38
239.559	127.38
239.793	132.38
240.027	146.38
240.26	145.38
240.494	155.38
240.728	152.38
240.961	163.38
241.195	135.38
241.429	152.38
241.662	143.38
241.896	138.38
242.13	129.38
242.363	147.38
242.597	130.38
242.83	150.38
243.064	139.38
243.298	130.38
243.531	142.38
243.765	144.38
243.998	144.38
244.232	135.38
244.465	157.38
244.699	149.38
244.932	169.38
245.166	148.38
245.399	174.38
245.633	144.38
245.866	144.38
246.099	159.38
246.333	174.38
246.566	165.38
246.8	179.38
247.033	164.38
247.266	164.38
247.5	173.38
247.733	167.38
247.966	180.38
248.2	184.38
248.433	169.38
248.666	201.38
248.899	201.38
249.133	187.38
249.366	203.38
249.599	202.38
249.832	197.38
250.066	191.38
250.299	181.38
250.532	194.38
250.765	217.38
250.998	221.38
251.231	237.38
251.465	235.38
251.698	201.38
251.931	192.38
252.164	208.38
252.397	181.38
252.63	207.38
252.863	208.38
253.096	207.38
253.329	235.38
253.562	223.38
253.795	219.38
254.028	224.38
254.261	217.38
254.494	231.38
254.727	251.38
254.96	276.38
255.193	301.38
255.426	268.38
255.659	250.38
255.892	240.38
256.124	248.38
256.357	239.38
256.59	242.38
256.823	242.38
257.056	223.38
257.289	223.38
257.521	226.38
257.754	214.38
257.987	207.38
258.22	231.38
258.452	206.38
258.685	212.38
258.918	203.38
259.151	206.38
259.383	235.38
259.616	222.38
259.849	251.38
260.081	248.38
260.314	243.38
260.547	260.38
260.779	254.38
261.012	248.38
261.244	242.38
261.477	242.38
261.71	211.38
261.942	229.38
262.175	240.38
262.407	237.38
262.64	228.38
262.872	222.38
263.105	227.38
263.337	227.38
263.57	221.38
263.802	234.38
264.035	224.38
264.267	216.38
264.499	227.38
264.732	226.38
264.964	227.38
265.197	218.38
265.429	222.38
265.661	228.38
265.894	224.38
266.126	239.38
266.358	236.38
266.591	242.38
266.823	233.38
267.055	230.38
267.287	222.38
267.52	235.38
267.752	234.38
267.984	240.38
268.216	237.38
268.448	245.38
268.681	252.38
268.913	248.38
269.145	262.38
269.377	276.38
269.609	279.38
269.841	264.38
270.073	262.38
270.306	296.38
270.538	326.38
270.77	301.38
271.002	310.38
271.234	309.38
271.466	293.38
271.698	322.38
271.93	286.38
272.162	326.38
272.394	324.38
272.626	312.38
272.858	282.38
273.09	278.38
273.322	286.38
273.553	266.38
273.785	269.38
274.017	268.38
274.249	282.38
274.481	276.38
274.713	262.38
274.945	284.38
275.176	290.38
275.408	266.38
275.64	283.38
275.872	281.38
276.104	268.38
276.335	235.38
276.567	284.38
276.799	310.38
277.031	306.38
277.262	338.38
277.494	335.38
277.726	308.38
277.957	296.38
278.189	298.38
278.421	282.38
278.652	277.38
278.884	278.38
279.115	275.38
279.347	274.38
279.579	278.38
279.81	284.38
280.042	297.38
280.273	290.38
280.505	286.38
280.736	281.38
280.968	290.38
281.199	269.38
281.431	306.38
281.662	285.38
281.894	298.38
282.125	278.38
282.356	287.38
282.588	288.38
282.819	312.38
283.051	295.38
283.282	294.38
283.513	296.38
283.745	293.38
283.976	294.38
284.207	289.38
284.439	291.38
284.67	298.38
284.901	310.38
285.132	279.38
285.364	303.38
285.595	286.38
285.826	310.38
286.057	279.38
286.288	295.38
286.52	318.38
286.751	302.38
286.982	289.38
287.213	300.38
287.444	308.38
287.675	310.38
287.906	332.38
288.138	313.38
288.369	342.38
288.6	336.38
288.831	321.38
289.062	307.38
289.293	299.38
289.524	289.38
289.755	324.38
289.986	312.38
290.217	322.38
290.448	302.38
290.679	307.38
290.91	312.38
291.141	320.38
291.371	306.38
291.602	315.38
291.833	312.38
292.064	319.38
292.295	294.38
292.526	319.38
292.757	306.38
292.987	311.38
293.218	324.38
293.449	308.38
293.68	324.38
293.91	319.38
294.141	300.38
294.372	305.38
294.603	310.38
294.833	322.38
295.064	303.38
295.295	299.38
295.525	304.38
295.756	332.38
295.987	328.38
296.217	327.38
296.448	350.38
296.679	335.38
296.909	327.38
297.14	323.38
297.37	311.38
297.601	326.38
297.831	342.38
298.062	336.38
298.292	330.38
298.523	322.38
298.753	330.38
298.984	312.38
299.214	337.38
299.445	321.38
299.675	349.38
299.905	344.38
300.136	339.38
300.366	328.38
300.597	355.38
300.827	326.38
301.057	343.38
301.288	345.38
301.518	339.38
301.748	347.38
301.979	372.38
302.209	334.38
302.439	354.38
302.669	344.38
302.9	342.38
303.13	346.38
303.36	337.38
303.59	352.38
303.82	360.38
304.051	368.38
304.281	353.38
304.511	365.38
304.741	352.38
304.971	360.38
305.201	346.38
305.431	361.38
305.661	331.38
305.891	335.38
306.121	358.38
306.352	362.38
306.582	345.38
306.812	339.38
307.042	338.38
307.272	335.38
307.502	349.38
307.731	354.38
307.961	353.38
308.191	336.38
308.421	351.38
308.651	343.38
308.881	347.38
309.111	368.38
309.341	345.38
309.571	361.38
309.8	390.38
310.03	377.38
310.26	378.38
310.49	406.38
310.72	361.38
310.949	376.38
311.179	382.38
311.409	390.38
311.639	378.38
311.868	379.38
312.098	363.38
312.328	375.38
312.557	362.38
312.787	408.38
313.017	392.38
313.246	421.38
313.476	381.38
313.706	389.38
313.935	393.38
314.165	392.38
314.394	404.38
314.624	392.38
314.853	398.38
315.083	397.38
315.312	385.38
315.542	370.38
315.771	393.38
316.001	390.38
316.23	393.38
316.46	376.38
316.689	402.38
316.919	401.38
317.148	415.38
317.377	392.38
317.607	384.38
317.836	398.38
318.065	379.38
318.295	385.38
318.524	396.38
318.753	393.38
318.983	412.38
319.212	378.38
319.441	372.38
319.67	402.38
319.9	404.38
320.129	394.38
320.358	394.38
320.587	416.38
320.816	422.38
321.046	407.38
321.275	395.38
321.504	403.38
321.733	401.38
321.962	408.38
322.191	410.38
322.42	421.38
322.649	444.38
322.878	450.38
323.108	422.38
323.337	446.38
323.566	473.38
323.795	485.38
324.024	511.38
324.253	586.38
324.482	772.38
324.71	1148.38
324.939	1692.38
325.168	1500.38
325.397	772.38
325.626	564.38
325.855	501.38
326.084	501.38
326.313	480.38
326.542	470.38
326.77	498.38
326.999	559.38
327.228	728.38
327.457	1058.38
327.686	1310.38
327.914	892.38
328.143	608.38
328.372	536.38
328.6	527.38
328.829	520.38
329.058	536.38
329.287	502.38
329.515	517.38
329.744	478.38
329.972	500.38
330.201	501.38
330.43	518.38
330.658	546.38
330.887	557.38
331.115	537.38
331.344	496.38
331.572	489.38
331.801	482.38
332.03	489.38
332.258	478.38
332.486	466.38
332.715	501.38
332.943	483.38
333.172	467.38
333.4	499.38
333.629	497.38
333.857	519.38
334.085	511.38
334.314	547.38
334.542	531.38
334.771	557.38
334.999	512.38
335.227	508.38
335.455	486.38
335.684	475.38
335.912	485.38
336.14	463.38
336.369	476.38
336.597	478.38
336.825	475.38
337.053	490.38
337.281	458.38
337.51	476.38
337.738	491.38
337.966	461.38
338.194	469.38
338.422	453.38
338.65	453.38
338.878	450.38
339.106	462.38
339.334	470.38
339.562	457.38
339.79	441.38
340.018	446.38
340.246	442.38
340.474	462.38
340.702	452.38
340.93	454.38
341.158	456.38
341.386	443.38
341.614	446.38
341.842	462.38
342.07	449.38
342.298	457.38
342.526	447.38
342.754	452.38
342.981	438.38
343.209	442.38
343.437	446.38
343.665	460.38
343.893	484.38
344.12	469.38
344.348	475.38
344.576	468.38
344.804	460.38
345.031	463.38
345.259	469.38
345.487	454.38
345.714	462.38
345.942	463.38
346.17	429.38
346.397	450.38
346.625	425.38
346.853	453.38
347.08	441.38
347.308	451.38
347.535	446.38
347.763	432.38
347.99	444.38
348.218	451.38
348.445	459.38
348.673	450.38
348.9	431.38
349.128	425.38
349.355	423.38
349.583	418.38
349.81	410.38
350.037	431.38
350.265	432.38
350.492	416.38
350.72	445.38
350.947	438.38
351.174	437.38
351.402	439.38
351.629	429.38
351.856	439.38
352.083	421.38
352.311	455.38
352.538	439.38
352.765	459.38
352.992	448.38
353.22	438.38
353.447	428.38
353.674	412.38
353.901	439.38
354.128	412.38
354.355	420.38
354.583	416.38
354.81	416.38
355.037	424.38
355.264	429.38
355.491	421.38
355.718	415.38
355.945	401.38
356.172	418.38
356.399	448.38
356.626	410.38
356.853	454.38
357.08	440.38
357.307	446.38
357.534	420.38
357.761	418.38
357.988	435.38
358.215	412.38
358.441	417.38
358.668	420.38
358.895	430.38
359.122	431.38
359.349	436.38
359.576	442.38
359.802	422.38
360.029	482.38
360.256	484.38
360.483	474.38
360.709	454.38
360.936	464.38
361.163	436.38
361.39	428.38
361.616	441.38
361.843	444.38
362.07	442.38
362.296	454.38
362.523	441.38
362.749	426.38
362.976	455.38
363.203	436.38
363.429	453.38
363.656	464.38
363.882	443.38
364.109	442.38
364.335	421.38
364.562	428.38
364.788	426.38
365.015	432.38
365.241	430.38
365.468	453.38
365.694	434.38
365.92	427.38
366.147	429.38
366.373	444.38
366.599	438.38
366.826	419.38
367.052	433.38
367.278	418.38
367.505	401.38
367.731	429.38
367.957	444.38
368.184	430.38
368.41	445.38
368.636	430.38
368.862	455.38
369.089	434.38
369.315	443.38
369.541	441.38
369.767	441.38
369.993	453.38
370.219	442.38
370.445	450.38
370.672	435.38
370.898	442.38
371.124	435.38
371.35	445.38
371.576	439.38
371.802	450.38
372.028	428.38
372.254	448.38
372.48	456.38
372.706	431.38
372.932	431.38
373.158	448.38
373.384	451.38
373.61	457.38
373.835	455.38
374.061	454.38
374.287	444.38
374.513	451.38
374.739	453.38
374.965	457.38
375.191	471.38
375.416	457.38
375.642	443.38
375.868	441.38
376.094	463.38
376.319	454.38
376.545	415.38
376.771	450.38
376.997	458.38
377.222	443.38
377.448	458.38
377.674	445.38
377.899	457.38
378.125	453.38
378.35	442.38
378.576	452.38
378.802	460.38
379.027	447.38
379.253	454.38
379.478	466.38
379.704	456.38
379.929	436.38
380.155	428.38
380.38	453.38
380.606	454.38
380.831	451.38
381.057	455.38
381.282	465.38
381.507	441.38
381.733	448.38
381.958	450.38
382.184	456.38
382.409	467.38
382.634	450.38
382.86	458.38
383.085	471.38
383.31	476.38
383.535	460.38
383.761	455.38
383.986	472.38
384.211	490.38
384.436	459.38
384.662	482.38
384.887	475.38
385.112	483.38
385.337	501.38
385.562	481.38
385.787	479.38
386.013	517.38
386.238	510.38
386.463	479.38
386.688	507.38
386.913	509.38
387.138	503.38
387.363	516.38
387.588	506.38
387.813	512.38
388.038	507.38
388.263	511.38
388.488	494.38
388.713	498.38
388.938	490.38
389.163	508.38
389.387	498.38
389.612	500.38
389.837	496.38
390.062	509.38
390.287	504.38
390.512	470.38
390.736	506.38
390.961	502.38
391.186	512.38
391.411	519.38
391.636	495.38
391.86	514.38
392.085	518.38
392.31	546.38
392.534	521.38
392.759	508.38
392.984	492.38
393.208	501.38
393.433	527.38
393.658	506.38
393.882	508.38
394.107	524.38
394.331	521.38
394.556	500.38
394.78	507.38
395.005	519.38
395.229	507.38
395.454	507.38
395.678	544.38
395.903	528.38
396.127	544.38
396.352	572.38
396.576	540.38
396.801	512.38
397.025	531.38
397.249	538.38
397.474	538.38
397.698	540.38
397.922	560.38
398.147	583.38
398.371	586.38
398.595	576.38
398.82	583.38
399.044	607.38
399.268	636.38
399.492	653.38
399.717	690.38
399.941	694.38
400.165	734.38
400.389	718.38
400.613	664.38
400.837	619.38
401.062	598.38
401.286	593.38
401.51	606.38
401.734	569.38
401.958	584.38
402.182	608.38
402.406	593.38
402.63	595.38
402.854	606.38
403.078	595.38
403.302	600.38
403.526	611.38
403.75	618.38
403.974	623.38
404.198	612.38
404.422	612.38
404.645	647.38
404.869	614.38
405.093	644.38
405.317	715.38
405.541	707.38
405.765	662.38
405.988	642.38
406.212	640.38
406.436	643.38
406.66	679.38
406.883	642.38
407.107	674.38
407.331	726.38
407.555	802.38
407.778	802.38
408.002	700.38
408.226	663.38
408.449	672.38
408.673	689.38
408.896	666.38
409.12	738.38
409.344	717.38
409.567	638.38
409.791	635.38
410.014	628.38
410.238	600.38
410.461	617.38
410.685	626.38
410.908	632.38
411.132	679.38
411.355	678.38
411.578	675.38
411.802	593.38
412.025	598.38
412.249	604.38
412.472	638.38
412.695	690.38
412.919	677.38
413.142	612.38
413.365	623.38
413.589	611.38
413.812	584.38
414.035	586.38
414.258	581.38
414.482	588.38
414.705	575.38
414.928	591.38
415.151	588.38
415.374	579.38
415.597	571.38
415.821	564.38
416.044	583.38
416.267	572.38
416.49	576.38
416.713	585.38
416.936	550.38
417.159	561.38
417.382	582.38
417.605	600.38
417.828	619.38
418.051	598.38
418.274	603.38
418.497	562.38
418.72	566.38
418.943	591.38
419.166	611.38
419.389	637.38
419.611	644.38
419.834	602.38
420.057	629.38
420.28	610.38
420.503	608.38
420.726	585.38
420.948	630.38
421.171	649.38
421.394	696.38
421.617	627.38
421.839	599.38
422.062	599.38
422.285	621.38
422.507	662.38
422.73	756.38
422.953	726.38
423.175	642.38
423.398	634.38
423.621	620.38
423.843	636.38
424.066	664.38
424.288	646.38
424.511	652.38
424.733	692.38
424.956	790.38
425.178	763.38
425.401	731.38
425.623	768.38
425.846	675.38
426.068	646.38
426.291	625.38
426.513	629.38
426.735	654.38
426.958	654.38
427.18	779.38
427.402	872.38
427.625	960.38
427.847	824.38
428.069	720.38
428.292	647.38
428.514	598.38
428.736	601.38
428.958	589.38
429.181	573.38
429.403	579.38
429.625	593.38
429.847	617.38
430.069	670.38
430.292	669.38
430.514	594.38
430.736	578.38
430.958	590.38
431.18	578.38
431.402	557.38
431.624	549.38
431.846	543.38
432.068	549.38
432.29	566.38
432.512	566.38
432.734	559.38
432.956	574.38
433.178	589.38
433.4	575.38
433.622	570.38
433.844	567.38
434.066	555.38
434.287	569.38
434.509	582.38
434.731	594.38
434.953	625.38
435.175	601.38
435.397	638.38
435.618	651.38
435.84	662.38
436.062	766.38
436.284	836.38
436.505	692.38
436.727	621.38
436.949	627.38
437.17	593.38
437.392	583.38
437.614	578.38
437.835	626.38
438.057	685.38
438.278	820.38
438.5	832.38
438.721	894.38
438.943	847.38
439.165	689.38
439.386	628.38
439.608	592.38
439.829	619.38
440.05	634.38
440.272	650.38
440.493	649.38
440.715	611.38
440.936	590.38
441.158	621.38
441.379	580.38
441.6	608.38
441.822	616.38
442.043	691.38
442.264	741.38
442.486	827.38
442.707	708.38
442.928	643.38
443.149	658.38
443.371	668.38
443.592	707.38
443.813	816.38
444.034	891.38
444.255	732.38
444.476	685.38
444.698	658.38
444.919	660.38
445.14	802.38
445.361	703.38
445.582	694.38
445.803	699.38
446.024	799.38
446.245	824.38
446.466	749.38
446.687	651.38
446.908	631.38
447.129	574.38
447.35	585.38
447.571	591.38
447.792	576.38
448.013	582.38
448.234	598.38
448.455	615.38
448.675	750.38
448.896	887.38
449.117	762.38
449.338	716.38
449.559	822.38
449.779	916.38
450	699.38
450.221	622.38
450.442	564.38
450.662	555.38
450.883	554.38
451.104	524.38
451.324	557.38
451.545	545.38
451.766	528.38
451.986	507.38
452.207	517.38
452.428	504.38
452.648	519.38
452.869	517.38
453.089	532.38
453.31	536.38
453.53	535.38
453.751	507.38
453.971	503.38
454.192	528.38
454.412	492.38
454.633	511.38
454.853	504.38
455.073	518.38
455.294	549.38
455.514	613.38
455.734	588.38
455.955	502.38
456.175	507.38
456.395	478.38
456.616	498.38
456.836	476.38
457.056	481.38
457.276	463.38
457.497	486.38
457.717	489.38
457.937	499.38
458.157	504.38
458.377	495.38
458.598	511.38
458.818	562.38
459.038	613.38
459.258	670.38
459.478	594.38
459.698	552.38
459.918	553.38
460.138	547.38
460.358	562.38
460.578	560.38
460.798	602.38
461.018	599.38
461.238	578.38
461.458	590.38
461.678	564.38
461.898	598.38
462.118	591.38
462.338	587.38
462.558	596.38
462.777	627.38
462.997	638.38
463.217	666.38
463.437	685.38
463.657	662.38
463.876	636.38
464.096	639.38
464.316	619.38
464.536	649.38
464.755	632.38
464.975	615.38
465.195	640.38
465.414	674.38
465.634	606.38
465.854	613.38
466.073	563.38
466.293	550.38
466.512	518.38
466.732	530.38
466.951	552.38
467.171	542.38
467.391	538.38
467.61	568.38
467.829	549.38
468.049	543.38
468.268	530.38
468.488	539.38
468.707	526.38
468.927	512.38
469.146	507.38
469.365	514.38
469.585	532.38
469.804	512.38
470.023	524.38
470.243	540.38
470.462	539.38
470.681	573.38
470.901	558.38
471.12	540.38
471.339	533.38
471.558	540.38
471.777	548.38
471.997	523.38
472.216	548.38
472.435	566.38
472.654	549.38
472.873	539.38
473.092	530.38
473.311	527.38
473.53	542.38
473.749	544.38
473.968	590.38
474.187	653.38
474.406	668.38
474.625	601.38
474.844	577.38
475.063	533.38
475.282	546.38
475.501	555.38
475.72	564.38
475.939	537.38
476.158	568.38
476.377	551.38
476.596	554.38
476.814	573.38
477.033	565.38
477.252	572.38
477.471	593.38
477.69	599.38
477.908	598.38
478.127	615.38
478.346	613.38
478.564	629.38
478.783	611.38
479.002	629.38
479.22	647.38
479.439	639.38
479.658	636.38
479.876	640.38
480.095	663.38
480.313	655.38
480.532	690.38
480.751	693.38
480.969	675.38
481.188	667.38
481.406	736.38
481.624	684.38
481.843	638.38
482.061	655.38
482.28	648.38
482.498	633.38
482.717	622.38
482.935	638.38
483.153	628.38
483.372	641.38
483.59	626.38
483.808	642.38
484.027	610.38
484.245	622.38
484.463	620.38
484.681	651.38
484.9	641.38
485.118	652.38
485.336	644.38
485.554	638.38
485.772	623.38
485.99	658.38
486.209	649.38
486.427	651.38
486.645	683.38
486.863	684.38
487.081	678.38
487.299	684.38
487.517	687.38
487.735	688.38
487.953	714.38
488.171	679.38
488.389	690.38
488.607	672.38
488.825	685.38
489.043	670.38
489.261	693.38
489.479	687.38
489.696	676.38
489.914	704.38
490.132	700.38
490.35	695.38
490.568	728.38
490.786	735.38
491.003	730.38
491.221	760.38
491.439	767.38
491.657	749.38
491.874	804.38
492.092	790.38
492.31	790.38
492.527	797.38
492.745	773.38
492.963	794.38
493.18	786.38
493.398	827.38
493.615	810.38
493.833	810.38
494.05	778.38
494.268	789.38
494.485	792.38
494.703	794.38
494.92	822.38
495.138	820.38
495.355	812.38
495.573	830.38
495.79	811.38
496.008	823.38
496.225	818.38
496.442	828.38
496.66	830.38
496.877	836.38
497.094	822.38
497.312	839.38
497.529	843.38
497.746	856.38
497.963	869.38
498.181	874.38
498.398	890.38
498.615	902.38
498.832	944.38
499.049	963.38
499.267	989.38
499.484	1047.38
499.701	1092.38
499.918	1140.38
500.135	1197.38
500.352	1222.38
500.569	1298.38
500.786	1319.38
501.003	1252.38
501.22	1258.38
501.437	1198.38
501.654	1103.38
