Data from 1974.PennyLincolnUp.Lamp.En5.5.200Scan.071719.P1.Changed Mount._HRD10591_15-54-16-857.txt Node
Date: Thu Jul 18 15:54:16 EDT 2019
User: cochatt
Spectrometer: HR+D1059
Trigger mode: 1
Integration Time (sec): 1.000000E-1
Scans to average: 1
Electric dark correction enabled: true
Nonlinearity correction enabled: false
Boxcar width: 0
XAxis mode: Wavelengths
Number of Pixels in Spectrum: 2048
>>>>>Begin Spectral Data<<<<<
223.165	-1.69
223.4	-1.69
223.635	-1.69
223.869	-9.69
224.104	-28.69
224.338	-20.69
224.573	-6.69
224.808	4.31
225.042	-8.69
225.277	0.31
225.511	-10.69
225.746	-5.69
225.98	-8.69
226.215	15.31
226.449	4.31
226.683	26.31
226.918	30.31
227.152	20.31
227.387	27.31
227.621	31.31
227.856	39.31
228.09	39.31
228.324	41.31
228.559	54.31
228.793	62.31
229.027	107.31
229.262	102.31
229.496	122.31
229.73	121.31
229.964	146.31
230.199	130.31
230.433	106.31
230.667	115.31
230.901	116.31
231.136	112.31
231.37	121.31
231.604	112.31
231.838	110.31
232.072	105.31
232.306	118.31
232.541	105.31
232.775	119.31
233.009	108.31
233.243	123.31
233.477	119.31
233.711	124.31
233.945	126.31
234.179	115.31
234.413	122.31
234.647	104.31
234.881	114.31
235.115	114.31
235.349	135.31
235.583	136.31
235.817	117.31
236.051	127.31
236.285	151.31
236.519	131.31
236.753	126.31
236.987	139.31
237.221	181.31
237.455	241.31
237.689	199.31
237.922	142.31
238.156	140.31
238.39	136.31
238.624	134.31
238.858	144.31
239.091	130.31
239.325	127.31
239.559	132.31
239.793	141.31
240.027	135.31
240.26	143.31
240.494	174.31
240.728	158.31
240.961	162.31
241.195	155.31
241.429	139.31
241.662	134.31
241.896	141.31
242.13	142.31
242.363	130.31
242.597	142.31
242.83	139.31
243.064	140.31
243.298	152.31
243.531	160.31
243.765	149.31
243.998	146.31
244.232	143.31
244.465	139.31
244.699	149.31
244.932	166.31
245.166	164.31
245.399	160.31
245.633	163.31
245.866	162.31
246.099	159.31
246.333	183.31
246.566	149.31
246.8	166.31
247.033	168.31
247.266	166.31
247.5	174.31
247.733	195.31
247.966	187.31
248.2	188.31
248.433	201.31
248.666	157.31
248.899	196.31
249.133	196.31
249.366	217.31
249.599	199.31
249.832	180.31
250.066	176.31
250.299	200.31
250.532	200.31
250.765	212.31
250.998	225.31
251.231	219.31
251.465	215.31
251.698	214.31
251.931	209.31
252.164	210.31
252.397	218.31
252.63	220.31
252.863	209.31
253.096	248.31
253.329	231.31
253.562	248.31
253.795	255.31
254.028	231.31
254.261	223.31
254.494	235.31
254.727	280.31
254.96	295.31
255.193	281.31
255.426	248.31
255.659	258.31
255.892	240.31
256.124	236.31
256.357	233.31
256.59	236.31
256.823	232.31
257.056	229.31
257.289	239.31
257.521	238.31
257.754	219.31
257.987	214.31
258.22	226.31
258.452	223.31
258.685	221.31
258.918	240.31
259.151	231.31
259.383	231.31
259.616	243.31
259.849	260.31
260.081	249.31
260.314	260.31
260.547	284.31
260.779	263.31
261.012	250.31
261.244	259.31
261.477	246.31
261.71	229.31
261.942	221.31
262.175	253.31
262.407	238.31
262.64	233.31
262.872	245.31
263.105	231.31
263.337	226.31
263.57	240.31
263.802	233.31
264.035	231.31
264.267	252.31
264.499	225.31
264.732	215.31
264.964	218.31
265.197	243.31
265.429	229.31
265.661	251.31
265.894	253.31
266.126	251.31
266.358	224.31
266.591	223.31
266.823	266.31
267.055	246.31
267.287	254.31
267.52	256.31
267.752	245.31
267.984	251.31
268.216	236.31
268.448	244.31
268.681	258.31
268.913	271.31
269.145	315.31
269.377	297.31
269.609	306.31
269.841	282.31
270.073	303.31
270.306	313.31
270.538	342.31
270.77	353.31
271.002	308.31
271.234	326.31
271.466	299.31
271.698	331.31
271.93	350.31
272.162	318.31
272.394	331.31
272.626	324.31
272.858	310.31
273.09	319.31
273.322	307.31
273.553	305.31
273.785	288.31
274.017	290.31
274.249	283.31
274.481	282.31
274.713	290.31
274.945	302.31
275.176	282.31
275.408	306.31
275.64	287.31
275.872	275.31
276.104	295.31
276.335	290.31
276.567	284.31
276.799	313.31
277.031	331.31
277.262	357.31
277.494	338.31
277.726	327.31
277.957	318.31
278.189	311.31
278.421	286.31
278.652	320.31
278.884	310.31
279.115	302.31
279.347	303.31
279.579	283.31
279.81	300.31
280.042	323.31
280.273	294.31
280.505	300.31
280.736	287.31
280.968	306.31
281.199	285.31
281.431	311.31
281.662	292.31
281.894	288.31
282.125	306.31
282.356	318.31
282.588	336.31
282.819	342.31
283.051	310.31
283.282	273.31
283.513	306.31
283.745	308.31
283.976	294.31
284.207	319.31
284.439	309.31
284.67	310.31
284.901	314.31
285.132	310.31
285.364	297.31
285.595	320.31
285.826	315.31
286.057	307.31
286.288	315.31
286.52	328.31
286.751	332.31
286.982	320.31
287.213	307.31
287.444	309.31
287.675	307.31
287.906	332.31
288.138	341.31
288.369	344.31
288.6	331.31
288.831	350.31
289.062	325.31
289.293	337.31
289.524	321.31
289.755	335.31
289.986	337.31
290.217	317.31
290.448	312.31
290.679	327.31
290.91	325.31
291.141	326.31
291.371	320.31
291.602	330.31
291.833	330.31
292.064	324.31
292.295	304.31
292.526	332.31
292.757	322.31
292.987	313.31
293.218	331.31
293.449	322.31
293.68	338.31
293.91	336.31
294.141	339.31
294.372	318.31
294.603	332.31
294.833	322.31
295.064	329.31
295.295	334.31
295.525	308.31
295.756	358.31
295.987	315.31
296.217	370.31
296.448	369.31
296.679	341.31
296.909	327.31
297.14	346.31
297.37	350.31
297.601	340.31
297.831	342.31
298.062	338.31
298.292	351.31
298.523	345.31
298.753	356.31
298.984	342.31
299.214	348.31
299.445	349.31
299.675	336.31
299.905	338.31
300.136	359.31
300.366	340.31
300.597	337.31
300.827	368.31
301.057	352.31
301.288	385.31
301.518	374.31
301.748	359.31
301.979	382.31
302.209	352.31
302.439	361.31
302.669	356.31
302.9	386.31
303.13	357.31
303.36	369.31
303.59	378.31
303.82	376.31
304.051	377.31
304.281	377.31
304.511	371.31
304.741	379.31
304.971	354.31
305.201	363.31
305.431	352.31
305.661	378.31
305.891	374.31
306.121	366.31
306.352	369.31
306.582	357.31
306.812	372.31
307.042	378.31
307.272	381.31
307.502	364.31
307.731	380.31
307.961	386.31
308.191	363.31
308.421	346.31
308.651	372.31
308.881	380.31
309.111	384.31
309.341	395.31
309.571	392.31
309.8	388.31
310.03	408.31
310.26	397.31
310.49	398.31
310.72	416.31
310.949	395.31
311.179	408.31
311.409	420.31
311.639	416.31
311.868	411.31
312.098	412.31
312.328	412.31
312.557	425.31
312.787	439.31
313.017	440.31
313.246	396.31
313.476	409.31
313.706	406.31
313.935	406.31
314.165	420.31
314.394	427.31
314.624	427.31
314.853	446.31
315.083	426.31
315.312	411.31
315.542	430.31
315.771	400.31
316.001	399.31
316.23	414.31
316.46	406.31
316.689	421.31
316.919	407.31
317.148	434.31
317.377	400.31
317.607	438.31
317.836	404.31
318.065	421.31
318.295	416.31
318.524	419.31
318.753	412.31
318.983	428.31
319.212	413.31
319.441	410.31
319.67	418.31
319.9	405.31
320.129	422.31
320.358	416.31
320.587	426.31
320.816	423.31
321.046	430.31
321.275	439.31
321.504	417.31
321.733	425.31
321.962	448.31
322.191	452.31
322.42	468.31
322.649	468.31
322.878	458.31
323.108	479.31
323.337	489.31
323.566	498.31
323.795	516.31
324.024	571.31
324.253	661.31
324.482	891.31
324.71	1372.31
324.939	2028.31
325.168	1796.31
325.397	916.31
325.626	636.31
325.855	567.31
326.084	530.31
326.313	510.31
326.542	539.31
326.77	564.31
326.999	647.31
327.228	827.31
327.457	1228.31
327.686	1556.31
327.914	1048.31
328.143	691.31
328.372	622.31
328.6	595.31
328.829	588.31
329.058	587.31
329.287	603.31
329.515	552.31
329.744	533.31
329.972	541.31
330.201	543.31
330.43	575.31
330.658	600.31
330.887	631.31
331.115	624.31
331.344	554.31
331.572	542.31
331.801	524.31
332.03	546.31
332.258	512.31
332.486	510.31
332.715	473.31
332.943	515.31
333.172	517.31
333.4	522.31
333.629	514.31
333.857	535.31
334.085	562.31
334.314	572.31
334.542	600.31
334.771	599.31
334.999	579.31
335.227	558.31
335.455	532.31
335.684	532.31
335.912	500.31
336.14	510.31
336.369	489.31
336.597	506.31
336.825	506.31
337.053	504.31
337.281	507.31
337.51	499.31
337.738	493.31
337.966	513.31
338.194	500.31
338.422	487.31
338.65	495.31
338.878	484.31
339.106	486.31
339.334	495.31
339.562	475.31
339.79	474.31
340.018	486.31
340.246	496.31
340.474	485.31
340.702	476.31
340.93	505.31
341.158	490.31
341.386	494.31
341.614	471.31
341.842	494.31
342.07	481.31
342.298	501.31
342.526	471.31
342.754	471.31
342.981	477.31
343.209	487.31
343.437	482.31
343.665	486.31
343.893	505.31
344.12	534.31
344.348	515.31
344.576	496.31
344.804	487.31
345.031	494.31
345.259	508.31
345.487	477.31
345.714	485.31
345.942	476.31
346.17	496.31
346.397	471.31
346.625	466.31
346.853	479.31
347.08	459.31
347.308	459.31
347.535	459.31
347.763	442.31
347.99	473.31
348.218	482.31
348.445	464.31
348.673	470.31
348.9	471.31
349.128	462.31
349.355	441.31
349.583	450.31
349.81	459.31
350.037	440.31
350.265	443.31
350.492	455.31
350.72	463.31
350.947	456.31
351.174	468.31
351.402	468.31
351.629	464.31
351.856	455.31
352.083	471.31
352.311	485.31
352.538	446.31
352.765	475.31
352.992	479.31
353.22	465.31
353.447	451.31
353.674	453.31
353.901	447.31
354.128	468.31
354.355	472.31
354.583	442.31
354.81	426.31
355.037	453.31
355.264	426.31
355.491	427.31
355.718	463.31
355.945	441.31
356.172	429.31
356.399	441.31
356.626	442.31
356.853	457.31
357.08	456.31
357.307	448.31
357.534	432.31
357.761	453.31
357.988	453.31
358.215	453.31
358.441	449.31
358.668	437.31
358.895	464.31
359.122	449.31
359.349	457.31
359.576	456.31
359.802	487.31
360.029	519.31
360.256	502.31
360.483	485.31
360.709	461.31
360.936	461.31
361.163	467.31
361.39	470.31
361.616	465.31
361.843	442.31
362.07	476.31
362.296	482.31
362.523	485.31
362.749	456.31
362.976	452.31
363.203	447.31
363.429	446.31
363.656	463.31
363.882	475.31
364.109	477.31
364.335	467.31
364.562	438.31
364.788	464.31
365.015	447.31
365.241	440.31
365.468	463.31
365.694	457.31
365.92	465.31
366.147	451.31
366.373	441.31
366.599	459.31
366.826	452.31
367.052	452.31
367.278	434.31
367.505	445.31
367.731	436.31
367.957	435.31
368.184	475.31
368.41	464.31
368.636	454.31
368.862	479.31
369.089	482.31
369.315	465.31
369.541	464.31
369.767	449.31
369.993	455.31
370.219	439.31
370.445	460.31
370.672	463.31
370.898	438.31
371.124	471.31
371.35	456.31
371.576	453.31
371.802	463.31
372.028	462.31
372.254	470.31
372.48	458.31
372.706	469.31
372.932	474.31
373.158	469.31
373.384	476.31
373.61	476.31
373.835	462.31
374.061	462.31
374.287	468.31
374.513	487.31
374.739	509.31
374.965	492.31
375.191	490.31
375.416	478.31
375.642	472.31
375.868	499.31
376.094	471.31
376.319	460.31
376.545	449.31
376.771	476.31
376.997	454.31
377.222	450.31
377.448	453.31
377.674	451.31
377.899	463.31
378.125	463.31
378.35	459.31
378.576	480.31
378.802	457.31
379.027	444.31
379.253	464.31
379.478	454.31
379.704	446.31
379.929	466.31
380.155	468.31
380.38	454.31
380.606	458.31
380.831	462.31
381.057	463.31
381.282	483.31
381.507	463.31
381.733	477.31
381.958	467.31
382.184	464.31
382.409	480.31
382.634	474.31
382.86	466.31
383.085	457.31
383.31	473.31
383.535	490.31
383.761	488.31
383.986	502.31
384.211	479.31
384.436	509.31
384.662	515.31
384.887	508.31
385.112	494.31
385.337	497.31
385.562	533.31
385.787	532.31
386.013	549.31
386.238	535.31
386.463	533.31
386.688	502.31
386.913	507.31
387.138	523.31
387.363	516.31
387.588	538.31
387.813	528.31
388.038	528.31
388.263	530.31
388.488	529.31
388.713	506.31
388.938	530.31
389.163	520.31
389.387	522.31
389.612	511.31
389.837	523.31
390.062	512.31
390.287	526.31
390.512	514.31
390.736	534.31
390.961	532.31
391.186	527.31
391.411	541.31
391.636	531.31
391.86	527.31
392.085	542.31
392.31	563.31
392.534	546.31
392.759	562.31
392.984	535.31
393.208	536.31
393.433	548.31
393.658	511.31
393.882	523.31
394.107	522.31
394.331	523.31
394.556	520.31
394.78	543.31
395.005	545.31
395.229	559.31
395.454	568.31
395.678	547.31
395.903	547.31
396.127	592.31
396.352	553.31
396.576	559.31
396.801	548.31
397.025	554.31
397.249	553.31
397.474	547.31
397.698	559.31
397.922	578.31
398.147	610.31
398.371	609.31
398.595	593.31
398.82	616.31
399.044	632.31
399.268	664.31
399.492	706.31
399.717	735.31
399.941	770.31
400.165	775.31
400.389	774.31
400.613	686.31
400.837	652.31
401.062	642.31
401.286	638.31
401.51	610.31
401.734	617.31
401.958	617.31
402.182	603.31
402.406	638.31
402.63	636.31
402.854	633.31
403.078	633.31
403.302	635.31
403.526	658.31
403.75	639.31
403.974	640.31
404.198	644.31
404.422	653.31
404.645	660.31
404.869	652.31
405.093	686.31
405.317	706.31
405.541	768.31
405.765	722.31
405.988	660.31
406.212	672.31
406.436	678.31
406.66	728.31
406.883	682.31
407.107	712.31
407.331	774.31
407.555	842.31
407.778	836.31
408.002	781.31
408.226	708.31
408.449	712.31
408.673	696.31
408.896	710.31
409.12	762.31
409.344	728.31
409.567	673.31
409.791	658.31
410.014	656.31
410.238	656.31
410.461	642.31
410.685	662.31
410.908	653.31
411.132	705.31
411.355	734.31
411.578	698.31
411.802	643.31
412.025	646.31
412.249	662.31
412.472	677.31
412.695	713.31
412.919	674.31
413.142	658.31
413.365	628.31
413.589	647.31
413.812	613.31
414.035	598.31
414.258	598.31
414.482	592.31
414.705	613.31
414.928	591.31
415.151	605.31
415.374	588.31
415.597	602.31
415.821	616.31
416.044	600.31
416.267	625.31
416.49	616.31
416.713	576.31
416.936	585.31
417.159	596.31
417.382	611.31
417.605	617.31
417.828	604.31
418.051	632.31
418.274	630.31
418.497	612.31
418.72	614.31
418.943	611.31
419.166	644.31
419.389	678.31
419.611	651.31
419.834	646.31
420.057	625.31
420.28	650.31
420.503	637.31
420.726	646.31
420.948	649.31
421.171	694.31
421.394	692.31
421.617	630.31
421.839	620.31
422.062	668.31
422.285	642.31
422.507	706.31
422.73	796.31
422.953	778.31
423.175	698.31
423.398	658.31
423.621	673.31
423.843	686.31
424.066	676.31
424.288	671.31
424.511	677.31
424.733	737.31
424.956	834.31
425.178	806.31
425.401	805.31
425.623	798.31
425.846	703.31
426.068	665.31
426.291	658.31
426.513	634.31
426.735	659.31
426.958	677.31
427.18	775.31
427.402	932.31
427.625	993.31
427.847	892.31
428.069	775.31
428.292	698.31
428.514	639.31
428.736	641.31
428.958	631.31
429.181	627.31
429.403	616.31
429.625	620.31
429.847	670.31
430.069	748.31
430.292	724.31
430.514	674.31
430.736	627.31
430.958	603.31
431.18	594.31
431.402	584.31
431.624	575.31
431.846	587.31
432.068	555.31
432.29	608.31
432.512	599.31
432.734	574.31
432.956	578.31
433.178	594.31
433.4	634.31
433.622	576.31
433.844	596.31
434.066	599.31
434.287	564.31
434.509	590.31
434.731	611.31
434.953	610.31
435.175	615.31
435.397	663.31
435.618	657.31
435.84	710.31
436.062	817.31
436.284	879.31
436.505	758.31
436.727	672.31
436.949	639.31
437.17	623.31
437.392	611.31
437.614	625.31
437.835	638.31
438.057	747.31
438.278	843.31
438.5	844.31
438.721	991.31
438.943	925.31
439.165	750.31
439.386	672.31
439.608	672.31
439.829	675.31
440.05	687.31
440.272	722.31
440.493	698.31
440.715	657.31
440.936	638.31
441.158	643.31
441.379	622.31
441.6	644.31
441.822	673.31
442.043	720.31
442.264	778.31
442.486	843.31
442.707	742.31
442.928	695.31
443.149	688.31
443.371	712.31
443.592	758.31
443.813	861.31
444.034	942.31
444.255	782.31
444.476	717.31
444.698	708.31
444.919	696.31
445.14	784.31
445.361	734.31
445.582	726.31
445.803	806.31
446.024	891.31
446.245	887.31
446.466	821.31
446.687	688.31
446.908	670.31
447.129	603.31
447.35	607.31
447.571	604.31
447.792	599.31
448.013	626.31
448.234	627.31
448.455	696.31
448.675	800.31
448.896	932.31
449.117	800.31
449.338	730.31
449.559	857.31
449.779	993.31
450	758.31
450.221	662.31
450.442	633.31
450.662	592.31
450.883	592.31
451.104	598.31
451.324	592.31
451.545	583.31
451.766	580.31
451.986	539.31
452.207	547.31
452.428	527.31
452.648	530.31
452.869	546.31
453.089	538.31
453.31	566.31
453.53	559.31
453.751	550.31
453.971	554.31
454.192	535.31
454.412	563.31
454.633	543.31
454.853	547.31
455.073	546.31
455.294	577.31
455.514	638.31
455.734	600.31
455.955	554.31
456.175	545.31
456.395	526.31
456.616	511.31
456.836	542.31
457.056	498.31
457.276	491.31
457.497	520.31
457.717	499.31
457.937	507.31
458.157	520.31
458.377	532.31
458.598	577.31
458.818	598.31
459.038	673.31
459.258	724.31
459.478	627.31
459.698	603.31
459.918	588.31
460.138	603.31
460.358	610.31
460.578	614.31
460.798	603.31
461.018	600.31
461.238	619.31
461.458	615.31
461.678	599.31
461.898	615.31
462.118	621.31
462.338	632.31
462.558	634.31
462.777	656.31
462.997	683.31
463.217	709.31
463.437	718.31
463.657	672.31
463.876	653.31
464.096	645.31
464.316	637.31
464.536	641.31
464.755	640.31
464.975	659.31
465.195	650.31
465.414	686.31
465.634	641.31
465.854	616.31
466.073	596.31
466.293	592.31
466.512	563.31
466.732	560.31
466.951	580.31
467.171	558.31
467.391	569.31
467.61	573.31
467.829	544.31
468.049	581.31
468.268	554.31
468.488	569.31
468.707	554.31
468.927	560.31
469.146	538.31
469.365	564.31
469.585	548.31
469.804	562.31
470.023	565.31
470.243	588.31
470.462	571.31
470.681	595.31
470.901	572.31
471.12	575.31
471.339	586.31
471.558	570.31
471.777	549.31
471.997	557.31
472.216	539.31
472.435	589.31
472.654	591.31
472.873	559.31
473.092	547.31
473.311	570.31
473.53	566.31
473.749	588.31
473.968	603.31
474.187	717.31
474.406	758.31
474.625	613.31
474.844	615.31
475.063	562.31
475.282	571.31
475.501	560.31
475.72	572.31
475.939	593.31
476.158	571.31
476.377	598.31
476.596	583.31
476.814	594.31
477.033	583.31
477.252	592.31
477.471	613.31
477.69	624.31
477.908	619.31
478.127	638.31
478.346	620.31
478.564	648.31
478.783	650.31
479.002	682.31
479.22	678.31
479.439	667.31
479.658	694.31
479.876	710.31
480.095	688.31
480.313	753.31
480.532	734.31
480.751	730.31
480.969	703.31
481.188	740.31
481.406	782.31
481.624	718.31
481.843	697.31
482.061	674.31
482.28	703.31
482.498	666.31
482.717	635.31
482.935	684.31
483.153	668.31
483.372	631.31
483.59	671.31
483.808	653.31
484.027	661.31
484.245	667.31
484.463	680.31
484.681	679.31
484.9	659.31
485.118	666.31
485.336	693.31
485.554	706.31
485.772	708.31
485.99	680.31
486.209	680.31
486.427	675.31
486.645	709.31
486.863	709.31
487.081	722.31
487.299	720.31
487.517	703.31
487.735	714.31
487.953	702.31
488.171	704.31
488.389	692.31
488.607	723.31
488.825	734.31
489.043	712.31
489.261	758.31
489.479	728.31
489.696	743.31
489.914	748.31
490.132	758.31
490.35	742.31
490.568	755.31
490.786	751.31
491.003	796.31
491.221	780.31
491.439	800.31
491.657	816.31
491.874	811.31
492.092	832.31
492.31	828.31
492.527	835.31
492.745	835.31
492.963	837.31
493.18	858.31
493.398	843.31
493.615	874.31
493.833	865.31
494.05	841.31
494.268	842.31
494.485	847.31
494.703	851.31
494.92	876.31
495.138	870.31
495.355	842.31
495.573	869.31
495.79	846.31
496.008	854.31
496.225	830.31
496.442	879.31
496.66	870.31
496.877	861.31
497.094	859.31
497.312	851.31
497.529	892.31
497.746	878.31
497.963	928.31
498.181	922.31
498.398	963.31
498.615	986.31
498.832	1011.31
499.049	1054.31
499.267	1082.31
499.484	1115.31
499.701	1162.31
499.918	1232.31
500.135	1290.31
500.352	1341.31
500.569	1372.31
500.786	1373.31
501.003	1376.31
501.22	1286.31
501.437	1212.31
501.654	1168.31
