Data from 1974.PennyLincolnUp.Lamp.En5.5.200Scan.071719.P1.Changed Mount._HRD10591_15-52-40-856.txt Node
Date: Thu Jul 18 15:52:40 EDT 2019
User: cochatt
Spectrometer: HR+D1059
Trigger mode: 1
Integration Time (sec): 1.000000E-1
Scans to average: 1
Electric dark correction enabled: true
Nonlinearity correction enabled: false
Boxcar width: 0
XAxis mode: Wavelengths
Number of Pixels in Spectrum: 2048
>>>>>Begin Spectral Data<<<<<
223.165	-8.62
223.4	-8.62
223.635	-8.62
223.869	-10.62
224.104	-16.62
224.338	-28.62
224.573	-15.62
224.808	-21.62
225.042	-19.62
225.277	5.38
225.511	-3.62
225.746	7.38
225.98	14.38
226.215	16.38
226.449	11.38
226.683	20.38
226.918	28.38
227.152	21.38
227.387	30.38
227.621	51.38
227.856	39.38
228.09	35.38
228.324	43.38
228.559	55.38
228.793	63.38
229.027	102.38
229.262	114.38
229.496	121.38
229.73	121.38
229.964	159.38
230.199	123.38
230.433	109.38
230.667	127.38
230.901	127.38
231.136	109.38
231.37	110.38
231.604	123.38
231.838	109.38
232.072	123.38
232.306	94.38
232.541	116.38
232.775	115.38
233.009	124.38
233.243	122.38
233.477	122.38
233.711	132.38
233.945	104.38
234.179	127.38
234.413	105.38
234.647	117.38
234.881	133.38
235.115	115.38
235.349	122.38
235.583	125.38
235.817	134.38
236.051	150.38
236.285	135.38
236.519	133.38
236.753	143.38
236.987	147.38
237.221	177.38
237.455	235.38
237.689	199.38
237.922	153.38
238.156	137.38
238.39	137.38
238.624	130.38
238.858	142.38
239.091	119.38
239.325	144.38
239.559	126.38
239.793	143.38
240.027	147.38
240.26	143.38
240.494	146.38
240.728	171.38
240.961	156.38
241.195	159.38
241.429	151.38
241.662	145.38
241.896	138.38
242.13	125.38
242.363	136.38
242.597	143.38
242.83	140.38
243.064	146.38
243.298	151.38
243.531	154.38
243.765	136.38
243.998	144.38
244.232	153.38
244.465	142.38
244.699	157.38
244.932	148.38
245.166	164.38
245.399	168.38
245.633	145.38
245.866	136.38
246.099	150.38
246.333	154.38
246.566	158.38
246.8	160.38
247.033	174.38
247.266	152.38
247.5	182.38
247.733	184.38
247.966	170.38
248.2	184.38
248.433	183.38
248.666	189.38
248.899	196.38
249.133	211.38
249.366	223.38
249.599	200.38
249.832	192.38
250.066	188.38
250.299	186.38
250.532	181.38
250.765	216.38
250.998	251.38
251.231	235.38
251.465	217.38
251.698	205.38
251.931	216.38
252.164	213.38
252.397	210.38
252.63	209.38
252.863	206.38
253.096	224.38
253.329	245.38
253.562	225.38
253.795	227.38
254.028	234.38
254.261	223.38
254.494	224.38
254.727	255.38
254.96	280.38
255.193	263.38
255.426	274.38
255.659	245.38
255.892	236.38
256.124	234.38
256.357	232.38
256.59	235.38
256.823	214.38
257.056	231.38
257.289	226.38
257.521	209.38
257.754	223.38
257.987	209.38
258.22	230.38
258.452	228.38
258.685	215.38
258.918	211.38
259.151	200.38
259.383	233.38
259.616	216.38
259.849	242.38
260.081	256.38
260.314	260.38
260.547	259.38
260.779	259.38
261.012	244.38
261.244	248.38
261.477	245.38
261.71	214.38
261.942	223.38
262.175	233.38
262.407	236.38
262.64	229.38
262.872	212.38
263.105	223.38
263.337	225.38
263.57	222.38
263.802	237.38
264.035	230.38
264.267	222.38
264.499	231.38
264.732	220.38
264.964	219.38
265.197	221.38
265.429	208.38
265.661	222.38
265.894	228.38
266.126	234.38
266.358	238.38
266.591	233.38
266.823	245.38
267.055	225.38
267.287	235.38
267.52	232.38
267.752	241.38
267.984	241.38
268.216	253.38
268.448	251.38
268.681	244.38
268.913	278.38
269.145	273.38
269.377	277.38
269.609	281.38
269.841	271.38
270.073	297.38
270.306	314.38
270.538	320.38
270.77	328.38
271.002	316.38
271.234	301.38
271.466	314.38
271.698	311.38
271.93	325.38
272.162	331.38
272.394	325.38
272.626	319.38
272.858	294.38
273.09	298.38
273.322	284.38
273.553	276.38
273.785	280.38
274.017	264.38
274.249	274.38
274.481	285.38
274.713	283.38
274.945	292.38
275.176	283.38
275.408	279.38
275.64	263.38
275.872	272.38
276.104	290.38
276.335	278.38
276.567	270.38
276.799	298.38
277.031	319.38
277.262	345.38
277.494	328.38
277.726	312.38
277.957	309.38
278.189	279.38
278.421	286.38
278.652	283.38
278.884	281.38
279.115	282.38
279.347	261.38
279.579	276.38
279.81	286.38
280.042	296.38
280.273	286.38
280.505	299.38
280.736	295.38
280.968	289.38
281.199	285.38
281.431	298.38
281.662	291.38
281.894	276.38
282.125	311.38
282.356	308.38
282.588	337.38
282.819	312.38
283.051	300.38
283.282	305.38
283.513	303.38
283.745	295.38
283.976	292.38
284.207	299.38
284.439	305.38
284.67	327.38
284.901	279.38
285.132	286.38
285.364	302.38
285.595	299.38
285.826	317.38
286.057	301.38
286.288	309.38
286.52	310.38
286.751	304.38
286.982	304.38
287.213	304.38
287.444	300.38
287.675	319.38
287.906	319.38
288.138	320.38
288.369	313.38
288.6	339.38
288.831	320.38
289.062	305.38
289.293	325.38
289.524	332.38
289.755	306.38
289.986	311.38
290.217	311.38
290.448	311.38
290.679	310.38
290.91	311.38
291.141	313.38
291.371	315.38
291.602	324.38
291.833	294.38
292.064	315.38
292.295	316.38
292.526	318.38
292.757	331.38
292.987	312.38
293.218	305.38
293.449	312.38
293.68	310.38
293.91	328.38
294.141	315.38
294.372	317.38
294.603	311.38
294.833	315.38
295.064	302.38
295.295	306.38
295.525	320.38
295.756	328.38
295.987	316.38
296.217	340.38
296.448	329.38
296.679	341.38
296.909	314.38
297.14	321.38
297.37	324.38
297.601	316.38
297.831	320.38
298.062	336.38
298.292	327.38
298.523	331.38
298.753	336.38
298.984	326.38
299.214	325.38
299.445	326.38
299.675	343.38
299.905	340.38
300.136	363.38
300.366	331.38
300.597	345.38
300.827	336.38
301.057	358.38
301.288	362.38
301.518	358.38
301.748	353.38
301.979	355.38
302.209	360.38
302.439	357.38
302.669	369.38
302.9	353.38
303.13	337.38
303.36	360.38
303.59	341.38
303.82	360.38
304.051	368.38
304.281	355.38
304.511	349.38
304.741	353.38
304.971	349.38
305.201	376.38
305.431	359.38
305.661	355.38
305.891	361.38
306.121	348.38
306.352	356.38
306.582	357.38
306.812	374.38
307.042	354.38
307.272	362.38
307.502	356.38
307.731	355.38
307.961	362.38
308.191	349.38
308.421	356.38
308.651	355.38
308.881	350.38
309.111	355.38
309.341	374.38
309.571	355.38
309.8	365.38
310.03	385.38
310.26	387.38
310.49	391.38
310.72	392.38
310.949	387.38
311.179	400.38
311.409	384.38
311.639	401.38
311.868	383.38
312.098	388.38
312.328	403.38
312.557	407.38
312.787	414.38
313.017	429.38
313.246	411.38
313.476	392.38
313.706	411.38
313.935	386.38
314.165	390.38
314.394	402.38
314.624	425.38
314.853	419.38
315.083	418.38
315.312	390.38
315.542	387.38
315.771	383.38
316.001	396.38
316.23	394.38
316.46	401.38
316.689	407.38
316.919	389.38
317.148	415.38
317.377	407.38
317.607	404.38
317.836	397.38
318.065	405.38
318.295	397.38
318.524	386.38
318.753	391.38
318.983	404.38
319.212	405.38
319.441	402.38
319.67	406.38
319.9	396.38
320.129	391.38
320.358	414.38
320.587	401.38
320.816	416.38
321.046	432.38
321.275	416.38
321.504	419.38
321.733	406.38
321.962	423.38
322.191	439.38
322.42	425.38
322.649	444.38
322.878	459.38
323.108	480.38
323.337	484.38
323.566	499.38
323.795	512.38
324.024	513.38
324.253	633.38
324.482	837.38
324.71	1211.38
324.939	1807.38
325.168	1621.38
325.397	879.38
325.626	607.38
325.855	545.38
326.084	493.38
326.313	511.38
326.542	476.38
326.77	537.38
326.999	602.38
327.228	789.38
327.457	1139.38
327.686	1375.38
327.914	950.38
328.143	639.38
328.372	581.38
328.6	561.38
328.829	524.38
329.058	557.38
329.287	543.38
329.515	534.38
329.744	526.38
329.972	495.38
330.201	515.38
330.43	544.38
330.658	587.38
330.887	575.38
331.115	583.38
331.344	535.38
331.572	515.38
331.801	513.38
332.03	503.38
332.258	492.38
332.486	501.38
332.715	469.38
332.943	484.38
333.172	490.38
333.4	491.38
333.629	500.38
333.857	509.38
334.085	521.38
334.314	533.38
334.542	551.38
334.771	576.38
334.999	531.38
335.227	517.38
335.455	525.38
335.684	499.38
335.912	486.38
336.14	469.38
336.369	465.38
336.597	494.38
336.825	465.38
337.053	496.38
337.281	486.38
337.51	462.38
337.738	490.38
337.966	478.38
338.194	474.38
338.422	477.38
338.65	458.38
338.878	467.38
339.106	466.38
339.334	458.38
339.562	465.38
339.79	454.38
340.018	470.38
340.246	452.38
340.474	490.38
340.702	462.38
340.93	464.38
341.158	465.38
341.386	458.38
341.614	470.38
341.842	463.38
342.07	464.38
342.298	454.38
342.526	463.38
342.754	460.38
342.981	438.38
343.209	456.38
343.437	479.38
343.665	457.38
343.893	478.38
344.12	507.38
344.348	464.38
344.576	481.38
344.804	488.38
345.031	463.38
345.259	487.38
345.487	485.38
345.714	463.38
345.942	456.38
346.17	472.38
346.397	457.38
346.625	460.38
346.853	450.38
347.08	448.38
347.308	472.38
347.535	441.38
347.763	453.38
347.99	470.38
348.218	459.38
348.445	452.38
348.673	463.38
348.9	449.38
349.128	459.38
349.355	442.38
349.583	456.38
349.81	413.38
350.037	411.38
350.265	428.38
350.492	409.38
350.72	443.38
350.947	433.38
351.174	451.38
351.402	471.38
351.629	439.38
351.856	466.38
352.083	451.38
352.311	455.38
352.538	471.38
352.765	452.38
352.992	458.38
353.22	462.38
353.447	427.38
353.674	453.38
353.901	442.38
354.128	407.38
354.355	415.38
354.583	438.38
354.81	427.38
355.037	439.38
355.264	435.38
355.491	421.38
355.718	420.38
355.945	422.38
356.172	406.38
356.399	408.38
356.626	444.38
356.853	419.38
357.08	419.38
357.307	436.38
357.534	417.38
357.761	429.38
357.988	431.38
358.215	425.38
358.441	434.38
358.668	428.38
358.895	440.38
359.122	432.38
359.349	424.38
359.576	463.38
359.802	482.38
360.029	477.38
360.256	505.38
360.483	471.38
360.709	439.38
360.936	444.38
361.163	445.38
361.39	433.38
361.616	458.38
361.843	441.38
362.07	463.38
362.296	445.38
362.523	432.38
362.749	441.38
362.976	457.38
363.203	460.38
363.429	424.38
363.656	442.38
363.882	429.38
364.109	430.38
364.335	429.38
364.562	421.38
364.788	431.38
365.015	441.38
365.241	435.38
365.468	464.38
365.694	426.38
365.92	452.38
366.147	424.38
366.373	446.38
366.599	426.38
366.826	445.38
367.052	460.38
367.278	437.38
367.505	450.38
367.731	445.38
367.957	431.38
368.184	432.38
368.41	448.38
368.636	444.38
368.862	462.38
369.089	452.38
369.315	436.38
369.541	447.38
369.767	453.38
369.993	442.38
370.219	447.38
370.445	449.38
370.672	447.38
370.898	456.38
371.124	457.38
371.35	450.38
371.576	447.38
371.802	455.38
372.028	463.38
372.254	447.38
372.48	439.38
372.706	478.38
372.932	465.38
373.158	452.38
373.384	458.38
373.61	464.38
373.835	442.38
374.061	440.38
374.287	480.38
374.513	467.38
374.739	471.38
374.965	477.38
375.191	454.38
375.416	484.38
375.642	447.38
375.868	455.38
376.094	450.38
376.319	439.38
376.545	455.38
376.771	453.38
376.997	447.38
377.222	427.38
377.448	448.38
377.674	458.38
377.899	441.38
378.125	465.38
378.35	441.38
378.576	437.38
378.802	439.38
379.027	456.38
379.253	469.38
379.478	462.38
379.704	447.38
379.929	454.38
380.155	439.38
380.38	465.38
380.606	460.38
380.831	456.38
381.057	452.38
381.282	443.38
381.507	433.38
381.733	448.38
381.958	444.38
382.184	459.38
382.409	445.38
382.634	461.38
382.86	474.38
383.085	469.38
383.31	468.38
383.535	466.38
383.761	487.38
383.986	491.38
384.211	463.38
384.436	470.38
384.662	483.38
384.887	488.38
385.112	476.38
385.337	505.38
385.562	488.38
385.787	514.38
386.013	503.38
386.238	506.38
386.463	478.38
386.688	486.38
386.913	517.38
387.138	497.38
387.363	515.38
387.588	511.38
387.813	510.38
388.038	497.38
388.263	519.38
388.488	515.38
388.713	491.38
388.938	515.38
389.163	501.38
389.387	500.38
389.612	479.38
389.837	518.38
390.062	502.38
390.287	489.38
390.512	497.38
390.736	484.38
390.961	514.38
391.186	492.38
391.411	518.38
391.636	513.38
391.86	518.38
392.085	515.38
392.31	538.38
392.534	534.38
392.759	521.38
392.984	518.38
393.208	527.38
393.433	524.38
393.658	508.38
393.882	518.38
394.107	532.38
394.331	504.38
394.556	527.38
394.78	534.38
395.005	525.38
395.229	532.38
395.454	541.38
395.678	548.38
395.903	526.38
396.127	555.38
396.352	570.38
396.576	566.38
396.801	539.38
397.025	529.38
397.249	541.38
397.474	539.38
397.698	528.38
397.922	548.38
398.147	574.38
398.371	576.38
398.595	563.38
398.82	574.38
399.044	599.38
399.268	623.38
399.492	652.38
399.717	717.38
399.941	722.38
400.165	735.38
400.389	750.38
400.613	675.38
400.837	641.38
401.062	635.38
401.286	603.38
401.51	598.38
401.734	605.38
401.958	589.38
402.182	601.38
402.406	601.38
402.63	615.38
402.854	615.38
403.078	613.38
403.302	614.38
403.526	622.38
403.75	640.38
403.974	612.38
404.198	610.38
404.422	636.38
404.645	607.38
404.869	648.38
405.093	663.38
405.317	693.38
405.541	727.38
405.765	686.38
405.988	644.38
406.212	647.38
406.436	668.38
406.66	671.38
406.883	655.38
407.107	704.38
407.331	736.38
407.555	821.38
407.778	829.38
408.002	750.38
408.226	697.38
408.449	664.38
408.673	665.38
408.896	678.38
409.12	749.38
409.344	685.38
409.567	639.38
409.791	604.38
410.014	629.38
410.238	609.38
410.461	619.38
410.685	617.38
410.908	638.38
411.132	679.38
411.355	687.38
411.578	691.38
411.802	653.38
412.025	608.38
412.249	626.38
412.472	633.38
412.695	674.38
412.919	665.38
413.142	617.38
413.365	617.38
413.589	603.38
413.812	600.38
414.035	576.38
414.258	549.38
414.482	573.38
414.705	589.38
414.928	580.38
415.151	586.38
415.374	564.38
415.597	577.38
415.821	567.38
416.044	565.38
416.267	591.38
416.49	592.38
416.713	590.38
416.936	588.38
417.159	574.38
417.382	590.38
417.605	578.38
417.828	597.38
418.051	617.38
418.274	621.38
418.497	588.38
418.72	613.38
418.943	584.38
419.166	610.38
419.389	666.38
419.611	615.38
419.834	630.38
420.057	623.38
420.28	613.38
420.503	603.38
420.726	614.38
420.948	628.38
421.171	667.38
421.394	680.38
421.617	627.38
421.839	613.38
422.062	619.38
422.285	622.38
422.507	651.38
422.73	736.38
422.953	709.38
423.175	645.38
423.398	639.38
423.621	635.38
423.843	639.38
424.066	644.38
424.288	666.38
424.511	663.38
424.733	717.38
424.956	799.38
425.178	770.38
425.401	757.38
425.623	774.38
425.846	681.38
426.068	652.38
426.291	646.38
426.513	626.38
426.735	639.38
426.958	658.38
427.18	736.38
427.402	883.38
427.625	979.38
427.847	840.38
428.069	727.38
428.292	670.38
428.514	623.38
428.736	625.38
428.958	597.38
429.181	588.38
429.403	582.38
429.625	593.38
429.847	640.38
430.069	697.38
430.292	691.38
430.514	613.38
430.736	608.38
430.958	557.38
431.18	575.38
431.402	585.38
431.624	560.38
431.846	567.38
432.068	557.38
432.29	544.38
432.512	564.38
432.734	590.38
432.956	586.38
433.178	568.38
433.4	565.38
433.622	563.38
433.844	572.38
434.066	559.38
434.287	553.38
434.509	555.38
434.731	591.38
434.953	595.38
435.175	606.38
435.397	652.38
435.618	633.38
435.84	681.38
436.062	771.38
436.284	848.38
436.505	728.38
436.727	665.38
436.949	611.38
437.17	574.38
437.392	602.38
437.614	607.38
437.835	615.38
438.057	715.38
438.278	820.38
438.5	816.38
438.721	918.38
438.943	879.38
439.165	700.38
439.386	656.38
439.608	640.38
439.829	616.38
440.05	653.38
440.272	691.38
440.493	651.38
440.715	638.38
440.936	604.38
441.158	606.38
441.379	613.38
441.6	599.38
441.822	630.38
442.043	671.38
442.264	753.38
442.486	823.38
442.707	705.38
442.928	658.38
443.149	658.38
443.371	671.38
443.592	722.38
443.813	811.38
444.034	874.38
444.255	733.38
444.476	654.38
444.698	683.38
444.919	693.38
445.14	786.38
445.361	717.38
445.582	696.38
445.803	726.38
446.024	839.38
446.245	829.38
446.466	757.38
446.687	680.38
446.908	645.38
447.129	608.38
447.35	595.38
447.571	605.38
447.792	570.38
448.013	585.38
448.234	600.38
448.455	652.38
448.675	785.38
448.896	876.38
449.117	730.38
449.338	702.38
449.559	814.38
449.779	928.38
450	753.38
450.221	625.38
450.442	577.38
450.662	573.38
450.883	588.38
451.104	573.38
451.324	581.38
451.545	563.38
451.766	543.38
451.986	531.38
452.207	551.38
452.428	517.38
452.648	525.38
452.869	536.38
453.089	551.38
453.31	554.38
453.53	530.38
453.751	525.38
453.971	530.38
454.192	535.38
454.412	530.38
454.633	495.38
454.853	522.38
455.073	515.38
455.294	538.38
455.514	607.38
455.734	586.38
455.955	544.38
456.175	512.38
456.395	498.38
456.616	511.38
456.836	494.38
457.056	494.38
457.276	487.38
457.497	478.38
457.717	503.38
457.937	488.38
458.157	495.38
458.377	513.38
458.598	550.38
458.818	581.38
459.038	647.38
459.258	672.38
459.478	584.38
459.698	573.38
459.918	570.38
460.138	550.38
460.358	584.38
460.578	583.38
460.798	594.38
461.018	601.38
461.238	596.38
461.458	584.38
461.678	569.38
461.898	587.38
462.118	576.38
462.338	618.38
462.558	608.38
462.777	634.38
462.997	645.38
463.217	658.38
463.437	664.38
463.657	643.38
463.876	647.38
464.096	627.38
464.316	636.38
464.536	636.38
464.755	633.38
464.975	618.38
465.195	651.38
465.414	661.38
465.634	637.38
465.854	599.38
466.073	561.38
466.293	571.38
466.512	557.38
466.732	571.38
466.951	544.38
467.171	544.38
467.391	546.38
467.61	551.38
467.829	565.38
468.049	584.38
468.268	525.38
468.488	519.38
468.707	518.38
468.927	565.38
469.146	535.38
469.365	528.38
469.585	519.38
469.804	547.38
470.023	554.38
470.243	534.38
470.462	567.38
470.681	581.38
470.901	574.38
471.12	579.38
471.339	561.38
471.558	571.38
471.777	540.38
471.997	522.38
472.216	535.38
472.435	575.38
472.654	551.38
472.873	544.38
473.092	536.38
473.311	544.38
473.53	549.38
473.749	550.38
473.968	600.38
474.187	669.38
474.406	687.38
474.625	613.38
474.844	583.38
475.063	551.38
475.282	528.38
475.501	560.38
475.72	563.38
475.939	538.38
476.158	581.38
476.377	581.38
476.596	567.38
476.814	567.38
477.033	547.38
477.252	587.38
477.471	578.38
477.69	602.38
477.908	568.38
478.127	604.38
478.346	619.38
478.564	631.38
478.783	631.38
479.002	644.38
479.22	643.38
479.439	653.38
479.658	661.38
479.876	658.38
480.095	637.38
480.313	694.38
480.532	709.38
480.751	683.38
480.969	661.38
481.188	730.38
481.406	744.38
481.624	701.38
481.843	643.38
482.061	652.38
482.28	645.38
482.498	662.38
482.717	631.38
482.935	632.38
483.153	644.38
483.372	648.38
483.59	653.38
483.808	624.38
484.027	636.38
484.245	643.38
484.463	646.38
484.681	642.38
484.9	654.38
485.118	657.38
485.336	657.38
485.554	675.38
485.772	646.38
485.99	669.38
486.209	670.38
486.427	673.38
486.645	677.38
486.863	686.38
487.081	699.38
487.299	671.38
487.517	681.38
487.735	676.38
487.953	647.38
488.171	692.38
488.389	703.38
488.607	675.38
488.825	699.38
489.043	682.38
489.261	696.38
489.479	683.38
489.696	684.38
489.914	700.38
490.132	711.38
490.35	717.38
490.568	723.38
490.786	756.38
491.003	732.38
491.221	758.38
491.439	741.38
491.657	759.38
491.874	782.38
492.092	780.38
492.31	776.38
492.527	793.38
492.745	785.38
492.963	797.38
493.18	828.38
493.398	824.38
493.615	804.38
493.833	836.38
494.05	850.38
494.268	803.38
494.485	791.38
494.703	797.38
494.92	831.38
495.138	809.38
495.355	799.38
495.573	834.38
495.79	785.38
496.008	823.38
496.225	807.38
496.442	816.38
496.66	808.38
496.877	855.38
497.094	825.38
497.312	850.38
497.529	861.38
497.746	889.38
497.963	885.38
498.181	908.38
498.398	905.38
498.615	941.38
498.832	943.38
499.049	983.38
499.267	1017.38
499.484	1043.38
499.701	1083.38
499.918	1134.38
500.135	1208.38
500.352	1277.38
500.569	1327.38
500.786	1306.38
501.003	1306.38
501.22	1254.38
501.437	1190.38
501.654	1125.38
