Data from 1974.PennyLincolnUp.Lamp.En5.5.200Scan.071719.P1.Changed Mount._HRD10591_15-52-29-856.txt Node
Date: Thu Jul 18 15:52:29 EDT 2019
User: cochatt
Spectrometer: HR+D1059
Trigger mode: 1
Integration Time (sec): 1.000000E-1
Scans to average: 1
Electric dark correction enabled: true
Nonlinearity correction enabled: false
Boxcar width: 0
XAxis mode: Wavelengths
Number of Pixels in Spectrum: 2048
>>>>>Begin Spectral Data<<<<<
223.165	-3.19
223.4	-3.19
223.635	-3.19
223.869	-19.19
224.104	-20.19
224.338	-20.19
224.573	-11.19
224.808	-4.19
225.042	-10.19
225.277	-7.19
225.511	-7.19
225.746	-3.19
225.98	12.81
226.215	1.81
226.449	17.81
226.683	19.81
226.918	19.81
227.152	33.81
227.387	31.81
227.621	28.81
227.856	19.81
228.09	33.81
228.324	41.81
228.559	39.81
228.793	61.81
229.027	84.81
229.262	118.81
229.496	104.81
229.73	116.81
229.964	155.81
230.199	119.81
230.433	115.81
230.667	104.81
230.901	130.81
231.136	96.81
231.37	110.81
231.604	119.81
231.838	113.81
232.072	94.81
232.306	95.81
232.541	118.81
232.775	117.81
233.009	121.81
233.243	90.81
233.477	118.81
233.711	114.81
233.945	116.81
234.179	125.81
234.413	120.81
234.647	116.81
234.881	137.81
235.115	131.81
235.349	116.81
235.583	120.81
235.817	117.81
236.051	120.81
236.285	130.81
236.519	137.81
236.753	128.81
236.987	153.81
237.221	178.81
237.455	215.81
237.689	186.81
237.922	143.81
238.156	135.81
238.39	138.81
238.624	131.81
238.858	138.81
239.091	130.81
239.325	142.81
239.559	123.81
239.793	120.81
240.027	122.81
240.26	130.81
240.494	160.81
240.728	158.81
240.961	152.81
241.195	146.81
241.429	140.81
241.662	144.81
241.896	144.81
242.13	149.81
242.363	131.81
242.597	144.81
242.83	134.81
243.064	151.81
243.298	150.81
243.531	144.81
243.765	155.81
243.998	144.81
244.232	145.81
244.465	160.81
244.699	152.81
244.932	147.81
245.166	156.81
245.399	151.81
245.633	134.81
245.866	149.81
246.099	162.81
246.333	150.81
246.566	147.81
246.8	149.81
247.033	154.81
247.266	169.81
247.5	163.81
247.733	171.81
247.966	186.81
248.2	168.81
248.433	190.81
248.666	181.81
248.899	176.81
249.133	192.81
249.366	183.81
249.599	189.81
249.832	201.81
250.066	188.81
250.299	177.81
250.532	178.81
250.765	204.81
250.998	226.81
251.231	234.81
251.465	220.81
251.698	214.81
251.931	211.81
252.164	201.81
252.397	211.81
252.63	208.81
252.863	224.81
253.096	238.81
253.329	246.81
253.562	240.81
253.795	223.81
254.028	202.81
254.261	226.81
254.494	217.81
254.727	262.81
254.96	261.81
255.193	262.81
255.426	260.81
255.659	240.81
255.892	245.81
256.124	231.81
256.357	226.81
256.59	207.81
256.823	231.81
257.056	212.81
257.289	221.81
257.521	220.81
257.754	219.81
257.987	204.81
258.22	217.81
258.452	210.81
258.685	218.81
258.918	215.81
259.151	220.81
259.383	228.81
259.616	232.81
259.849	245.81
260.081	257.81
260.314	240.81
260.547	258.81
260.779	240.81
261.012	229.81
261.244	237.81
261.477	216.81
261.71	224.81
261.942	240.81
262.175	229.81
262.407	227.81
262.64	216.81
262.872	219.81
263.105	207.81
263.337	198.81
263.57	225.81
263.802	227.81
264.035	215.81
264.267	210.81
264.499	221.81
264.732	204.81
264.964	238.81
265.197	230.81
265.429	201.81
265.661	233.81
265.894	227.81
266.126	218.81
266.358	240.81
266.591	228.81
266.823	226.81
267.055	256.81
267.287	235.81
267.52	235.81
267.752	233.81
267.984	229.81
268.216	224.81
268.448	250.81
268.681	235.81
268.913	259.81
269.145	275.81
269.377	277.81
269.609	289.81
269.841	282.81
270.073	276.81
270.306	311.81
270.538	308.81
270.77	308.81
271.002	302.81
271.234	303.81
271.466	296.81
271.698	322.81
271.93	316.81
272.162	314.81
272.394	318.81
272.626	301.81
272.858	298.81
273.09	304.81
273.322	266.81
273.553	271.81
273.785	274.81
274.017	272.81
274.249	281.81
274.481	259.81
274.713	258.81
274.945	277.81
275.176	280.81
275.408	273.81
275.64	268.81
275.872	255.81
276.104	271.81
276.335	292.81
276.567	283.81
276.799	312.81
277.031	317.81
277.262	326.81
277.494	332.81
277.726	322.81
277.957	293.81
278.189	291.81
278.421	298.81
278.652	282.81
278.884	266.81
279.115	278.81
279.347	271.81
279.579	281.81
279.81	280.81
280.042	282.81
280.273	279.81
280.505	288.81
280.736	287.81
280.968	281.81
281.199	288.81
281.431	288.81
281.662	296.81
281.894	293.81
282.125	295.81
282.356	297.81
282.588	329.81
282.819	293.81
283.051	319.81
283.282	263.81
283.513	291.81
283.745	293.81
283.976	305.81
284.207	290.81
284.439	294.81
284.67	293.81
284.901	318.81
285.132	299.81
285.364	286.81
285.595	299.81
285.826	294.81
286.057	286.81
286.288	288.81
286.52	311.81
286.751	306.81
286.982	308.81
287.213	289.81
287.444	308.81
287.675	304.81
287.906	297.81
288.138	321.81
288.369	320.81
288.6	325.81
288.831	315.81
289.062	297.81
289.293	317.81
289.524	313.81
289.755	310.81
289.986	296.81
290.217	310.81
290.448	319.81
290.679	314.81
290.91	308.81
291.141	315.81
291.371	308.81
291.602	339.81
291.833	314.81
292.064	314.81
292.295	298.81
292.526	312.81
292.757	306.81
292.987	316.81
293.218	296.81
293.449	326.81
293.68	308.81
293.91	319.81
294.141	298.81
294.372	297.81
294.603	294.81
294.833	312.81
295.064	300.81
295.295	322.81
295.525	316.81
295.756	315.81
295.987	318.81
296.217	327.81
296.448	348.81
296.679	316.81
296.909	319.81
297.14	315.81
297.37	335.81
297.601	312.81
297.831	330.81
298.062	329.81
298.292	326.81
298.523	319.81
298.753	325.81
298.984	315.81
299.214	317.81
299.445	322.81
299.675	327.81
299.905	320.81
300.136	337.81
300.366	341.81
300.597	337.81
300.827	345.81
301.057	342.81
301.288	360.81
301.518	343.81
301.748	353.81
301.979	348.81
302.209	356.81
302.439	366.81
302.669	349.81
302.9	360.81
303.13	349.81
303.36	361.81
303.59	366.81
303.82	357.81
304.051	358.81
304.281	351.81
304.511	344.81
304.741	332.81
304.971	344.81
305.201	364.81
305.431	353.81
305.661	361.81
305.891	341.81
306.121	353.81
306.352	355.81
306.582	363.81
306.812	344.81
307.042	355.81
307.272	360.81
307.502	375.81
307.731	353.81
307.961	354.81
308.191	367.81
308.421	345.81
308.651	355.81
308.881	359.81
309.111	366.81
309.341	358.81
309.571	353.81
309.8	368.81
310.03	393.81
310.26	379.81
310.49	364.81
310.72	388.81
310.949	400.81
311.179	382.81
311.409	387.81
311.639	378.81
311.868	384.81
312.098	416.81
312.328	396.81
312.557	397.81
312.787	398.81
313.017	401.81
313.246	387.81
313.476	400.81
313.706	394.81
313.935	379.81
314.165	395.81
314.394	410.81
314.624	404.81
314.853	411.81
315.083	389.81
315.312	382.81
315.542	389.81
315.771	388.81
316.001	390.81
316.23	396.81
316.46	386.81
316.689	386.81
316.919	406.81
317.148	414.81
317.377	413.81
317.607	382.81
317.836	410.81
318.065	407.81
318.295	409.81
318.524	394.81
318.753	390.81
318.983	380.81
319.212	396.81
319.441	391.81
319.67	405.81
319.9	388.81
320.129	402.81
320.358	425.81
320.587	407.81
320.816	402.81
321.046	400.81
321.275	414.81
321.504	403.81
321.733	397.81
321.962	411.81
322.191	412.81
322.42	412.81
322.649	434.81
322.878	422.81
323.108	448.81
323.337	478.81
323.566	483.81
323.795	496.81
324.024	533.81
324.253	603.81
324.482	810.81
324.71	1187.81
324.939	1767.81
325.168	1558.81
325.397	805.81
325.626	583.81
325.855	501.81
326.084	485.81
326.313	477.81
326.542	497.81
326.77	516.81
326.999	593.81
327.228	751.81
327.457	1103.81
327.686	1354.81
327.914	946.81
328.143	636.81
328.372	571.81
328.6	547.81
328.829	534.81
329.058	532.81
329.287	530.81
329.515	522.81
329.744	504.81
329.972	476.81
330.201	511.81
330.43	546.81
330.658	571.81
330.887	575.81
331.115	581.81
331.344	517.81
331.572	485.81
331.801	486.81
332.03	487.81
332.258	471.81
332.486	487.81
332.715	482.81
332.943	474.81
333.172	483.81
333.4	475.81
333.629	491.81
333.857	501.81
334.085	514.81
334.314	524.81
334.542	553.81
334.771	601.81
334.999	542.81
335.227	491.81
335.455	504.81
335.684	491.81
335.912	496.81
336.14	475.81
336.369	478.81
336.597	489.81
336.825	478.81
337.053	465.81
337.281	470.81
337.51	473.81
337.738	451.81
337.966	455.81
338.194	461.81
338.422	476.81
338.65	479.81
338.878	465.81
339.106	457.81
339.334	440.81
339.562	469.81
339.79	464.81
340.018	452.81
340.246	459.81
340.474	441.81
340.702	443.81
340.93	438.81
341.158	438.81
341.386	430.81
341.614	437.81
341.842	460.81
342.07	462.81
342.298	451.81
342.526	437.81
342.754	442.81
342.981	446.81
343.209	453.81
343.437	469.81
343.665	467.81
343.893	487.81
344.12	487.81
344.348	471.81
344.576	464.81
344.804	480.81
345.031	472.81
345.259	466.81
345.487	471.81
345.714	457.81
345.942	445.81
346.17	446.81
346.397	439.81
346.625	438.81
346.853	430.81
347.08	424.81
347.308	430.81
347.535	461.81
347.763	437.81
347.99	453.81
348.218	449.81
348.445	450.81
348.673	452.81
348.9	442.81
349.128	434.81
349.355	439.81
349.583	437.81
349.81	419.81
350.037	432.81
350.265	437.81
350.492	422.81
350.72	442.81
350.947	446.81
351.174	455.81
351.402	432.81
351.629	455.81
351.856	441.81
352.083	450.81
352.311	462.81
352.538	450.81
352.765	442.81
352.992	431.81
353.22	429.81
353.447	426.81
353.674	454.81
353.901	423.81
354.128	421.81
354.355	427.81
354.583	412.81
354.81	426.81
355.037	424.81
355.264	422.81
355.491	431.81
355.718	422.81
355.945	405.81
356.172	428.81
356.399	425.81
356.626	422.81
356.853	410.81
357.08	420.81
357.307	434.81
357.534	414.81
357.761	433.81
357.988	439.81
358.215	435.81
358.441	412.81
358.668	412.81
358.895	419.81
359.122	446.81
359.349	440.81
359.576	427.81
359.802	434.81
360.029	472.81
360.256	491.81
360.483	469.81
360.709	444.81
360.936	442.81
361.163	417.81
361.39	425.81
361.616	446.81
361.843	455.81
362.07	444.81
362.296	448.81
362.523	440.81
362.749	422.81
362.976	431.81
363.203	445.81
363.429	420.81
363.656	420.81
363.882	440.81
364.109	427.81
364.335	445.81
364.562	443.81
364.788	424.81
365.015	432.81
365.241	418.81
365.468	419.81
365.694	442.81
365.92	438.81
366.147	433.81
366.373	440.81
366.599	425.81
366.826	431.81
367.052	429.81
367.278	433.81
367.505	428.81
367.731	435.81
367.957	430.81
368.184	424.81
368.41	436.81
368.636	450.81
368.862	454.81
369.089	450.81
369.315	422.81
369.541	456.81
369.767	440.81
369.993	432.81
370.219	438.81
370.445	425.81
370.672	456.81
370.898	439.81
371.124	446.81
371.35	456.81
371.576	450.81
371.802	445.81
372.028	424.81
372.254	434.81
372.48	457.81
372.706	437.81
372.932	464.81
373.158	442.81
373.384	449.81
373.61	439.81
373.835	430.81
374.061	436.81
374.287	443.81
374.513	446.81
374.739	462.81
374.965	456.81
375.191	451.81
375.416	473.81
375.642	478.81
375.868	432.81
376.094	455.81
376.319	438.81
376.545	451.81
376.771	433.81
376.997	466.81
377.222	454.81
377.448	430.81
377.674	451.81
377.899	430.81
378.125	431.81
378.35	420.81
378.576	425.81
378.802	434.81
379.027	444.81
379.253	434.81
379.478	446.81
379.704	438.81
379.929	449.81
380.155	441.81
380.38	446.81
380.606	457.81
380.831	430.81
381.057	456.81
381.282	452.81
381.507	456.81
381.733	453.81
381.958	453.81
382.184	457.81
382.409	452.81
382.634	453.81
382.86	456.81
383.085	474.81
383.31	459.81
383.535	476.81
383.761	476.81
383.986	486.81
384.211	472.81
384.436	473.81
384.662	452.81
384.887	470.81
385.112	483.81
385.337	491.81
385.562	493.81
385.787	483.81
386.013	527.81
386.238	507.81
386.463	500.81
386.688	498.81
386.913	497.81
387.138	514.81
387.363	499.81
387.588	474.81
387.813	488.81
388.038	490.81
388.263	508.81
388.488	491.81
388.713	508.81
388.938	503.81
389.163	488.81
389.387	489.81
389.612	520.81
389.837	505.81
390.062	496.81
390.287	496.81
390.512	494.81
390.736	513.81
390.961	492.81
391.186	502.81
391.411	513.81
391.636	497.81
391.86	514.81
392.085	516.81
392.31	523.81
392.534	533.81
392.759	514.81
392.984	519.81
393.208	485.81
393.433	522.81
393.658	522.81
393.882	493.81
394.107	512.81
394.331	529.81
394.556	506.81
394.78	522.81
395.005	533.81
395.229	507.81
395.454	523.81
395.678	547.81
395.903	547.81
396.127	557.81
396.352	545.81
396.576	528.81
396.801	509.81
397.025	523.81
397.249	522.81
397.474	546.81
397.698	554.81
397.922	556.81
398.147	585.81
398.371	575.81
398.595	571.81
398.82	579.81
399.044	590.81
399.268	628.81
399.492	660.81
399.717	697.81
399.941	752.81
400.165	736.81
400.389	724.81
400.613	679.81
400.837	619.81
401.062	601.81
401.286	596.81
401.51	588.81
401.734	570.81
401.958	604.81
402.182	597.81
402.406	595.81
402.63	601.81
402.854	613.81
403.078	594.81
403.302	603.81
403.526	604.81
403.75	618.81
403.974	630.81
404.198	616.81
404.422	624.81
404.645	611.81
404.869	638.81
405.093	636.81
405.317	705.81
405.541	744.81
405.765	682.81
405.988	630.81
406.212	670.81
406.436	649.81
406.66	678.81
406.883	666.81
407.107	662.81
407.331	726.81
407.555	795.81
407.778	795.81
408.002	757.81
408.226	662.81
408.449	675.81
408.673	679.81
408.896	711.81
409.12	714.81
409.344	698.81
409.567	636.81
409.791	643.81
410.014	615.81
410.238	624.81
410.461	626.81
410.685	596.81
410.908	631.81
411.132	664.81
411.355	716.81
411.578	645.81
411.802	619.81
412.025	599.81
412.249	601.81
412.472	624.81
412.695	683.81
412.919	663.81
413.142	628.81
413.365	583.81
413.589	611.81
413.812	580.81
414.035	600.81
414.258	559.81
414.482	576.81
414.705	583.81
414.928	553.81
415.151	587.81
415.374	581.81
415.597	580.81
415.821	569.81
416.044	550.81
416.267	579.81
416.49	562.81
416.713	584.81
416.936	582.81
417.159	559.81
417.382	578.81
417.605	569.81
417.828	578.81
418.051	593.81
418.274	601.81
418.497	587.81
418.72	560.81
418.943	593.81
419.166	611.81
419.389	630.81
419.611	632.81
419.834	613.81
420.057	622.81
420.28	622.81
420.503	596.81
420.726	618.81
420.948	626.81
421.171	652.81
421.394	656.81
421.617	627.81
421.839	606.81
422.062	580.81
422.285	602.81
422.507	667.81
422.73	727.81
422.953	737.81
423.175	654.81
423.398	626.81
423.621	634.81
423.843	647.81
424.066	650.81
424.288	650.81
424.511	680.81
424.733	680.81
424.956	805.81
425.178	751.81
425.401	746.81
425.623	757.81
425.846	670.81
426.068	641.81
426.291	633.81
426.513	632.81
426.735	647.81
426.958	691.81
427.18	742.81
427.402	873.81
427.625	947.81
427.847	833.81
428.069	693.81
428.292	667.81
428.514	618.81
428.736	591.81
428.958	600.81
429.181	589.81
429.403	593.81
429.625	607.81
429.847	613.81
430.069	660.81
430.292	678.81
430.514	610.81
430.736	587.81
430.958	564.81
431.18	578.81
431.402	569.81
431.624	554.81
431.846	541.81
432.068	562.81
432.29	549.81
432.512	560.81
432.734	584.81
432.956	567.81
433.178	579.81
433.4	587.81
433.622	563.81
433.844	572.81
434.066	574.81
434.287	558.81
434.509	552.81
434.731	580.81
434.953	586.81
435.175	604.81
435.397	628.81
435.618	620.81
435.84	643.81
436.062	751.81
436.284	802.81
436.505	696.81
436.727	610.81
436.949	580.81
437.17	560.81
437.392	574.81
437.614	585.81
437.835	603.81
438.057	694.81
438.278	798.81
438.5	812.81
438.721	884.81
438.943	836.81
439.165	709.81
439.386	646.81
439.608	626.81
439.829	601.81
440.05	625.81
440.272	670.81
440.493	635.81
440.715	618.81
440.936	592.81
441.158	584.81
441.379	574.81
441.6	614.81
441.822	635.81
442.043	651.81
442.264	751.81
442.486	820.81
442.707	686.81
442.928	666.81
443.149	645.81
443.371	671.81
443.592	708.81
443.813	794.81
444.034	866.81
444.255	734.81
444.476	663.81
444.698	656.81
444.919	686.81
445.14	735.81
445.361	692.81
445.582	645.81
445.803	731.81
446.024	814.81
446.245	811.81
446.466	740.81
446.687	652.81
446.908	626.81
447.129	606.81
447.35	563.81
447.571	569.81
447.792	554.81
448.013	583.81
448.234	581.81
448.455	642.81
448.675	750.81
448.896	838.81
449.117	748.81
449.338	687.81
449.559	797.81
449.779	893.81
450	743.81
450.221	619.81
450.442	608.81
450.662	547.81
450.883	556.81
451.104	584.81
451.324	536.81
451.545	537.81
451.766	530.81
451.986	529.81
452.207	521.81
452.428	513.81
452.648	500.81
452.869	500.81
453.089	525.81
453.31	520.81
453.53	532.81
453.751	506.81
453.971	498.81
454.192	521.81
454.412	514.81
454.633	495.81
454.853	502.81
455.073	511.81
455.294	546.81
455.514	596.81
455.734	591.81
455.955	504.81
456.175	502.81
456.395	505.81
456.616	472.81
456.836	475.81
457.056	481.81
457.276	472.81
457.497	514.81
457.717	514.81
457.937	518.81
458.157	479.81
458.377	495.81
458.598	524.81
458.818	568.81
459.038	656.81
459.258	660.81
459.478	598.81
459.698	555.81
459.918	576.81
460.138	560.81
460.358	567.81
460.578	586.81
460.798	572.81
461.018	564.81
461.238	576.81
461.458	584.81
461.678	578.81
461.898	603.81
462.118	591.81
462.338	608.81
462.558	609.81
462.777	617.81
462.997	638.81
463.217	676.81
463.437	683.81
463.657	645.81
463.876	618.81
464.096	650.81
464.316	615.81
464.536	630.81
464.755	624.81
464.975	618.81
465.195	656.81
465.414	662.81
465.634	627.81
465.854	587.81
466.073	584.81
466.293	563.81
466.512	544.81
466.732	521.81
466.951	530.81
467.171	564.81
467.391	555.81
467.61	538.81
467.829	536.81
468.049	536.81
468.268	527.81
468.488	511.81
468.707	525.81
468.927	524.81
469.146	511.81
469.365	529.81
469.585	540.81
469.804	538.81
470.023	558.81
470.243	548.81
470.462	542.81
470.681	558.81
470.901	540.81
471.12	545.81
471.339	538.81
471.558	539.81
471.777	572.81
471.997	525.81
472.216	550.81
472.435	568.81
472.654	546.81
472.873	536.81
473.092	520.81
473.311	539.81
473.53	533.81
473.749	564.81
473.968	586.81
474.187	691.81
474.406	686.81
474.625	574.81
474.844	562.81
475.063	569.81
475.282	520.81
475.501	524.81
475.72	561.81
475.939	564.81
476.158	550.81
476.377	577.81
476.596	557.81
476.814	565.81
477.033	574.81
477.252	592.81
477.471	569.81
477.69	584.81
477.908	591.81
478.127	580.81
478.346	592.81
478.564	594.81
478.783	599.81
479.002	626.81
479.22	620.81
479.439	630.81
479.658	642.81
479.876	678.81
480.095	636.81
480.313	674.81
480.532	667.81
480.751	704.81
480.969	667.81
481.188	686.81
481.406	749.81
481.624	701.81
481.843	662.81
482.061	670.81
482.28	662.81
482.498	614.81
482.717	633.81
482.935	614.81
483.153	610.81
483.372	651.81
483.59	636.81
483.808	654.81
484.027	637.81
484.245	625.81
484.463	636.81
484.681	630.81
484.9	659.81
485.118	644.81
485.336	659.81
485.554	636.81
485.772	629.81
485.99	648.81
486.209	668.81
486.427	662.81
486.645	663.81
486.863	665.81
487.081	677.81
487.299	688.81
487.517	698.81
487.735	668.81
487.953	659.81
488.171	697.81
488.389	676.81
488.607	681.81
488.825	696.81
489.043	690.81
489.261	664.81
489.479	700.81
489.696	696.81
489.914	679.81
490.132	717.81
490.35	720.81
490.568	709.81
490.786	731.81
491.003	719.81
491.221	760.81
491.439	764.81
491.657	787.81
491.874	785.81
492.092	799.81
492.31	783.81
492.527	807.81
492.745	802.81
492.963	765.81
493.18	802.81
493.398	810.81
493.615	831.81
493.833	816.81
494.05	795.81
494.268	809.81
494.485	801.81
494.703	820.81
494.92	807.81
495.138	811.81
495.355	807.81
495.573	795.81
495.79	795.81
496.008	796.81
496.225	779.81
496.442	824.81
496.66	835.81
496.877	818.81
497.094	836.81
497.312	818.81
497.529	836.81
497.746	863.81
497.963	867.81
498.181	887.81
498.398	908.81
498.615	939.81
498.832	970.81
499.049	966.81
499.267	1026.81
499.484	1047.81
499.701	1083.81
499.918	1143.81
500.135	1207.81
500.352	1285.81
500.569	1318.81
500.786	1317.81
501.003	1260.81
501.22	1193.81
501.437	1157.81
501.654	1127.81
