Data from 1974.PennyLincolnUp.Lamp.En5.5.200Scan.071719.P1.Changed Mount._HRD10591_15-51-52-856.txt Node
Date: Thu Jul 18 15:51:52 EDT 2019
User: cochatt
Spectrometer: HR+D1059
Trigger mode: 1
Integration Time (sec): 1.000000E-1
Scans to average: 1
Electric dark correction enabled: true
Nonlinearity correction enabled: false
Boxcar width: 0
XAxis mode: Wavelengths
Number of Pixels in Spectrum: 2048
>>>>>Begin Spectral Data<<<<<
223.165	-4.44
223.4	-4.44
223.635	-4.44
223.869	-18.44
224.104	-24.44
224.338	-21.44
224.573	-15.44
224.808	-7.44
225.042	0.56
225.277	-8.44
225.511	-2.44
225.746	12.56
225.98	29.56
226.215	1.56
226.449	2.56
226.683	3.56
226.918	21.56
227.152	30.56
227.387	41.56
227.621	44.56
227.856	41.56
228.09	41.56
228.324	53.56
228.559	55.56
228.793	67.56
229.027	91.56
229.262	105.56
229.496	124.56
229.73	140.56
229.964	153.56
230.199	121.56
230.433	113.56
230.667	123.56
230.901	112.56
231.136	105.56
231.37	115.56
231.604	103.56
231.838	116.56
232.072	133.56
232.306	127.56
232.541	117.56
232.775	117.56
233.009	133.56
233.243	130.56
233.477	119.56
233.711	120.56
233.945	130.56
234.179	124.56
234.413	125.56
234.647	109.56
234.881	114.56
235.115	122.56
235.349	93.56
235.583	129.56
235.817	121.56
236.051	132.56
236.285	115.56
236.519	120.56
236.753	126.56
236.987	133.56
237.221	173.56
237.455	221.56
237.689	179.56
237.922	127.56
238.156	128.56
238.39	121.56
238.624	125.56
238.858	137.56
239.091	124.56
239.325	129.56
239.559	133.56
239.793	130.56
240.027	123.56
240.26	130.56
240.494	159.56
240.728	157.56
240.961	155.56
241.195	155.56
241.429	128.56
241.662	132.56
241.896	145.56
242.13	140.56
242.363	129.56
242.597	134.56
242.83	143.56
243.064	156.56
243.298	139.56
243.531	129.56
243.765	142.56
243.998	143.56
244.232	149.56
244.465	146.56
244.699	165.56
244.932	152.56
245.166	152.56
245.399	147.56
245.633	159.56
245.866	161.56
246.099	145.56
246.333	160.56
246.566	146.56
246.8	165.56
247.033	166.56
247.266	173.56
247.5	180.56
247.733	165.56
247.966	180.56
248.2	169.56
248.433	172.56
248.666	156.56
248.899	185.56
249.133	208.56
249.366	213.56
249.599	183.56
249.832	200.56
250.066	199.56
250.299	190.56
250.532	211.56
250.765	186.56
250.998	231.56
251.231	244.56
251.465	218.56
251.698	218.56
251.931	215.56
252.164	209.56
252.397	209.56
252.63	208.56
252.863	193.56
253.096	204.56
253.329	231.56
253.562	225.56
253.795	216.56
254.028	222.56
254.261	224.56
254.494	206.56
254.727	265.56
254.96	268.56
255.193	271.56
255.426	245.56
255.659	244.56
255.892	239.56
256.124	231.56
256.357	226.56
256.59	240.56
256.823	210.56
257.056	211.56
257.289	216.56
257.521	221.56
257.754	223.56
257.987	221.56
258.22	217.56
258.452	228.56
258.685	210.56
258.918	219.56
259.151	232.56
259.383	215.56
259.616	208.56
259.849	224.56
260.081	223.56
260.314	248.56
260.547	251.56
260.779	247.56
261.012	224.56
261.244	224.56
261.477	251.56
261.71	230.56
261.942	229.56
262.175	204.56
262.407	229.56
262.64	209.56
262.872	203.56
263.105	236.56
263.337	226.56
263.57	223.56
263.802	228.56
264.035	211.56
264.267	203.56
264.499	216.56
264.732	229.56
264.964	228.56
265.197	232.56
265.429	237.56
265.661	222.56
265.894	224.56
266.126	234.56
266.358	241.56
266.591	230.56
266.823	235.56
267.055	244.56
267.287	239.56
267.52	234.56
267.752	229.56
267.984	253.56
268.216	242.56
268.448	247.56
268.681	259.56
268.913	221.56
269.145	273.56
269.377	271.56
269.609	274.56
269.841	288.56
270.073	292.56
270.306	291.56
270.538	317.56
270.77	317.56
271.002	314.56
271.234	282.56
271.466	312.56
271.698	316.56
271.93	321.56
272.162	309.56
272.394	309.56
272.626	323.56
272.858	305.56
273.09	310.56
273.322	290.56
273.553	276.56
273.785	266.56
274.017	261.56
274.249	259.56
274.481	295.56
274.713	276.56
274.945	282.56
275.176	280.56
275.408	282.56
275.64	275.56
275.872	274.56
276.104	282.56
276.335	272.56
276.567	273.56
276.799	279.56
277.031	300.56
277.262	330.56
277.494	323.56
277.726	323.56
277.957	289.56
278.189	283.56
278.421	282.56
278.652	278.56
278.884	311.56
279.115	289.56
279.347	275.56
279.579	276.56
279.81	265.56
280.042	289.56
280.273	282.56
280.505	285.56
280.736	277.56
280.968	282.56
281.199	288.56
281.431	280.56
281.662	280.56
281.894	285.56
282.125	266.56
282.356	302.56
282.588	309.56
282.819	295.56
283.051	295.56
283.282	297.56
283.513	281.56
283.745	289.56
283.976	283.56
284.207	299.56
284.439	303.56
284.67	299.56
284.901	288.56
285.132	297.56
285.364	297.56
285.595	308.56
285.826	303.56
286.057	297.56
286.288	313.56
286.52	291.56
286.751	298.56
286.982	307.56
287.213	316.56
287.444	297.56
287.675	303.56
287.906	319.56
288.138	315.56
288.369	323.56
288.6	324.56
288.831	319.56
289.062	319.56
289.293	317.56
289.524	295.56
289.755	316.56
289.986	298.56
290.217	304.56
290.448	315.56
290.679	300.56
290.91	309.56
291.141	297.56
291.371	303.56
291.602	309.56
291.833	328.56
292.064	289.56
292.295	323.56
292.526	309.56
292.757	305.56
292.987	323.56
293.218	326.56
293.449	300.56
293.68	319.56
293.91	307.56
294.141	310.56
294.372	295.56
294.603	314.56
294.833	306.56
295.064	329.56
295.295	319.56
295.525	298.56
295.756	312.56
295.987	325.56
296.217	341.56
296.448	344.56
296.679	309.56
296.909	319.56
297.14	307.56
297.37	316.56
297.601	323.56
297.831	323.56
298.062	328.56
298.292	308.56
298.523	330.56
298.753	335.56
298.984	335.56
299.214	324.56
299.445	340.56
299.675	338.56
299.905	329.56
300.136	321.56
300.366	337.56
300.597	332.56
300.827	341.56
301.057	329.56
301.288	347.56
301.518	353.56
301.748	371.56
301.979	351.56
302.209	355.56
302.439	351.56
302.669	349.56
302.9	353.56
303.13	331.56
303.36	333.56
303.59	343.56
303.82	358.56
304.051	345.56
304.281	351.56
304.511	343.56
304.741	361.56
304.971	373.56
305.201	352.56
305.431	337.56
305.661	361.56
305.891	352.56
306.121	361.56
306.352	356.56
306.582	345.56
306.812	362.56
307.042	347.56
307.272	339.56
307.502	359.56
307.731	361.56
307.961	355.56
308.191	352.56
308.421	338.56
308.651	350.56
308.881	349.56
309.111	375.56
309.341	381.56
309.571	364.56
309.8	371.56
310.03	363.56
310.26	374.56
310.49	380.56
310.72	388.56
310.949	401.56
311.179	387.56
311.409	376.56
311.639	377.56
311.868	385.56
312.098	388.56
312.328	378.56
312.557	380.56
312.787	400.56
313.017	405.56
313.246	379.56
313.476	378.56
313.706	390.56
313.935	380.56
314.165	385.56
314.394	397.56
314.624	381.56
314.853	405.56
315.083	391.56
315.312	368.56
315.542	383.56
315.771	378.56
316.001	373.56
316.23	380.56
316.46	379.56
316.689	384.56
316.919	387.56
317.148	391.56
317.377	393.56
317.607	381.56
317.836	386.56
318.065	412.56
318.295	383.56
318.524	391.56
318.753	377.56
318.983	396.56
319.212	381.56
319.441	393.56
319.67	389.56
319.9	400.56
320.129	393.56
320.358	401.56
320.587	403.56
320.816	406.56
321.046	401.56
321.275	401.56
321.504	420.56
321.733	402.56
321.962	374.56
322.191	408.56
322.42	422.56
322.649	427.56
322.878	449.56
323.108	418.56
323.337	450.56
323.566	439.56
323.795	478.56
324.024	507.56
324.253	589.56
324.482	785.56
324.71	1139.56
324.939	1720.56
325.168	1524.56
325.397	796.56
325.626	564.56
325.855	501.56
326.084	483.56
326.313	469.56
326.542	471.56
326.77	481.56
326.999	540.56
327.228	700.56
327.457	1073.56
327.686	1332.56
327.914	923.56
328.143	593.56
328.372	551.56
328.6	530.56
328.829	513.56
329.058	537.56
329.287	523.56
329.515	523.56
329.744	479.56
329.972	477.56
330.201	507.56
330.43	534.56
330.658	559.56
330.887	565.56
331.115	543.56
331.344	517.56
331.572	490.56
331.801	486.56
332.03	495.56
332.258	485.56
332.486	477.56
332.715	486.56
332.943	463.56
333.172	459.56
333.4	469.56
333.629	504.56
333.857	489.56
334.085	518.56
334.314	521.56
334.542	541.56
334.771	561.56
334.999	522.56
335.227	506.56
335.455	477.56
335.684	500.56
335.912	500.56
336.14	480.56
336.369	474.56
336.597	501.56
336.825	477.56
337.053	469.56
337.281	480.56
337.51	475.56
337.738	471.56
337.966	475.56
338.194	484.56
338.422	444.56
338.65	462.56
338.878	441.56
339.106	453.56
339.334	445.56
339.562	468.56
339.79	421.56
340.018	436.56
340.246	454.56
340.474	453.56
340.702	457.56
340.93	442.56
341.158	449.56
341.386	442.56
341.614	451.56
341.842	461.56
342.07	443.56
342.298	429.56
342.526	439.56
342.754	426.56
342.981	438.56
343.209	441.56
343.437	447.56
343.665	462.56
343.893	471.56
344.12	481.56
344.348	495.56
344.576	459.56
344.804	480.56
345.031	456.56
345.259	458.56
345.487	440.56
345.714	439.56
345.942	454.56
346.17	423.56
346.397	427.56
346.625	412.56
346.853	417.56
347.08	441.56
347.308	450.56
347.535	438.56
347.763	448.56
347.99	436.56
348.218	442.56
348.445	437.56
348.673	427.56
348.9	447.56
349.128	433.56
349.355	429.56
349.583	432.56
349.81	416.56
350.037	427.56
350.265	426.56
350.492	428.56
350.72	451.56
350.947	408.56
351.174	437.56
351.402	449.56
351.629	433.56
351.856	444.56
352.083	410.56
352.311	448.56
352.538	451.56
352.765	449.56
352.992	452.56
353.22	447.56
353.447	435.56
353.674	426.56
353.901	441.56
354.128	411.56
354.355	404.56
354.583	416.56
354.81	431.56
355.037	423.56
355.264	408.56
355.491	416.56
355.718	424.56
355.945	421.56
356.172	418.56
356.399	407.56
356.626	407.56
356.853	415.56
357.08	403.56
357.307	440.56
357.534	438.56
357.761	423.56
357.988	420.56
358.215	419.56
358.441	415.56
358.668	420.56
358.895	423.56
359.122	439.56
359.349	443.56
359.576	424.56
359.802	461.56
360.029	468.56
360.256	456.56
360.483	464.56
360.709	446.56
360.936	440.56
361.163	444.56
361.39	447.56
361.616	435.56
361.843	439.56
362.07	435.56
362.296	449.56
362.523	434.56
362.749	444.56
362.976	423.56
363.203	441.56
363.429	421.56
363.656	416.56
363.882	441.56
364.109	429.56
364.335	431.56
364.562	455.56
364.788	438.56
365.015	442.56
365.241	439.56
365.468	431.56
365.694	443.56
365.92	434.56
366.147	442.56
366.373	431.56
366.599	431.56
366.826	418.56
367.052	407.56
367.278	423.56
367.505	439.56
367.731	425.56
367.957	437.56
368.184	437.56
368.41	456.56
368.636	448.56
368.862	433.56
369.089	422.56
369.315	443.56
369.541	443.56
369.767	440.56
369.993	449.56
370.219	443.56
370.445	445.56
370.672	431.56
370.898	427.56
371.124	440.56
371.35	446.56
371.576	437.56
371.802	441.56
372.028	460.56
372.254	423.56
372.48	422.56
372.706	434.56
372.932	429.56
373.158	469.56
373.384	460.56
373.61	439.56
373.835	437.56
374.061	465.56
374.287	472.56
374.513	449.56
374.739	449.56
374.965	456.56
375.191	465.56
375.416	438.56
375.642	448.56
375.868	460.56
376.094	452.56
376.319	469.56
376.545	435.56
376.771	444.56
376.997	456.56
377.222	447.56
377.448	428.56
377.674	457.56
377.899	427.56
378.125	431.56
378.35	433.56
378.576	420.56
378.802	456.56
379.027	453.56
379.253	435.56
379.478	444.56
379.704	424.56
379.929	429.56
380.155	451.56
380.38	420.56
380.606	429.56
380.831	437.56
381.057	455.56
381.282	453.56
381.507	460.56
381.733	433.56
381.958	436.56
382.184	458.56
382.409	442.56
382.634	467.56
382.86	466.56
383.085	444.56
383.31	460.56
383.535	452.56
383.761	470.56
383.986	477.56
384.211	492.56
384.436	485.56
384.662	458.56
384.887	496.56
385.112	492.56
385.337	491.56
385.562	505.56
385.787	484.56
386.013	515.56
386.238	507.56
386.463	513.56
386.688	519.56
386.913	491.56
387.138	482.56
387.363	502.56
387.588	491.56
387.813	500.56
388.038	513.56
388.263	505.56
388.488	490.56
388.713	514.56
388.938	483.56
389.163	502.56
389.387	488.56
389.612	487.56
389.837	493.56
390.062	497.56
390.287	490.56
390.512	482.56
390.736	492.56
390.961	491.56
391.186	491.56
391.411	511.56
391.636	535.56
391.86	529.56
392.085	518.56
392.31	523.56
392.534	521.56
392.759	517.56
392.984	517.56
393.208	501.56
393.433	533.56
393.658	520.56
393.882	516.56
394.107	520.56
394.331	502.56
394.556	491.56
394.78	513.56
395.005	523.56
395.229	493.56
395.454	514.56
395.678	532.56
395.903	536.56
396.127	566.56
396.352	544.56
396.576	509.56
396.801	512.56
397.025	515.56
397.249	516.56
397.474	531.56
397.698	564.56
397.922	537.56
398.147	557.56
398.371	579.56
398.595	558.56
398.82	563.56
399.044	608.56
399.268	616.56
399.492	650.56
399.717	697.56
399.941	740.56
400.165	730.56
400.389	700.56
400.613	682.56
400.837	627.56
401.062	610.56
401.286	560.56
401.51	577.56
401.734	587.56
401.958	594.56
402.182	591.56
402.406	583.56
402.63	592.56
402.854	614.56
403.078	577.56
403.302	608.56
403.526	600.56
403.75	592.56
403.974	619.56
404.198	578.56
404.422	614.56
404.645	661.56
404.869	624.56
405.093	634.56
405.317	666.56
405.541	717.56
405.765	667.56
405.988	645.56
406.212	626.56
406.436	647.56
406.66	663.56
406.883	635.56
407.107	664.56
407.331	747.56
407.555	769.56
407.778	773.56
408.002	717.56
408.226	686.56
408.449	660.56
408.673	633.56
408.896	671.56
409.12	714.56
409.344	673.56
409.567	629.56
409.791	635.56
410.014	607.56
410.238	600.56
410.461	629.56
410.685	625.56
410.908	631.56
411.132	664.56
411.355	688.56
411.578	652.56
411.802	622.56
412.025	625.56
412.249	598.56
412.472	637.56
412.695	668.56
412.919	668.56
413.142	602.56
413.365	601.56
413.589	613.56
413.812	583.56
414.035	561.56
414.258	589.56
414.482	560.56
414.705	581.56
414.928	572.56
415.151	595.56
415.374	569.56
415.597	552.56
415.821	549.56
416.044	563.56
416.267	587.56
416.49	561.56
416.713	569.56
416.936	571.56
417.159	552.56
417.382	561.56
417.605	577.56
417.828	594.56
418.051	596.56
418.274	580.56
418.497	588.56
418.72	588.56
418.943	585.56
419.166	595.56
419.389	619.56
419.611	589.56
419.834	605.56
420.057	623.56
420.28	600.56
420.503	635.56
420.726	600.56
420.948	603.56
421.171	642.56
421.394	646.56
421.617	632.56
421.839	579.56
422.062	599.56
422.285	602.56
422.507	662.56
422.73	757.56
422.953	724.56
423.175	637.56
423.398	623.56
423.621	637.56
423.843	650.56
424.066	671.56
424.288	612.56
424.511	634.56
424.733	695.56
424.956	753.56
425.178	733.56
425.401	734.56
425.623	796.56
425.846	673.56
426.068	640.56
426.291	619.56
426.513	619.56
426.735	635.56
426.958	644.56
427.18	739.56
427.402	891.56
427.625	966.56
427.847	805.56
428.069	697.56
428.292	665.56
428.514	630.56
428.736	593.56
428.958	571.56
429.181	594.56
429.403	601.56
429.625	573.56
429.847	615.56
430.069	688.56
430.292	689.56
430.514	613.56
430.736	587.56
430.958	565.56
431.18	539.56
431.402	540.56
431.624	547.56
431.846	536.56
432.068	546.56
432.29	563.56
432.512	543.56
432.734	554.56
432.956	559.56
433.178	540.56
433.4	579.56
433.622	582.56
433.844	560.56
434.066	562.56
434.287	565.56
434.509	567.56
434.731	579.56
434.953	602.56
435.175	595.56
435.397	620.56
435.618	624.56
435.84	652.56
436.062	745.56
436.284	809.56
436.505	681.56
436.727	654.56
436.949	594.56
437.17	583.56
437.392	580.56
437.614	593.56
437.835	616.56
438.057	697.56
438.278	775.56
438.5	816.56
438.721	876.56
438.943	849.56
439.165	666.56
439.386	614.56
439.608	623.56
439.829	625.56
440.05	636.56
440.272	667.56
440.493	629.56
440.715	601.56
440.936	608.56
441.158	582.56
441.379	584.56
441.6	617.56
441.822	603.56
442.043	644.56
442.264	762.56
442.486	790.56
442.707	676.56
442.928	643.56
443.149	634.56
443.371	673.56
443.592	703.56
443.813	795.56
444.034	859.56
444.255	738.56
444.476	676.56
444.698	651.56
444.919	664.56
445.14	797.56
445.361	723.56
445.582	687.56
445.803	748.56
446.024	824.56
446.245	812.56
446.466	745.56
446.687	666.56
446.908	631.56
447.129	610.56
447.35	571.56
447.571	593.56
447.792	591.56
448.013	574.56
448.234	582.56
448.455	630.56
448.675	748.56
448.896	881.56
449.117	738.56
449.338	684.56
449.559	794.56
449.779	897.56
450	716.56
450.221	605.56
450.442	570.56
450.662	541.56
450.883	548.56
451.104	561.56
451.324	546.56
451.545	546.56
451.766	525.56
451.986	516.56
452.207	476.56
452.428	527.56
452.648	507.56
452.869	519.56
453.089	513.56
453.31	531.56
453.53	539.56
453.751	491.56
453.971	511.56
454.192	543.56
454.412	482.56
454.633	489.56
454.853	497.56
455.073	493.56
455.294	529.56
455.514	603.56
455.734	582.56
455.955	514.56
456.175	477.56
456.395	485.56
456.616	476.56
456.836	479.56
457.056	473.56
457.276	464.56
457.497	479.56
457.717	472.56
457.937	480.56
458.157	489.56
458.377	489.56
458.598	520.56
458.818	567.56
459.038	637.56
459.258	652.56
459.478	577.56
459.698	573.56
459.918	542.56
460.138	560.56
460.358	556.56
460.578	569.56
460.798	600.56
461.018	601.56
461.238	589.56
461.458	583.56
461.678	548.56
461.898	570.56
462.118	589.56
462.338	603.56
462.558	626.56
462.777	623.56
462.997	653.56
463.217	644.56
463.437	677.56
463.657	634.56
463.876	633.56
464.096	617.56
464.316	620.56
464.536	631.56
464.755	639.56
464.975	611.56
465.195	612.56
465.414	691.56
465.634	618.56
465.854	575.56
466.073	575.56
466.293	530.56
466.512	547.56
466.732	511.56
466.951	526.56
467.171	543.56
467.391	540.56
467.61	543.56
467.829	544.56
468.049	545.56
468.268	525.56
468.488	529.56
468.707	503.56
468.927	538.56
469.146	516.56
469.365	530.56
469.585	539.56
469.804	522.56
470.023	526.56
470.243	552.56
470.462	538.56
470.681	561.56
470.901	570.56
471.12	533.56
471.339	549.56
471.558	524.56
471.777	534.56
471.997	557.56
472.216	520.56
472.435	529.56
472.654	533.56
472.873	542.56
473.092	526.56
473.311	532.56
473.53	522.56
473.749	545.56
473.968	577.56
474.187	664.56
474.406	703.56
474.625	592.56
474.844	569.56
475.063	557.56
475.282	549.56
475.501	555.56
475.72	545.56
475.939	529.56
476.158	561.56
476.377	562.56
476.596	553.56
476.814	527.56
477.033	548.56
477.252	575.56
477.471	564.56
477.69	574.56
477.908	583.56
478.127	601.56
478.346	610.56
478.564	600.56
478.783	590.56
479.002	626.56
479.22	607.56
479.439	654.56
479.658	646.56
479.876	636.56
480.095	665.56
480.313	679.56
480.532	676.56
480.751	657.56
480.969	673.56
481.188	736.56
481.406	733.56
481.624	681.56
481.843	642.56
482.061	645.56
482.28	628.56
482.498	633.56
482.717	611.56
482.935	619.56
483.153	638.56
483.372	632.56
483.59	635.56
483.808	632.56
484.027	611.56
484.245	639.56
484.463	670.56
484.681	654.56
484.9	653.56
485.118	635.56
485.336	639.56
485.554	635.56
485.772	672.56
485.99	659.56
486.209	652.56
486.427	650.56
486.645	665.56
486.863	673.56
487.081	661.56
487.299	675.56
487.517	661.56
487.735	675.56
487.953	686.56
488.171	679.56
488.389	652.56
488.607	665.56
488.825	656.56
489.043	673.56
489.261	673.56
489.479	688.56
489.696	687.56
489.914	721.56
490.132	700.56
490.35	721.56
490.568	709.56
490.786	740.56
491.003	716.56
491.221	729.56
491.439	772.56
491.657	769.56
491.874	771.56
492.092	794.56
492.31	786.56
492.527	788.56
492.745	745.56
492.963	809.56
493.18	799.56
493.398	803.56
493.615	817.56
493.833	802.56
494.05	809.56
494.268	807.56
494.485	805.56
494.703	821.56
494.92	772.56
495.138	804.56
495.355	830.56
495.573	811.56
495.79	803.56
496.008	808.56
496.225	794.56
496.442	808.56
496.66	800.56
496.877	792.56
497.094	817.56
497.312	836.56
497.529	815.56
497.746	848.56
497.963	865.56
498.181	903.56
498.398	883.56
498.615	910.56
498.832	944.56
499.049	994.56
499.267	998.56
499.484	1039.56
499.701	1092.56
499.918	1133.56
500.135	1201.56
500.352	1259.56
500.569	1296.56
500.786	1299.56
501.003	1257.56
501.22	1183.56
501.437	1153.56
501.654	1119.56
