Data from 1974.PennyLincolnUp.Lamp.En5.5.200Scan.071719.P1.Changed Mount._HRD10591_15-51-30-856.txt Node
Date: Thu Jul 18 15:51:30 EDT 2019
User: cochatt
Spectrometer: HR+D1059
Trigger mode: 1
Integration Time (sec): 1.000000E-1
Scans to average: 1
Electric dark correction enabled: true
Nonlinearity correction enabled: false
Boxcar width: 0
XAxis mode: Wavelengths
Number of Pixels in Spectrum: 2048
>>>>>Begin Spectral Data<<<<<
223.165	-19.81
223.4	-19.81
223.635	-19.81
223.869	-11.81
224.104	-28.81
224.338	-0.81
224.573	-23.81
224.808	-18.81
225.042	-12.81
225.277	-2.81
225.511	7.19
225.746	4.19
225.98	0.19
226.215	17.19
226.449	18.19
226.683	32.19
226.918	19.19
227.152	21.19
227.387	33.19
227.621	28.19
227.856	44.19
228.09	36.19
228.324	44.19
228.559	63.19
228.793	55.19
229.027	89.19
229.262	106.19
229.496	109.19
229.73	127.19
229.964	139.19
230.199	122.19
230.433	109.19
230.667	104.19
230.901	113.19
231.136	107.19
231.37	104.19
231.604	109.19
231.838	109.19
232.072	104.19
232.306	112.19
232.541	117.19
232.775	98.19
233.009	121.19
233.243	113.19
233.477	102.19
233.711	133.19
233.945	118.19
234.179	109.19
234.413	120.19
234.647	102.19
234.881	122.19
235.115	123.19
235.349	121.19
235.583	116.19
235.817	123.19
236.051	116.19
236.285	124.19
236.519	133.19
236.753	124.19
236.987	143.19
237.221	171.19
237.455	208.19
237.689	172.19
237.922	151.19
238.156	127.19
238.39	142.19
238.624	128.19
238.858	113.19
239.091	126.19
239.325	124.19
239.559	118.19
239.793	134.19
240.027	140.19
240.26	137.19
240.494	151.19
240.728	160.19
240.961	159.19
241.195	139.19
241.429	159.19
241.662	149.19
241.896	137.19
242.13	139.19
242.363	135.19
242.597	134.19
242.83	161.19
243.064	139.19
243.298	142.19
243.531	152.19
243.765	140.19
243.998	140.19
244.232	140.19
244.465	150.19
244.699	149.19
244.932	145.19
245.166	140.19
245.399	152.19
245.633	147.19
245.866	156.19
246.099	138.19
246.333	158.19
246.566	141.19
246.8	145.19
247.033	160.19
247.266	159.19
247.5	156.19
247.733	167.19
247.966	176.19
248.2	182.19
248.433	178.19
248.666	164.19
248.899	190.19
249.133	187.19
249.366	192.19
249.599	189.19
249.832	185.19
250.066	180.19
250.299	190.19
250.532	198.19
250.765	210.19
250.998	224.19
251.231	208.19
251.465	223.19
251.698	207.19
251.931	197.19
252.164	195.19
252.397	194.19
252.63	201.19
252.863	188.19
253.096	209.19
253.329	199.19
253.562	211.19
253.795	216.19
254.028	210.19
254.261	219.19
254.494	215.19
254.727	227.19
254.96	248.19
255.193	259.19
255.426	247.19
255.659	220.19
255.892	221.19
256.124	218.19
256.357	220.19
256.59	222.19
256.823	208.19
257.056	224.19
257.289	183.19
257.521	231.19
257.754	203.19
257.987	201.19
258.22	221.19
258.452	203.19
258.685	204.19
258.918	202.19
259.151	200.19
259.383	232.19
259.616	235.19
259.849	197.19
260.081	239.19
260.314	256.19
260.547	241.19
260.779	239.19
261.012	239.19
261.244	226.19
261.477	218.19
261.71	227.19
261.942	243.19
262.175	223.19
262.407	222.19
262.64	211.19
262.872	198.19
263.105	218.19
263.337	214.19
263.57	213.19
263.802	213.19
264.035	219.19
264.267	229.19
264.499	199.19
264.732	231.19
264.964	222.19
265.197	227.19
265.429	221.19
265.661	223.19
265.894	211.19
266.126	227.19
266.358	222.19
266.591	221.19
266.823	227.19
267.055	223.19
267.287	240.19
267.52	240.19
267.752	240.19
267.984	218.19
268.216	233.19
268.448	241.19
268.681	239.19
268.913	261.19
269.145	254.19
269.377	285.19
269.609	257.19
269.841	272.19
270.073	267.19
270.306	299.19
270.538	319.19
270.77	295.19
271.002	306.19
271.234	260.19
271.466	283.19
271.698	307.19
271.93	286.19
272.162	307.19
272.394	319.19
272.626	285.19
272.858	280.19
273.09	291.19
273.322	269.19
273.553	253.19
273.785	257.19
274.017	262.19
274.249	245.19
274.481	259.19
274.713	253.19
274.945	273.19
275.176	269.19
275.408	253.19
275.64	268.19
275.872	255.19
276.104	271.19
276.335	265.19
276.567	275.19
276.799	281.19
277.031	291.19
277.262	306.19
277.494	309.19
277.726	301.19
277.957	280.19
278.189	301.19
278.421	287.19
278.652	266.19
278.884	285.19
279.115	269.19
279.347	281.19
279.579	291.19
279.81	274.19
280.042	272.19
280.273	278.19
280.505	261.19
280.736	258.19
280.968	269.19
281.199	267.19
281.431	265.19
281.662	259.19
281.894	287.19
282.125	279.19
282.356	285.19
282.588	297.19
282.819	304.19
283.051	298.19
283.282	289.19
283.513	281.19
283.745	283.19
283.976	288.19
284.207	277.19
284.439	296.19
284.67	298.19
284.901	292.19
285.132	293.19
285.364	284.19
285.595	312.19
285.826	286.19
286.057	289.19
286.288	297.19
286.52	291.19
286.751	284.19
286.982	276.19
287.213	304.19
287.444	305.19
287.675	296.19
287.906	294.19
288.138	311.19
288.369	310.19
288.6	315.19
288.831	316.19
289.062	286.19
289.293	296.19
289.524	312.19
289.755	290.19
289.986	287.19
290.217	292.19
290.448	305.19
290.679	282.19
290.91	303.19
291.141	293.19
291.371	317.19
291.602	297.19
291.833	289.19
292.064	304.19
292.295	294.19
292.526	295.19
292.757	299.19
292.987	285.19
293.218	284.19
293.449	290.19
293.68	322.19
293.91	290.19
294.141	284.19
294.372	300.19
294.603	311.19
294.833	291.19
295.064	288.19
295.295	304.19
295.525	316.19
295.756	306.19
295.987	296.19
296.217	326.19
296.448	329.19
296.679	315.19
296.909	295.19
297.14	308.19
297.37	305.19
297.601	309.19
297.831	306.19
298.062	330.19
298.292	307.19
298.523	286.19
298.753	315.19
298.984	310.19
299.214	315.19
299.445	321.19
299.675	331.19
299.905	323.19
300.136	324.19
300.366	322.19
300.597	325.19
300.827	312.19
301.057	331.19
301.288	340.19
301.518	345.19
301.748	330.19
301.979	352.19
302.209	331.19
302.439	336.19
302.669	325.19
302.9	336.19
303.13	339.19
303.36	320.19
303.59	347.19
303.82	340.19
304.051	359.19
304.281	326.19
304.511	342.19
304.741	340.19
304.971	314.19
305.201	326.19
305.431	340.19
305.661	352.19
305.891	326.19
306.121	322.19
306.352	352.19
306.582	339.19
306.812	325.19
307.042	348.19
307.272	336.19
307.502	338.19
307.731	351.19
307.961	362.19
308.191	348.19
308.421	332.19
308.651	338.19
308.881	346.19
309.111	344.19
309.341	365.19
309.571	369.19
309.8	351.19
310.03	360.19
310.26	353.19
310.49	377.19
310.72	343.19
310.949	371.19
311.179	385.19
311.409	365.19
311.639	365.19
311.868	377.19
312.098	368.19
312.328	380.19
312.557	372.19
312.787	385.19
313.017	383.19
313.246	375.19
313.476	375.19
313.706	370.19
313.935	364.19
314.165	378.19
314.394	399.19
314.624	388.19
314.853	387.19
315.083	386.19
315.312	378.19
315.542	368.19
315.771	385.19
316.001	368.19
316.23	389.19
316.46	388.19
316.689	360.19
316.919	385.19
317.148	373.19
317.377	372.19
317.607	380.19
317.836	372.19
318.065	398.19
318.295	376.19
318.524	375.19
318.753	387.19
318.983	374.19
319.212	379.19
319.441	356.19
319.67	360.19
319.9	375.19
320.129	383.19
320.358	385.19
320.587	384.19
320.816	379.19
321.046	372.19
321.275	402.19
321.504	378.19
321.733	386.19
321.962	423.19
322.191	398.19
322.42	409.19
322.649	420.19
322.878	411.19
323.108	415.19
323.337	414.19
323.566	448.19
323.795	467.19
324.024	491.19
324.253	541.19
324.482	725.19
324.71	1102.19
324.939	1593.19
325.168	1442.19
325.397	755.19
325.626	545.19
325.855	488.19
326.084	443.19
326.313	457.19
326.542	446.19
326.77	465.19
326.999	549.19
327.228	685.19
327.457	991.19
327.686	1247.19
327.914	830.19
328.143	593.19
328.372	525.19
328.6	503.19
328.829	512.19
329.058	496.19
329.287	505.19
329.515	488.19
329.744	476.19
329.972	467.19
330.201	472.19
330.43	492.19
330.658	504.19
330.887	525.19
331.115	529.19
331.344	489.19
331.572	443.19
331.801	465.19
332.03	483.19
332.258	462.19
332.486	473.19
332.715	427.19
332.943	475.19
333.172	484.19
333.4	468.19
333.629	467.19
333.857	499.19
334.085	498.19
334.314	495.19
334.542	515.19
334.771	513.19
334.999	484.19
335.227	498.19
335.455	474.19
335.684	474.19
335.912	459.19
336.14	464.19
336.369	467.19
336.597	438.19
336.825	439.19
337.053	450.19
337.281	459.19
337.51	454.19
337.738	441.19
337.966	434.19
338.194	456.19
338.422	455.19
338.65	460.19
338.878	435.19
339.106	434.19
339.334	427.19
339.562	428.19
339.79	431.19
340.018	416.19
340.246	427.19
340.474	444.19
340.702	435.19
340.93	420.19
341.158	409.19
341.386	460.19
341.614	429.19
341.842	447.19
342.07	448.19
342.298	424.19
342.526	421.19
342.754	440.19
342.981	425.19
343.209	433.19
343.437	426.19
343.665	456.19
343.893	487.19
344.12	449.19
344.348	451.19
344.576	449.19
344.804	447.19
345.031	471.19
345.259	419.19
345.487	436.19
345.714	428.19
345.942	410.19
346.17	414.19
346.397	419.19
346.625	427.19
346.853	414.19
347.08	401.19
347.308	440.19
347.535	436.19
347.763	431.19
347.99	421.19
348.218	439.19
348.445	428.19
348.673	425.19
348.9	435.19
349.128	408.19
349.355	433.19
349.583	416.19
349.81	417.19
350.037	414.19
350.265	398.19
350.492	443.19
350.72	408.19
350.947	417.19
351.174	411.19
351.402	423.19
351.629	400.19
351.856	416.19
352.083	431.19
352.311	431.19
352.538	418.19
352.765	424.19
352.992	421.19
353.22	421.19
353.447	428.19
353.674	421.19
353.901	420.19
354.128	390.19
354.355	403.19
354.583	412.19
354.81	410.19
355.037	400.19
355.264	419.19
355.491	409.19
355.718	393.19
355.945	400.19
356.172	411.19
356.399	389.19
356.626	398.19
356.853	420.19
357.08	423.19
357.307	421.19
357.534	382.19
357.761	401.19
357.988	401.19
358.215	402.19
358.441	421.19
358.668	411.19
358.895	416.19
359.122	435.19
359.349	421.19
359.576	448.19
359.802	444.19
360.029	441.19
360.256	456.19
360.483	448.19
360.709	408.19
360.936	404.19
361.163	418.19
361.39	424.19
361.616	426.19
361.843	420.19
362.07	421.19
362.296	445.19
362.523	403.19
362.749	435.19
362.976	425.19
363.203	435.19
363.429	412.19
363.656	415.19
363.882	420.19
364.109	399.19
364.335	410.19
364.562	415.19
364.788	417.19
365.015	425.19
365.241	404.19
365.468	407.19
365.694	415.19
365.92	432.19
366.147	412.19
366.373	426.19
366.599	408.19
366.826	404.19
367.052	407.19
367.278	379.19
367.505	412.19
367.731	414.19
367.957	423.19
368.184	396.19
368.41	445.19
368.636	443.19
368.862	437.19
369.089	435.19
369.315	413.19
369.541	424.19
369.767	413.19
369.993	413.19
370.219	420.19
370.445	424.19
370.672	409.19
370.898	405.19
371.124	417.19
371.35	431.19
371.576	423.19
371.802	421.19
372.028	428.19
372.254	436.19
372.48	433.19
372.706	456.19
372.932	418.19
373.158	454.19
373.384	429.19
373.61	433.19
373.835	420.19
374.061	435.19
374.287	437.19
374.513	431.19
374.739	449.19
374.965	441.19
375.191	424.19
375.416	441.19
375.642	441.19
375.868	447.19
376.094	427.19
376.319	432.19
376.545	439.19
376.771	432.19
376.997	426.19
377.222	433.19
377.448	439.19
377.674	406.19
377.899	403.19
378.125	413.19
378.35	404.19
378.576	424.19
378.802	427.19
379.027	421.19
379.253	427.19
379.478	441.19
379.704	431.19
379.929	445.19
380.155	422.19
380.38	421.19
380.606	433.19
380.831	417.19
381.057	440.19
381.282	418.19
381.507	438.19
381.733	418.19
381.958	458.19
382.184	423.19
382.409	441.19
382.634	449.19
382.86	439.19
383.085	468.19
383.31	470.19
383.535	453.19
383.761	472.19
383.986	451.19
384.211	445.19
384.436	450.19
384.662	479.19
384.887	470.19
385.112	462.19
385.337	483.19
385.562	476.19
385.787	467.19
386.013	478.19
386.238	483.19
386.463	508.19
386.688	463.19
386.913	469.19
387.138	484.19
387.363	474.19
387.588	475.19
387.813	503.19
388.038	481.19
388.263	500.19
388.488	505.19
388.713	490.19
388.938	476.19
389.163	487.19
389.387	496.19
389.612	459.19
389.837	469.19
390.062	479.19
390.287	482.19
390.512	481.19
390.736	480.19
390.961	485.19
391.186	471.19
391.411	491.19
391.636	500.19
391.86	497.19
392.085	505.19
392.31	517.19
392.534	468.19
392.759	487.19
392.984	492.19
393.208	492.19
393.433	502.19
393.658	516.19
393.882	488.19
394.107	514.19
394.331	486.19
394.556	482.19
394.78	483.19
395.005	509.19
395.229	511.19
395.454	489.19
395.678	511.19
395.903	527.19
396.127	559.19
396.352	539.19
396.576	499.19
396.801	501.19
397.025	516.19
397.249	498.19
397.474	519.19
397.698	530.19
397.922	515.19
398.147	548.19
398.371	561.19
398.595	555.19
398.82	549.19
399.044	590.19
399.268	596.19
399.492	635.19
399.717	675.19
399.941	698.19
400.165	719.19
400.389	691.19
400.613	630.19
400.837	599.19
401.062	583.19
401.286	565.19
401.51	578.19
401.734	576.19
401.958	551.19
402.182	568.19
402.406	580.19
402.63	572.19
402.854	571.19
403.078	576.19
403.302	585.19
403.526	592.19
403.75	583.19
403.974	585.19
404.198	587.19
404.422	602.19
404.645	591.19
404.869	576.19
405.093	618.19
405.317	664.19
405.541	701.19
405.765	671.19
405.988	609.19
406.212	626.19
406.436	633.19
406.66	638.19
406.883	621.19
407.107	641.19
407.331	711.19
407.555	755.19
407.778	761.19
408.002	721.19
408.226	664.19
408.449	653.19
408.673	625.19
408.896	660.19
409.12	695.19
409.344	643.19
409.567	601.19
409.791	615.19
410.014	584.19
410.238	583.19
410.461	593.19
410.685	604.19
410.908	606.19
411.132	604.19
411.355	650.19
411.578	642.19
411.802	612.19
412.025	601.19
412.249	567.19
412.472	616.19
412.695	659.19
412.919	636.19
413.142	602.19
413.365	564.19
413.589	574.19
413.812	565.19
414.035	580.19
414.258	556.19
414.482	552.19
414.705	541.19
414.928	567.19
415.151	563.19
415.374	563.19
415.597	532.19
415.821	556.19
416.044	541.19
416.267	547.19
416.49	568.19
416.713	537.19
416.936	553.19
417.159	548.19
417.382	551.19
417.605	547.19
417.828	572.19
418.051	576.19
418.274	569.19
418.497	577.19
418.72	579.19
418.943	578.19
419.166	572.19
419.389	620.19
419.611	597.19
419.834	613.19
420.057	605.19
420.28	594.19
420.503	606.19
420.726	578.19
420.948	606.19
421.171	623.19
421.394	683.19
421.617	585.19
421.839	591.19
422.062	591.19
422.285	597.19
422.507	647.19
422.73	707.19
422.953	682.19
423.175	612.19
423.398	602.19
423.621	611.19
423.843	666.19
424.066	627.19
424.288	637.19
424.511	633.19
424.733	666.19
424.956	742.19
425.178	721.19
425.401	718.19
425.623	729.19
425.846	646.19
426.068	615.19
426.291	590.19
426.513	616.19
426.735	606.19
426.958	674.19
427.18	716.19
427.402	879.19
427.625	937.19
427.847	766.19
428.069	673.19
428.292	631.19
428.514	575.19
428.736	579.19
428.958	580.19
429.181	564.19
429.403	541.19
429.625	558.19
429.847	575.19
430.069	648.19
430.292	656.19
430.514	577.19
430.736	537.19
430.958	558.19
431.18	553.19
431.402	524.19
431.624	561.19
431.846	552.19
432.068	502.19
432.29	544.19
432.512	554.19
432.734	558.19
432.956	556.19
433.178	551.19
433.4	554.19
433.622	540.19
433.844	540.19
434.066	560.19
434.287	524.19
434.509	547.19
434.731	559.19
434.953	561.19
435.175	588.19
435.397	610.19
435.618	619.19
435.84	629.19
436.062	719.19
436.284	775.19
436.505	663.19
436.727	597.19
436.949	561.19
437.17	572.19
437.392	560.19
437.614	551.19
437.835	609.19
438.057	650.19
438.278	777.19
438.5	771.19
438.721	881.19
438.943	807.19
439.165	683.19
439.386	608.19
439.608	618.19
439.829	595.19
440.05	636.19
440.272	669.19
440.493	611.19
440.715	572.19
440.936	580.19
441.158	575.19
441.379	572.19
441.6	575.19
441.822	606.19
442.043	635.19
442.264	730.19
442.486	768.19
442.707	645.19
442.928	620.19
443.149	616.19
443.371	652.19
443.592	700.19
443.813	786.19
444.034	843.19
444.255	741.19
444.476	645.19
444.698	628.19
444.919	644.19
445.14	758.19
445.361	713.19
445.582	645.19
445.803	701.19
446.024	822.19
446.245	800.19
446.466	735.19
446.687	629.19
446.908	590.19
447.129	575.19
447.35	549.19
447.571	581.19
447.792	537.19
448.013	535.19
448.234	563.19
448.455	604.19
448.675	701.19
448.896	825.19
449.117	740.19
449.338	650.19
449.559	772.19
449.779	873.19
450	698.19
450.221	597.19
450.442	541.19
450.662	536.19
450.883	529.19
451.104	532.19
451.324	539.19
451.545	529.19
451.766	505.19
451.986	490.19
452.207	487.19
452.428	490.19
452.648	483.19
452.869	481.19
453.089	481.19
453.31	500.19
453.53	484.19
453.751	505.19
453.971	503.19
454.192	488.19
454.412	503.19
454.633	490.19
454.853	469.19
455.073	470.19
455.294	499.19
455.514	582.19
455.734	582.19
455.955	502.19
456.175	482.19
456.395	480.19
456.616	489.19
456.836	479.19
457.056	479.19
457.276	452.19
457.497	459.19
457.717	457.19
457.937	484.19
458.157	471.19
458.377	491.19
458.598	507.19
458.818	534.19
459.038	612.19
459.258	647.19
459.478	559.19
459.698	529.19
459.918	513.19
460.138	551.19
460.358	546.19
460.578	582.19
460.798	565.19
461.018	566.19
461.238	569.19
461.458	568.19
461.678	541.19
461.898	567.19
462.118	549.19
462.338	565.19
462.558	590.19
462.777	610.19
462.997	629.19
463.217	651.19
463.437	645.19
463.657	621.19
463.876	624.19
464.096	631.19
464.316	605.19
464.536	586.19
464.755	594.19
464.975	608.19
465.195	610.19
465.414	624.19
465.634	602.19
465.854	557.19
466.073	547.19
466.293	542.19
466.512	512.19
466.732	517.19
466.951	511.19
467.171	528.19
467.391	518.19
467.61	510.19
467.829	530.19
468.049	506.19
468.268	512.19
468.488	485.19
468.707	495.19
468.927	497.19
469.146	508.19
469.365	503.19
469.585	502.19
469.804	511.19
470.023	528.19
470.243	523.19
470.462	529.19
470.681	496.19
470.901	550.19
471.12	539.19
471.339	527.19
471.558	525.19
471.777	520.19
471.997	500.19
472.216	534.19
472.435	519.19
472.654	503.19
472.873	512.19
473.092	535.19
473.311	533.19
473.53	533.19
473.749	522.19
473.968	551.19
474.187	658.19
474.406	683.19
474.625	564.19
474.844	535.19
475.063	507.19
475.282	517.19
475.501	524.19
475.72	533.19
475.939	543.19
476.158	536.19
476.377	537.19
476.596	552.19
476.814	537.19
477.033	569.19
477.252	543.19
477.471	536.19
477.69	562.19
477.908	590.19
478.127	580.19
478.346	559.19
478.564	584.19
478.783	597.19
479.002	611.19
479.22	609.19
479.439	626.19
479.658	620.19
479.876	623.19
480.095	661.19
480.313	637.19
480.532	656.19
480.751	627.19
480.969	623.19
481.188	649.19
481.406	704.19
481.624	651.19
481.843	631.19
482.061	588.19
482.28	605.19
482.498	584.19
482.717	627.19
482.935	588.19
483.153	618.19
483.372	612.19
483.59	626.19
483.808	613.19
484.027	613.19
484.245	601.19
484.463	599.19
484.681	630.19
484.9	615.19
485.118	643.19
485.336	603.19
485.554	625.19
485.772	633.19
485.99	615.19
486.209	629.19
486.427	631.19
486.645	629.19
486.863	673.19
487.081	674.19
487.299	653.19
487.517	665.19
487.735	629.19
487.953	653.19
488.171	663.19
488.389	642.19
488.607	651.19
488.825	665.19
489.043	660.19
489.261	650.19
489.479	690.19
489.696	695.19
489.914	665.19
490.132	648.19
490.35	676.19
490.568	719.19
490.786	684.19
491.003	714.19
491.221	729.19
491.439	737.19
491.657	720.19
491.874	737.19
492.092	756.19
492.31	759.19
492.527	755.19
492.745	767.19
492.963	770.19
493.18	733.19
493.398	797.19
493.615	787.19
493.833	782.19
494.05	792.19
494.268	769.19
494.485	778.19
494.703	772.19
494.92	773.19
495.138	763.19
495.355	769.19
495.573	795.19
495.79	772.19
496.008	780.19
496.225	791.19
496.442	773.19
496.66	769.19
496.877	784.19
497.094	788.19
497.312	824.19
497.529	787.19
497.746	817.19
497.963	823.19
498.181	872.19
498.398	857.19
498.615	903.19
498.832	927.19
499.049	909.19
499.267	980.19
499.484	985.19
499.701	1034.19
499.918	1075.19
500.135	1155.19
500.352	1209.19
500.569	1269.19
500.786	1283.19
501.003	1249.19
501.22	1154.19
501.437	1089.19
501.654	1109.19
