Data from 1974.PennyLincolnUp.Lamp.En5.5.200Scan.071719.P1.Changed Mount._HRD10591_15-53-09-857.txt Node
Date: Thu Jul 18 15:53:09 EDT 2019
User: cochatt
Spectrometer: HR+D1059
Trigger mode: 1
Integration Time (sec): 1.000000E-1
Scans to average: 1
Electric dark correction enabled: true
Nonlinearity correction enabled: false
Boxcar width: 0
XAxis mode: Wavelengths
Number of Pixels in Spectrum: 2048
>>>>>Begin Spectral Data<<<<<
223.165	-19.88
223.4	-19.88
223.635	-19.88
223.869	-12.88
224.104	-13.88
224.338	-13.88
224.573	-7.88
224.808	-17.88
225.042	-10.88
225.277	-12.88
225.511	6.12
225.746	8.12
225.98	18.12
226.215	4.12
226.449	4.12
226.683	19.12
226.918	28.12
227.152	22.12
227.387	31.12
227.621	36.12
227.856	30.12
228.09	40.12
228.324	52.12
228.559	61.12
228.793	66.12
229.027	111.12
229.262	121.12
229.496	116.12
229.73	131.12
229.964	160.12
230.199	136.12
230.433	103.12
230.667	130.12
230.901	118.12
231.136	117.12
231.37	119.12
231.604	119.12
231.838	99.12
232.072	114.12
232.306	116.12
232.541	124.12
232.775	122.12
233.009	126.12
233.243	117.12
233.477	129.12
233.711	116.12
233.945	107.12
234.179	111.12
234.413	117.12
234.647	117.12
234.881	129.12
235.115	118.12
235.349	122.12
235.583	127.12
235.817	115.12
236.051	135.12
236.285	156.12
236.519	119.12
236.753	135.12
236.987	144.12
237.221	187.12
237.455	241.12
237.689	202.12
237.922	148.12
238.156	142.12
238.39	150.12
238.624	133.12
238.858	132.12
239.091	132.12
239.325	131.12
239.559	145.12
239.793	119.12
240.027	147.12
240.26	138.12
240.494	170.12
240.728	163.12
240.961	153.12
241.195	141.12
241.429	151.12
241.662	137.12
241.896	142.12
242.13	134.12
242.363	132.12
242.597	136.12
242.83	150.12
243.064	140.12
243.298	149.12
243.531	142.12
243.765	142.12
243.998	136.12
244.232	159.12
244.465	142.12
244.699	158.12
244.932	154.12
245.166	145.12
245.399	148.12
245.633	151.12
245.866	145.12
246.099	134.12
246.333	154.12
246.566	151.12
246.8	162.12
247.033	169.12
247.266	163.12
247.5	158.12
247.733	178.12
247.966	189.12
248.2	176.12
248.433	174.12
248.666	183.12
248.899	196.12
249.133	206.12
249.366	207.12
249.599	219.12
249.832	202.12
250.066	191.12
250.299	195.12
250.532	201.12
250.765	206.12
250.998	214.12
251.231	243.12
251.465	221.12
251.698	221.12
251.931	216.12
252.164	225.12
252.397	204.12
252.63	206.12
252.863	223.12
253.096	238.12
253.329	247.12
253.562	247.12
253.795	230.12
254.028	222.12
254.261	229.12
254.494	246.12
254.727	262.12
254.96	291.12
255.193	262.12
255.426	263.12
255.659	258.12
255.892	228.12
256.124	243.12
256.357	267.12
256.59	212.12
256.823	264.12
257.056	231.12
257.289	224.12
257.521	227.12
257.754	220.12
257.987	221.12
258.22	228.12
258.452	207.12
258.685	213.12
258.918	215.12
259.151	218.12
259.383	232.12
259.616	235.12
259.849	231.12
260.081	253.12
260.314	278.12
260.547	289.12
260.779	247.12
261.012	229.12
261.244	238.12
261.477	239.12
261.71	236.12
261.942	228.12
262.175	218.12
262.407	236.12
262.64	233.12
262.872	209.12
263.105	230.12
263.337	223.12
263.57	231.12
263.802	227.12
264.035	232.12
264.267	218.12
264.499	237.12
264.732	227.12
264.964	226.12
265.197	224.12
265.429	234.12
265.661	217.12
265.894	229.12
266.126	232.12
266.358	235.12
266.591	240.12
266.823	241.12
267.055	224.12
267.287	219.12
267.52	239.12
267.752	233.12
267.984	228.12
268.216	256.12
268.448	250.12
268.681	254.12
268.913	251.12
269.145	286.12
269.377	291.12
269.609	274.12
269.841	285.12
270.073	299.12
270.306	317.12
270.538	333.12
270.77	332.12
271.002	323.12
271.234	306.12
271.466	311.12
271.698	315.12
271.93	342.12
272.162	318.12
272.394	336.12
272.626	335.12
272.858	315.12
273.09	320.12
273.322	278.12
273.553	277.12
273.785	292.12
274.017	282.12
274.249	267.12
274.481	270.12
274.713	290.12
274.945	278.12
275.176	286.12
275.408	294.12
275.64	288.12
275.872	282.12
276.104	288.12
276.335	301.12
276.567	305.12
276.799	306.12
277.031	325.12
277.262	322.12
277.494	351.12
277.726	326.12
277.957	310.12
278.189	309.12
278.421	285.12
278.652	313.12
278.884	326.12
279.115	308.12
279.347	272.12
279.579	284.12
279.81	281.12
280.042	282.12
280.273	299.12
280.505	310.12
280.736	283.12
280.968	283.12
281.199	281.12
281.431	306.12
281.662	293.12
281.894	298.12
282.125	280.12
282.356	300.12
282.588	313.12
282.819	329.12
283.051	314.12
283.282	296.12
283.513	303.12
283.745	306.12
283.976	306.12
284.207	313.12
284.439	295.12
284.67	288.12
284.901	322.12
285.132	320.12
285.364	321.12
285.595	301.12
285.826	301.12
286.057	323.12
286.288	303.12
286.52	301.12
286.751	315.12
286.982	304.12
287.213	315.12
287.444	310.12
287.675	311.12
287.906	319.12
288.138	330.12
288.369	323.12
288.6	341.12
288.831	319.12
289.062	323.12
289.293	329.12
289.524	314.12
289.755	317.12
289.986	300.12
290.217	322.12
290.448	292.12
290.679	314.12
290.91	318.12
291.141	326.12
291.371	324.12
291.602	332.12
291.833	324.12
292.064	330.12
292.295	301.12
292.526	324.12
292.757	324.12
292.987	303.12
293.218	325.12
293.449	334.12
293.68	308.12
293.91	309.12
294.141	322.12
294.372	318.12
294.603	303.12
294.833	303.12
295.064	326.12
295.295	326.12
295.525	319.12
295.756	329.12
295.987	340.12
296.217	339.12
296.448	367.12
296.679	350.12
296.909	348.12
297.14	318.12
297.37	331.12
297.601	343.12
297.831	339.12
298.062	332.12
298.292	342.12
298.523	333.12
298.753	346.12
298.984	342.12
299.214	339.12
299.445	340.12
299.675	339.12
299.905	345.12
300.136	332.12
300.366	325.12
300.597	341.12
300.827	347.12
301.057	342.12
301.288	362.12
301.518	358.12
301.748	347.12
301.979	362.12
302.209	360.12
302.439	348.12
302.669	352.12
302.9	346.12
303.13	347.12
303.36	358.12
303.59	356.12
303.82	364.12
304.051	359.12
304.281	351.12
304.511	375.12
304.741	351.12
304.971	364.12
305.201	368.12
305.431	346.12
305.661	363.12
305.891	362.12
306.121	355.12
306.352	344.12
306.582	358.12
306.812	351.12
307.042	384.12
307.272	377.12
307.502	346.12
307.731	362.12
307.961	365.12
308.191	358.12
308.421	363.12
308.651	358.12
308.881	347.12
309.111	380.12
309.341	365.12
309.571	374.12
309.8	383.12
310.03	377.12
310.26	406.12
310.49	384.12
310.72	402.12
310.949	408.12
311.179	434.12
311.409	406.12
311.639	368.12
311.868	401.12
312.098	386.12
312.328	418.12
312.557	407.12
312.787	423.12
313.017	406.12
313.246	401.12
313.476	398.12
313.706	413.12
313.935	397.12
314.165	424.12
314.394	420.12
314.624	420.12
314.853	419.12
315.083	412.12
315.312	409.12
315.542	393.12
315.771	385.12
316.001	405.12
316.23	397.12
316.46	420.12
316.689	426.12
316.919	406.12
317.148	410.12
317.377	421.12
317.607	406.12
317.836	422.12
318.065	401.12
318.295	410.12
318.524	416.12
318.753	407.12
318.983	409.12
319.212	401.12
319.441	424.12
319.67	421.12
319.9	412.12
320.129	422.12
320.358	398.12
320.587	407.12
320.816	430.12
321.046	416.12
321.275	436.12
321.504	425.12
321.733	399.12
321.962	407.12
322.191	439.12
322.42	445.12
322.649	432.12
322.878	484.12
323.108	464.12
323.337	483.12
323.566	519.12
323.795	527.12
324.024	547.12
324.253	608.12
324.482	837.12
324.71	1252.12
324.939	1884.12
325.168	1687.12
325.397	882.12
325.626	615.12
325.855	552.12
326.084	509.12
326.313	505.12
326.542	501.12
326.77	529.12
326.999	615.12
327.228	785.12
327.457	1138.12
327.686	1446.12
327.914	969.12
328.143	666.12
328.372	607.12
328.6	570.12
328.829	541.12
329.058	558.12
329.287	564.12
329.515	544.12
329.744	514.12
329.972	518.12
330.201	515.12
330.43	547.12
330.658	575.12
330.887	612.12
331.115	579.12
331.344	536.12
331.572	504.12
331.801	502.12
332.03	494.12
332.258	492.12
332.486	486.12
332.715	473.12
332.943	482.12
333.172	498.12
333.4	505.12
333.629	521.12
333.857	534.12
334.085	514.12
334.314	525.12
334.542	555.12
334.771	584.12
334.999	554.12
335.227	533.12
335.455	511.12
335.684	501.12
335.912	501.12
336.14	478.12
336.369	489.12
336.597	510.12
336.825	498.12
337.053	495.12
337.281	482.12
337.51	476.12
337.738	461.12
337.966	471.12
338.194	492.12
338.422	474.12
338.65	498.12
338.878	481.12
339.106	471.12
339.334	463.12
339.562	471.12
339.79	470.12
340.018	488.12
340.246	458.12
340.474	474.12
340.702	483.12
340.93	470.12
341.158	478.12
341.386	457.12
341.614	464.12
341.842	480.12
342.07	462.12
342.298	479.12
342.526	459.12
342.754	447.12
342.981	450.12
343.209	454.12
343.437	481.12
343.665	486.12
343.893	490.12
344.12	511.12
344.348	476.12
344.576	495.12
344.804	478.12
345.031	479.12
345.259	493.12
345.487	472.12
345.714	482.12
345.942	468.12
346.17	448.12
346.397	481.12
346.625	451.12
346.853	457.12
347.08	433.12
347.308	455.12
347.535	451.12
347.763	473.12
347.99	469.12
348.218	476.12
348.445	454.12
348.673	457.12
348.9	439.12
349.128	440.12
349.355	440.12
349.583	438.12
349.81	430.12
350.037	446.12
350.265	450.12
350.492	418.12
350.72	446.12
350.947	455.12
351.174	444.12
351.402	454.12
351.629	465.12
351.856	446.12
352.083	453.12
352.311	446.12
352.538	455.12
352.765	450.12
352.992	471.12
353.22	451.12
353.447	446.12
353.674	417.12
353.901	447.12
354.128	447.12
354.355	453.12
354.583	442.12
354.81	413.12
355.037	421.12
355.264	450.12
355.491	441.12
355.718	434.12
355.945	460.12
356.172	439.12
356.399	416.12
356.626	435.12
356.853	434.12
357.08	434.12
357.307	431.12
357.534	416.12
357.761	400.12
357.988	434.12
358.215	427.12
358.441	439.12
358.668	435.12
358.895	431.12
359.122	462.12
359.349	427.12
359.576	447.12
359.802	469.12
360.029	496.12
360.256	484.12
360.483	479.12
360.709	463.12
360.936	464.12
361.163	457.12
361.39	488.12
361.616	427.12
361.843	440.12
362.07	450.12
362.296	463.12
362.523	450.12
362.749	442.12
362.976	457.12
363.203	452.12
363.429	432.12
363.656	426.12
363.882	438.12
364.109	434.12
364.335	437.12
364.562	439.12
364.788	429.12
365.015	431.12
365.241	427.12
365.468	454.12
365.694	455.12
365.92	455.12
366.147	452.12
366.373	453.12
366.599	438.12
366.826	442.12
367.052	439.12
367.278	432.12
367.505	418.12
367.731	450.12
367.957	461.12
368.184	448.12
368.41	443.12
368.636	443.12
368.862	471.12
369.089	458.12
369.315	444.12
369.541	442.12
369.767	444.12
369.993	448.12
370.219	442.12
370.445	455.12
370.672	431.12
370.898	459.12
371.124	451.12
371.35	456.12
371.576	446.12
371.802	455.12
372.028	461.12
372.254	453.12
372.48	459.12
372.706	455.12
372.932	477.12
373.158	462.12
373.384	456.12
373.61	454.12
373.835	450.12
374.061	464.12
374.287	462.12
374.513	457.12
374.739	440.12
374.965	460.12
375.191	460.12
375.416	463.12
375.642	467.12
375.868	451.12
376.094	422.12
376.319	438.12
376.545	486.12
376.771	460.12
376.997	460.12
377.222	452.12
377.448	454.12
377.674	452.12
377.899	447.12
378.125	443.12
378.35	438.12
378.576	448.12
378.802	452.12
379.027	452.12
379.253	437.12
379.478	437.12
379.704	435.12
379.929	443.12
380.155	471.12
380.38	462.12
380.606	459.12
380.831	455.12
381.057	468.12
381.282	458.12
381.507	481.12
381.733	463.12
381.958	469.12
382.184	459.12
382.409	468.12
382.634	468.12
382.86	459.12
383.085	478.12
383.31	486.12
383.535	469.12
383.761	486.12
383.986	490.12
384.211	487.12
384.436	496.12
384.662	507.12
384.887	512.12
385.112	505.12
385.337	490.12
385.562	515.12
385.787	517.12
386.013	512.12
386.238	507.12
386.463	508.12
386.688	515.12
386.913	532.12
387.138	516.12
387.363	486.12
387.588	503.12
387.813	492.12
388.038	504.12
388.263	515.12
388.488	496.12
388.713	514.12
388.938	496.12
389.163	494.12
389.387	515.12
389.612	523.12
389.837	527.12
390.062	526.12
390.287	506.12
390.512	498.12
390.736	530.12
390.961	506.12
391.186	503.12
391.411	526.12
391.636	510.12
391.86	538.12
392.085	556.12
392.31	547.12
392.534	515.12
392.759	532.12
392.984	514.12
393.208	530.12
393.433	530.12
393.658	508.12
393.882	525.12
394.107	523.12
394.331	523.12
394.556	525.12
394.78	519.12
395.005	512.12
395.229	535.12
395.454	553.12
395.678	549.12
395.903	539.12
396.127	564.12
396.352	578.12
396.576	542.12
396.801	540.12
397.025	563.12
397.249	546.12
397.474	542.12
397.698	531.12
397.922	559.12
398.147	578.12
398.371	574.12
398.595	578.12
398.82	585.12
399.044	634.12
399.268	610.12
399.492	662.12
399.717	727.12
399.941	757.12
400.165	748.12
400.389	731.12
400.613	682.12
400.837	631.12
401.062	627.12
401.286	595.12
401.51	592.12
401.734	586.12
401.958	596.12
402.182	587.12
402.406	609.12
402.63	629.12
402.854	618.12
403.078	635.12
403.302	608.12
403.526	612.12
403.75	620.12
403.974	605.12
404.198	630.12
404.422	631.12
404.645	629.12
404.869	655.12
405.093	668.12
405.317	697.12
405.541	738.12
405.765	677.12
405.988	692.12
406.212	646.12
406.436	659.12
406.66	694.12
406.883	682.12
407.107	716.12
407.331	743.12
407.555	832.12
407.778	785.12
408.002	732.12
408.226	710.12
408.449	684.12
408.673	648.12
408.896	719.12
409.12	733.12
409.344	716.12
409.567	656.12
409.791	655.12
410.014	615.12
410.238	591.12
410.461	613.12
410.685	606.12
410.908	639.12
411.132	671.12
411.355	714.12
411.578	668.12
411.802	642.12
412.025	621.12
412.249	606.12
412.472	656.12
412.695	690.12
412.919	678.12
413.142	615.12
413.365	626.12
413.589	607.12
413.812	590.12
414.035	614.12
414.258	583.12
414.482	589.12
414.705	602.12
414.928	573.12
415.151	588.12
415.374	577.12
415.597	588.12
415.821	587.12
416.044	593.12
416.267	599.12
416.49	590.12
416.713	595.12
416.936	582.12
417.159	583.12
417.382	605.12
417.605	596.12
417.828	596.12
418.051	618.12
418.274	605.12
418.497	585.12
418.72	591.12
418.943	610.12
419.166	623.12
419.389	668.12
419.611	677.12
419.834	634.12
420.057	642.12
420.28	612.12
420.503	598.12
420.726	630.12
420.948	616.12
421.171	671.12
421.394	688.12
421.617	641.12
421.839	612.12
422.062	601.12
422.285	614.12
422.507	658.12
422.73	778.12
422.953	728.12
423.175	678.12
423.398	655.12
423.621	641.12
423.843	678.12
424.066	642.12
424.288	650.12
424.511	656.12
424.733	738.12
424.956	806.12
425.178	758.12
425.401	780.12
425.623	802.12
425.846	708.12
426.068	663.12
426.291	625.12
426.513	634.12
426.735	668.12
426.958	698.12
427.18	760.12
427.402	905.12
427.625	995.12
427.847	843.12
428.069	734.12
428.292	663.12
428.514	626.12
428.736	631.12
428.958	597.12
429.181	570.12
429.403	582.12
429.625	599.12
429.847	650.12
430.069	722.12
430.292	681.12
430.514	605.12
430.736	620.12
430.958	576.12
431.18	584.12
431.402	586.12
431.624	583.12
431.846	580.12
432.068	547.12
432.29	562.12
432.512	554.12
432.734	590.12
432.956	583.12
433.178	564.12
433.4	565.12
433.622	567.12
433.844	578.12
434.066	574.12
434.287	564.12
434.509	559.12
434.731	591.12
434.953	600.12
435.175	615.12
435.397	643.12
435.618	627.12
435.84	673.12
436.062	767.12
436.284	854.12
436.505	716.12
436.727	659.12
436.949	632.12
437.17	607.12
437.392	592.12
437.614	606.12
437.835	627.12
438.057	715.12
438.278	803.12
438.5	841.12
438.721	922.12
438.943	869.12
439.165	714.12
439.386	664.12
439.608	650.12
439.829	635.12
440.05	637.12
440.272	688.12
440.493	675.12
440.715	637.12
440.936	617.12
441.158	604.12
441.379	604.12
441.6	635.12
441.822	634.12
442.043	683.12
442.264	763.12
442.486	803.12
442.707	720.12
442.928	650.12
443.149	660.12
443.371	679.12
443.592	723.12
443.813	817.12
444.034	926.12
444.255	779.12
444.476	668.12
444.698	664.12
444.919	691.12
445.14	765.12
445.361	712.12
445.582	711.12
445.803	755.12
446.024	808.12
446.245	846.12
446.466	802.12
446.687	692.12
446.908	639.12
447.129	601.12
447.35	608.12
447.571	590.12
447.792	586.12
448.013	600.12
448.234	590.12
448.455	645.12
448.675	774.12
448.896	903.12
449.117	760.12
449.338	742.12
449.559	814.12
449.779	958.12
450	758.12
450.221	619.12
450.442	593.12
450.662	579.12
450.883	570.12
451.104	594.12
451.324	584.12
451.545	554.12
451.766	546.12
451.986	528.12
452.207	520.12
452.428	531.12
452.648	543.12
452.869	533.12
453.089	544.12
453.31	534.12
453.53	522.12
453.751	512.12
453.971	516.12
454.192	528.12
454.412	524.12
454.633	508.12
454.853	520.12
455.073	532.12
455.294	545.12
455.514	634.12
455.734	609.12
455.955	532.12
456.175	526.12
456.395	531.12
456.616	498.12
456.836	497.12
457.056	515.12
457.276	504.12
457.497	498.12
457.717	475.12
457.937	502.12
458.157	505.12
458.377	525.12
458.598	541.12
458.818	580.12
459.038	642.12
459.258	683.12
459.478	620.12
459.698	584.12
459.918	581.12
460.138	579.12
460.358	578.12
460.578	576.12
460.798	607.12
461.018	627.12
461.238	614.12
461.458	620.12
461.678	591.12
461.898	580.12
462.118	602.12
462.338	605.12
462.558	618.12
462.777	627.12
462.997	654.12
463.217	668.12
463.437	675.12
463.657	678.12
463.876	654.12
464.096	640.12
464.316	630.12
464.536	626.12
464.755	671.12
464.975	638.12
465.195	646.12
465.414	671.12
465.634	660.12
465.854	594.12
466.073	566.12
466.293	572.12
466.512	540.12
466.732	546.12
466.951	552.12
467.171	546.12
467.391	552.12
467.61	580.12
467.829	557.12
468.049	564.12
468.268	559.12
468.488	532.12
468.707	538.12
468.927	503.12
469.146	548.12
469.365	543.12
469.585	550.12
469.804	557.12
470.023	574.12
470.243	541.12
470.462	559.12
470.681	580.12
470.901	554.12
471.12	549.12
471.339	542.12
471.558	547.12
471.777	570.12
471.997	534.12
472.216	589.12
472.435	590.12
472.654	572.12
472.873	556.12
473.092	527.12
473.311	553.12
473.53	548.12
473.749	571.12
473.968	591.12
474.187	654.12
474.406	696.12
474.625	617.12
474.844	566.12
475.063	576.12
475.282	542.12
475.501	550.12
475.72	577.12
475.939	568.12
476.158	585.12
476.377	555.12
476.596	555.12
476.814	578.12
477.033	594.12
477.252	568.12
477.471	603.12
477.69	586.12
477.908	613.12
478.127	609.12
478.346	603.12
478.564	637.12
478.783	624.12
479.002	654.12
479.22	634.12
479.439	657.12
479.658	659.12
479.876	663.12
480.095	661.12
480.313	723.12
480.532	690.12
480.751	680.12
480.969	699.12
481.188	726.12
481.406	764.12
481.624	676.12
481.843	671.12
482.061	658.12
482.28	663.12
482.498	642.12
482.717	624.12
482.935	639.12
483.153	644.12
483.372	664.12
483.59	651.12
483.808	636.12
484.027	639.12
484.245	646.12
484.463	647.12
484.681	650.12
484.9	669.12
485.118	648.12
485.336	664.12
485.554	658.12
485.772	664.12
485.99	642.12
486.209	680.12
486.427	671.12
486.645	680.12
486.863	706.12
487.081	700.12
487.299	686.12
487.517	712.12
487.735	687.12
487.953	679.12
488.171	720.12
488.389	694.12
488.607	678.12
488.825	693.12
489.043	707.12
489.261	715.12
489.479	700.12
489.696	725.12
489.914	711.12
490.132	732.12
490.35	694.12
490.568	719.12
490.786	731.12
491.003	749.12
491.221	750.12
491.439	736.12
491.657	787.12
491.874	781.12
492.092	793.12
492.31	809.12
492.527	799.12
492.745	816.12
492.963	810.12
493.18	788.12
493.398	820.12
493.615	822.12
493.833	826.12
494.05	850.12
494.268	809.12
494.485	818.12
494.703	815.12
494.92	838.12
495.138	783.12
495.355	834.12
495.573	837.12
495.79	830.12
496.008	830.12
496.225	838.12
496.442	827.12
496.66	832.12
496.877	851.12
497.094	822.12
497.312	870.12
497.529	875.12
497.746	867.12
497.963	892.12
498.181	918.12
498.398	907.12
498.615	951.12
498.832	952.12
499.049	994.12
499.267	1000.12
499.484	1076.12
499.701	1104.12
499.918	1155.12
500.135	1267.12
500.352	1291.12
500.569	1360.12
500.786	1331.12
501.003	1270.12
501.22	1219.12
501.437	1194.12
501.654	1151.12
