Data from 1974.PennyLincolnUp.Lamp.En5.5.200Scan.071719.P1.Changed Mount._HRD10591_15-51-59-856.txt Node
Date: Thu Jul 18 15:51:59 EDT 2019
User: cochatt
Spectrometer: HR+D1059
Trigger mode: 1
Integration Time (sec): 1.000000E-1
Scans to average: 1
Electric dark correction enabled: true
Nonlinearity correction enabled: false
Boxcar width: 0
XAxis mode: Wavelengths
Number of Pixels in Spectrum: 2048
>>>>>Begin Spectral Data<<<<<
223.165	-12.44
223.4	-12.44
223.635	-12.44
223.869	-9.44
224.104	-13.44
224.338	-13.44
224.573	-22.44
224.808	-19.44
225.042	-11.44
225.277	-19.44
225.511	-8.44
225.746	7.56
225.98	10.56
226.215	22.56
226.449	6.56
226.683	24.56
226.918	22.56
227.152	35.56
227.387	20.56
227.621	37.56
227.856	35.56
228.09	57.56
228.324	45.56
228.559	65.56
228.793	70.56
229.027	84.56
229.262	85.56
229.496	100.56
229.73	122.56
229.964	129.56
230.199	128.56
230.433	110.56
230.667	110.56
230.901	117.56
231.136	107.56
231.37	100.56
231.604	116.56
231.838	118.56
232.072	103.56
232.306	101.56
232.541	115.56
232.775	122.56
233.009	119.56
233.243	106.56
233.477	114.56
233.711	105.56
233.945	118.56
234.179	122.56
234.413	124.56
234.647	110.56
234.881	108.56
235.115	126.56
235.349	119.56
235.583	106.56
235.817	118.56
236.051	123.56
236.285	120.56
236.519	119.56
236.753	119.56
236.987	135.56
237.221	167.56
237.455	216.56
237.689	167.56
237.922	135.56
238.156	136.56
238.39	137.56
238.624	120.56
238.858	121.56
239.091	130.56
239.325	138.56
239.559	130.56
239.793	130.56
240.027	126.56
240.26	139.56
240.494	151.56
240.728	150.56
240.961	133.56
241.195	158.56
241.429	145.56
241.662	135.56
241.896	134.56
242.13	129.56
242.363	133.56
242.597	129.56
242.83	134.56
243.064	150.56
243.298	139.56
243.531	140.56
243.765	159.56
243.998	148.56
244.232	139.56
244.465	161.56
244.699	149.56
244.932	147.56
245.166	150.56
245.399	142.56
245.633	135.56
245.866	150.56
246.099	164.56
246.333	152.56
246.566	152.56
246.8	155.56
247.033	151.56
247.266	165.56
247.5	181.56
247.733	176.56
247.966	178.56
248.2	165.56
248.433	172.56
248.666	174.56
248.899	184.56
249.133	196.56
249.366	193.56
249.599	182.56
249.832	194.56
250.066	169.56
250.299	170.56
250.532	192.56
250.765	202.56
250.998	227.56
251.231	231.56
251.465	212.56
251.698	207.56
251.931	197.56
252.164	196.56
252.397	200.56
252.63	187.56
252.863	208.56
253.096	219.56
253.329	241.56
253.562	234.56
253.795	224.56
254.028	216.56
254.261	214.56
254.494	240.56
254.727	258.56
254.96	291.56
255.193	288.56
255.426	241.56
255.659	225.56
255.892	243.56
256.124	225.56
256.357	241.56
256.59	224.56
256.823	210.56
257.056	216.56
257.289	221.56
257.521	218.56
257.754	224.56
257.987	230.56
258.22	232.56
258.452	207.56
258.685	205.56
258.918	222.56
259.151	205.56
259.383	227.56
259.616	227.56
259.849	224.56
260.081	239.56
260.314	243.56
260.547	249.56
260.779	250.56
261.012	250.56
261.244	244.56
261.477	211.56
261.71	222.56
261.942	230.56
262.175	231.56
262.407	252.56
262.64	219.56
262.872	220.56
263.105	227.56
263.337	209.56
263.57	206.56
263.802	231.56
264.035	219.56
264.267	203.56
264.499	227.56
264.732	221.56
264.964	223.56
265.197	219.56
265.429	235.56
265.661	230.56
265.894	217.56
266.126	215.56
266.358	244.56
266.591	240.56
266.823	233.56
267.055	233.56
267.287	241.56
267.52	228.56
267.752	238.56
267.984	240.56
268.216	224.56
268.448	227.56
268.681	259.56
268.913	243.56
269.145	263.56
269.377	273.56
269.609	296.56
269.841	284.56
270.073	268.56
270.306	299.56
270.538	312.56
270.77	309.56
271.002	294.56
271.234	288.56
271.466	278.56
271.698	315.56
271.93	314.56
272.162	310.56
272.394	317.56
272.626	306.56
272.858	290.56
273.09	272.56
273.322	273.56
273.553	262.56
273.785	262.56
274.017	268.56
274.249	267.56
274.481	264.56
274.713	272.56
274.945	292.56
275.176	287.56
275.408	272.56
275.64	291.56
275.872	271.56
276.104	275.56
276.335	258.56
276.567	267.56
276.799	282.56
277.031	306.56
277.262	323.56
277.494	325.56
277.726	338.56
277.957	295.56
278.189	291.56
278.421	288.56
278.652	290.56
278.884	283.56
279.115	266.56
279.347	286.56
279.579	288.56
279.81	274.56
280.042	278.56
280.273	294.56
280.505	271.56
280.736	240.56
280.968	287.56
281.199	281.56
281.431	296.56
281.662	280.56
281.894	258.56
282.125	286.56
282.356	294.56
282.588	307.56
282.819	305.56
283.051	287.56
283.282	295.56
283.513	290.56
283.745	282.56
283.976	270.56
284.207	299.56
284.439	310.56
284.67	289.56
284.901	299.56
285.132	279.56
285.364	273.56
285.595	297.56
285.826	295.56
286.057	300.56
286.288	296.56
286.52	296.56
286.751	294.56
286.982	314.56
287.213	279.56
287.444	286.56
287.675	320.56
287.906	314.56
288.138	322.56
288.369	309.56
288.6	294.56
288.831	316.56
289.062	324.56
289.293	311.56
289.524	306.56
289.755	301.56
289.986	321.56
290.217	296.56
290.448	310.56
290.679	304.56
290.91	311.56
291.141	305.56
291.371	318.56
291.602	300.56
291.833	325.56
292.064	310.56
292.295	299.56
292.526	311.56
292.757	321.56
292.987	294.56
293.218	308.56
293.449	313.56
293.68	310.56
293.91	314.56
294.141	321.56
294.372	308.56
294.603	314.56
294.833	329.56
295.064	319.56
295.295	328.56
295.525	319.56
295.756	315.56
295.987	318.56
296.217	323.56
296.448	325.56
296.679	318.56
296.909	331.56
297.14	325.56
297.37	326.56
297.601	321.56
297.831	320.56
298.062	315.56
298.292	330.56
298.523	324.56
298.753	322.56
298.984	303.56
299.214	325.56
299.445	327.56
299.675	346.56
299.905	321.56
300.136	344.56
300.366	325.56
300.597	329.56
300.827	317.56
301.057	359.56
301.288	336.56
301.518	335.56
301.748	331.56
301.979	348.56
302.209	348.56
302.439	325.56
302.669	335.56
302.9	355.56
303.13	340.56
303.36	359.56
303.59	358.56
303.82	358.56
304.051	345.56
304.281	357.56
304.511	351.56
304.741	355.56
304.971	352.56
305.201	342.56
305.431	358.56
305.661	343.56
305.891	350.56
306.121	353.56
306.352	328.56
306.582	356.56
306.812	345.56
307.042	336.56
307.272	362.56
307.502	361.56
307.731	354.56
307.961	346.56
308.191	378.56
308.421	355.56
308.651	359.56
308.881	356.56
309.111	337.56
309.341	368.56
309.571	358.56
309.8	372.56
310.03	376.56
310.26	381.56
310.49	387.56
310.72	393.56
310.949	395.56
311.179	379.56
311.409	397.56
311.639	386.56
311.868	394.56
312.098	389.56
312.328	375.56
312.557	399.56
312.787	428.56
313.017	399.56
313.246	393.56
313.476	376.56
313.706	380.56
313.935	375.56
314.165	418.56
314.394	392.56
314.624	421.56
314.853	394.56
315.083	392.56
315.312	407.56
315.542	398.56
315.771	391.56
316.001	382.56
316.23	387.56
316.46	376.56
316.689	404.56
316.919	393.56
317.148	400.56
317.377	390.56
317.607	382.56
317.836	389.56
318.065	396.56
318.295	386.56
318.524	406.56
318.753	386.56
318.983	387.56
319.212	391.56
319.441	394.56
319.67	401.56
319.9	384.56
320.129	379.56
320.358	390.56
320.587	408.56
320.816	406.56
321.046	403.56
321.275	388.56
321.504	392.56
321.733	403.56
321.962	404.56
322.191	433.56
322.42	425.56
322.649	447.56
322.878	424.56
323.108	451.56
323.337	468.56
323.566	471.56
323.795	472.56
324.024	527.56
324.253	579.56
324.482	770.56
324.71	1157.56
324.939	1697.56
325.168	1498.56
325.397	784.56
325.626	549.56
325.855	485.56
326.084	475.56
326.313	475.56
326.542	476.56
326.77	523.56
326.999	579.56
327.228	727.56
327.457	1072.56
327.686	1322.56
327.914	882.56
328.143	629.56
328.372	550.56
328.6	534.56
328.829	499.56
329.058	524.56
329.287	535.56
329.515	510.56
329.744	494.56
329.972	474.56
330.201	513.56
330.43	539.56
330.658	544.56
330.887	549.56
331.115	547.56
331.344	524.56
331.572	466.56
331.801	488.56
332.03	514.56
332.258	473.56
332.486	471.56
332.715	482.56
332.943	468.56
333.172	486.56
333.4	471.56
333.629	518.56
333.857	506.56
334.085	512.56
334.314	512.56
334.542	536.56
334.771	560.56
334.999	520.56
335.227	495.56
335.455	497.56
335.684	482.56
335.912	469.56
336.14	475.56
336.369	491.56
336.597	468.56
336.825	477.56
337.053	498.56
337.281	450.56
337.51	441.56
337.738	474.56
337.966	467.56
338.194	470.56
338.422	474.56
338.65	471.56
338.878	463.56
339.106	470.56
339.334	464.56
339.562	437.56
339.79	455.56
340.018	463.56
340.246	462.56
340.474	455.56
340.702	472.56
340.93	468.56
341.158	454.56
341.386	447.56
341.614	442.56
341.842	447.56
342.07	436.56
342.298	441.56
342.526	475.56
342.754	442.56
342.981	438.56
343.209	471.56
343.437	448.56
343.665	477.56
343.893	490.56
344.12	496.56
344.348	464.56
344.576	465.56
344.804	467.56
345.031	475.56
345.259	459.56
345.487	450.56
345.714	455.56
345.942	435.56
346.17	443.56
346.397	427.56
346.625	443.56
346.853	440.56
347.08	444.56
347.308	438.56
347.535	423.56
347.763	447.56
347.99	455.56
348.218	445.56
348.445	446.56
348.673	451.56
348.9	446.56
349.128	430.56
349.355	438.56
349.583	449.56
349.81	413.56
350.037	430.56
350.265	415.56
350.492	433.56
350.72	440.56
350.947	425.56
351.174	438.56
351.402	436.56
351.629	432.56
351.856	439.56
352.083	443.56
352.311	447.56
352.538	434.56
352.765	440.56
352.992	437.56
353.22	433.56
353.447	450.56
353.674	434.56
353.901	427.56
354.128	410.56
354.355	415.56
354.583	423.56
354.81	441.56
355.037	428.56
355.264	427.56
355.491	421.56
355.718	424.56
355.945	422.56
356.172	422.56
356.399	421.56
356.626	404.56
356.853	422.56
357.08	416.56
357.307	420.56
357.534	427.56
357.761	426.56
357.988	424.56
358.215	398.56
358.441	428.56
358.668	416.56
358.895	424.56
359.122	419.56
359.349	426.56
359.576	434.56
359.802	460.56
360.029	454.56
360.256	468.56
360.483	452.56
360.709	449.56
360.936	445.56
361.163	422.56
361.39	447.56
361.616	434.56
361.843	439.56
362.07	434.56
362.296	455.56
362.523	436.56
362.749	432.56
362.976	435.56
363.203	431.56
363.429	437.56
363.656	404.56
363.882	431.56
364.109	437.56
364.335	449.56
364.562	432.56
364.788	441.56
365.015	434.56
365.241	430.56
365.468	450.56
365.694	433.56
365.92	416.56
366.147	429.56
366.373	424.56
366.599	432.56
366.826	436.56
367.052	426.56
367.278	435.56
367.505	451.56
367.731	435.56
367.957	427.56
368.184	415.56
368.41	437.56
368.636	450.56
368.862	448.56
369.089	463.56
369.315	441.56
369.541	432.56
369.767	447.56
369.993	439.56
370.219	430.56
370.445	420.56
370.672	454.56
370.898	440.56
371.124	431.56
371.35	442.56
371.576	450.56
371.802	432.56
372.028	449.56
372.254	445.56
372.48	449.56
372.706	442.56
372.932	457.56
373.158	435.56
373.384	424.56
373.61	450.56
373.835	456.56
374.061	470.56
374.287	447.56
374.513	483.56
374.739	450.56
374.965	464.56
375.191	440.56
375.416	455.56
375.642	452.56
375.868	479.56
376.094	445.56
376.319	440.56
376.545	439.56
376.771	455.56
376.997	447.56
377.222	450.56
377.448	423.56
377.674	442.56
377.899	428.56
378.125	444.56
378.35	424.56
378.576	445.56
378.802	443.56
379.027	446.56
379.253	461.56
379.478	447.56
379.704	448.56
379.929	441.56
380.155	460.56
380.38	450.56
380.606	465.56
380.831	458.56
381.057	458.56
381.282	452.56
381.507	459.56
381.733	474.56
381.958	440.56
382.184	471.56
382.409	475.56
382.634	459.56
382.86	463.56
383.085	466.56
383.31	476.56
383.535	465.56
383.761	453.56
383.986	469.56
384.211	484.56
384.436	494.56
384.662	522.56
384.887	496.56
385.112	485.56
385.337	499.56
385.562	490.56
385.787	517.56
386.013	482.56
386.238	496.56
386.463	491.56
386.688	486.56
386.913	516.56
387.138	512.56
387.363	483.56
387.588	482.56
387.813	487.56
388.038	495.56
388.263	497.56
388.488	508.56
388.713	505.56
388.938	514.56
389.163	500.56
389.387	513.56
389.612	502.56
389.837	496.56
390.062	494.56
390.287	511.56
390.512	504.56
390.736	507.56
390.961	527.56
391.186	496.56
391.411	519.56
391.636	521.56
391.86	531.56
392.085	520.56
392.31	536.56
392.534	522.56
392.759	526.56
392.984	525.56
393.208	508.56
393.433	516.56
393.658	497.56
393.882	499.56
394.107	514.56
394.331	503.56
394.556	521.56
394.78	509.56
395.005	509.56
395.229	495.56
395.454	554.56
395.678	542.56
395.903	535.56
396.127	558.56
396.352	566.56
396.576	540.56
396.801	505.56
397.025	519.56
397.249	537.56
397.474	564.56
397.698	530.56
397.922	542.56
398.147	552.56
398.371	588.56
398.595	577.56
398.82	588.56
399.044	619.56
399.268	632.56
399.492	670.56
399.717	716.56
399.941	737.56
400.165	714.56
400.389	719.56
400.613	660.56
400.837	633.56
401.062	604.56
401.286	586.56
401.51	585.56
401.734	576.56
401.958	586.56
402.182	601.56
402.406	575.56
402.63	599.56
402.854	590.56
403.078	613.56
403.302	614.56
403.526	610.56
403.75	617.56
403.974	615.56
404.198	608.56
404.422	630.56
404.645	631.56
404.869	620.56
405.093	651.56
405.317	674.56
405.541	716.56
405.765	670.56
405.988	636.56
406.212	654.56
406.436	658.56
406.66	651.56
406.883	642.56
407.107	707.56
407.331	730.56
407.555	790.56
407.778	791.56
408.002	750.56
408.226	650.56
408.449	668.56
408.673	650.56
408.896	676.56
409.12	730.56
409.344	702.56
409.567	642.56
409.791	627.56
410.014	620.56
410.238	614.56
410.461	616.56
410.685	607.56
410.908	631.56
411.132	641.56
411.355	694.56
411.578	677.56
411.802	613.56
412.025	603.56
412.249	622.56
412.472	634.56
412.695	686.56
412.919	680.56
413.142	608.56
413.365	592.56
413.589	613.56
413.812	576.56
414.035	583.56
414.258	598.56
414.482	571.56
414.705	585.56
414.928	582.56
415.151	592.56
415.374	580.56
415.597	562.56
415.821	568.56
416.044	576.56
416.267	578.56
416.49	571.56
416.713	564.56
416.936	583.56
417.159	559.56
417.382	548.56
417.605	579.56
417.828	606.56
418.051	603.56
418.274	595.56
418.497	592.56
418.72	583.56
418.943	584.56
419.166	609.56
419.389	634.56
419.611	626.56
419.834	606.56
420.057	626.56
420.28	608.56
420.503	609.56
420.726	588.56
420.948	626.56
421.171	635.56
421.394	671.56
421.617	614.56
421.839	591.56
422.062	592.56
422.285	604.56
422.507	654.56
422.73	741.56
422.953	702.56
423.175	636.56
423.398	608.56
423.621	598.56
423.843	630.56
424.066	636.56
424.288	634.56
424.511	674.56
424.733	699.56
424.956	778.56
425.178	765.56
425.401	739.56
425.623	770.56
425.846	657.56
426.068	609.56
426.291	622.56
426.513	614.56
426.735	618.56
426.958	669.56
427.18	726.56
427.402	890.56
427.625	942.56
427.847	800.56
428.069	725.56
428.292	688.56
428.514	627.56
428.736	615.56
428.958	589.56
429.181	568.56
429.403	601.56
429.625	601.56
429.847	618.56
430.069	672.56
430.292	666.56
430.514	596.56
430.736	577.56
430.958	598.56
431.18	577.56
431.402	558.56
431.624	566.56
431.846	555.56
432.068	541.56
432.29	554.56
432.512	544.56
432.734	562.56
432.956	547.56
433.178	587.56
433.4	562.56
433.622	572.56
433.844	560.56
434.066	570.56
434.287	540.56
434.509	565.56
434.731	575.56
434.953	579.56
435.175	605.56
435.397	632.56
435.618	609.56
435.84	678.56
436.062	744.56
436.284	810.56
436.505	668.56
436.727	624.56
436.949	587.56
437.17	586.56
437.392	587.56
437.614	604.56
437.835	622.56
438.057	689.56
438.278	807.56
438.5	790.56
438.721	894.56
438.943	855.56
439.165	670.56
439.386	654.56
439.608	633.56
439.829	630.56
440.05	638.56
440.272	667.56
440.493	632.56
440.715	613.56
440.936	603.56
441.158	611.56
441.379	594.56
441.6	613.56
441.822	630.56
442.043	661.56
442.264	735.56
442.486	788.56
442.707	676.56
442.928	643.56
443.149	663.56
443.371	670.56
443.592	699.56
443.813	803.56
444.034	865.56
444.255	726.56
444.476	654.56
444.698	676.56
444.919	689.56
445.14	803.56
445.361	702.56
445.582	666.56
445.803	719.56
446.024	819.56
446.245	816.56
446.466	739.56
446.687	665.56
446.908	613.56
447.129	619.56
447.35	580.56
447.571	577.56
447.792	554.56
448.013	572.56
448.234	571.56
448.455	644.56
448.675	717.56
448.896	869.56
449.117	738.56
449.338	701.56
449.559	779.56
449.779	907.56
450	735.56
450.221	615.56
450.442	569.56
450.662	562.56
450.883	556.56
451.104	556.56
451.324	553.56
451.545	529.56
451.766	541.56
451.986	511.56
452.207	530.56
452.428	521.56
452.648	496.56
452.869	523.56
453.089	516.56
453.31	530.56
453.53	503.56
453.751	498.56
453.971	536.56
454.192	520.56
454.412	543.56
454.633	492.56
454.853	521.56
455.073	509.56
455.294	535.56
455.514	588.56
455.734	592.56
455.955	505.56
456.175	507.56
456.395	497.56
456.616	480.56
456.836	488.56
457.056	479.56
457.276	461.56
457.497	475.56
457.717	480.56
457.937	508.56
458.157	496.56
458.377	505.56
458.598	533.56
458.818	553.56
459.038	616.56
459.258	653.56
459.478	576.56
459.698	558.56
459.918	574.56
460.138	581.56
460.358	569.56
460.578	586.56
460.798	605.56
461.018	585.56
461.238	594.56
461.458	580.56
461.678	594.56
461.898	567.56
462.118	603.56
462.338	609.56
462.558	597.56
462.777	609.56
462.997	638.56
463.217	672.56
463.437	663.56
463.657	642.56
463.876	638.56
464.096	617.56
464.316	626.56
464.536	626.56
464.755	625.56
464.975	626.56
465.195	631.56
465.414	672.56
465.634	631.56
465.854	578.56
466.073	555.56
466.293	556.56
466.512	534.56
466.732	529.56
466.951	547.56
467.171	529.56
467.391	546.56
467.61	545.56
467.829	528.56
468.049	577.56
468.268	516.56
468.488	529.56
468.707	530.56
468.927	537.56
469.146	514.56
469.365	525.56
469.585	523.56
469.804	522.56
470.023	543.56
470.243	542.56
470.462	561.56
470.681	565.56
470.901	538.56
471.12	549.56
471.339	530.56
471.558	524.56
471.777	554.56
471.997	539.56
472.216	547.56
472.435	547.56
472.654	568.56
472.873	553.56
473.092	538.56
473.311	527.56
473.53	543.56
473.749	528.56
473.968	573.56
474.187	676.56
474.406	710.56
474.625	585.56
474.844	565.56
475.063	547.56
475.282	549.56
475.501	550.56
475.72	554.56
475.939	561.56
476.158	557.56
476.377	558.56
476.596	555.56
476.814	566.56
477.033	574.56
477.252	566.56
477.471	585.56
477.69	579.56
477.908	571.56
478.127	612.56
478.346	604.56
478.564	615.56
478.783	603.56
479.002	618.56
479.22	634.56
479.439	642.56
479.658	645.56
479.876	640.56
480.095	667.56
480.313	685.56
480.532	705.56
480.751	672.56
480.969	654.56
481.188	706.56
481.406	707.56
481.624	650.56
481.843	642.56
482.061	636.56
482.28	632.56
482.498	615.56
482.717	628.56
482.935	640.56
483.153	626.56
483.372	644.56
483.59	625.56
483.808	610.56
484.027	628.56
484.245	652.56
484.463	621.56
484.681	639.56
484.9	648.56
485.118	659.56
485.336	635.56
485.554	635.56
485.772	643.56
485.99	660.56
486.209	639.56
486.427	662.56
486.645	672.56
486.863	667.56
487.081	651.56
487.299	678.56
487.517	678.56
487.735	681.56
487.953	657.56
488.171	699.56
488.389	696.56
488.607	693.56
488.825	689.56
489.043	677.56
489.261	683.56
489.479	697.56
489.696	693.56
489.914	698.56
490.132	707.56
490.35	715.56
490.568	694.56
490.786	712.56
491.003	747.56
491.221	741.56
491.439	763.56
491.657	747.56
491.874	776.56
492.092	764.56
492.31	796.56
492.527	788.56
492.745	759.56
492.963	806.56
493.18	806.56
493.398	795.56
493.615	799.56
493.833	804.56
494.05	827.56
494.268	829.56
494.485	822.56
494.703	791.56
494.92	806.56
495.138	807.56
495.355	814.56
495.573	802.56
495.79	795.56
496.008	799.56
496.225	796.56
496.442	815.56
496.66	808.56
496.877	788.56
497.094	843.56
497.312	841.56
497.529	814.56
497.746	838.56
497.963	857.56
498.181	900.56
498.398	898.56
498.615	923.56
498.832	918.56
499.049	963.56
499.267	990.56
499.484	1072.56
499.701	1074.56
499.918	1180.56
500.135	1217.56
500.352	1286.56
500.569	1318.56
500.786	1324.56
501.003	1278.56
501.22	1243.56
501.437	1195.56
501.654	1128.56
