Data from 1974.PennyLincolnUp.Lamp.En5.5.200Scan.071719.P1.Changed Mount._HRD10591_15-53-34-857.txt Node
Date: Thu Jul 18 15:53:34 EDT 2019
User: cochatt
Spectrometer: HR+D1059
Trigger mode: 1
Integration Time (sec): 1.000000E-1
Scans to average: 1
Electric dark correction enabled: true
Nonlinearity correction enabled: false
Boxcar width: 0
XAxis mode: Wavelengths
Number of Pixels in Spectrum: 2048
>>>>>Begin Spectral Data<<<<<
223.165	-10.25
223.4	-10.25
223.635	-10.25
223.869	-17.25
224.104	-13.25
224.338	-16.25
224.573	-12.25
224.808	-31.25
225.042	-4.25
225.277	-18.25
225.511	3.75
225.746	11.75
225.98	14.75
226.215	5.75
226.449	16.75
226.683	16.75
226.918	21.75
227.152	31.75
227.387	45.75
227.621	48.75
227.856	42.75
228.09	55.75
228.324	43.75
228.559	78.75
228.793	73.75
229.027	110.75
229.262	118.75
229.496	134.75
229.73	140.75
229.964	153.75
230.199	130.75
230.433	131.75
230.667	114.75
230.901	110.75
231.136	134.75
231.37	115.75
231.604	112.75
231.838	128.75
232.072	122.75
232.306	145.75
232.541	131.75
232.775	127.75
233.009	125.75
233.243	119.75
233.477	126.75
233.711	143.75
233.945	134.75
234.179	122.75
234.413	117.75
234.647	120.75
234.881	133.75
235.115	121.75
235.349	127.75
235.583	125.75
235.817	135.75
236.051	136.75
236.285	150.75
236.519	133.75
236.753	142.75
236.987	155.75
237.221	194.75
237.455	235.75
237.689	213.75
237.922	161.75
238.156	147.75
238.39	137.75
238.624	143.75
238.858	143.75
239.091	131.75
239.325	125.75
239.559	135.75
239.793	130.75
240.027	143.75
240.26	156.75
240.494	173.75
240.728	162.75
240.961	164.75
241.195	157.75
241.429	146.75
241.662	145.75
241.896	151.75
242.13	153.75
242.363	142.75
242.597	147.75
242.83	153.75
243.064	153.75
243.298	151.75
243.531	162.75
243.765	160.75
243.998	146.75
244.232	164.75
244.465	161.75
244.699	164.75
244.932	155.75
245.166	168.75
245.399	158.75
245.633	153.75
245.866	159.75
246.099	167.75
246.333	174.75
246.566	178.75
246.8	169.75
247.033	169.75
247.266	190.75
247.5	186.75
247.733	169.75
247.966	202.75
248.2	182.75
248.433	187.75
248.666	188.75
248.899	188.75
249.133	211.75
249.366	226.75
249.599	216.75
249.832	208.75
250.066	217.75
250.299	215.75
250.532	221.75
250.765	222.75
250.998	232.75
251.231	254.75
251.465	254.75
251.698	214.75
251.931	221.75
252.164	212.75
252.397	225.75
252.63	215.75
252.863	261.75
253.096	242.75
253.329	265.75
253.562	257.75
253.795	234.75
254.028	238.75
254.261	245.75
254.494	246.75
254.727	279.75
254.96	307.75
255.193	288.75
255.426	267.75
255.659	249.75
255.892	267.75
256.124	261.75
256.357	267.75
256.59	257.75
256.823	235.75
257.056	234.75
257.289	221.75
257.521	240.75
257.754	225.75
257.987	230.75
258.22	232.75
258.452	235.75
258.685	228.75
258.918	238.75
259.151	232.75
259.383	236.75
259.616	236.75
259.849	238.75
260.081	254.75
260.314	284.75
260.547	275.75
260.779	270.75
261.012	268.75
261.244	249.75
261.477	254.75
261.71	239.75
261.942	249.75
262.175	265.75
262.407	235.75
262.64	233.75
262.872	232.75
263.105	254.75
263.337	237.75
263.57	229.75
263.802	251.75
264.035	237.75
264.267	237.75
264.499	238.75
264.732	247.75
264.964	245.75
265.197	252.75
265.429	227.75
265.661	251.75
265.894	235.75
266.126	240.75
266.358	232.75
266.591	247.75
266.823	251.75
267.055	257.75
267.287	266.75
267.52	265.75
267.752	265.75
267.984	236.75
268.216	255.75
268.448	279.75
268.681	265.75
268.913	267.75
269.145	282.75
269.377	291.75
269.609	301.75
269.841	288.75
270.073	318.75
270.306	323.75
270.538	346.75
270.77	346.75
271.002	359.75
271.234	328.75
271.466	312.75
271.698	346.75
271.93	338.75
272.162	350.75
272.394	353.75
272.626	329.75
272.858	323.75
273.09	304.75
273.322	313.75
273.553	293.75
273.785	309.75
274.017	294.75
274.249	297.75
274.481	304.75
274.713	298.75
274.945	312.75
275.176	317.75
275.408	309.75
275.64	306.75
275.872	305.75
276.104	310.75
276.335	303.75
276.567	309.75
276.799	301.75
277.031	348.75
277.262	338.75
277.494	337.75
277.726	335.75
277.957	337.75
278.189	322.75
278.421	296.75
278.652	313.75
278.884	316.75
279.115	307.75
279.347	291.75
279.579	298.75
279.81	289.75
280.042	310.75
280.273	301.75
280.505	293.75
280.736	301.75
280.968	293.75
281.199	284.75
281.431	299.75
281.662	314.75
281.894	311.75
282.125	288.75
282.356	313.75
282.588	327.75
282.819	332.75
283.051	301.75
283.282	309.75
283.513	320.75
283.745	320.75
283.976	327.75
284.207	341.75
284.439	313.75
284.67	327.75
284.901	317.75
285.132	323.75
285.364	313.75
285.595	296.75
285.826	320.75
286.057	320.75
286.288	313.75
286.52	333.75
286.751	322.75
286.982	331.75
287.213	335.75
287.444	343.75
287.675	329.75
287.906	360.75
288.138	341.75
288.369	351.75
288.6	351.75
288.831	343.75
289.062	329.75
289.293	333.75
289.524	325.75
289.755	325.75
289.986	344.75
290.217	321.75
290.448	329.75
290.679	327.75
290.91	356.75
291.141	317.75
291.371	314.75
291.602	335.75
291.833	346.75
292.064	332.75
292.295	325.75
292.526	318.75
292.757	333.75
292.987	340.75
293.218	329.75
293.449	330.75
293.68	339.75
293.91	346.75
294.141	329.75
294.372	317.75
294.603	346.75
294.833	331.75
295.064	337.75
295.295	338.75
295.525	350.75
295.756	330.75
295.987	354.75
296.217	348.75
296.448	378.75
296.679	363.75
296.909	346.75
297.14	342.75
297.37	364.75
297.601	360.75
297.831	349.75
298.062	341.75
298.292	338.75
298.523	354.75
298.753	360.75
298.984	358.75
299.214	369.75
299.445	367.75
299.675	354.75
299.905	344.75
300.136	354.75
300.366	358.75
300.597	360.75
300.827	345.75
301.057	349.75
301.288	368.75
301.518	373.75
301.748	386.75
301.979	398.75
302.209	381.75
302.439	382.75
302.669	376.75
302.9	383.75
303.13	370.75
303.36	368.75
303.59	390.75
303.82	395.75
304.051	378.75
304.281	383.75
304.511	376.75
304.741	370.75
304.971	365.75
305.201	371.75
305.431	363.75
305.661	378.75
305.891	390.75
306.121	376.75
306.352	402.75
306.582	396.75
306.812	391.75
307.042	393.75
307.272	391.75
307.502	392.75
307.731	406.75
307.961	377.75
308.191	384.75
308.421	409.75
308.651	381.75
308.881	377.75
309.111	401.75
309.341	395.75
309.571	402.75
309.8	403.75
310.03	443.75
310.26	429.75
310.49	399.75
310.72	415.75
310.949	435.75
311.179	433.75
311.409	420.75
311.639	422.75
311.868	425.75
312.098	420.75
312.328	431.75
312.557	440.75
312.787	439.75
313.017	450.75
313.246	422.75
313.476	434.75
313.706	449.75
313.935	444.75
314.165	438.75
314.394	445.75
314.624	459.75
314.853	449.75
315.083	432.75
315.312	430.75
315.542	422.75
315.771	413.75
316.001	422.75
316.23	405.75
316.46	433.75
316.689	417.75
316.919	437.75
317.148	439.75
317.377	439.75
317.607	423.75
317.836	431.75
318.065	435.75
318.295	435.75
318.524	425.75
318.753	408.75
318.983	434.75
319.212	413.75
319.441	414.75
319.67	428.75
319.9	439.75
320.129	410.75
320.358	426.75
320.587	439.75
320.816	440.75
321.046	453.75
321.275	449.75
321.504	440.75
321.733	453.75
321.962	443.75
322.191	450.75
322.42	485.75
322.649	472.75
322.878	469.75
323.108	478.75
323.337	521.75
323.566	526.75
323.795	565.75
324.024	583.75
324.253	669.75
324.482	944.75
324.71	1356.75
324.939	2047.75
325.168	1809.75
325.397	915.75
325.626	667.75
325.855	576.75
326.084	541.75
326.313	541.75
326.542	535.75
326.77	579.75
326.999	652.75
327.228	861.75
327.457	1294.75
327.686	1579.75
327.914	1088.75
328.143	721.75
328.372	622.75
328.6	607.75
328.829	596.75
329.058	601.75
329.287	597.75
329.515	575.75
329.744	537.75
329.972	547.75
330.201	561.75
330.43	605.75
330.658	617.75
330.887	634.75
331.115	631.75
331.344	572.75
331.572	547.75
331.801	551.75
332.03	557.75
332.258	527.75
332.486	503.75
332.715	510.75
332.943	529.75
333.172	527.75
333.4	529.75
333.629	540.75
333.857	556.75
334.085	559.75
334.314	568.75
334.542	601.75
334.771	608.75
334.999	545.75
335.227	558.75
335.455	522.75
335.684	535.75
335.912	510.75
336.14	508.75
336.369	528.75
336.597	538.75
336.825	523.75
337.053	504.75
337.281	529.75
337.51	510.75
337.738	493.75
337.966	507.75
338.194	507.75
338.422	511.75
338.65	511.75
338.878	524.75
339.106	495.75
339.334	494.75
339.562	490.75
339.79	494.75
340.018	505.75
340.246	489.75
340.474	507.75
340.702	474.75
340.93	493.75
341.158	488.75
341.386	481.75
341.614	500.75
341.842	494.75
342.07	455.75
342.298	491.75
342.526	480.75
342.754	481.75
342.981	470.75
343.209	485.75
343.437	494.75
343.665	510.75
343.893	515.75
344.12	529.75
344.348	513.75
344.576	496.75
344.804	493.75
345.031	510.75
345.259	514.75
345.487	511.75
345.714	493.75
345.942	472.75
346.17	481.75
346.397	503.75
346.625	490.75
346.853	469.75
347.08	464.75
347.308	479.75
347.535	482.75
347.763	480.75
347.99	475.75
348.218	466.75
348.445	502.75
348.673	506.75
348.9	486.75
349.128	455.75
349.355	469.75
349.583	475.75
349.81	473.75
350.037	481.75
350.265	465.75
350.492	456.75
350.72	450.75
350.947	489.75
351.174	498.75
351.402	487.75
351.629	461.75
351.856	473.75
352.083	491.75
352.311	470.75
352.538	508.75
352.765	488.75
352.992	477.75
353.22	468.75
353.447	477.75
353.674	489.75
353.901	454.75
354.128	458.75
354.355	444.75
354.583	450.75
354.81	452.75
355.037	455.75
355.264	456.75
355.491	445.75
355.718	447.75
355.945	424.75
356.172	441.75
356.399	429.75
356.626	454.75
356.853	461.75
357.08	454.75
357.307	467.75
357.534	463.75
357.761	446.75
357.988	439.75
358.215	448.75
358.441	441.75
358.668	462.75
358.895	467.75
359.122	470.75
359.349	465.75
359.576	460.75
359.802	502.75
360.029	519.75
360.256	517.75
360.483	503.75
360.709	494.75
360.936	489.75
361.163	473.75
361.39	470.75
361.616	496.75
361.843	473.75
362.07	480.75
362.296	477.75
362.523	462.75
362.749	471.75
362.976	469.75
363.203	480.75
363.429	479.75
363.656	475.75
363.882	481.75
364.109	471.75
364.335	446.75
364.562	455.75
364.788	460.75
365.015	447.75
365.241	445.75
365.468	471.75
365.694	463.75
365.92	487.75
366.147	459.75
366.373	446.75
366.599	465.75
366.826	446.75
367.052	461.75
367.278	465.75
367.505	466.75
367.731	473.75
367.957	454.75
368.184	488.75
368.41	481.75
368.636	483.75
368.862	492.75
369.089	482.75
369.315	476.75
369.541	446.75
369.767	462.75
369.993	470.75
370.219	451.75
370.445	471.75
370.672	480.75
370.898	465.75
371.124	466.75
371.35	462.75
371.576	476.75
371.802	465.75
372.028	464.75
372.254	496.75
372.48	470.75
372.706	481.75
372.932	468.75
373.158	494.75
373.384	476.75
373.61	474.75
373.835	481.75
374.061	459.75
374.287	473.75
374.513	499.75
374.739	483.75
374.965	484.75
375.191	513.75
375.416	496.75
375.642	491.75
375.868	486.75
376.094	460.75
376.319	490.75
376.545	470.75
376.771	479.75
376.997	481.75
377.222	466.75
377.448	453.75
377.674	469.75
377.899	466.75
378.125	460.75
378.35	484.75
378.576	475.75
378.802	491.75
379.027	477.75
379.253	487.75
379.478	488.75
379.704	469.75
379.929	479.75
380.155	487.75
380.38	471.75
380.606	467.75
380.831	480.75
381.057	473.75
381.282	498.75
381.507	485.75
381.733	484.75
381.958	489.75
382.184	490.75
382.409	483.75
382.634	487.75
382.86	495.75
383.085	495.75
383.31	501.75
383.535	484.75
383.761	515.75
383.986	475.75
384.211	499.75
384.436	509.75
384.662	502.75
384.887	527.75
385.112	511.75
385.337	534.75
385.562	544.75
385.787	539.75
386.013	551.75
386.238	565.75
386.463	549.75
386.688	537.75
386.913	535.75
387.138	519.75
387.363	556.75
387.588	530.75
387.813	541.75
388.038	520.75
388.263	525.75
388.488	510.75
388.713	546.75
388.938	530.75
389.163	526.75
389.387	532.75
389.612	538.75
389.837	560.75
390.062	529.75
390.287	540.75
390.512	537.75
390.736	515.75
390.961	528.75
391.186	537.75
391.411	560.75
391.636	558.75
391.86	553.75
392.085	547.75
392.31	560.75
392.534	545.75
392.759	553.75
392.984	541.75
393.208	540.75
393.433	558.75
393.658	547.75
393.882	521.75
394.107	535.75
394.331	540.75
394.556	506.75
394.78	547.75
395.005	572.75
395.229	572.75
395.454	566.75
395.678	554.75
395.903	538.75
396.127	591.75
396.352	589.75
396.576	579.75
396.801	584.75
397.025	563.75
397.249	554.75
397.474	573.75
397.698	567.75
397.922	576.75
398.147	597.75
398.371	621.75
398.595	610.75
398.82	622.75
399.044	626.75
399.268	666.75
399.492	714.75
399.717	747.75
399.941	800.75
400.165	781.75
400.389	773.75
400.613	711.75
400.837	697.75
401.062	623.75
401.286	649.75
401.51	637.75
401.734	623.75
401.958	628.75
402.182	651.75
402.406	643.75
402.63	635.75
402.854	634.75
403.078	664.75
403.302	647.75
403.526	655.75
403.75	669.75
403.974	662.75
404.198	637.75
404.422	666.75
404.645	683.75
404.869	700.75
405.093	697.75
405.317	747.75
405.541	771.75
405.765	737.75
405.988	663.75
406.212	688.75
406.436	698.75
406.66	715.75
406.883	695.75
407.107	760.75
407.331	787.75
407.555	862.75
407.778	885.75
408.002	765.75
408.226	739.75
408.449	722.75
408.673	700.75
408.896	734.75
409.12	799.75
409.344	767.75
409.567	690.75
409.791	672.75
410.014	641.75
410.238	639.75
410.461	653.75
410.685	648.75
410.908	669.75
411.132	697.75
411.355	737.75
411.578	699.75
411.802	655.75
412.025	671.75
412.249	667.75
412.472	688.75
412.695	715.75
412.919	705.75
413.142	643.75
413.365	639.75
413.589	649.75
413.812	632.75
414.035	615.75
414.258	618.75
414.482	609.75
414.705	619.75
414.928	639.75
415.151	620.75
415.374	606.75
415.597	620.75
415.821	614.75
416.044	640.75
416.267	625.75
416.49	629.75
416.713	606.75
416.936	625.75
417.159	606.75
417.382	631.75
417.605	623.75
417.828	633.75
418.051	637.75
418.274	641.75
418.497	608.75
418.72	626.75
418.943	640.75
419.166	633.75
419.389	657.75
419.611	673.75
419.834	681.75
420.057	654.75
420.28	663.75
420.503	626.75
420.726	613.75
420.948	678.75
421.171	697.75
421.394	725.75
421.617	649.75
421.839	649.75
422.062	648.75
422.285	660.75
422.507	693.75
422.73	805.75
422.953	788.75
423.175	707.75
423.398	669.75
423.621	658.75
423.843	697.75
424.066	684.75
424.288	670.75
424.511	706.75
424.733	761.75
424.956	858.75
425.178	831.75
425.401	816.75
425.623	841.75
425.846	713.75
426.068	698.75
426.291	673.75
426.513	675.75
426.735	712.75
426.958	714.75
427.18	802.75
427.402	950.75
427.625	1017.75
427.847	897.75
428.069	791.75
428.292	705.75
428.514	650.75
428.736	642.75
428.958	643.75
429.181	626.75
429.403	619.75
429.625	630.75
429.847	672.75
430.069	735.75
430.292	740.75
430.514	643.75
430.736	630.75
430.958	621.75
431.18	603.75
431.402	634.75
431.624	593.75
431.846	586.75
432.068	587.75
432.29	596.75
432.512	604.75
432.734	622.75
432.956	603.75
433.178	589.75
433.4	630.75
433.622	607.75
433.844	609.75
434.066	610.75
434.287	608.75
434.509	611.75
434.731	622.75
434.953	639.75
435.175	625.75
435.397	672.75
435.618	679.75
435.84	706.75
436.062	825.75
436.284	859.75
436.505	741.75
436.727	685.75
436.949	653.75
437.17	628.75
437.392	631.75
437.614	652.75
437.835	651.75
438.057	748.75
438.278	876.75
438.5	860.75
438.721	956.75
438.943	933.75
439.165	746.75
439.386	689.75
439.608	680.75
439.829	674.75
440.05	695.75
440.272	761.75
440.493	718.75
440.715	661.75
440.936	647.75
441.158	624.75
441.379	649.75
441.6	650.75
441.822	673.75
442.043	714.75
442.264	806.75
442.486	841.75
442.707	743.75
442.928	704.75
443.149	697.75
443.371	758.75
443.592	758.75
443.813	895.75
444.034	943.75
444.255	782.75
444.476	723.75
444.698	674.75
444.919	697.75
445.14	829.75
445.361	755.75
445.582	699.75
445.803	773.75
446.024	893.75
446.245	890.75
446.466	812.75
446.687	717.75
446.908	695.75
447.129	622.75
447.35	618.75
447.571	635.75
447.792	603.75
448.013	623.75
448.234	614.75
448.455	686.75
448.675	793.75
448.896	941.75
449.117	795.75
449.338	763.75
449.559	858.75
449.779	981.75
450	806.75
450.221	673.75
450.442	659.75
450.662	606.75
450.883	603.75
451.104	613.75
451.324	590.75
451.545	580.75
451.766	560.75
451.986	567.75
452.207	545.75
452.428	553.75
452.648	566.75
452.869	544.75
453.089	577.75
453.31	585.75
453.53	564.75
453.751	541.75
453.971	547.75
454.192	591.75
454.412	548.75
454.633	550.75
454.853	546.75
455.073	558.75
455.294	575.75
455.514	640.75
455.734	625.75
455.955	561.75
456.175	517.75
456.395	535.75
456.616	544.75
456.836	523.75
457.056	537.75
457.276	522.75
457.497	546.75
457.717	531.75
457.937	547.75
458.157	549.75
458.377	558.75
458.598	563.75
458.818	632.75
459.038	711.75
459.258	737.75
459.478	651.75
459.698	623.75
459.918	587.75
460.138	601.75
460.358	629.75
460.578	625.75
460.798	611.75
461.018	625.75
461.238	651.75
461.458	645.75
461.678	591.75
461.898	630.75
462.118	622.75
462.338	641.75
462.558	648.75
462.777	673.75
462.997	671.75
463.217	710.75
463.437	714.75
463.657	706.75
463.876	690.75
464.096	687.75
464.316	671.75
464.536	682.75
464.755	661.75
464.975	659.75
465.195	686.75
465.414	733.75
465.634	682.75
465.854	640.75
466.073	618.75
466.293	611.75
466.512	590.75
466.732	574.75
466.951	566.75
467.171	563.75
467.391	600.75
467.61	583.75
467.829	595.75
468.049	613.75
468.268	583.75
468.488	560.75
468.707	561.75
468.927	554.75
469.146	574.75
469.365	554.75
469.585	567.75
469.804	554.75
470.023	579.75
470.243	572.75
470.462	597.75
470.681	604.75
470.901	595.75
471.12	580.75
471.339	598.75
471.558	564.75
471.777	563.75
471.997	579.75
472.216	570.75
472.435	633.75
472.654	611.75
472.873	585.75
473.092	555.75
473.311	581.75
473.53	587.75
473.749	594.75
473.968	609.75
474.187	695.75
474.406	748.75
474.625	633.75
474.844	585.75
475.063	560.75
475.282	590.75
475.501	578.75
475.72	590.75
475.939	586.75
476.158	594.75
476.377	600.75
476.596	591.75
476.814	615.75
477.033	599.75
477.252	611.75
477.471	631.75
477.69	620.75
477.908	642.75
478.127	665.75
478.346	651.75
478.564	647.75
478.783	659.75
479.002	654.75
479.22	659.75
479.439	688.75
479.658	695.75
479.876	708.75
480.095	689.75
480.313	751.75
480.532	762.75
480.751	721.75
480.969	726.75
481.188	750.75
481.406	789.75
481.624	727.75
481.843	711.75
482.061	684.75
482.28	682.75
482.498	659.75
482.717	684.75
482.935	688.75
483.153	689.75
483.372	699.75
483.59	667.75
483.808	679.75
484.027	677.75
484.245	706.75
484.463	669.75
484.681	715.75
484.9	722.75
485.118	691.75
485.336	686.75
485.554	693.75
485.772	695.75
485.99	693.75
486.209	683.75
486.427	707.75
486.645	693.75
486.863	720.75
487.081	727.75
487.299	722.75
487.517	716.75
487.735	709.75
487.953	718.75
488.171	728.75
488.389	730.75
488.607	723.75
488.825	734.75
489.043	754.75
489.261	736.75
489.479	732.75
489.696	728.75
489.914	755.75
490.132	759.75
490.35	769.75
490.568	772.75
490.786	797.75
491.003	793.75
491.221	794.75
491.439	796.75
491.657	853.75
491.874	831.75
492.092	841.75
492.31	839.75
492.527	839.75
492.745	843.75
492.963	870.75
493.18	864.75
493.398	853.75
493.615	845.75
493.833	860.75
494.05	873.75
494.268	867.75
494.485	867.75
494.703	880.75
494.92	852.75
495.138	876.75
495.355	866.75
495.573	883.75
495.79	882.75
496.008	902.75
496.225	856.75
496.442	894.75
496.66	871.75
496.877	872.75
497.094	868.75
497.312	880.75
497.529	887.75
497.746	904.75
497.963	908.75
498.181	934.75
498.398	959.75
498.615	979.75
498.832	1014.75
499.049	1039.75
499.267	1080.75
499.484	1122.75
499.701	1149.75
499.918	1195.75
500.135	1272.75
500.352	1387.75
500.569	1375.75
500.786	1399.75
501.003	1362.75
501.22	1319.75
501.437	1234.75
