Data from 1974.PennyLincolnUp.Lamp.En5.5.200Scan.071719.P1.Changed Mount._HRD10591_15-52-13-856.txt Node
Date: Thu Jul 18 15:52:13 EDT 2019
User: cochatt
Spectrometer: HR+D1059
Trigger mode: 1
Integration Time (sec): 1.000000E-1
Scans to average: 1
Electric dark correction enabled: true
Nonlinearity correction enabled: false
Boxcar width: 0
XAxis mode: Wavelengths
Number of Pixels in Spectrum: 2048
>>>>>Begin Spectral Data<<<<<
223.165	-16.62
223.4	-16.62
223.635	-16.62
223.869	-9.62
224.104	-11.62
224.338	-11.62
224.573	-16.62
224.808	-12.62
225.042	-26.62
225.277	-12.62
225.511	2.38
225.746	9.38
225.98	-6.62
226.215	4.38
226.449	18.38
226.683	19.38
226.918	36.38
227.152	34.38
227.387	39.38
227.621	37.38
227.856	48.38
228.09	43.38
228.324	49.38
228.559	52.38
228.793	70.38
229.027	102.38
229.262	106.38
229.496	114.38
229.73	137.38
229.964	152.38
230.199	132.38
230.433	121.38
230.667	113.38
230.901	120.38
231.136	113.38
231.37	131.38
231.604	112.38
231.838	113.38
232.072	112.38
232.306	121.38
232.541	128.38
232.775	118.38
233.009	105.38
233.243	118.38
233.477	132.38
233.711	116.38
233.945	128.38
234.179	125.38
234.413	133.38
234.647	128.38
234.881	128.38
235.115	123.38
235.349	122.38
235.583	126.38
235.817	122.38
236.051	126.38
236.285	136.38
236.519	138.38
236.753	129.38
236.987	140.38
237.221	167.38
237.455	214.38
237.689	187.38
237.922	155.38
238.156	140.38
238.39	137.38
238.624	142.38
238.858	127.38
239.091	140.38
239.325	124.38
239.559	138.38
239.793	129.38
240.027	152.38
240.26	132.38
240.494	159.38
240.728	158.38
240.961	137.38
241.195	154.38
241.429	151.38
241.662	136.38
241.896	146.38
242.13	144.38
242.363	136.38
242.597	142.38
242.83	150.38
243.064	138.38
243.298	149.38
243.531	167.38
243.765	153.38
243.998	160.38
244.232	152.38
244.465	148.38
244.699	158.38
244.932	149.38
245.166	152.38
245.399	164.38
245.633	150.38
245.866	150.38
246.099	176.38
246.333	165.38
246.566	172.38
246.8	164.38
247.033	169.38
247.266	171.38
247.5	188.38
247.733	166.38
247.966	180.38
248.2	167.38
248.433	183.38
248.666	186.38
248.899	194.38
249.133	198.38
249.366	217.38
249.599	221.38
249.832	188.38
250.066	189.38
250.299	191.38
250.532	200.38
250.765	221.38
250.998	227.38
251.231	235.38
251.465	232.38
251.698	223.38
251.931	207.38
252.164	192.38
252.397	210.38
252.63	192.38
252.863	190.38
253.096	231.38
253.329	228.38
253.562	241.38
253.795	238.38
254.028	233.38
254.261	234.38
254.494	239.38
254.727	274.38
254.96	284.38
255.193	285.38
255.426	250.38
255.659	226.38
255.892	233.38
256.124	248.38
256.357	227.38
256.59	234.38
256.823	238.38
257.056	217.38
257.289	232.38
257.521	245.38
257.754	222.38
257.987	209.38
258.22	201.38
258.452	203.38
258.685	229.38
258.918	211.38
259.151	231.38
259.383	224.38
259.616	234.38
259.849	237.38
260.081	241.38
260.314	254.38
260.547	285.38
260.779	239.38
261.012	245.38
261.244	219.38
261.477	230.38
261.71	239.38
261.942	229.38
262.175	252.38
262.407	230.38
262.64	237.38
262.872	210.38
263.105	238.38
263.337	232.38
263.57	229.38
263.802	226.38
264.035	218.38
264.267	218.38
264.499	214.38
264.732	233.38
264.964	225.38
265.197	231.38
265.429	234.38
265.661	213.38
265.894	228.38
266.126	232.38
266.358	224.38
266.591	232.38
266.823	217.38
267.055	224.38
267.287	244.38
267.52	242.38
267.752	250.38
267.984	241.38
268.216	246.38
268.448	240.38
268.681	238.38
268.913	249.38
269.145	268.38
269.377	283.38
269.609	288.38
269.841	280.38
270.073	284.38
270.306	301.38
270.538	295.38
270.77	331.38
271.002	289.38
271.234	299.38
271.466	301.38
271.698	304.38
271.93	329.38
272.162	332.38
272.394	320.38
272.626	325.38
272.858	301.38
273.09	300.38
273.322	284.38
273.553	260.38
273.785	279.38
274.017	286.38
274.249	271.38
274.481	251.38
274.713	277.38
274.945	269.38
275.176	271.38
275.408	267.38
275.64	268.38
275.872	281.38
276.104	278.38
276.335	277.38
276.567	281.38
276.799	302.38
277.031	304.38
277.262	315.38
277.494	325.38
277.726	317.38
277.957	301.38
278.189	310.38
278.421	294.38
278.652	298.38
278.884	285.38
279.115	281.38
279.347	275.38
279.579	280.38
279.81	280.38
280.042	287.38
280.273	296.38
280.505	296.38
280.736	292.38
280.968	302.38
281.199	267.38
281.431	275.38
281.662	290.38
281.894	282.38
282.125	284.38
282.356	325.38
282.588	302.38
282.819	324.38
283.051	314.38
283.282	284.38
283.513	290.38
283.745	294.38
283.976	290.38
284.207	297.38
284.439	300.38
284.67	301.38
284.901	298.38
285.132	280.38
285.364	298.38
285.595	308.38
285.826	282.38
286.057	314.38
286.288	307.38
286.52	284.38
286.751	302.38
286.982	298.38
287.213	288.38
287.444	299.38
287.675	288.38
287.906	321.38
288.138	313.38
288.369	309.38
288.6	327.38
288.831	316.38
289.062	320.38
289.293	296.38
289.524	306.38
289.755	312.38
289.986	320.38
290.217	301.38
290.448	323.38
290.679	324.38
290.91	310.38
291.141	310.38
291.371	312.38
291.602	319.38
291.833	312.38
292.064	298.38
292.295	322.38
292.526	313.38
292.757	322.38
292.987	297.38
293.218	319.38
293.449	318.38
293.68	297.38
293.91	322.38
294.141	315.38
294.372	305.38
294.603	332.38
294.833	317.38
295.064	306.38
295.295	304.38
295.525	318.38
295.756	315.38
295.987	307.38
296.217	341.38
296.448	342.38
296.679	342.38
296.909	325.38
297.14	328.38
297.37	324.38
297.601	304.38
297.831	342.38
298.062	339.38
298.292	318.38
298.523	316.38
298.753	335.38
298.984	345.38
299.214	328.38
299.445	332.38
299.675	340.38
299.905	331.38
300.136	333.38
300.366	312.38
300.597	341.38
300.827	346.38
301.057	345.38
301.288	352.38
301.518	330.38
301.748	353.38
301.979	358.38
302.209	360.38
302.439	350.38
302.669	343.38
302.9	339.38
303.13	346.38
303.36	375.38
303.59	358.38
303.82	348.38
304.051	349.38
304.281	365.38
304.511	359.38
304.741	349.38
304.971	350.38
305.201	356.38
305.431	366.38
305.661	347.38
305.891	356.38
306.121	344.38
306.352	354.38
306.582	355.38
306.812	337.38
307.042	352.38
307.272	372.38
307.502	346.38
307.731	373.38
307.961	361.38
308.191	357.38
308.421	352.38
308.651	341.38
308.881	332.38
309.111	365.38
309.341	350.38
309.571	363.38
309.8	386.38
310.03	380.38
310.26	386.38
310.49	374.38
310.72	411.38
310.949	385.38
311.179	397.38
311.409	393.38
311.639	383.38
311.868	382.38
312.098	380.38
312.328	389.38
312.557	393.38
312.787	409.38
313.017	385.38
313.246	397.38
313.476	387.38
313.706	394.38
313.935	396.38
314.165	406.38
314.394	399.38
314.624	407.38
314.853	399.38
315.083	408.38
315.312	404.38
315.542	395.38
315.771	406.38
316.001	391.38
316.23	392.38
316.46	407.38
316.689	382.38
316.919	406.38
317.148	407.38
317.377	402.38
317.607	394.38
317.836	398.38
318.065	403.38
318.295	378.38
318.524	387.38
318.753	386.38
318.983	392.38
319.212	393.38
319.441	384.38
319.67	401.38
319.9	400.38
320.129	382.38
320.358	403.38
320.587	386.38
320.816	414.38
321.046	417.38
321.275	411.38
321.504	404.38
321.733	403.38
321.962	420.38
322.191	431.38
322.42	420.38
322.649	438.38
322.878	452.38
323.108	441.38
323.337	455.38
323.566	470.38
323.795	506.38
324.024	511.38
324.253	590.38
324.482	785.38
324.71	1153.38
324.939	1710.38
325.168	1487.38
325.397	820.38
325.626	570.38
325.855	489.38
326.084	476.38
326.313	484.38
326.542	474.38
326.77	508.38
326.999	553.38
327.228	737.38
327.457	1089.38
327.686	1316.38
327.914	902.38
328.143	614.38
328.372	588.38
328.6	556.38
328.829	547.38
329.058	539.38
329.287	575.38
329.515	494.38
329.744	498.38
329.972	496.38
330.201	504.38
330.43	532.38
330.658	557.38
330.887	560.38
331.115	542.38
331.344	511.38
331.572	472.38
331.801	478.38
332.03	477.38
332.258	512.38
332.486	467.38
332.715	461.38
332.943	482.38
333.172	482.38
333.4	514.38
333.629	491.38
333.857	518.38
334.085	523.38
334.314	548.38
334.542	534.38
334.771	565.38
334.999	518.38
335.227	489.38
335.455	508.38
335.684	496.38
335.912	487.38
336.14	465.38
336.369	485.38
336.597	490.38
336.825	479.38
337.053	470.38
337.281	454.38
337.51	467.38
337.738	460.38
337.966	463.38
338.194	461.38
338.422	464.38
338.65	474.38
338.878	456.38
339.106	449.38
339.334	461.38
339.562	459.38
339.79	454.38
340.018	462.38
340.246	462.38
340.474	419.38
340.702	448.38
340.93	458.38
341.158	460.38
341.386	465.38
341.614	436.38
341.842	457.38
342.07	448.38
342.298	444.38
342.526	444.38
342.754	449.38
342.981	433.38
343.209	441.38
343.437	440.38
343.665	455.38
343.893	480.38
344.12	476.38
344.348	477.38
344.576	488.38
344.804	477.38
345.031	460.38
345.259	483.38
345.487	465.38
345.714	457.38
345.942	450.38
346.17	440.38
346.397	456.38
346.625	453.38
346.853	437.38
347.08	427.38
347.308	448.38
347.535	447.38
347.763	453.38
347.99	450.38
348.218	435.38
348.445	429.38
348.673	454.38
348.9	434.38
349.128	425.38
349.355	445.38
349.583	415.38
349.81	433.38
350.037	441.38
350.265	442.38
350.492	429.38
350.72	424.38
350.947	424.38
351.174	444.38
351.402	444.38
351.629	459.38
351.856	435.38
352.083	417.38
352.311	444.38
352.538	453.38
352.765	448.38
352.992	456.38
353.22	424.38
353.447	432.38
353.674	438.38
353.901	420.38
354.128	426.38
354.355	447.38
354.583	427.38
354.81	446.38
355.037	432.38
355.264	425.38
355.491	429.38
355.718	402.38
355.945	420.38
356.172	417.38
356.399	425.38
356.626	432.38
356.853	428.38
357.08	425.38
357.307	436.38
357.534	418.38
357.761	431.38
357.988	440.38
358.215	440.38
358.441	423.38
358.668	429.38
358.895	424.38
359.122	420.38
359.349	436.38
359.576	455.38
359.802	456.38
360.029	469.38
360.256	478.38
360.483	481.38
360.709	448.38
360.936	454.38
361.163	443.38
361.39	454.38
361.616	448.38
361.843	469.38
362.07	472.38
362.296	449.38
362.523	440.38
362.749	443.38
362.976	427.38
363.203	440.38
363.429	431.38
363.656	429.38
363.882	424.38
364.109	433.38
364.335	404.38
364.562	428.38
364.788	440.38
365.015	417.38
365.241	429.38
365.468	444.38
365.694	442.38
365.92	453.38
366.147	432.38
366.373	463.38
366.599	438.38
366.826	415.38
367.052	447.38
367.278	433.38
367.505	429.38
367.731	444.38
367.957	401.38
368.184	428.38
368.41	424.38
368.636	458.38
368.862	448.38
369.089	452.38
369.315	443.38
369.541	428.38
369.767	445.38
369.993	451.38
370.219	433.38
370.445	446.38
370.672	430.38
370.898	446.38
371.124	441.38
371.35	446.38
371.576	450.38
371.802	439.38
372.028	424.38
372.254	453.38
372.48	441.38
372.706	448.38
372.932	464.38
373.158	428.38
373.384	443.38
373.61	434.38
373.835	436.38
374.061	436.38
374.287	444.38
374.513	445.38
374.739	456.38
374.965	475.38
375.191	462.38
375.416	469.38
375.642	458.38
375.868	450.38
376.094	446.38
376.319	457.38
376.545	439.38
376.771	444.38
376.997	436.38
377.222	443.38
377.448	462.38
377.674	458.38
377.899	439.38
378.125	444.38
378.35	436.38
378.576	453.38
378.802	437.38
379.027	456.38
379.253	445.38
379.478	433.38
379.704	442.38
379.929	445.38
380.155	451.38
380.38	448.38
380.606	447.38
380.831	453.38
381.057	449.38
381.282	457.38
381.507	442.38
381.733	429.38
381.958	447.38
382.184	470.38
382.409	452.38
382.634	450.38
382.86	441.38
383.085	462.38
383.31	461.38
383.535	470.38
383.761	462.38
383.986	467.38
384.211	482.38
384.436	484.38
384.662	461.38
384.887	480.38
385.112	489.38
385.337	489.38
385.562	493.38
385.787	472.38
386.013	483.38
386.238	500.38
386.463	500.38
386.688	493.38
386.913	492.38
387.138	496.38
387.363	511.38
387.588	487.38
387.813	512.38
388.038	526.38
388.263	496.38
388.488	496.38
388.713	524.38
388.938	495.38
389.163	495.38
389.387	493.38
389.612	515.38
389.837	491.38
390.062	501.38
390.287	508.38
390.512	483.38
390.736	496.38
390.961	496.38
391.186	510.38
391.411	516.38
391.636	512.38
391.86	527.38
392.085	522.38
392.31	517.38
392.534	530.38
392.759	516.38
392.984	502.38
393.208	517.38
393.433	503.38
393.658	510.38
393.882	519.38
394.107	490.38
394.331	492.38
394.556	487.38
394.78	512.38
395.005	532.38
395.229	529.38
395.454	523.38
395.678	567.38
395.903	530.38
396.127	575.38
396.352	533.38
396.576	521.38
396.801	509.38
397.025	533.38
397.249	535.38
397.474	552.38
397.698	549.38
397.922	563.38
398.147	565.38
398.371	570.38
398.595	581.38
398.82	543.38
399.044	608.38
399.268	615.38
399.492	654.38
399.717	688.38
399.941	737.38
400.165	720.38
400.389	725.38
400.613	663.38
400.837	628.38
401.062	605.38
401.286	590.38
401.51	571.38
401.734	559.38
401.958	602.38
402.182	590.38
402.406	604.38
402.63	590.38
402.854	604.38
403.078	622.38
403.302	597.38
403.526	610.38
403.75	628.38
403.974	623.38
404.198	620.38
404.422	623.38
404.645	627.38
404.869	617.38
405.093	658.38
405.317	720.38
405.541	726.38
405.765	673.38
405.988	636.38
406.212	623.38
406.436	646.38
406.66	669.38
406.883	669.38
407.107	657.38
407.331	725.38
407.555	783.38
407.778	772.38
408.002	730.38
408.226	686.38
408.449	664.38
408.673	656.38
408.896	679.38
409.12	737.38
409.344	668.38
409.567	642.38
409.791	604.38
410.014	606.38
410.238	617.38
410.461	609.38
410.685	636.38
410.908	632.38
411.132	647.38
411.355	684.38
411.578	641.38
411.802	609.38
412.025	614.38
412.249	614.38
412.472	629.38
412.695	652.38
412.919	649.38
413.142	632.38
413.365	603.38
413.589	614.38
413.812	562.38
414.035	585.38
414.258	558.38
414.482	584.38
414.705	588.38
414.928	580.38
415.151	557.38
415.374	574.38
415.597	594.38
415.821	554.38
416.044	582.38
416.267	580.38
416.49	579.38
416.713	576.38
416.936	580.38
417.159	579.38
417.382	573.38
417.605	563.38
417.828	595.38
418.051	596.38
418.274	601.38
418.497	594.38
418.72	592.38
418.943	561.38
419.166	601.38
419.389	630.38
419.611	640.38
419.834	630.38
420.057	620.38
420.28	610.38
420.503	606.38
420.726	594.38
420.948	620.38
421.171	675.38
421.394	670.38
421.617	621.38
421.839	594.38
422.062	580.38
422.285	621.38
422.507	666.38
422.73	749.38
422.953	701.38
423.175	629.38
423.398	615.38
423.621	617.38
423.843	647.38
424.066	641.38
424.288	609.38
424.511	652.38
424.733	688.38
424.956	809.38
425.178	738.38
425.401	729.38
425.623	768.38
425.846	696.38
426.068	620.38
426.291	639.38
426.513	616.38
426.735	631.38
426.958	647.38
427.18	738.38
427.402	894.38
427.625	936.38
427.847	831.38
428.069	738.38
428.292	636.38
428.514	598.38
428.736	585.38
428.958	595.38
429.181	600.38
429.403	578.38
429.625	599.38
429.847	632.38
430.069	686.38
430.292	672.38
430.514	585.38
430.736	584.38
430.958	584.38
431.18	582.38
431.402	556.38
431.624	549.38
431.846	541.38
432.068	561.38
432.29	534.38
432.512	557.38
432.734	580.38
432.956	571.38
433.178	595.38
433.4	588.38
433.622	550.38
433.844	546.38
434.066	561.38
434.287	557.38
434.509	580.38
434.731	576.38
434.953	597.38
435.175	621.38
435.397	626.38
435.618	622.38
435.84	662.38
436.062	759.38
436.284	811.38
436.505	704.38
436.727	623.38
436.949	587.38
437.17	591.38
437.392	592.38
437.614	599.38
437.835	602.38
438.057	683.38
438.278	806.38
438.5	805.38
438.721	876.38
438.943	852.38
439.165	708.38
439.386	620.38
439.608	616.38
439.829	619.38
440.05	661.38
440.272	663.38
440.493	643.38
440.715	613.38
440.936	623.38
441.158	584.38
441.379	592.38
441.6	608.38
441.822	655.38
442.043	673.38
442.264	758.38
442.486	782.38
442.707	693.38
442.928	632.38
443.149	648.38
443.371	664.38
443.592	702.38
443.813	800.38
444.034	879.38
444.255	722.38
444.476	682.38
444.698	659.38
444.919	647.38
445.14	742.38
445.361	699.38
445.582	654.38
445.803	717.38
446.024	785.38
446.245	822.38
446.466	739.38
446.687	665.38
446.908	618.38
447.129	598.38
447.35	596.38
447.571	571.38
447.792	545.38
448.013	580.38
448.234	566.38
448.455	623.38
448.675	738.38
448.896	856.38
449.117	734.38
449.338	696.38
449.559	776.38
449.779	925.38
450	745.38
450.221	604.38
450.442	570.38
450.662	544.38
450.883	561.38
451.104	569.38
451.324	548.38
451.545	530.38
451.766	527.38
451.986	549.38
452.207	493.38
452.428	516.38
452.648	529.38
452.869	529.38
453.089	521.38
453.31	501.38
453.53	524.38
453.751	497.38
453.971	515.38
454.192	536.38
454.412	505.38
454.633	500.38
454.853	515.38
455.073	503.38
455.294	557.38
455.514	623.38
455.734	613.38
455.955	518.38
456.175	504.38
456.395	500.38
456.616	487.38
456.836	502.38
457.056	488.38
457.276	472.38
457.497	479.38
457.717	483.38
457.937	487.38
458.157	502.38
458.377	484.38
458.598	520.38
458.818	572.38
459.038	641.38
459.258	659.38
459.478	613.38
459.698	564.38
459.918	556.38
460.138	576.38
460.358	564.38
460.578	580.38
460.798	585.38
461.018	603.38
461.238	571.38
461.458	560.38
461.678	568.38
461.898	584.38
462.118	570.38
462.338	617.38
462.558	594.38
462.777	631.38
462.997	646.38
463.217	674.38
463.437	678.38
463.657	647.38
463.876	630.38
464.096	620.38
464.316	635.38
464.536	633.38
464.755	636.38
464.975	639.38
465.195	632.38
465.414	679.38
465.634	617.38
465.854	598.38
466.073	576.38
466.293	555.38
466.512	546.38
466.732	520.38
466.951	541.38
467.171	526.38
467.391	526.38
467.61	545.38
467.829	559.38
468.049	536.38
468.268	521.38
468.488	540.38
468.707	522.38
468.927	522.38
469.146	517.38
469.365	518.38
469.585	525.38
469.804	520.38
470.023	540.38
470.243	548.38
470.462	553.38
470.681	559.38
470.901	551.38
471.12	528.38
471.339	516.38
471.558	530.38
471.777	548.38
471.997	556.38
472.216	572.38
472.435	577.38
472.654	555.38
472.873	540.38
473.092	524.38
473.311	536.38
473.53	519.38
473.749	544.38
473.968	576.38
474.187	669.38
474.406	690.38
474.625	569.38
474.844	552.38
475.063	537.38
475.282	533.38
475.501	538.38
475.72	548.38
475.939	549.38
476.158	569.38
476.377	569.38
476.596	545.38
476.814	554.38
477.033	569.38
477.252	573.38
477.471	575.38
477.69	586.38
477.908	586.38
478.127	597.38
478.346	598.38
478.564	602.38
478.783	638.38
479.002	621.38
479.22	632.38
479.439	628.38
479.658	656.38
479.876	649.38
480.095	653.38
480.313	670.38
480.532	674.38
480.751	664.38
480.969	681.38
481.188	682.38
481.406	749.38
481.624	676.38
481.843	638.38
482.061	660.38
482.28	631.38
482.498	627.38
482.717	625.38
482.935	632.38
483.153	629.38
483.372	637.38
483.59	659.38
483.808	638.38
484.027	622.38
484.245	640.38
484.463	614.38
484.681	656.38
484.9	644.38
485.118	641.38
485.336	649.38
485.554	648.38
485.772	641.38
485.99	642.38
486.209	662.38
486.427	665.38
486.645	667.38
486.863	665.38
487.081	682.38
487.299	672.38
487.517	666.38
487.735	674.38
487.953	688.38
488.171	663.38
488.389	699.38
488.607	688.38
488.825	689.38
489.043	694.38
489.261	687.38
489.479	710.38
489.696	708.38
489.914	682.38
490.132	691.38
490.35	718.38
490.568	708.38
490.786	705.38
491.003	737.38
491.221	744.38
491.439	752.38
491.657	769.38
491.874	773.38
492.092	765.38
492.31	781.38
492.527	758.38
492.745	784.38
492.963	815.38
493.18	804.38
493.398	796.38
493.615	794.38
493.833	817.38
494.05	816.38
494.268	798.38
494.485	782.38
494.703	793.38
494.92	808.38
495.138	811.38
495.355	811.38
495.573	795.38
495.79	813.38
496.008	817.38
496.225	798.38
496.442	811.38
496.66	800.38
496.877	799.38
497.094	840.38
497.312	826.38
497.529	823.38
497.746	874.38
497.963	833.38
498.181	879.38
498.398	895.38
498.615	902.38
498.832	938.38
499.049	967.38
499.267	999.38
499.484	1031.38
499.701	1097.38
499.918	1126.38
500.135	1175.38
500.352	1242.38
500.569	1304.38
500.786	1313.38
501.003	1288.38
501.22	1235.38
501.437	1132.38
501.654	1081.38
