Data from 1974.PennyLincolnUp.Lamp.En5.5.200Scan.071719.P1.Changed Mount._HRD10591_15-51-47-857.txt Node
Date: Thu Jul 18 15:51:47 EDT 2019
User: cochatt
Spectrometer: HR+D1059
Trigger mode: 1
Integration Time (sec): 1.000000E-1
Scans to average: 1
Electric dark correction enabled: true
Nonlinearity correction enabled: false
Boxcar width: 0
XAxis mode: Wavelengths
Number of Pixels in Spectrum: 2048
>>>>>Begin Spectral Data<<<<<
223.165	-23.88
223.4	-23.88
223.635	-23.88
223.869	-19.88
224.104	-10.88
224.338	-12.88
224.573	-11.88
224.808	-12.88
225.042	-11.88
225.277	-0.88
225.511	8.12
225.746	9.12
225.98	-0.88
226.215	11.12
226.449	25.12
226.683	16.12
226.918	22.12
227.152	14.12
227.387	37.12
227.621	40.12
227.856	29.12
228.09	52.12
228.324	43.12
228.559	49.12
228.793	59.12
229.027	91.12
229.262	98.12
229.496	116.12
229.73	134.12
229.964	143.12
230.199	121.12
230.433	111.12
230.667	118.12
230.901	113.12
231.136	95.12
231.37	107.12
231.604	124.12
231.838	101.12
232.072	113.12
232.306	121.12
232.541	121.12
232.775	115.12
233.009	100.12
233.243	106.12
233.477	127.12
233.711	114.12
233.945	125.12
234.179	129.12
234.413	115.12
234.647	128.12
234.881	120.12
235.115	115.12
235.349	124.12
235.583	117.12
235.817	121.12
236.051	129.12
236.285	122.12
236.519	117.12
236.753	134.12
236.987	133.12
237.221	164.12
237.455	226.12
237.689	177.12
237.922	133.12
238.156	122.12
238.39	125.12
238.624	124.12
238.858	130.12
239.091	111.12
239.325	103.12
239.559	123.12
239.793	133.12
240.027	135.12
240.26	151.12
240.494	142.12
240.728	151.12
240.961	149.12
241.195	147.12
241.429	146.12
241.662	135.12
241.896	143.12
242.13	134.12
242.363	126.12
242.597	126.12
242.83	154.12
243.064	134.12
243.298	141.12
243.531	142.12
243.765	126.12
243.998	141.12
244.232	150.12
244.465	159.12
244.699	141.12
244.932	149.12
245.166	152.12
245.399	162.12
245.633	162.12
245.866	156.12
246.099	143.12
246.333	148.12
246.566	160.12
246.8	163.12
247.033	153.12
247.266	152.12
247.5	181.12
247.733	164.12
247.966	154.12
248.2	187.12
248.433	177.12
248.666	165.12
248.899	186.12
249.133	179.12
249.366	208.12
249.599	206.12
249.832	190.12
250.066	192.12
250.299	196.12
250.532	180.12
250.765	208.12
250.998	237.12
251.231	229.12
251.465	220.12
251.698	208.12
251.931	201.12
252.164	196.12
252.397	209.12
252.63	212.12
252.863	218.12
253.096	207.12
253.329	219.12
253.562	216.12
253.795	233.12
254.028	200.12
254.261	203.12
254.494	221.12
254.727	257.12
254.96	267.12
255.193	277.12
255.426	248.12
255.659	224.12
255.892	224.12
256.124	211.12
256.357	227.12
256.59	220.12
256.823	217.12
257.056	209.12
257.289	210.12
257.521	221.12
257.754	221.12
257.987	216.12
258.22	212.12
258.452	221.12
258.685	210.12
258.918	199.12
259.151	209.12
259.383	231.12
259.616	219.12
259.849	229.12
260.081	225.12
260.314	246.12
260.547	241.12
260.779	240.12
261.012	244.12
261.244	216.12
261.477	226.12
261.71	218.12
261.942	226.12
262.175	217.12
262.407	224.12
262.64	218.12
262.872	225.12
263.105	211.12
263.337	228.12
263.57	203.12
263.802	217.12
264.035	215.12
264.267	222.12
264.499	227.12
264.732	230.12
264.964	229.12
265.197	204.12
265.429	212.12
265.661	219.12
265.894	220.12
266.126	222.12
266.358	234.12
266.591	216.12
266.823	229.12
267.055	235.12
267.287	212.12
267.52	248.12
267.752	227.12
267.984	218.12
268.216	231.12
268.448	234.12
268.681	232.12
268.913	237.12
269.145	263.12
269.377	271.12
269.609	254.12
269.841	263.12
270.073	295.12
270.306	275.12
270.538	295.12
270.77	300.12
271.002	290.12
271.234	299.12
271.466	288.12
271.698	291.12
271.93	310.12
272.162	285.12
272.394	303.12
272.626	305.12
272.858	295.12
273.09	268.12
273.322	280.12
273.553	257.12
273.785	262.12
274.017	260.12
274.249	277.12
274.481	267.12
274.713	255.12
274.945	252.12
275.176	266.12
275.408	275.12
275.64	269.12
275.872	265.12
276.104	272.12
276.335	281.12
276.567	283.12
276.799	281.12
277.031	292.12
277.262	312.12
277.494	326.12
277.726	295.12
277.957	279.12
278.189	286.12
278.421	292.12
278.652	276.12
278.884	268.12
279.115	248.12
279.347	268.12
279.579	285.12
279.81	272.12
280.042	279.12
280.273	280.12
280.505	282.12
280.736	271.12
280.968	268.12
281.199	266.12
281.431	291.12
281.662	284.12
281.894	279.12
282.125	283.12
282.356	287.12
282.588	309.12
282.819	291.12
283.051	293.12
283.282	279.12
283.513	307.12
283.745	286.12
283.976	309.12
284.207	316.12
284.439	295.12
284.67	286.12
284.901	275.12
285.132	281.12
285.364	305.12
285.595	290.12
285.826	291.12
286.057	285.12
286.288	300.12
286.52	278.12
286.751	284.12
286.982	305.12
287.213	307.12
287.444	289.12
287.675	281.12
287.906	298.12
288.138	317.12
288.369	311.12
288.6	295.12
288.831	321.12
289.062	307.12
289.293	308.12
289.524	312.12
289.755	309.12
289.986	295.12
290.217	295.12
290.448	304.12
290.679	299.12
290.91	293.12
291.141	291.12
291.371	303.12
291.602	297.12
291.833	294.12
292.064	304.12
292.295	311.12
292.526	299.12
292.757	303.12
292.987	305.12
293.218	310.12
293.449	313.12
293.68	305.12
293.91	302.12
294.141	310.12
294.372	306.12
294.603	323.12
294.833	319.12
295.064	306.12
295.295	308.12
295.525	314.12
295.756	319.12
295.987	300.12
296.217	350.12
296.448	334.12
296.679	328.12
296.909	307.12
297.14	299.12
297.37	329.12
297.601	334.12
297.831	295.12
298.062	309.12
298.292	307.12
298.523	313.12
298.753	322.12
298.984	322.12
299.214	326.12
299.445	321.12
299.675	305.12
299.905	331.12
300.136	323.12
300.366	327.12
300.597	332.12
300.827	325.12
301.057	329.12
301.288	363.12
301.518	338.12
301.748	329.12
301.979	341.12
302.209	319.12
302.439	337.12
302.669	345.12
302.9	340.12
303.13	349.12
303.36	334.12
303.59	343.12
303.82	349.12
304.051	347.12
304.281	346.12
304.511	340.12
304.741	360.12
304.971	338.12
305.201	319.12
305.431	339.12
305.661	322.12
305.891	326.12
306.121	341.12
306.352	338.12
306.582	356.12
306.812	346.12
307.042	332.12
307.272	333.12
307.502	351.12
307.731	318.12
307.961	340.12
308.191	340.12
308.421	336.12
308.651	334.12
308.881	354.12
309.111	353.12
309.341	338.12
309.571	344.12
309.8	340.12
310.03	358.12
310.26	373.12
310.49	364.12
310.72	378.12
310.949	399.12
311.179	373.12
311.409	371.12
311.639	371.12
311.868	375.12
312.098	365.12
312.328	369.12
312.557	379.12
312.787	397.12
313.017	397.12
313.246	403.12
313.476	372.12
313.706	387.12
313.935	391.12
314.165	392.12
314.394	412.12
314.624	380.12
314.853	377.12
315.083	384.12
315.312	365.12
315.542	372.12
315.771	380.12
316.001	377.12
316.23	393.12
316.46	371.12
316.689	395.12
316.919	379.12
317.148	379.12
317.377	379.12
317.607	375.12
317.836	387.12
318.065	386.12
318.295	385.12
318.524	390.12
318.753	381.12
318.983	385.12
319.212	372.12
319.441	379.12
319.67	377.12
319.9	388.12
320.129	386.12
320.358	388.12
320.587	395.12
320.816	403.12
321.046	401.12
321.275	410.12
321.504	377.12
321.733	379.12
321.962	384.12
322.191	404.12
322.42	411.12
322.649	426.12
322.878	430.12
323.108	427.12
323.337	458.12
323.566	453.12
323.795	477.12
324.024	500.12
324.253	567.12
324.482	763.12
324.71	1078.12
324.939	1613.12
325.168	1429.12
325.397	768.12
325.626	551.12
325.855	508.12
326.084	462.12
326.313	453.12
326.542	455.12
326.77	472.12
326.999	553.12
327.228	678.12
327.457	1044.12
327.686	1245.12
327.914	870.12
328.143	592.12
328.372	543.12
328.6	510.12
328.829	505.12
329.058	501.12
329.287	515.12
329.515	496.12
329.744	459.12
329.972	459.12
330.201	511.12
330.43	517.12
330.658	528.12
330.887	522.12
331.115	533.12
331.344	491.12
331.572	461.12
331.801	470.12
332.03	464.12
332.258	463.12
332.486	457.12
332.715	439.12
332.943	464.12
333.172	475.12
333.4	461.12
333.629	482.12
333.857	476.12
334.085	506.12
334.314	522.12
334.542	515.12
334.771	528.12
334.999	508.12
335.227	479.12
335.455	462.12
335.684	471.12
335.912	481.12
336.14	451.12
336.369	448.12
336.597	490.12
336.825	486.12
337.053	453.12
337.281	461.12
337.51	457.12
337.738	461.12
337.966	452.12
338.194	460.12
338.422	448.12
338.65	455.12
338.878	444.12
339.106	434.12
339.334	439.12
339.562	461.12
339.79	432.12
340.018	450.12
340.246	456.12
340.474	451.12
340.702	452.12
340.93	442.12
341.158	435.12
341.386	433.12
341.614	445.12
341.842	434.12
342.07	419.12
342.298	417.12
342.526	433.12
342.754	445.12
342.981	424.12
343.209	428.12
343.437	448.12
343.665	438.12
343.893	473.12
344.12	489.12
344.348	469.12
344.576	444.12
344.804	440.12
345.031	459.12
345.259	443.12
345.487	470.12
345.714	437.12
345.942	434.12
346.17	429.12
346.397	415.12
346.625	449.12
346.853	428.12
347.08	431.12
347.308	450.12
347.535	440.12
347.763	447.12
347.99	418.12
348.218	419.12
348.445	433.12
348.673	429.12
348.9	422.12
349.128	408.12
349.355	423.12
349.583	422.12
349.81	403.12
350.037	427.12
350.265	431.12
350.492	418.12
350.72	415.12
350.947	409.12
351.174	431.12
351.402	431.12
351.629	420.12
351.856	417.12
352.083	406.12
352.311	435.12
352.538	449.12
352.765	435.12
352.992	436.12
353.22	440.12
353.447	431.12
353.674	404.12
353.901	426.12
354.128	397.12
354.355	418.12
354.583	415.12
354.81	400.12
355.037	433.12
355.264	417.12
355.491	403.12
355.718	421.12
355.945	420.12
356.172	429.12
356.399	427.12
356.626	408.12
356.853	415.12
357.08	412.12
357.307	412.12
357.534	418.12
357.761	400.12
357.988	418.12
358.215	421.12
358.441	412.12
358.668	403.12
358.895	417.12
359.122	417.12
359.349	435.12
359.576	436.12
359.802	412.12
360.029	463.12
360.256	460.12
360.483	455.12
360.709	432.12
360.936	421.12
361.163	448.12
361.39	423.12
361.616	440.12
361.843	451.12
362.07	413.12
362.296	449.12
362.523	431.12
362.749	433.12
362.976	417.12
363.203	433.12
363.429	413.12
363.656	428.12
363.882	415.12
364.109	423.12
364.335	409.12
364.562	398.12
364.788	408.12
365.015	423.12
365.241	413.12
365.468	430.12
365.694	415.12
365.92	414.12
366.147	437.12
366.373	417.12
366.599	418.12
366.826	409.12
367.052	404.12
367.278	421.12
367.505	421.12
367.731	430.12
367.957	437.12
368.184	449.12
368.41	427.12
368.636	437.12
368.862	415.12
369.089	421.12
369.315	424.12
369.541	409.12
369.767	420.12
369.993	442.12
370.219	412.12
370.445	412.12
370.672	426.12
370.898	432.12
371.124	447.12
371.35	420.12
371.576	445.12
371.802	420.12
372.028	420.12
372.254	434.12
372.48	409.12
372.706	443.12
372.932	435.12
373.158	452.12
373.384	433.12
373.61	425.12
373.835	420.12
374.061	416.12
374.287	441.12
374.513	437.12
374.739	453.12
374.965	448.12
375.191	435.12
375.416	449.12
375.642	457.12
375.868	447.12
376.094	432.12
376.319	428.12
376.545	432.12
376.771	439.12
376.997	433.12
377.222	422.12
377.448	427.12
377.674	438.12
377.899	432.12
378.125	424.12
378.35	439.12
378.576	412.12
378.802	439.12
379.027	429.12
379.253	451.12
379.478	428.12
379.704	436.12
379.929	452.12
380.155	427.12
380.38	438.12
380.606	444.12
380.831	454.12
381.057	449.12
381.282	434.12
381.507	422.12
381.733	451.12
381.958	431.12
382.184	441.12
382.409	446.12
382.634	433.12
382.86	449.12
383.085	449.12
383.31	458.12
383.535	444.12
383.761	477.12
383.986	463.12
384.211	456.12
384.436	462.12
384.662	481.12
384.887	476.12
385.112	456.12
385.337	454.12
385.562	488.12
385.787	497.12
386.013	469.12
386.238	485.12
386.463	495.12
386.688	486.12
386.913	482.12
387.138	480.12
387.363	494.12
387.588	457.12
387.813	472.12
388.038	473.12
388.263	481.12
388.488	471.12
388.713	478.12
388.938	498.12
389.163	491.12
389.387	484.12
389.612	473.12
389.837	471.12
390.062	512.12
390.287	483.12
390.512	490.12
390.736	497.12
390.961	500.12
391.186	491.12
391.411	497.12
391.636	499.12
391.86	495.12
392.085	503.12
392.31	526.12
392.534	517.12
392.759	498.12
392.984	499.12
393.208	479.12
393.433	499.12
393.658	507.12
393.882	484.12
394.107	476.12
394.331	493.12
394.556	467.12
394.78	486.12
395.005	488.12
395.229	503.12
395.454	491.12
395.678	511.12
395.903	523.12
396.127	536.12
396.352	516.12
396.576	519.12
396.801	508.12
397.025	505.12
397.249	498.12
397.474	537.12
397.698	550.12
397.922	541.12
398.147	549.12
398.371	561.12
398.595	571.12
398.82	578.12
399.044	593.12
399.268	604.12
399.492	650.12
399.717	676.12
399.941	716.12
400.165	710.12
400.389	720.12
400.613	671.12
400.837	594.12
401.062	579.12
401.286	587.12
401.51	595.12
401.734	577.12
401.958	570.12
402.182	565.12
402.406	595.12
402.63	586.12
402.854	579.12
403.078	592.12
403.302	579.12
403.526	595.12
403.75	609.12
403.974	572.12
404.198	607.12
404.422	603.12
404.645	619.12
404.869	604.12
405.093	616.12
405.317	658.12
405.541	715.12
405.765	665.12
405.988	604.12
406.212	631.12
406.436	642.12
406.66	639.12
406.883	609.12
407.107	627.12
407.331	695.12
407.555	785.12
407.778	777.12
408.002	690.12
408.226	678.12
408.449	657.12
408.673	658.12
408.896	667.12
409.12	708.12
409.344	687.12
409.567	615.12
409.791	600.12
410.014	604.12
410.238	584.12
410.461	596.12
410.685	607.12
410.908	621.12
411.132	650.12
411.355	666.12
411.578	648.12
411.802	595.12
412.025	583.12
412.249	579.12
412.472	608.12
412.695	666.12
412.919	632.12
413.142	597.12
413.365	582.12
413.589	574.12
413.812	557.12
414.035	582.12
414.258	562.12
414.482	542.12
414.705	573.12
414.928	567.12
415.151	540.12
415.374	561.12
415.597	571.12
415.821	556.12
416.044	558.12
416.267	552.12
416.49	562.12
416.713	559.12
416.936	543.12
417.159	578.12
417.382	546.12
417.605	576.12
417.828	570.12
418.051	603.12
418.274	577.12
418.497	565.12
418.72	587.12
418.943	572.12
419.166	568.12
419.389	614.12
419.611	625.12
419.834	594.12
420.057	605.12
420.28	585.12
420.503	588.12
420.726	586.12
420.948	577.12
421.171	625.12
421.394	647.12
421.617	607.12
421.839	580.12
422.062	581.12
422.285	595.12
422.507	647.12
422.73	708.12
422.953	708.12
423.175	624.12
423.398	606.12
423.621	603.12
423.843	628.12
424.066	631.12
424.288	659.12
424.511	614.12
424.733	672.12
424.956	757.12
425.178	703.12
425.401	711.12
425.623	739.12
425.846	660.12
426.068	634.12
426.291	616.12
426.513	600.12
426.735	608.12
426.958	648.12
427.18	717.12
427.402	863.12
427.625	909.12
427.847	784.12
428.069	698.12
428.292	670.12
428.514	599.12
428.736	580.12
428.958	593.12
429.181	566.12
429.403	560.12
429.625	566.12
429.847	615.12
430.069	665.12
430.292	684.12
430.514	585.12
430.736	563.12
430.958	557.12
431.18	532.12
431.402	559.12
431.624	531.12
431.846	529.12
432.068	530.12
432.29	565.12
432.512	539.12
432.734	534.12
432.956	561.12
433.178	554.12
433.4	534.12
433.622	536.12
433.844	545.12
434.066	556.12
434.287	530.12
434.509	550.12
434.731	564.12
434.953	586.12
435.175	586.12
435.397	623.12
435.618	635.12
435.84	646.12
436.062	708.12
436.284	811.12
436.505	689.12
436.727	594.12
436.949	598.12
437.17	581.12
437.392	561.12
437.614	596.12
437.835	607.12
438.057	670.12
438.278	778.12
438.5	778.12
438.721	861.12
438.943	833.12
439.165	653.12
439.386	630.12
439.608	593.12
439.829	593.12
440.05	615.12
440.272	664.12
440.493	645.12
440.715	590.12
440.936	597.12
441.158	563.12
441.379	568.12
441.6	571.12
441.822	615.12
442.043	651.12
442.264	739.12
442.486	784.12
442.707	669.12
442.928	615.12
443.149	639.12
443.371	646.12
443.592	712.12
443.813	807.12
444.034	829.12
444.255	724.12
444.476	651.12
444.698	627.12
444.919	624.12
445.14	757.12
445.361	699.12
445.582	661.12
445.803	707.12
446.024	776.12
446.245	803.12
446.466	741.12
446.687	653.12
446.908	621.12
447.129	566.12
447.35	543.12
447.571	551.12
447.792	538.12
448.013	573.12
448.234	551.12
448.455	599.12
448.675	733.12
448.896	830.12
449.117	706.12
449.338	662.12
449.559	739.12
449.779	877.12
450	701.12
450.221	601.12
450.442	565.12
450.662	539.12
450.883	516.12
451.104	551.12
451.324	523.12
451.545	523.12
451.766	511.12
451.986	513.12
452.207	484.12
452.428	492.12
452.648	491.12
452.869	507.12
453.089	522.12
453.31	534.12
453.53	492.12
453.751	514.12
453.971	495.12
454.192	512.12
454.412	512.12
454.633	490.12
454.853	477.12
455.073	492.12
455.294	520.12
455.514	579.12
455.734	546.12
455.955	497.12
456.175	480.12
456.395	458.12
456.616	452.12
456.836	468.12
457.056	455.12
457.276	446.12
457.497	481.12
457.717	476.12
457.937	471.12
458.157	462.12
458.377	493.12
458.598	515.12
458.818	539.12
459.038	605.12
459.258	625.12
459.478	569.12
459.698	537.12
459.918	556.12
460.138	541.12
460.358	563.12
460.578	551.12
460.798	556.12
461.018	579.12
461.238	556.12
461.458	562.12
461.678	565.12
461.898	581.12
462.118	589.12
462.338	584.12
462.558	613.12
462.777	621.12
462.997	638.12
463.217	637.12
463.437	635.12
463.657	611.12
463.876	609.12
464.096	615.12
464.316	580.12
464.536	601.12
464.755	609.12
464.975	623.12
465.195	628.12
465.414	633.12
465.634	598.12
465.854	572.12
466.073	557.12
466.293	543.12
466.512	524.12
466.732	533.12
466.951	531.12
467.171	528.12
467.391	525.12
467.61	528.12
467.829	515.12
468.049	537.12
468.268	521.12
468.488	515.12
468.707	511.12
468.927	501.12
469.146	495.12
469.365	501.12
469.585	524.12
469.804	517.12
470.023	539.12
470.243	533.12
470.462	540.12
470.681	552.12
470.901	521.12
471.12	536.12
471.339	523.12
471.558	519.12
471.777	533.12
471.997	529.12
472.216	522.12
472.435	541.12
472.654	517.12
472.873	535.12
473.092	535.12
473.311	531.12
473.53	540.12
473.749	526.12
473.968	582.12
474.187	663.12
474.406	661.12
474.625	558.12
474.844	549.12
475.063	544.12
475.282	540.12
475.501	534.12
475.72	547.12
475.939	531.12
476.158	531.12
476.377	535.12
476.596	540.12
476.814	563.12
477.033	544.12
477.252	561.12
477.471	549.12
477.69	571.12
477.908	596.12
478.127	573.12
478.346	567.12
478.564	585.12
478.783	601.12
479.002	598.12
479.22	605.12
479.439	631.12
479.658	607.12
479.876	625.12
480.095	653.12
480.313	677.12
480.532	685.12
480.751	668.12
480.969	657.12
481.188	676.12
481.406	711.12
481.624	645.12
481.843	631.12
482.061	628.12
482.28	624.12
482.498	595.12
482.717	608.12
482.935	627.12
483.153	611.12
483.372	619.12
483.59	640.12
483.808	614.12
484.027	575.12
484.245	621.12
484.463	611.12
484.681	650.12
484.9	625.12
485.118	606.12
485.336	637.12
485.554	649.12
485.772	609.12
485.99	639.12
486.209	655.12
486.427	668.12
486.645	666.12
486.863	659.12
487.081	643.12
487.299	645.12
487.517	638.12
487.735	641.12
487.953	700.12
488.171	677.12
488.389	640.12
488.607	648.12
488.825	661.12
489.043	631.12
489.261	657.12
489.479	667.12
489.696	689.12
489.914	677.12
490.132	687.12
490.35	704.12
490.568	704.12
490.786	733.12
491.003	714.12
491.221	723.12
491.439	740.12
491.657	757.12
491.874	786.12
492.092	761.12
492.31	777.12
492.527	777.12
492.745	767.12
492.963	746.12
493.18	781.12
493.398	795.12
493.615	771.12
493.833	796.12
494.05	755.12
494.268	799.12
494.485	770.12
494.703	783.12
494.92	765.12
495.138	776.12
495.355	789.12
495.573	770.12
495.79	787.12
496.008	787.12
496.225	768.12
496.442	783.12
496.66	792.12
496.877	792.12
497.094	805.12
497.312	810.12
497.529	797.12
497.746	810.12
497.963	830.12
498.181	879.12
498.398	862.12
498.615	875.12
498.832	907.12
499.049	935.12
499.267	966.12
499.484	1030.12
499.701	1075.12
499.918	1108.12
500.135	1175.12
500.352	1212.12
500.569	1267.12
500.786	1259.12
501.003	1190.12
501.22	1183.12
501.437	1138.12
501.654	1097.12
