Data from 1974.PennyLincolnUp.Lamp.En5.5.200Scan.071719.P1.Changed Mount._HRD10591_15-52-10-857.txt Node
Date: Thu Jul 18 15:52:10 EDT 2019
User: cochatt
Spectrometer: HR+D1059
Trigger mode: 1
Integration Time (sec): 1.000000E-1
Scans to average: 1
Electric dark correction enabled: true
Nonlinearity correction enabled: false
Boxcar width: 0
XAxis mode: Wavelengths
Number of Pixels in Spectrum: 2048
>>>>>Begin Spectral Data<<<<<
223.165	-14.5
223.4	-14.5
223.635	-14.5
223.869	-10.5
224.104	-16.5
224.338	-13.5
224.573	-17.5
224.808	-13.5
225.042	-12.5
225.277	-8.5
225.511	1.5
225.746	-7.5
225.98	10.5
226.215	10.5
226.449	10.5
226.683	26.5
226.918	24.5
227.152	30.5
227.387	44.5
227.621	52.5
227.856	51.5
228.09	43.5
228.324	47.5
228.559	50.5
228.793	62.5
229.027	100.5
229.262	109.5
229.496	107.5
229.73	118.5
229.964	143.5
230.199	124.5
230.433	117.5
230.667	125.5
230.901	124.5
231.136	122.5
231.37	110.5
231.604	112.5
231.838	119.5
232.072	117.5
232.306	100.5
232.541	126.5
232.775	111.5
233.009	120.5
233.243	126.5
233.477	130.5
233.711	116.5
233.945	111.5
234.179	123.5
234.413	111.5
234.647	114.5
234.881	114.5
235.115	109.5
235.349	126.5
235.583	140.5
235.817	125.5
236.051	146.5
236.285	129.5
236.519	134.5
236.753	139.5
236.987	152.5
237.221	185.5
237.455	209.5
237.689	184.5
237.922	155.5
238.156	139.5
238.39	123.5
238.624	135.5
238.858	129.5
239.091	123.5
239.325	141.5
239.559	126.5
239.793	133.5
240.027	133.5
240.26	128.5
240.494	164.5
240.728	154.5
240.961	162.5
241.195	147.5
241.429	138.5
241.662	142.5
241.896	142.5
242.13	134.5
242.363	138.5
242.597	139.5
242.83	145.5
243.064	143.5
243.298	148.5
243.531	157.5
243.765	140.5
243.998	141.5
244.232	152.5
244.465	143.5
244.699	158.5
244.932	154.5
245.166	157.5
245.399	156.5
245.633	143.5
245.866	159.5
246.099	146.5
246.333	165.5
246.566	177.5
246.8	174.5
247.033	150.5
247.266	166.5
247.5	184.5
247.733	175.5
247.966	160.5
248.2	171.5
248.433	176.5
248.666	184.5
248.899	202.5
249.133	187.5
249.366	215.5
249.599	195.5
249.832	178.5
250.066	176.5
250.299	167.5
250.532	187.5
250.765	186.5
250.998	208.5
251.231	213.5
251.465	214.5
251.698	214.5
251.931	212.5
252.164	197.5
252.397	208.5
252.63	209.5
252.863	203.5
253.096	221.5
253.329	236.5
253.562	225.5
253.795	235.5
254.028	218.5
254.261	211.5
254.494	230.5
254.727	256.5
254.96	279.5
255.193	262.5
255.426	246.5
255.659	238.5
255.892	239.5
256.124	228.5
256.357	248.5
256.59	238.5
256.823	247.5
257.056	226.5
257.289	206.5
257.521	217.5
257.754	227.5
257.987	229.5
258.22	230.5
258.452	206.5
258.685	217.5
258.918	223.5
259.151	207.5
259.383	223.5
259.616	243.5
259.849	232.5
260.081	253.5
260.314	260.5
260.547	273.5
260.779	250.5
261.012	239.5
261.244	246.5
261.477	235.5
261.71	221.5
261.942	237.5
262.175	234.5
262.407	235.5
262.64	218.5
262.872	234.5
263.105	213.5
263.337	223.5
263.57	230.5
263.802	225.5
264.035	224.5
264.267	227.5
264.499	231.5
264.732	237.5
264.964	202.5
265.197	222.5
265.429	226.5
265.661	223.5
265.894	244.5
266.126	226.5
266.358	239.5
266.591	230.5
266.823	250.5
267.055	227.5
267.287	244.5
267.52	254.5
267.752	223.5
267.984	244.5
268.216	231.5
268.448	249.5
268.681	264.5
268.913	246.5
269.145	276.5
269.377	287.5
269.609	268.5
269.841	267.5
270.073	290.5
270.306	288.5
270.538	330.5
270.77	311.5
271.002	301.5
271.234	292.5
271.466	295.5
271.698	291.5
271.93	306.5
272.162	306.5
272.394	315.5
272.626	307.5
272.858	299.5
273.09	274.5
273.322	273.5
273.553	268.5
273.785	259.5
274.017	266.5
274.249	266.5
274.481	288.5
274.713	285.5
274.945	287.5
275.176	259.5
275.408	298.5
275.64	270.5
275.872	279.5
276.104	279.5
276.335	270.5
276.567	276.5
276.799	297.5
277.031	320.5
277.262	313.5
277.494	331.5
277.726	318.5
277.957	310.5
278.189	302.5
278.421	284.5
278.652	276.5
278.884	282.5
279.115	276.5
279.347	296.5
279.579	273.5
279.81	290.5
280.042	296.5
280.273	278.5
280.505	278.5
280.736	287.5
280.968	294.5
281.199	277.5
281.431	266.5
281.662	265.5
281.894	290.5
282.125	283.5
282.356	308.5
282.588	300.5
282.819	330.5
283.051	298.5
283.282	289.5
283.513	311.5
283.745	286.5
283.976	311.5
284.207	309.5
284.439	307.5
284.67	300.5
284.901	296.5
285.132	301.5
285.364	307.5
285.595	302.5
285.826	284.5
286.057	290.5
286.288	311.5
286.52	296.5
286.751	319.5
286.982	303.5
287.213	280.5
287.444	303.5
287.675	306.5
287.906	313.5
288.138	318.5
288.369	335.5
288.6	330.5
288.831	324.5
289.062	319.5
289.293	311.5
289.524	322.5
289.755	325.5
289.986	315.5
290.217	313.5
290.448	309.5
290.679	317.5
290.91	329.5
291.141	312.5
291.371	298.5
291.602	319.5
291.833	307.5
292.064	304.5
292.295	322.5
292.526	322.5
292.757	314.5
292.987	302.5
293.218	316.5
293.449	318.5
293.68	325.5
293.91	309.5
294.141	316.5
294.372	324.5
294.603	318.5
294.833	317.5
295.064	316.5
295.295	298.5
295.525	306.5
295.756	338.5
295.987	310.5
296.217	334.5
296.448	367.5
296.679	328.5
296.909	331.5
297.14	312.5
297.37	343.5
297.601	301.5
297.831	311.5
298.062	323.5
298.292	344.5
298.523	330.5
298.753	322.5
298.984	336.5
299.214	330.5
299.445	328.5
299.675	336.5
299.905	345.5
300.136	321.5
300.366	334.5
300.597	347.5
300.827	336.5
301.057	339.5
301.288	341.5
301.518	349.5
301.748	330.5
301.979	365.5
302.209	368.5
302.439	350.5
302.669	372.5
302.9	353.5
303.13	347.5
303.36	356.5
303.59	348.5
303.82	349.5
304.051	371.5
304.281	358.5
304.511	340.5
304.741	333.5
304.971	339.5
305.201	359.5
305.431	349.5
305.661	349.5
305.891	357.5
306.121	352.5
306.352	350.5
306.582	354.5
306.812	340.5
307.042	372.5
307.272	372.5
307.502	362.5
307.731	370.5
307.961	361.5
308.191	350.5
308.421	371.5
308.651	367.5
308.881	361.5
309.111	338.5
309.341	354.5
309.571	386.5
309.8	361.5
310.03	363.5
310.26	366.5
310.49	352.5
310.72	397.5
310.949	402.5
311.179	404.5
311.409	400.5
311.639	383.5
311.868	400.5
312.098	401.5
312.328	383.5
312.557	404.5
312.787	415.5
313.017	407.5
313.246	390.5
313.476	394.5
313.706	373.5
313.935	387.5
314.165	396.5
314.394	406.5
314.624	407.5
314.853	387.5
315.083	425.5
315.312	388.5
315.542	379.5
315.771	402.5
316.001	396.5
316.23	395.5
316.46	409.5
316.689	385.5
316.919	398.5
317.148	397.5
317.377	422.5
317.607	403.5
317.836	402.5
318.065	396.5
318.295	423.5
318.524	401.5
318.753	386.5
318.983	396.5
319.212	414.5
319.441	401.5
319.67	408.5
319.9	399.5
320.129	388.5
320.358	413.5
320.587	402.5
320.816	408.5
321.046	426.5
321.275	445.5
321.504	412.5
321.733	416.5
321.962	422.5
322.191	437.5
322.42	444.5
322.649	456.5
322.878	453.5
323.108	427.5
323.337	464.5
323.566	477.5
323.795	497.5
324.024	520.5
324.253	590.5
324.482	796.5
324.71	1202.5
324.939	1715.5
325.168	1541.5
325.397	810.5
325.626	582.5
325.855	517.5
326.084	475.5
326.313	490.5
326.542	485.5
326.77	517.5
326.999	610.5
327.228	762.5
327.457	1085.5
327.686	1367.5
327.914	920.5
328.143	623.5
328.372	548.5
328.6	543.5
328.829	509.5
329.058	542.5
329.287	584.5
329.515	541.5
329.744	483.5
329.972	500.5
330.201	510.5
330.43	549.5
330.658	559.5
330.887	567.5
331.115	560.5
331.344	505.5
331.572	482.5
331.801	510.5
332.03	494.5
332.258	494.5
332.486	471.5
332.715	494.5
332.943	479.5
333.172	489.5
333.4	501.5
333.629	505.5
333.857	503.5
334.085	496.5
334.314	521.5
334.542	568.5
334.771	574.5
334.999	540.5
335.227	531.5
335.455	487.5
335.684	487.5
335.912	471.5
336.14	481.5
336.369	485.5
336.597	485.5
336.825	475.5
337.053	490.5
337.281	471.5
337.51	461.5
337.738	474.5
337.966	480.5
338.194	470.5
338.422	484.5
338.65	475.5
338.878	503.5
339.106	460.5
339.334	469.5
339.562	469.5
339.79	458.5
340.018	429.5
340.246	452.5
340.474	463.5
340.702	461.5
340.93	454.5
341.158	452.5
341.386	451.5
341.614	452.5
341.842	463.5
342.07	451.5
342.298	420.5
342.526	449.5
342.754	449.5
342.981	428.5
343.209	450.5
343.437	455.5
343.665	476.5
343.893	495.5
344.12	497.5
344.348	489.5
344.576	502.5
344.804	491.5
345.031	464.5
345.259	455.5
345.487	467.5
345.714	454.5
345.942	462.5
346.17	440.5
346.397	436.5
346.625	423.5
346.853	445.5
347.08	437.5
347.308	431.5
347.535	447.5
347.763	453.5
347.99	462.5
348.218	452.5
348.445	458.5
348.673	453.5
348.9	454.5
349.128	442.5
349.355	421.5
349.583	431.5
349.81	447.5
350.037	431.5
350.265	425.5
350.492	444.5
350.72	415.5
350.947	430.5
351.174	451.5
351.402	457.5
351.629	440.5
351.856	446.5
352.083	439.5
352.311	450.5
352.538	459.5
352.765	438.5
352.992	458.5
353.22	466.5
353.447	454.5
353.674	447.5
353.901	435.5
354.128	423.5
354.355	408.5
354.583	421.5
354.81	431.5
355.037	425.5
355.264	429.5
355.491	431.5
355.718	425.5
355.945	410.5
356.172	414.5
356.399	445.5
356.626	415.5
356.853	413.5
357.08	411.5
357.307	406.5
357.534	413.5
357.761	428.5
357.988	429.5
358.215	427.5
358.441	413.5
358.668	443.5
358.895	422.5
359.122	423.5
359.349	458.5
359.576	449.5
359.802	463.5
360.029	461.5
360.256	476.5
360.483	485.5
360.709	464.5
360.936	459.5
361.163	463.5
361.39	448.5
361.616	429.5
361.843	462.5
362.07	464.5
362.296	451.5
362.523	459.5
362.749	444.5
362.976	434.5
363.203	436.5
363.429	438.5
363.656	430.5
363.882	427.5
364.109	420.5
364.335	448.5
364.562	428.5
364.788	429.5
365.015	430.5
365.241	434.5
365.468	449.5
365.694	467.5
365.92	448.5
366.147	442.5
366.373	415.5
366.599	424.5
366.826	428.5
367.052	446.5
367.278	440.5
367.505	451.5
367.731	446.5
367.957	438.5
368.184	427.5
368.41	436.5
368.636	447.5
368.862	458.5
369.089	445.5
369.315	446.5
369.541	439.5
369.767	426.5
369.993	448.5
370.219	438.5
370.445	454.5
370.672	438.5
370.898	451.5
371.124	450.5
371.35	441.5
371.576	471.5
371.802	446.5
372.028	436.5
372.254	428.5
372.48	451.5
372.706	446.5
372.932	440.5
373.158	450.5
373.384	446.5
373.61	458.5
373.835	446.5
374.061	442.5
374.287	439.5
374.513	454.5
374.739	450.5
374.965	468.5
375.191	458.5
375.416	461.5
375.642	463.5
375.868	444.5
376.094	447.5
376.319	432.5
376.545	452.5
376.771	455.5
376.997	449.5
377.222	439.5
377.448	444.5
377.674	446.5
377.899	440.5
378.125	452.5
378.35	419.5
378.576	447.5
378.802	450.5
379.027	438.5
379.253	453.5
379.478	466.5
379.704	444.5
379.929	452.5
380.155	439.5
380.38	447.5
380.606	454.5
380.831	463.5
381.057	464.5
381.282	435.5
381.507	471.5
381.733	455.5
381.958	461.5
382.184	456.5
382.409	460.5
382.634	469.5
382.86	456.5
383.085	440.5
383.31	466.5
383.535	475.5
383.761	470.5
383.986	502.5
384.211	472.5
384.436	487.5
384.662	480.5
384.887	501.5
385.112	490.5
385.337	472.5
385.562	499.5
385.787	493.5
386.013	499.5
386.238	490.5
386.463	512.5
386.688	515.5
386.913	499.5
387.138	494.5
387.363	508.5
387.588	494.5
387.813	504.5
388.038	482.5
388.263	496.5
388.488	509.5
388.713	507.5
388.938	509.5
389.163	506.5
389.387	515.5
389.612	493.5
389.837	510.5
390.062	497.5
390.287	506.5
390.512	494.5
390.736	486.5
390.961	515.5
391.186	487.5
391.411	499.5
391.636	531.5
391.86	518.5
392.085	539.5
392.31	510.5
392.534	525.5
392.759	521.5
392.984	504.5
393.208	512.5
393.433	504.5
393.658	510.5
393.882	527.5
394.107	517.5
394.331	519.5
394.556	525.5
394.78	522.5
395.005	535.5
395.229	495.5
395.454	538.5
395.678	537.5
395.903	544.5
396.127	570.5
396.352	560.5
396.576	538.5
396.801	495.5
397.025	541.5
397.249	521.5
397.474	564.5
397.698	543.5
397.922	559.5
398.147	567.5
398.371	578.5
398.595	564.5
398.82	573.5
399.044	607.5
399.268	635.5
399.492	678.5
399.717	721.5
399.941	734.5
400.165	725.5
400.389	721.5
400.613	683.5
400.837	618.5
401.062	637.5
401.286	580.5
401.51	572.5
401.734	598.5
401.958	582.5
402.182	608.5
402.406	606.5
402.63	612.5
402.854	610.5
403.078	584.5
403.302	615.5
403.526	591.5
403.75	618.5
403.974	617.5
404.198	607.5
404.422	633.5
404.645	636.5
404.869	625.5
405.093	637.5
405.317	687.5
405.541	733.5
405.765	671.5
405.988	644.5
406.212	652.5
406.436	667.5
406.66	660.5
406.883	649.5
407.107	683.5
407.331	731.5
407.555	800.5
407.778	775.5
408.002	752.5
408.226	696.5
408.449	698.5
408.673	640.5
408.896	692.5
409.12	719.5
409.344	716.5
409.567	615.5
409.791	634.5
410.014	610.5
410.238	615.5
410.461	618.5
410.685	626.5
410.908	637.5
411.132	668.5
411.355	699.5
411.578	657.5
411.802	607.5
412.025	604.5
412.249	605.5
412.472	630.5
412.695	685.5
412.919	680.5
413.142	640.5
413.365	600.5
413.589	593.5
413.812	598.5
414.035	603.5
414.258	562.5
414.482	574.5
414.705	602.5
414.928	583.5
415.151	604.5
415.374	580.5
415.597	587.5
415.821	578.5
416.044	567.5
416.267	585.5
416.49	580.5
416.713	580.5
416.936	603.5
417.159	562.5
417.382	577.5
417.605	597.5
417.828	577.5
418.051	607.5
418.274	584.5
418.497	576.5
418.72	586.5
418.943	607.5
419.166	636.5
419.389	619.5
419.611	638.5
419.834	619.5
420.057	603.5
420.28	596.5
420.503	596.5
420.726	601.5
420.948	627.5
421.171	650.5
421.394	687.5
421.617	620.5
421.839	594.5
422.062	599.5
422.285	638.5
422.507	656.5
422.73	746.5
422.953	727.5
423.175	630.5
423.398	635.5
423.621	638.5
423.843	646.5
424.066	668.5
424.288	666.5
424.511	678.5
424.733	714.5
424.956	783.5
425.178	749.5
425.401	760.5
425.623	784.5
425.846	688.5
426.068	642.5
426.291	631.5
426.513	605.5
426.735	626.5
426.958	672.5
427.18	753.5
427.402	876.5
427.625	957.5
427.847	812.5
428.069	741.5
428.292	660.5
428.514	614.5
428.736	585.5
428.958	597.5
429.181	571.5
429.403	581.5
429.625	605.5
429.847	602.5
430.069	683.5
430.292	673.5
430.514	603.5
430.736	566.5
430.958	588.5
431.18	566.5
431.402	558.5
431.624	542.5
431.846	543.5
432.068	557.5
432.29	557.5
432.512	565.5
432.734	587.5
432.956	566.5
433.178	570.5
433.4	579.5
433.622	559.5
433.844	566.5
434.066	568.5
434.287	570.5
434.509	572.5
434.731	579.5
434.953	602.5
435.175	618.5
435.397	657.5
435.618	620.5
435.84	652.5
436.062	746.5
436.284	810.5
436.505	680.5
436.727	639.5
436.949	596.5
437.17	586.5
437.392	578.5
437.614	591.5
437.835	622.5
438.057	694.5
438.278	824.5
438.5	811.5
438.721	844.5
438.943	839.5
439.165	686.5
439.386	651.5
439.608	634.5
439.829	617.5
440.05	630.5
440.272	683.5
440.493	656.5
440.715	619.5
440.936	575.5
441.158	607.5
441.379	603.5
441.6	612.5
441.822	642.5
442.043	656.5
442.264	756.5
442.486	776.5
442.707	663.5
442.928	648.5
443.149	651.5
443.371	696.5
443.592	702.5
443.813	813.5
444.034	891.5
444.255	732.5
444.476	684.5
444.698	643.5
444.919	671.5
445.14	740.5
445.361	711.5
445.582	679.5
445.803	727.5
446.024	823.5
446.245	816.5
446.466	774.5
446.687	646.5
446.908	622.5
447.129	589.5
447.35	589.5
447.571	586.5
447.792	552.5
448.013	567.5
448.234	572.5
448.455	642.5
448.675	755.5
448.896	865.5
449.117	741.5
449.338	703.5
449.559	798.5
449.779	903.5
450	736.5
450.221	626.5
450.442	585.5
450.662	565.5
450.883	574.5
451.104	574.5
451.324	565.5
451.545	544.5
451.766	519.5
451.986	532.5
452.207	512.5
452.428	523.5
452.648	512.5
452.869	543.5
453.089	555.5
453.31	549.5
453.53	541.5
453.751	493.5
453.971	518.5
454.192	522.5
454.412	532.5
454.633	537.5
454.853	524.5
455.073	518.5
455.294	548.5
455.514	604.5
455.734	607.5
455.955	514.5
456.175	487.5
456.395	490.5
456.616	495.5
456.836	501.5
457.056	474.5
457.276	475.5
457.497	493.5
457.717	504.5
457.937	522.5
458.157	516.5
458.377	515.5
458.598	531.5
458.818	555.5
459.038	629.5
459.258	674.5
459.478	627.5
459.698	566.5
459.918	566.5
460.138	567.5
460.358	592.5
460.578	566.5
460.798	603.5
461.018	590.5
461.238	603.5
461.458	596.5
461.678	596.5
461.898	605.5
462.118	599.5
462.338	607.5
462.558	626.5
462.777	627.5
462.997	635.5
463.217	662.5
463.437	664.5
463.657	639.5
463.876	627.5
464.096	652.5
464.316	633.5
464.536	660.5
464.755	622.5
464.975	630.5
465.195	646.5
465.414	676.5
465.634	645.5
465.854	579.5
466.073	568.5
466.293	574.5
466.512	535.5
466.732	543.5
466.951	540.5
467.171	531.5
467.391	538.5
467.61	530.5
467.829	551.5
468.049	545.5
468.268	579.5
468.488	536.5
468.707	514.5
468.927	534.5
469.146	528.5
469.365	535.5
469.585	537.5
469.804	543.5
470.023	556.5
470.243	538.5
470.462	546.5
470.681	569.5
470.901	568.5
471.12	539.5
471.339	539.5
471.558	531.5
471.777	541.5
471.997	542.5
472.216	556.5
472.435	560.5
472.654	572.5
472.873	535.5
473.092	524.5
473.311	535.5
473.53	544.5
473.749	554.5
473.968	574.5
474.187	696.5
474.406	719.5
474.625	590.5
474.844	548.5
475.063	547.5
475.282	563.5
475.501	543.5
475.72	543.5
475.939	553.5
476.158	543.5
476.377	552.5
476.596	568.5
476.814	545.5
477.033	552.5
477.252	590.5
477.471	579.5
477.69	571.5
477.908	598.5
478.127	621.5
478.346	629.5
478.564	604.5
478.783	627.5
479.002	620.5
479.22	630.5
479.439	644.5
479.658	639.5
479.876	636.5
480.095	652.5
480.313	660.5
480.532	683.5
480.751	681.5
480.969	679.5
481.188	703.5
481.406	755.5
481.624	664.5
481.843	660.5
482.061	644.5
482.28	645.5
482.498	643.5
482.717	638.5
482.935	642.5
483.153	636.5
483.372	646.5
483.59	631.5
483.808	637.5
484.027	642.5
484.245	647.5
484.463	655.5
484.681	657.5
484.9	670.5
485.118	660.5
485.336	656.5
485.554	644.5
485.772	659.5
485.99	680.5
486.209	668.5
486.427	680.5
486.645	669.5
486.863	680.5
487.081	681.5
487.299	674.5
487.517	683.5
487.735	675.5
487.953	654.5
488.171	696.5
488.389	696.5
488.607	699.5
488.825	686.5
489.043	694.5
489.261	681.5
489.479	684.5
489.696	684.5
489.914	716.5
490.132	720.5
490.35	739.5
490.568	743.5
490.786	712.5
491.003	746.5
491.221	758.5
491.439	763.5
491.657	791.5
491.874	785.5
492.092	811.5
492.31	767.5
492.527	789.5
492.745	798.5
492.963	830.5
493.18	803.5
493.398	799.5
493.615	807.5
493.833	795.5
494.05	799.5
494.268	814.5
494.485	788.5
494.703	787.5
494.92	795.5
495.138	778.5
495.355	790.5
495.573	820.5
495.79	826.5
496.008	798.5
496.225	824.5
496.442	808.5
496.66	810.5
496.877	800.5
497.094	811.5
497.312	839.5
497.529	830.5
497.746	846.5
497.963	868.5
498.181	884.5
498.398	888.5
498.615	920.5
498.832	946.5
499.049	958.5
499.267	982.5
499.484	1040.5
499.701	1110.5
499.918	1125.5
500.135	1196.5
500.352	1285.5
500.569	1327.5
500.786	1308.5
501.003	1283.5
501.22	1209.5
501.437	1166.5
501.654	1154.5
501.871	1078.5
502.088	1008.5
502.305	972.5
502.522	947.5
502.739	946.5
502.956	901.5
503.172	886.5
503.389	868.5
503.606	859.5
503.823	858.5
504.04	842.5
504.256	847.5
504.473	823.5
504.69	819.5
504.907	848.5
505.123	813.5
505.34	774.5
505.557	803.5
505.773	782.5
505.99	768.5
506.207	763.5
506.423	784.5
506.64	749.5
506.856	753.5
507.073	738.5
507.289	743.5
507.506	731.5
507.722	738.5
507.939	751.5
508.155	723.5
508.372	688.5
508.588	708.5
508.805	715.5
509.021	694.5
509.238	738.5
509.454	731.5
509.67	718.5
509.887	700.5
510.103	699.5
510.319	710.5
510.536	773.5
510.752	1114.5
510.968	913.5
511.184	709.5
511.401	680.5
511.617	674.5
511.833	702.5
512.049	676.5
512.265	644.5
512.481	656.5
512.698	658.5
512.914	653.5
513.13	674.5
513.346	675.5
513.562	666.5
513.778	680.5
513.994	697.5
514.21	686.5
514.426	679.5
514.642	713.5
514.858	714.5
515.074	780.5
515.29	863.5
515.506	1105.5
515.721	973.5
515.937	743.5
516.153	711.5
516.369	709.5
516.585	684.5
516.801	710.5
517.016	694.5
517.232	705.5
517.448	708.5
517.664	725.5
517.879	734.5
518.095	749.5
518.311	734.5
518.527	732.5
518.742	707.5
518.958	683.5
519.173	697.5
519.389	694.5
