Data from 1974.PennyLincolnUp.Lamp.En5.5.200Scan.071719.P1.Changed Mount._HRD10591_15-54-27-857.txt Node
Date: Thu Jul 18 15:54:27 EDT 2019
User: cochatt
Spectrometer: HR+D1059
Trigger mode: 1
Integration Time (sec): 1.000000E-1
Scans to average: 1
Electric dark correction enabled: true
Nonlinearity correction enabled: false
Boxcar width: 0
XAxis mode: Wavelengths
Number of Pixels in Spectrum: 2048
>>>>>Begin Spectral Data<<<<<
223.165	-4.06
223.4	-4.06
223.635	-4.06
223.869	-32.06
224.104	-6.06
224.338	-18.06
224.573	-28.06
224.808	-17.06
225.042	-15.06
225.277	-7.06
225.511	-3.06
225.746	15.94
225.98	-14.06
226.215	17.94
226.449	30.94
226.683	13.94
226.918	26.94
227.152	38.94
227.387	44.94
227.621	42.94
227.856	47.94
228.09	53.94
228.324	48.94
228.559	58.94
228.793	63.94
229.027	102.94
229.262	108.94
229.496	118.94
229.73	149.94
229.964	155.94
230.199	140.94
230.433	125.94
230.667	120.94
230.901	120.94
231.136	115.94
231.37	107.94
231.604	130.94
231.838	113.94
232.072	124.94
232.306	129.94
232.541	122.94
232.775	123.94
233.009	110.94
233.243	119.94
233.477	122.94
233.711	121.94
233.945	125.94
234.179	119.94
234.413	123.94
234.647	141.94
234.881	129.94
235.115	119.94
235.349	115.94
235.583	135.94
235.817	139.94
236.051	122.94
236.285	135.94
236.519	137.94
236.753	136.94
236.987	158.94
237.221	197.94
237.455	240.94
237.689	196.94
237.922	175.94
238.156	147.94
238.39	137.94
238.624	125.94
238.858	142.94
239.091	143.94
239.325	131.94
239.559	140.94
239.793	119.94
240.027	152.94
240.26	143.94
240.494	171.94
240.728	161.94
240.961	185.94
241.195	151.94
241.429	158.94
241.662	163.94
241.896	149.94
242.13	143.94
242.363	144.94
242.597	143.94
242.83	158.94
243.064	155.94
243.298	160.94
243.531	150.94
243.765	154.94
243.998	160.94
244.232	165.94
244.465	171.94
244.699	171.94
244.932	154.94
245.166	165.94
245.399	179.94
245.633	164.94
245.866	168.94
246.099	166.94
246.333	166.94
246.566	172.94
246.8	165.94
247.033	181.94
247.266	169.94
247.5	157.94
247.733	181.94
247.966	188.94
248.2	193.94
248.433	199.94
248.666	189.94
248.899	188.94
249.133	212.94
249.366	219.94
249.599	212.94
249.832	205.94
250.066	201.94
250.299	193.94
250.532	208.94
250.765	231.94
250.998	246.94
251.231	265.94
251.465	231.94
251.698	219.94
251.931	218.94
252.164	219.94
252.397	206.94
252.63	201.94
252.863	227.94
253.096	241.94
253.329	246.94
253.562	257.94
253.795	228.94
254.028	224.94
254.261	237.94
254.494	252.94
254.727	271.94
254.96	300.94
255.193	296.94
255.426	288.94
255.659	258.94
255.892	249.94
256.124	265.94
256.357	257.94
256.59	259.94
256.823	245.94
257.056	243.94
257.289	223.94
257.521	253.94
257.754	221.94
257.987	218.94
258.22	226.94
258.452	219.94
258.685	222.94
258.918	225.94
259.151	233.94
259.383	248.94
259.616	225.94
259.849	265.94
260.081	263.94
260.314	280.94
260.547	282.94
260.779	270.94
261.012	248.94
261.244	253.94
261.477	250.94
261.71	244.94
261.942	248.94
262.175	232.94
262.407	242.94
262.64	243.94
262.872	205.94
263.105	237.94
263.337	229.94
263.57	229.94
263.802	235.94
264.035	230.94
264.267	240.94
264.499	244.94
264.732	231.94
264.964	253.94
265.197	243.94
265.429	237.94
265.661	233.94
265.894	243.94
266.126	231.94
266.358	248.94
266.591	252.94
266.823	260.94
267.055	241.94
267.287	234.94
267.52	259.94
267.752	251.94
267.984	256.94
268.216	253.94
268.448	252.94
268.681	270.94
268.913	277.94
269.145	297.94
269.377	283.94
269.609	307.94
269.841	295.94
270.073	280.94
270.306	321.94
270.538	332.94
270.77	341.94
271.002	336.94
271.234	319.94
271.466	327.94
271.698	317.94
271.93	351.94
272.162	357.94
272.394	342.94
272.626	324.94
272.858	307.94
273.09	299.94
273.322	302.94
273.553	286.94
273.785	314.94
274.017	277.94
274.249	304.94
274.481	284.94
274.713	283.94
274.945	298.94
275.176	283.94
275.408	301.94
275.64	289.94
275.872	289.94
276.104	320.94
276.335	297.94
276.567	290.94
276.799	302.94
277.031	328.94
277.262	355.94
277.494	357.94
277.726	321.94
277.957	309.94
278.189	305.94
278.421	314.94
278.652	293.94
278.884	297.94
279.115	310.94
279.347	304.94
279.579	317.94
279.81	299.94
280.042	287.94
280.273	317.94
280.505	302.94
280.736	314.94
280.968	293.94
281.199	298.94
281.431	309.94
281.662	302.94
281.894	311.94
282.125	291.94
282.356	317.94
282.588	341.94
282.819	337.94
283.051	321.94
283.282	323.94
283.513	332.94
283.745	301.94
283.976	317.94
284.207	300.94
284.439	320.94
284.67	310.94
284.901	316.94
285.132	316.94
285.364	304.94
285.595	319.94
285.826	321.94
286.057	318.94
286.288	315.94
286.52	313.94
286.751	318.94
286.982	326.94
287.213	314.94
287.444	342.94
287.675	326.94
287.906	332.94
288.138	357.94
288.369	337.94
288.6	340.94
288.831	339.94
289.062	348.94
289.293	343.94
289.524	351.94
289.755	329.94
289.986	341.94
290.217	325.94
290.448	321.94
290.679	314.94
290.91	335.94
291.141	327.94
291.371	326.94
291.602	332.94
291.833	336.94
292.064	329.94
292.295	328.94
292.526	324.94
292.757	330.94
292.987	347.94
293.218	335.94
293.449	352.94
293.68	305.94
293.91	326.94
294.141	336.94
294.372	343.94
294.603	331.94
294.833	326.94
295.064	333.94
295.295	320.94
295.525	323.94
295.756	334.94
295.987	330.94
296.217	366.94
296.448	365.94
296.679	365.94
296.909	363.94
297.14	337.94
297.37	345.94
297.601	355.94
297.831	332.94
298.062	331.94
298.292	318.94
298.523	354.94
298.753	337.94
298.984	343.94
299.214	337.94
299.445	349.94
299.675	363.94
299.905	353.94
300.136	349.94
300.366	336.94
300.597	350.94
300.827	369.94
301.057	352.94
301.288	371.94
301.518	360.94
301.748	377.94
301.979	379.94
302.209	383.94
302.439	375.94
302.669	375.94
302.9	371.94
303.13	374.94
303.36	376.94
303.59	377.94
303.82	383.94
304.051	392.94
304.281	363.94
304.511	356.94
304.741	375.94
304.971	358.94
305.201	384.94
305.431	371.94
305.661	381.94
305.891	373.94
306.121	364.94
306.352	357.94
306.582	381.94
306.812	381.94
307.042	387.94
307.272	360.94
307.502	378.94
307.731	375.94
307.961	362.94
308.191	370.94
308.421	365.94
308.651	386.94
308.881	375.94
309.111	368.94
309.341	369.94
309.571	395.94
309.8	413.94
310.03	389.94
310.26	407.94
310.49	415.94
310.72	415.94
310.949	417.94
311.179	449.94
311.409	424.94
311.639	418.94
311.868	431.94
312.098	425.94
312.328	432.94
312.557	444.94
312.787	441.94
313.017	443.94
313.246	416.94
313.476	419.94
313.706	443.94
313.935	409.94
314.165	411.94
314.394	432.94
314.624	437.94
314.853	417.94
315.083	417.94
315.312	425.94
315.542	415.94
315.771	400.94
316.001	413.94
316.23	420.94
316.46	407.94
316.689	417.94
316.919	410.94
317.148	432.94
317.377	445.94
317.607	436.94
317.836	423.94
318.065	401.94
318.295	416.94
318.524	424.94
318.753	415.94
318.983	411.94
319.212	411.94
319.441	412.94
319.67	405.94
319.9	432.94
320.129	413.94
320.358	434.94
320.587	441.94
320.816	445.94
321.046	447.94
321.275	439.94
321.504	442.94
321.733	457.94
321.962	462.94
322.191	443.94
322.42	461.94
322.649	486.94
322.878	468.94
323.108	496.94
323.337	519.94
323.566	521.94
323.795	549.94
324.024	576.94
324.253	667.94
324.482	901.94
324.71	1367.94
324.939	2090.94
325.168	1821.94
325.397	932.94
325.626	635.94
325.855	530.94
326.084	547.94
326.313	522.94
326.542	507.94
326.77	569.94
326.999	611.94
327.228	839.94
327.457	1279.94
327.686	1623.94
327.914	1061.94
328.143	699.94
328.372	623.94
328.6	601.94
328.829	555.94
329.058	602.94
329.287	593.94
329.515	547.94
329.744	558.94
329.972	532.94
330.201	562.94
330.43	589.94
330.658	620.94
330.887	617.94
331.115	615.94
331.344	570.94
331.572	521.94
331.801	521.94
332.03	526.94
332.258	504.94
332.486	505.94
332.715	495.94
332.943	509.94
333.172	511.94
333.4	539.94
333.629	536.94
333.857	544.94
334.085	541.94
334.314	566.94
334.542	591.94
334.771	589.94
334.999	555.94
335.227	517.94
335.455	497.94
335.684	513.94
335.912	513.94
336.14	491.94
336.369	521.94
336.597	527.94
336.825	502.94
337.053	497.94
337.281	523.94
337.51	501.94
337.738	507.94
337.966	489.94
338.194	507.94
338.422	490.94
338.65	495.94
338.878	494.94
339.106	470.94
339.334	499.94
339.562	470.94
339.79	475.94
340.018	486.94
340.246	479.94
340.474	502.94
340.702	495.94
340.93	503.94
341.158	487.94
341.386	487.94
341.614	479.94
341.842	474.94
342.07	465.94
342.298	484.94
342.526	478.94
342.754	482.94
342.981	462.94
343.209	460.94
343.437	501.94
343.665	488.94
343.893	507.94
344.12	509.94
344.348	506.94
344.576	496.94
344.804	519.94
345.031	513.94
345.259	501.94
345.487	501.94
345.714	503.94
345.942	485.94
346.17	445.94
346.397	478.94
346.625	466.94
346.853	474.94
347.08	478.94
347.308	459.94
347.535	479.94
347.763	488.94
347.99	479.94
348.218	491.94
348.445	483.94
348.673	470.94
348.9	496.94
349.128	462.94
349.355	468.94
349.583	477.94
349.81	486.94
350.037	463.94
350.265	457.94
350.492	439.94
350.72	467.94
350.947	467.94
351.174	475.94
351.402	471.94
351.629	455.94
351.856	451.94
352.083	475.94
352.311	500.94
352.538	476.94
352.765	486.94
352.992	484.94
353.22	474.94
353.447	433.94
353.674	496.94
353.901	453.94
354.128	448.94
354.355	455.94
354.583	446.94
354.81	449.94
355.037	453.94
355.264	443.94
355.491	449.94
355.718	427.94
355.945	443.94
356.172	444.94
356.399	450.94
356.626	447.94
356.853	464.94
357.08	447.94
357.307	451.94
357.534	454.94
357.761	419.94
357.988	449.94
358.215	447.94
358.441	463.94
358.668	456.94
358.895	476.94
359.122	444.94
359.349	453.94
359.576	489.94
359.802	487.94
360.029	499.94
360.256	496.94
360.483	498.94
360.709	501.94
360.936	482.94
361.163	458.94
361.39	481.94
361.616	464.94
361.843	477.94
362.07	452.94
362.296	481.94
362.523	496.94
362.749	468.94
362.976	472.94
363.203	464.94
363.429	453.94
363.656	449.94
363.882	475.94
364.109	459.94
364.335	460.94
364.562	473.94
364.788	456.94
365.015	461.94
365.241	457.94
365.468	438.94
365.694	469.94
365.92	458.94
366.147	447.94
366.373	447.94
366.599	442.94
366.826	447.94
367.052	430.94
367.278	459.94
367.505	471.94
367.731	457.94
367.957	454.94
368.184	463.94
368.41	445.94
368.636	452.94
368.862	466.94
369.089	474.94
369.315	492.94
369.541	487.94
369.767	440.94
369.993	443.94
370.219	451.94
370.445	450.94
370.672	451.94
370.898	443.94
371.124	455.94
371.35	476.94
371.576	461.94
371.802	472.94
372.028	467.94
372.254	464.94
372.48	465.94
372.706	469.94
372.932	484.94
373.158	480.94
373.384	500.94
373.61	457.94
373.835	462.94
374.061	459.94
374.287	474.94
374.513	494.94
374.739	500.94
374.965	497.94
375.191	477.94
375.416	480.94
375.642	470.94
375.868	483.94
376.094	490.94
376.319	474.94
376.545	472.94
376.771	458.94
376.997	472.94
377.222	477.94
377.448	475.94
377.674	458.94
377.899	472.94
378.125	464.94
378.35	461.94
378.576	457.94
378.802	462.94
379.027	445.94
379.253	457.94
379.478	453.94
379.704	453.94
379.929	469.94
380.155	468.94
380.38	464.94
380.606	478.94
380.831	471.94
381.057	483.94
381.282	446.94
381.507	463.94
381.733	474.94
381.958	474.94
382.184	469.94
382.409	492.94
382.634	472.94
382.86	471.94
383.085	477.94
383.31	496.94
383.535	491.94
383.761	502.94
383.986	499.94
384.211	507.94
384.436	476.94
384.662	515.94
384.887	521.94
385.112	504.94
385.337	513.94
385.562	515.94
385.787	536.94
386.013	537.94
386.238	524.94
386.463	552.94
386.688	541.94
386.913	503.94
387.138	539.94
387.363	513.94
387.588	497.94
387.813	499.94
388.038	528.94
388.263	526.94
388.488	527.94
388.713	543.94
388.938	542.94
389.163	507.94
389.387	541.94
389.612	518.94
389.837	515.94
390.062	505.94
390.287	531.94
390.512	511.94
390.736	496.94
390.961	533.94
391.186	535.94
391.411	520.94
391.636	563.94
391.86	571.94
392.085	543.94
392.31	557.94
392.534	538.94
392.759	545.94
392.984	521.94
393.208	532.94
393.433	530.94
393.658	509.94
393.882	500.94
394.107	552.94
394.331	535.94
394.556	535.94
394.78	572.94
395.005	549.94
395.229	535.94
395.454	560.94
395.678	577.94
395.903	542.94
396.127	587.94
396.352	595.94
396.576	540.94
396.801	550.94
397.025	556.94
397.249	557.94
397.474	575.94
397.698	554.94
397.922	597.94
398.147	589.94
398.371	619.94
398.595	574.94
398.82	597.94
399.044	608.94
399.268	664.94
399.492	700.94
399.717	716.94
399.941	766.94
400.165	783.94
400.389	765.94
400.613	692.94
400.837	655.94
401.062	630.94
401.286	629.94
401.51	602.94
401.734	622.94
401.958	634.94
402.182	645.94
402.406	620.94
402.63	627.94
402.854	638.94
403.078	653.94
403.302	627.94
403.526	632.94
403.75	615.94
403.974	613.94
404.198	637.94
404.422	665.94
404.645	644.94
404.869	651.94
405.093	687.94
405.317	715.94
405.541	747.94
405.765	704.94
405.988	673.94
406.212	670.94
406.436	673.94
406.66	695.94
406.883	679.94
407.107	716.94
407.331	752.94
407.555	844.94
407.778	839.94
408.002	789.94
408.226	705.94
408.449	684.94
408.673	703.94
408.896	747.94
409.12	757.94
409.344	725.94
409.567	695.94
409.791	656.94
410.014	647.94
410.238	617.94
410.461	646.94
410.685	665.94
410.908	683.94
411.132	699.94
411.355	724.94
411.578	717.94
411.802	619.94
412.025	634.94
412.249	647.94
412.472	678.94
412.695	696.94
412.919	720.94
413.142	662.94
413.365	623.94
413.589	622.94
413.812	620.94
414.035	628.94
414.258	600.94
414.482	628.94
414.705	602.94
414.928	596.94
415.151	608.94
415.374	620.94
415.597	600.94
415.821	607.94
416.044	612.94
416.267	594.94
416.49	597.94
416.713	597.94
416.936	596.94
417.159	605.94
417.382	601.94
417.605	615.94
417.828	635.94
418.051	638.94
418.274	625.94
418.497	607.94
418.72	623.94
418.943	596.94
419.166	638.94
419.389	677.94
419.611	661.94
419.834	644.94
420.057	644.94
420.28	666.94
420.503	623.94
420.726	647.94
420.948	656.94
421.171	682.94
421.394	721.94
421.617	663.94
421.839	636.94
422.062	619.94
422.285	653.94
422.507	718.94
422.73	796.94
422.953	762.94
423.175	663.94
423.398	639.94
423.621	658.94
423.843	682.94
424.066	699.94
424.288	684.94
424.511	712.94
424.733	747.94
424.956	861.94
425.178	815.94
425.401	809.94
425.623	807.94
425.846	691.94
426.068	650.94
426.291	663.94
426.513	643.94
426.735	662.94
426.958	720.94
427.18	811.94
427.402	963.94
427.625	1035.94
427.847	883.94
428.069	797.94
428.292	715.94
428.514	640.94
428.736	637.94
428.958	643.94
429.181	601.94
429.403	628.94
429.625	638.94
429.847	661.94
430.069	726.94
430.292	719.94
430.514	638.94
430.736	598.94
430.958	614.94
431.18	595.94
431.402	582.94
431.624	609.94
431.846	593.94
432.068	594.94
432.29	571.94
432.512	588.94
432.734	592.94
432.956	585.94
433.178	606.94
433.4	605.94
433.622	584.94
433.844	607.94
434.066	569.94
434.287	552.94
434.509	598.94
434.731	607.94
434.953	632.94
435.175	637.94
435.397	680.94
435.618	670.94
435.84	697.94
436.062	828.94
436.284	895.94
436.505	759.94
436.727	668.94
436.949	646.94
437.17	644.94
437.392	604.94
437.614	639.94
437.835	661.94
438.057	739.94
438.278	854.94
438.5	903.94
438.721	926.94
438.943	901.94
439.165	717.94
439.386	667.94
439.608	700.94
439.829	683.94
440.05	689.94
440.272	764.94
440.493	713.94
440.715	664.94
440.936	647.94
441.158	618.94
441.379	628.94
441.6	633.94
441.822	658.94
442.043	732.94
442.264	807.94
442.486	886.94
442.707	748.94
442.928	685.94
443.149	680.94
443.371	719.94
443.592	767.94
443.813	868.94
444.034	944.94
444.255	784.94
444.476	729.94
444.698	709.94
444.919	706.94
445.14	811.94
445.361	743.94
445.582	724.94
445.803	782.94
446.024	895.94
446.245	895.94
446.466	840.94
446.687	688.94
446.908	656.94
447.129	622.94
447.35	599.94
447.571	625.94
447.792	611.94
448.013	607.94
448.234	644.94
448.455	655.94
448.675	826.94
448.896	920.94
449.117	779.94
449.338	747.94
449.559	871.94
449.779	998.94
450	793.94
450.221	663.94
450.442	622.94
450.662	607.94
450.883	590.94
451.104	592.94
451.324	603.94
451.545	553.94
451.766	586.94
451.986	556.94
452.207	555.94
452.428	555.94
452.648	547.94
452.869	534.94
453.089	566.94
453.31	587.94
453.53	537.94
453.751	567.94
453.971	549.94
454.192	558.94
454.412	547.94
454.633	532.94
454.853	534.94
455.073	526.94
455.294	592.94
455.514	636.94
455.734	642.94
455.955	553.94
456.175	529.94
456.395	518.94
456.616	489.94
456.836	516.94
457.056	516.94
457.276	525.94
457.497	501.94
457.717	514.94
457.937	511.94
458.157	561.94
458.377	528.94
458.598	557.94
458.818	600.94
459.038	686.94
459.258	715.94
459.478	623.94
459.698	600.94
459.918	577.94
460.138	577.94
460.358	633.94
460.578	604.94
460.798	601.94
461.018	618.94
461.238	602.94
461.458	642.94
461.678	586.94
461.898	624.94
462.118	619.94
462.338	629.94
462.558	647.94
462.777	633.94
462.997	687.94
463.217	669.94
463.437	719.94
463.657	677.94
463.876	675.94
464.096	667.94
464.316	660.94
464.536	673.94
464.755	662.94
464.975	643.94
465.195	652.94
465.414	710.94
465.634	666.94
465.854	626.94
466.073	627.94
466.293	569.94
466.512	571.94
466.732	564.94
466.951	570.94
467.171	581.94
467.391	582.94
467.61	585.94
467.829	596.94
468.049	581.94
468.268	577.94
468.488	553.94
468.707	545.94
468.927	549.94
469.146	538.94
469.365	555.94
469.585	571.94
469.804	590.94
470.023	585.94
470.243	548.94
470.462	573.94
470.681	589.94
470.901	572.94
471.12	589.94
471.339	588.94
471.558	584.94
471.777	563.94
471.997	557.94
472.216	570.94
472.435	592.94
472.654	586.94
472.873	583.94
473.092	584.94
473.311	572.94
473.53	578.94
473.749	587.94
473.968	621.94
474.187	731.94
474.406	756.94
474.625	649.94
474.844	589.94
475.063	571.94
475.282	578.94
475.501	564.94
475.72	582.94
475.939	574.94
476.158	594.94
476.377	586.94
476.596	573.94
476.814	597.94
477.033	623.94
477.252	617.94
477.471	605.94
477.69	644.94
477.908	626.94
478.127	622.94
478.346	649.94
478.564	612.94
478.783	646.94
479.002	656.94
479.22	655.94
479.439	668.94
479.658	678.94
479.876	712.94
480.095	701.94
480.313	731.94
480.532	693.94
480.751	713.94
480.969	705.94
481.188	759.94
481.406	771.94
481.624	732.94
481.843	715.94
482.061	675.94
482.28	674.94
482.498	664.94
482.717	657.94
482.935	659.94
483.153	671.94
483.372	656.94
483.59	663.94
483.808	686.94
484.027	672.94
484.245	648.94
484.463	678.94
484.681	686.94
484.9	700.94
485.118	707.94
485.336	677.94
485.554	681.94
485.772	689.94
485.99	675.94
486.209	686.94
486.427	688.94
486.645	719.94
486.863	716.94
487.081	689.94
487.299	693.94
487.517	717.94
487.735	707.94
487.953	713.94
488.171	724.94
488.389	699.94
488.607	700.94
488.825	737.94
489.043	729.94
489.261	745.94
489.479	699.94
489.696	744.94
489.914	723.94
490.132	752.94
490.35	751.94
490.568	789.94
490.786	782.94
491.003	785.94
491.221	792.94
491.439	800.94
491.657	806.94
491.874	815.94
492.092	855.94
492.31	847.94
492.527	853.94
492.745	833.94
492.963	843.94
493.18	873.94
493.398	888.94
493.615	849.94
493.833	861.94
494.05	885.94
494.268	867.94
494.485	849.94
494.703	877.94
494.92	876.94
495.138	869.94
495.355	878.94
495.573	859.94
495.79	884.94
496.008	842.94
496.225	868.94
496.442	863.94
496.66	876.94
496.877	856.94
497.094	850.94
497.312	868.94
497.529	913.94
497.746	923.94
497.963	905.94
498.181	929.94
498.398	968.94
498.615	971.94
498.832	1003.94
499.049	1037.94
499.267	1060.94
499.484	1100.94
499.701	1116.94
499.918	1198.94
500.135	1252.94
500.352	1357.94
500.569	1359.94
500.786	1363.94
501.003	1360.94
501.22	1262.94
501.437	1240.94
