Data from 1974.PennyLincolnUp.Lamp.En5.5.200Scan.071719.P1.Changed Mount._HRD10591_15-52-51-857.txt Node
Date: Thu Jul 18 15:52:51 EDT 2019
User: cochatt
Spectrometer: HR+D1059
Trigger mode: 1
Integration Time (sec): 1.000000E-1
Scans to average: 1
Electric dark correction enabled: true
Nonlinearity correction enabled: false
Boxcar width: 0
XAxis mode: Wavelengths
Number of Pixels in Spectrum: 2048
>>>>>Begin Spectral Data<<<<<
223.165	-5.12
223.4	-5.12
223.635	-5.12
223.869	-1.12
224.104	-16.12
224.338	-7.12
224.573	-18.12
224.808	-8.12
225.042	-22.12
225.277	-11.12
225.511	0.88
225.746	-4.12
225.98	-4.12
226.215	2.88
226.449	19.88
226.683	19.88
226.918	24.88
227.152	28.88
227.387	33.88
227.621	37.88
227.856	24.88
228.09	37.88
228.324	41.88
228.559	35.88
228.793	62.88
229.027	88.88
229.262	118.88
229.496	104.88
229.73	125.88
229.964	155.88
230.199	124.88
230.433	124.88
230.667	100.88
230.901	110.88
231.136	119.88
231.37	109.88
231.604	118.88
231.838	113.88
232.072	94.88
232.306	111.88
232.541	98.88
232.775	117.88
233.009	104.88
233.243	117.88
233.477	111.88
233.711	110.88
233.945	120.88
234.179	115.88
234.413	121.88
234.647	95.88
234.881	126.88
235.115	120.88
235.349	140.88
235.583	109.88
235.817	121.88
236.051	124.88
236.285	115.88
236.519	118.88
236.753	137.88
236.987	132.88
237.221	174.88
237.455	214.88
237.689	183.88
237.922	126.88
238.156	135.88
238.39	125.88
238.624	116.88
238.858	124.88
239.091	111.88
239.325	119.88
239.559	136.88
239.793	132.88
240.027	121.88
240.26	124.88
240.494	147.88
240.728	126.88
240.961	154.88
241.195	157.88
241.429	147.88
241.662	159.88
241.896	142.88
242.13	139.88
242.363	134.88
242.597	130.88
242.83	162.88
243.064	144.88
243.298	146.88
243.531	143.88
243.765	136.88
243.998	142.88
244.232	136.88
244.465	136.88
244.699	151.88
244.932	140.88
245.166	156.88
245.399	142.88
245.633	146.88
245.866	159.88
246.099	152.88
246.333	130.88
246.566	164.88
246.8	136.88
247.033	174.88
247.266	173.88
247.5	162.88
247.733	188.88
247.966	173.88
248.2	199.88
248.433	162.88
248.666	185.88
248.899	188.88
249.133	190.88
249.366	217.88
249.599	198.88
249.832	186.88
250.066	191.88
250.299	191.88
250.532	189.88
250.765	210.88
250.998	217.88
251.231	230.88
251.465	218.88
251.698	217.88
251.931	207.88
252.164	206.88
252.397	216.88
252.63	207.88
252.863	188.88
253.096	214.88
253.329	231.88
253.562	238.88
253.795	218.88
254.028	228.88
254.261	215.88
254.494	226.88
254.727	247.88
254.96	278.88
255.193	266.88
255.426	258.88
255.659	227.88
255.892	246.88
256.124	240.88
256.357	224.88
256.59	230.88
256.823	206.88
257.056	222.88
257.289	205.88
257.521	230.88
257.754	205.88
257.987	220.88
258.22	224.88
258.452	201.88
258.685	211.88
258.918	225.88
259.151	211.88
259.383	214.88
259.616	223.88
259.849	226.88
260.081	245.88
260.314	264.88
260.547	258.88
260.779	266.88
261.012	241.88
261.244	240.88
261.477	248.88
261.71	226.88
261.942	208.88
262.175	231.88
262.407	240.88
262.64	208.88
262.872	224.88
263.105	224.88
263.337	226.88
263.57	209.88
263.802	218.88
264.035	224.88
264.267	218.88
264.499	208.88
264.732	227.88
264.964	220.88
265.197	221.88
265.429	222.88
265.661	199.88
265.894	211.88
266.126	205.88
266.358	212.88
266.591	213.88
266.823	238.88
267.055	234.88
267.287	248.88
267.52	246.88
267.752	233.88
267.984	221.88
268.216	249.88
268.448	248.88
268.681	245.88
268.913	250.88
269.145	266.88
269.377	274.88
269.609	271.88
269.841	274.88
270.073	280.88
270.306	297.88
270.538	323.88
270.77	326.88
271.002	297.88
271.234	310.88
271.466	296.88
271.698	317.88
271.93	327.88
272.162	331.88
272.394	308.88
272.626	308.88
272.858	287.88
273.09	295.88
273.322	291.88
273.553	255.88
273.785	275.88
274.017	262.88
274.249	272.88
274.481	278.88
274.713	250.88
274.945	265.88
275.176	267.88
275.408	281.88
275.64	280.88
275.872	272.88
276.104	265.88
276.335	276.88
276.567	271.88
276.799	288.88
277.031	321.88
277.262	324.88
277.494	310.88
277.726	287.88
277.957	288.88
278.189	284.88
278.421	283.88
278.652	284.88
278.884	284.88
279.115	284.88
279.347	280.88
279.579	280.88
279.81	289.88
280.042	293.88
280.273	279.88
280.505	274.88
280.736	279.88
280.968	263.88
281.199	287.88
281.431	286.88
281.662	285.88
281.894	280.88
282.125	304.88
282.356	284.88
282.588	304.88
282.819	315.88
283.051	291.88
283.282	275.88
283.513	293.88
283.745	281.88
283.976	294.88
284.207	304.88
284.439	280.88
284.67	291.88
284.901	295.88
285.132	283.88
285.364	308.88
285.595	289.88
285.826	313.88
286.057	311.88
286.288	294.88
286.52	292.88
286.751	285.88
286.982	281.88
287.213	294.88
287.444	309.88
287.675	297.88
287.906	317.88
288.138	316.88
288.369	318.88
288.6	327.88
288.831	324.88
289.062	313.88
289.293	305.88
289.524	301.88
289.755	316.88
289.986	308.88
290.217	306.88
290.448	297.88
290.679	315.88
290.91	310.88
291.141	300.88
291.371	308.88
291.602	309.88
291.833	312.88
292.064	324.88
292.295	308.88
292.526	308.88
292.757	302.88
292.987	313.88
293.218	314.88
293.449	292.88
293.68	296.88
293.91	296.88
294.141	295.88
294.372	293.88
294.603	327.88
294.833	302.88
295.064	303.88
295.295	310.88
295.525	296.88
295.756	320.88
295.987	308.88
296.217	330.88
296.448	330.88
296.679	316.88
296.909	318.88
297.14	313.88
297.37	313.88
297.601	328.88
297.831	327.88
298.062	326.88
298.292	335.88
298.523	315.88
298.753	334.88
298.984	340.88
299.214	330.88
299.445	320.88
299.675	344.88
299.905	326.88
300.136	317.88
300.366	333.88
300.597	341.88
300.827	320.88
301.057	329.88
301.288	337.88
301.518	355.88
301.748	357.88
301.979	345.88
302.209	352.88
302.439	362.88
302.669	361.88
302.9	344.88
303.13	327.88
303.36	349.88
303.59	332.88
303.82	349.88
304.051	360.88
304.281	338.88
304.511	335.88
304.741	345.88
304.971	328.88
305.201	341.88
305.431	335.88
305.661	348.88
305.891	352.88
306.121	335.88
306.352	349.88
306.582	339.88
306.812	336.88
307.042	347.88
307.272	336.88
307.502	326.88
307.731	366.88
307.961	349.88
308.191	354.88
308.421	350.88
308.651	370.88
308.881	372.88
309.111	344.88
309.341	354.88
309.571	368.88
309.8	366.88
310.03	366.88
310.26	371.88
310.49	392.88
310.72	377.88
310.949	401.88
311.179	407.88
311.409	376.88
311.639	386.88
311.868	373.88
312.098	374.88
312.328	372.88
312.557	421.88
312.787	414.88
313.017	397.88
313.246	406.88
313.476	384.88
313.706	389.88
313.935	391.88
314.165	391.88
314.394	391.88
314.624	398.88
314.853	398.88
315.083	384.88
315.312	398.88
315.542	390.88
315.771	390.88
316.001	380.88
316.23	375.88
316.46	377.88
316.689	368.88
316.919	401.88
317.148	407.88
317.377	394.88
317.607	394.88
317.836	389.88
318.065	400.88
318.295	386.88
318.524	401.88
318.753	380.88
318.983	392.88
319.212	397.88
319.441	394.88
319.67	428.88
319.9	375.88
320.129	390.88
320.358	404.88
320.587	415.88
320.816	430.88
321.046	402.88
321.275	401.88
321.504	391.88
321.733	426.88
321.962	416.88
322.191	427.88
322.42	434.88
322.649	424.88
322.878	434.88
323.108	436.88
323.337	461.88
323.566	490.88
323.795	514.88
324.024	534.88
324.253	623.88
324.482	822.88
324.71	1218.88
324.939	1773.88
325.168	1618.88
325.397	834.88
325.626	585.88
325.855	521.88
326.084	477.88
326.313	484.88
326.542	487.88
326.77	507.88
326.999	573.88
327.228	761.88
327.457	1121.88
327.686	1438.88
327.914	949.88
328.143	640.88
328.372	603.88
328.6	550.88
328.829	509.88
329.058	556.88
329.287	560.88
329.515	531.88
329.744	491.88
329.972	517.88
330.201	495.88
330.43	526.88
330.658	540.88
330.887	576.88
331.115	540.88
331.344	509.88
331.572	474.88
331.801	502.88
332.03	494.88
332.258	476.88
332.486	472.88
332.715	495.88
332.943	502.88
333.172	495.88
333.4	489.88
333.629	502.88
333.857	517.88
334.085	523.88
334.314	541.88
334.542	546.88
334.771	553.88
334.999	509.88
335.227	483.88
335.455	481.88
335.684	476.88
335.912	473.88
336.14	485.88
336.369	469.88
336.597	488.88
336.825	478.88
337.053	465.88
337.281	462.88
337.51	455.88
337.738	464.88
337.966	465.88
338.194	471.88
338.422	485.88
338.65	444.88
338.878	443.88
339.106	462.88
339.334	469.88
339.562	456.88
339.79	443.88
340.018	462.88
340.246	449.88
340.474	462.88
340.702	456.88
340.93	458.88
341.158	448.88
341.386	439.88
341.614	436.88
341.842	453.88
342.07	465.88
342.298	449.88
342.526	474.88
342.754	446.88
342.981	440.88
343.209	451.88
343.437	445.88
343.665	448.88
343.893	456.88
344.12	464.88
344.348	503.88
344.576	457.88
344.804	473.88
345.031	472.88
345.259	486.88
345.487	454.88
345.714	460.88
345.942	434.88
346.17	423.88
346.397	441.88
346.625	441.88
346.853	426.88
347.08	430.88
347.308	441.88
347.535	433.88
347.763	453.88
347.99	425.88
348.218	440.88
348.445	439.88
348.673	452.88
348.9	428.88
349.128	431.88
349.355	419.88
349.583	440.88
349.81	430.88
350.037	422.88
350.265	432.88
350.492	416.88
350.72	440.88
350.947	430.88
351.174	421.88
351.402	453.88
351.629	430.88
351.856	440.88
352.083	438.88
352.311	443.88
352.538	433.88
352.765	460.88
352.992	447.88
353.22	429.88
353.447	434.88
353.674	442.88
353.901	435.88
354.128	426.88
354.355	431.88
354.583	416.88
354.81	414.88
355.037	397.88
355.264	401.88
355.491	402.88
355.718	408.88
355.945	400.88
356.172	429.88
356.399	422.88
356.626	406.88
356.853	410.88
357.08	412.88
357.307	422.88
357.534	411.88
357.761	412.88
357.988	409.88
358.215	420.88
358.441	437.88
358.668	433.88
358.895	430.88
359.122	423.88
359.349	412.88
359.576	441.88
359.802	448.88
360.029	460.88
360.256	467.88
360.483	468.88
360.709	457.88
360.936	440.88
361.163	449.88
361.39	444.88
361.616	439.88
361.843	424.88
362.07	444.88
362.296	465.88
362.523	442.88
362.749	434.88
362.976	430.88
363.203	435.88
363.429	436.88
363.656	424.88
363.882	429.88
364.109	422.88
364.335	441.88
364.562	433.88
364.788	436.88
365.015	440.88
365.241	419.88
365.468	436.88
365.694	425.88
365.92	424.88
366.147	421.88
366.373	430.88
366.599	445.88
366.826	426.88
367.052	442.88
367.278	439.88
367.505	433.88
367.731	437.88
367.957	421.88
368.184	430.88
368.41	434.88
368.636	441.88
368.862	460.88
369.089	445.88
369.315	442.88
369.541	446.88
369.767	432.88
369.993	438.88
370.219	441.88
370.445	423.88
370.672	448.88
370.898	416.88
371.124	440.88
371.35	461.88
371.576	424.88
371.802	430.88
372.028	442.88
372.254	412.88
372.48	417.88
372.706	451.88
372.932	453.88
373.158	403.88
373.384	440.88
373.61	428.88
373.835	431.88
374.061	429.88
374.287	434.88
374.513	453.88
374.739	444.88
374.965	453.88
375.191	468.88
375.416	465.88
375.642	430.88
375.868	432.88
376.094	429.88
376.319	429.88
376.545	442.88
376.771	441.88
376.997	441.88
377.222	411.88
377.448	442.88
377.674	446.88
377.899	425.88
378.125	445.88
378.35	441.88
378.576	437.88
378.802	441.88
379.027	443.88
379.253	439.88
379.478	429.88
379.704	445.88
379.929	431.88
380.155	463.88
380.38	422.88
380.606	421.88
380.831	440.88
381.057	453.88
381.282	453.88
381.507	457.88
381.733	476.88
381.958	445.88
382.184	461.88
382.409	470.88
382.634	454.88
382.86	464.88
383.085	452.88
383.31	465.88
383.535	455.88
383.761	453.88
383.986	482.88
384.211	470.88
384.436	470.88
384.662	453.88
384.887	482.88
385.112	472.88
385.337	488.88
385.562	522.88
385.787	488.88
386.013	470.88
386.238	506.88
386.463	481.88
386.688	488.88
386.913	497.88
387.138	476.88
387.363	490.88
387.588	486.88
387.813	510.88
388.038	485.88
388.263	485.88
388.488	494.88
388.713	506.88
388.938	483.88
389.163	522.88
389.387	489.88
389.612	488.88
389.837	483.88
390.062	496.88
390.287	486.88
390.512	501.88
390.736	470.88
390.961	480.88
391.186	497.88
391.411	496.88
391.636	487.88
391.86	513.88
392.085	541.88
392.31	533.88
392.534	502.88
392.759	499.88
392.984	516.88
393.208	502.88
393.433	521.88
393.658	499.88
393.882	505.88
394.107	510.88
394.331	521.88
394.556	498.88
394.78	516.88
395.005	499.88
395.229	504.88
395.454	544.88
395.678	520.88
395.903	541.88
396.127	553.88
396.352	566.88
396.576	518.88
396.801	503.88
397.025	522.88
397.249	516.88
397.474	552.88
397.698	518.88
397.922	560.88
398.147	564.88
398.371	560.88
398.595	572.88
398.82	568.88
399.044	595.88
399.268	620.88
399.492	650.88
399.717	701.88
399.941	713.88
400.165	714.88
400.389	726.88
400.613	663.88
400.837	618.88
401.062	604.88
401.286	598.88
401.51	573.88
401.734	564.88
401.958	577.88
402.182	595.88
402.406	597.88
402.63	584.88
402.854	602.88
403.078	597.88
403.302	585.88
403.526	592.88
403.75	606.88
403.974	624.88
404.198	581.88
404.422	613.88
404.645	606.88
404.869	623.88
405.093	640.88
405.317	690.88
405.541	696.88
405.765	658.88
405.988	624.88
406.212	634.88
406.436	639.88
406.66	680.88
406.883	648.88
407.107	677.88
407.331	718.88
407.555	820.88
407.778	789.88
408.002	697.88
408.226	686.88
408.449	680.88
408.673	663.88
408.896	684.88
409.12	726.88
409.344	688.88
409.567	638.88
409.791	636.88
410.014	622.88
410.238	620.88
410.461	601.88
410.685	610.88
410.908	602.88
411.132	623.88
411.355	675.88
411.578	658.88
411.802	611.88
412.025	609.88
412.249	607.88
412.472	623.88
412.695	665.88
412.919	657.88
413.142	602.88
413.365	607.88
413.589	560.88
413.812	588.88
414.035	560.88
414.258	549.88
414.482	570.88
414.705	564.88
414.928	560.88
415.151	587.88
415.374	583.88
415.597	578.88
415.821	560.88
416.044	564.88
416.267	544.88
416.49	540.88
416.713	553.88
416.936	573.88
417.159	566.88
417.382	564.88
417.605	573.88
417.828	599.88
418.051	605.88
418.274	597.88
418.497	532.88
418.72	554.88
418.943	573.88
419.166	599.88
419.389	613.88
419.611	590.88
419.834	599.88
420.057	629.88
420.28	595.88
420.503	584.88
420.726	589.88
420.948	609.88
421.171	658.88
421.394	670.88
421.617	599.88
421.839	598.88
422.062	597.88
422.285	606.88
422.507	661.88
422.73	756.88
422.953	703.88
423.175	642.88
423.398	629.88
423.621	630.88
423.843	629.88
424.066	644.88
424.288	640.88
424.511	665.88
424.733	717.88
424.956	792.88
425.178	745.88
425.401	749.88
425.623	796.88
425.846	681.88
426.068	617.88
426.291	617.88
426.513	609.88
426.735	634.88
426.958	686.88
427.18	752.88
427.402	885.88
427.625	961.88
427.847	826.88
428.069	712.88
428.292	646.88
428.514	607.88
428.736	602.88
428.958	585.88
429.181	572.88
429.403	564.88
429.625	602.88
429.847	626.88
430.069	693.88
430.292	689.88
430.514	586.88
430.736	566.88
430.958	565.88
431.18	573.88
431.402	580.88
431.624	568.88
431.846	560.88
432.068	527.88
432.29	565.88
432.512	530.88
432.734	543.88
432.956	562.88
433.178	572.88
433.4	585.88
433.622	567.88
433.844	581.88
434.066	559.88
434.287	536.88
434.509	585.88
434.731	574.88
434.953	574.88
435.175	609.88
435.397	641.88
435.618	626.88
435.84	666.88
436.062	776.88
436.284	819.88
436.505	686.88
436.727	644.88
436.949	595.88
437.17	588.88
437.392	587.88
437.614	581.88
437.835	628.88
438.057	716.88
438.278	796.88
438.5	794.88
438.721	893.88
438.943	825.88
439.165	707.88
439.386	620.88
439.608	633.88
439.829	622.88
440.05	637.88
440.272	668.88
440.493	645.88
440.715	590.88
440.936	585.88
441.158	587.88
441.379	594.88
441.6	617.88
441.822	607.88
442.043	664.88
442.264	740.88
442.486	792.88
442.707	689.88
442.928	628.88
443.149	658.88
443.371	671.88
443.592	698.88
443.813	803.88
444.034	853.88
444.255	730.88
444.476	662.88
444.698	664.88
444.919	671.88
445.14	754.88
445.361	700.88
445.582	670.88
445.803	716.88
446.024	841.88
446.245	818.88
446.466	756.88
446.687	654.88
446.908	654.88
447.129	585.88
447.35	585.88
447.571	600.88
447.792	577.88
448.013	576.88
448.234	593.88
448.455	616.88
448.675	758.88
448.896	868.88
449.117	739.88
449.338	704.88
449.559	813.88
449.779	896.88
450	730.88
450.221	617.88
450.442	586.88
450.662	555.88
450.883	552.88
451.104	550.88
451.324	563.88
451.545	538.88
451.766	532.88
451.986	524.88
452.207	473.88
452.428	513.88
452.648	510.88
452.869	526.88
453.089	512.88
453.31	523.88
453.53	524.88
453.751	500.88
453.971	517.88
454.192	517.88
454.412	521.88
454.633	505.88
454.853	494.88
455.073	518.88
455.294	535.88
455.514	602.88
455.734	585.88
455.955	506.88
456.175	518.88
456.395	493.88
456.616	475.88
456.836	476.88
457.056	468.88
457.276	483.88
457.497	496.88
457.717	484.88
457.937	485.88
458.157	504.88
458.377	489.88
458.598	539.88
458.818	574.88
459.038	641.88
459.258	668.88
459.478	584.88
459.698	566.88
459.918	557.88
460.138	564.88
460.358	578.88
460.578	566.88
460.798	572.88
461.018	583.88
461.238	574.88
461.458	564.88
461.678	548.88
461.898	576.88
462.118	585.88
462.338	606.88
462.558	622.88
462.777	609.88
462.997	631.88
463.217	656.88
463.437	652.88
463.657	632.88
463.876	646.88
464.096	641.88
464.316	630.88
464.536	616.88
464.755	626.88
464.975	621.88
465.195	623.88
465.414	687.88
465.634	641.88
465.854	594.88
466.073	566.88
466.293	541.88
466.512	537.88
466.732	533.88
466.951	538.88
467.171	521.88
467.391	531.88
467.61	536.88
467.829	557.88
468.049	542.88
468.268	523.88
468.488	524.88
468.707	514.88
468.927	498.88
469.146	526.88
469.365	505.88
469.585	523.88
469.804	528.88
470.023	521.88
470.243	545.88
470.462	536.88
470.681	558.88
470.901	566.88
471.12	534.88
471.339	562.88
471.558	538.88
471.777	549.88
471.997	530.88
472.216	519.88
472.435	562.88
472.654	532.88
472.873	519.88
473.092	543.88
473.311	531.88
473.53	548.88
473.749	529.88
473.968	563.88
474.187	675.88
474.406	681.88
474.625	609.88
474.844	566.88
475.063	545.88
475.282	535.88
475.501	564.88
475.72	561.88
475.939	540.88
476.158	536.88
476.377	537.88
476.596	558.88
476.814	551.88
477.033	574.88
477.252	557.88
477.471	570.88
477.69	586.88
477.908	596.88
478.127	611.88
478.346	593.88
478.564	618.88
478.783	616.88
479.002	630.88
479.22	629.88
479.439	645.88
479.658	637.88
479.876	658.88
480.095	645.88
480.313	688.88
480.532	689.88
480.751	661.88
480.969	662.88
481.188	673.88
481.406	709.88
481.624	671.88
481.843	674.88
482.061	636.88
482.28	641.88
482.498	642.88
482.717	612.88
482.935	617.88
483.153	598.88
483.372	639.88
483.59	638.88
483.808	638.88
484.027	624.88
484.245	621.88
484.463	650.88
484.681	641.88
484.9	631.88
485.118	652.88
485.336	660.88
485.554	640.88
485.772	657.88
485.99	648.88
486.209	667.88
486.427	668.88
486.645	648.88
486.863	673.88
487.081	676.88
487.299	656.88
487.517	665.88
487.735	684.88
487.953	668.88
488.171	697.88
488.389	671.88
488.607	688.88
488.825	690.88
489.043	682.88
489.261	707.88
489.479	681.88
489.696	693.88
489.914	710.88
490.132	680.88
490.35	713.88
490.568	729.88
490.786	704.88
491.003	720.88
491.221	730.88
491.439	765.88
491.657	774.88
491.874	775.88
492.092	771.88
492.31	762.88
492.527	779.88
492.745	788.88
492.963	775.88
493.18	752.88
493.398	800.88
493.615	820.88
493.833	786.88
494.05	819.88
494.268	800.88
494.485	815.88
494.703	804.88
494.92	818.88
495.138	793.88
495.355	790.88
495.573	800.88
495.79	804.88
496.008	839.88
496.225	801.88
496.442	814.88
496.66	812.88
496.877	803.88
497.094	807.88
497.312	817.88
497.529	841.88
497.746	840.88
497.963	841.88
498.181	863.88
498.398	896.88
498.615	876.88
498.832	947.88
499.049	959.88
499.267	1006.88
499.484	1020.88
499.701	1060.88
499.918	1125.88
500.135	1190.88
500.352	1248.88
500.569	1276.88
500.786	1297.88
501.003	1239.88
501.22	1225.88
501.437	1160.88
501.654	1099.88
