Data from 1974.PennyLincolnUp.Lamp.En5.5.200Scan.071719.P1.Changed Mount._HRD10591_15-52-27-856.txt Node
Date: Thu Jul 18 15:52:27 EDT 2019
User: cochatt
Spectrometer: HR+D1059
Trigger mode: 1
Integration Time (sec): 1.000000E-1
Scans to average: 1
Electric dark correction enabled: true
Nonlinearity correction enabled: false
Boxcar width: 0
XAxis mode: Wavelengths
Number of Pixels in Spectrum: 2048
>>>>>Begin Spectral Data<<<<<
223.165	-11.94
223.4	-11.94
223.635	-11.94
223.869	-23.94
224.104	-19.94
224.338	-22.94
224.573	-18.94
224.808	-13.94
225.042	-4.94
225.277	-11.94
225.511	6.06
225.746	2.06
225.98	12.06
226.215	19.06
226.449	24.06
226.683	22.06
226.918	29.06
227.152	14.06
227.387	25.06
227.621	35.06
227.856	36.06
228.09	41.06
228.324	54.06
228.559	58.06
228.793	60.06
229.027	108.06
229.262	99.06
229.496	123.06
229.73	125.06
229.964	151.06
230.199	129.06
230.433	120.06
230.667	119.06
230.901	126.06
231.136	117.06
231.37	116.06
231.604	119.06
231.838	121.06
232.072	120.06
232.306	115.06
232.541	110.06
232.775	115.06
233.009	132.06
233.243	104.06
233.477	122.06
233.711	112.06
233.945	109.06
234.179	119.06
234.413	132.06
234.647	122.06
234.881	121.06
235.115	122.06
235.349	125.06
235.583	121.06
235.817	124.06
236.051	130.06
236.285	132.06
236.519	120.06
236.753	111.06
236.987	131.06
237.221	185.06
237.455	240.06
237.689	179.06
237.922	143.06
238.156	138.06
238.39	136.06
238.624	129.06
238.858	115.06
239.091	140.06
239.325	129.06
239.559	139.06
239.793	137.06
240.027	138.06
240.26	148.06
240.494	136.06
240.728	148.06
240.961	152.06
241.195	149.06
241.429	139.06
241.662	150.06
241.896	146.06
242.13	148.06
242.363	136.06
242.597	140.06
242.83	143.06
243.064	160.06
243.298	130.06
243.531	126.06
243.765	149.06
243.998	139.06
244.232	149.06
244.465	157.06
244.699	157.06
244.932	150.06
245.166	157.06
245.399	153.06
245.633	168.06
245.866	166.06
246.099	157.06
246.333	135.06
246.566	164.06
246.8	158.06
247.033	180.06
247.266	161.06
247.5	171.06
247.733	192.06
247.966	187.06
248.2	176.06
248.433	202.06
248.666	178.06
248.899	181.06
249.133	188.06
249.366	210.06
249.599	198.06
249.832	200.06
250.066	193.06
250.299	184.06
250.532	210.06
250.765	225.06
250.998	230.06
251.231	224.06
251.465	222.06
251.698	222.06
251.931	208.06
252.164	217.06
252.397	213.06
252.63	218.06
252.863	209.06
253.096	233.06
253.329	241.06
253.562	240.06
253.795	238.06
254.028	237.06
254.261	231.06
254.494	232.06
254.727	253.06
254.96	278.06
255.193	270.06
255.426	235.06
255.659	256.06
255.892	244.06
256.124	237.06
256.357	261.06
256.59	229.06
256.823	226.06
257.056	225.06
257.289	212.06
257.521	213.06
257.754	228.06
257.987	196.06
258.22	223.06
258.452	230.06
258.685	226.06
258.918	225.06
259.151	215.06
259.383	211.06
259.616	228.06
259.849	240.06
260.081	253.06
260.314	269.06
260.547	282.06
260.779	249.06
261.012	254.06
261.244	235.06
261.477	233.06
261.71	233.06
261.942	229.06
262.175	233.06
262.407	234.06
262.64	220.06
262.872	257.06
263.105	217.06
263.337	223.06
263.57	233.06
263.802	212.06
264.035	233.06
264.267	236.06
264.499	220.06
264.732	209.06
264.964	212.06
265.197	218.06
265.429	225.06
265.661	256.06
265.894	230.06
266.126	229.06
266.358	224.06
266.591	237.06
266.823	233.06
267.055	235.06
267.287	230.06
267.52	248.06
267.752	237.06
267.984	256.06
268.216	261.06
268.448	266.06
268.681	268.06
268.913	254.06
269.145	271.06
269.377	282.06
269.609	272.06
269.841	269.06
270.073	281.06
270.306	309.06
270.538	320.06
270.77	335.06
271.002	321.06
271.234	292.06
271.466	315.06
271.698	326.06
271.93	328.06
272.162	330.06
272.394	321.06
272.626	305.06
272.858	287.06
273.09	284.06
273.322	286.06
273.553	285.06
273.785	290.06
274.017	258.06
274.249	287.06
274.481	280.06
274.713	276.06
274.945	289.06
275.176	282.06
275.408	281.06
275.64	280.06
275.872	302.06
276.104	277.06
276.335	305.06
276.567	287.06
276.799	288.06
277.031	327.06
277.262	332.06
277.494	311.06
277.726	316.06
277.957	301.06
278.189	314.06
278.421	295.06
278.652	294.06
278.884	280.06
279.115	293.06
279.347	289.06
279.579	270.06
279.81	289.06
280.042	277.06
280.273	284.06
280.505	289.06
280.736	285.06
280.968	288.06
281.199	284.06
281.431	271.06
281.662	286.06
281.894	302.06
282.125	292.06
282.356	299.06
282.588	318.06
282.819	306.06
283.051	306.06
283.282	292.06
283.513	299.06
283.745	307.06
283.976	300.06
284.207	299.06
284.439	292.06
284.67	299.06
284.901	299.06
285.132	304.06
285.364	292.06
285.595	294.06
285.826	288.06
286.057	297.06
286.288	318.06
286.52	310.06
286.751	305.06
286.982	337.06
287.213	312.06
287.444	302.06
287.675	337.06
287.906	323.06
288.138	336.06
288.369	316.06
288.6	321.06
288.831	325.06
289.062	324.06
289.293	306.06
289.524	326.06
289.755	302.06
289.986	322.06
290.217	320.06
290.448	307.06
290.679	308.06
290.91	317.06
291.141	313.06
291.371	305.06
291.602	312.06
291.833	314.06
292.064	293.06
292.295	315.06
292.526	336.06
292.757	308.06
292.987	313.06
293.218	320.06
293.449	340.06
293.68	312.06
293.91	314.06
294.141	331.06
294.372	312.06
294.603	300.06
294.833	326.06
295.064	320.06
295.295	308.06
295.525	309.06
295.756	320.06
295.987	328.06
296.217	332.06
296.448	356.06
296.679	337.06
296.909	324.06
297.14	311.06
297.37	316.06
297.601	313.06
297.831	321.06
298.062	333.06
298.292	327.06
298.523	334.06
298.753	342.06
298.984	333.06
299.214	306.06
299.445	320.06
299.675	331.06
299.905	318.06
300.136	327.06
300.366	349.06
300.597	334.06
300.827	353.06
301.057	348.06
301.288	341.06
301.518	328.06
301.748	345.06
301.979	345.06
302.209	352.06
302.439	351.06
302.669	352.06
302.9	358.06
303.13	351.06
303.36	350.06
303.59	347.06
303.82	362.06
304.051	343.06
304.281	345.06
304.511	350.06
304.741	358.06
304.971	336.06
305.201	333.06
305.431	361.06
305.661	348.06
305.891	333.06
306.121	357.06
306.352	365.06
306.582	366.06
306.812	360.06
307.042	347.06
307.272	362.06
307.502	364.06
307.731	355.06
307.961	346.06
308.191	361.06
308.421	348.06
308.651	361.06
308.881	336.06
309.111	371.06
309.341	370.06
309.571	383.06
309.8	361.06
310.03	392.06
310.26	374.06
310.49	398.06
310.72	413.06
310.949	402.06
311.179	413.06
311.409	411.06
311.639	404.06
311.868	406.06
312.098	383.06
312.328	421.06
312.557	404.06
312.787	411.06
313.017	417.06
313.246	397.06
313.476	398.06
313.706	399.06
313.935	404.06
314.165	406.06
314.394	411.06
314.624	399.06
314.853	403.06
315.083	402.06
315.312	396.06
315.542	396.06
315.771	382.06
316.001	396.06
316.23	397.06
316.46	389.06
316.689	401.06
316.919	408.06
317.148	429.06
317.377	422.06
317.607	412.06
317.836	420.06
318.065	398.06
318.295	380.06
318.524	387.06
318.753	401.06
318.983	393.06
319.212	387.06
319.441	405.06
319.67	415.06
319.9	405.06
320.129	389.06
320.358	391.06
320.587	438.06
320.816	404.06
321.046	440.06
321.275	455.06
321.504	420.06
321.733	416.06
321.962	408.06
322.191	421.06
322.42	426.06
322.649	456.06
322.878	461.06
323.108	444.06
323.337	463.06
323.566	476.06
323.795	483.06
324.024	533.06
324.253	624.06
324.482	822.06
324.71	1222.06
324.939	1809.06
325.168	1580.06
325.397	817.06
325.626	596.06
325.855	487.06
326.084	505.06
326.313	465.06
326.542	480.06
326.77	523.06
326.999	588.06
327.228	755.06
327.457	1149.06
327.686	1388.06
327.914	962.06
328.143	668.06
328.372	570.06
328.6	562.06
328.829	563.06
329.058	553.06
329.287	570.06
329.515	524.06
329.744	488.06
329.972	518.06
330.201	521.06
330.43	541.06
330.658	572.06
330.887	579.06
331.115	570.06
331.344	520.06
331.572	484.06
331.801	518.06
332.03	488.06
332.258	482.06
332.486	479.06
332.715	480.06
332.943	464.06
333.172	489.06
333.4	498.06
333.629	489.06
333.857	525.06
334.085	518.06
334.314	533.06
334.542	568.06
334.771	550.06
334.999	546.06
335.227	518.06
335.455	488.06
335.684	515.06
335.912	484.06
336.14	479.06
336.369	493.06
336.597	500.06
336.825	476.06
337.053	485.06
337.281	472.06
337.51	483.06
337.738	496.06
337.966	472.06
338.194	479.06
338.422	462.06
338.65	475.06
338.878	463.06
339.106	459.06
339.334	470.06
339.562	470.06
339.79	465.06
340.018	476.06
340.246	459.06
340.474	477.06
340.702	481.06
340.93	438.06
341.158	463.06
341.386	458.06
341.614	448.06
341.842	452.06
342.07	448.06
342.298	459.06
342.526	454.06
342.754	472.06
342.981	451.06
343.209	461.06
343.437	456.06
343.665	463.06
343.893	468.06
344.12	469.06
344.348	493.06
344.576	490.06
344.804	498.06
345.031	485.06
345.259	470.06
345.487	460.06
345.714	470.06
345.942	447.06
346.17	440.06
346.397	472.06
346.625	455.06
346.853	429.06
347.08	446.06
347.308	435.06
347.535	454.06
347.763	458.06
347.99	474.06
348.218	465.06
348.445	461.06
348.673	459.06
348.9	438.06
349.128	450.06
349.355	439.06
349.583	443.06
349.81	425.06
350.037	429.06
350.265	428.06
350.492	424.06
350.72	441.06
350.947	442.06
351.174	445.06
351.402	474.06
351.629	433.06
351.856	466.06
352.083	433.06
352.311	470.06
352.538	452.06
352.765	463.06
352.992	462.06
353.22	464.06
353.447	437.06
353.674	439.06
353.901	451.06
354.128	424.06
354.355	407.06
354.583	427.06
354.81	447.06
355.037	426.06
355.264	434.06
355.491	450.06
355.718	414.06
355.945	424.06
356.172	429.06
356.399	410.06
356.626	409.06
356.853	423.06
357.08	426.06
357.307	399.06
357.534	432.06
357.761	432.06
357.988	434.06
358.215	426.06
358.441	427.06
358.668	430.06
358.895	450.06
359.122	427.06
359.349	444.06
359.576	445.06
359.802	466.06
360.029	481.06
360.256	482.06
360.483	485.06
360.709	448.06
360.936	440.06
361.163	440.06
361.39	478.06
361.616	463.06
361.843	436.06
362.07	448.06
362.296	445.06
362.523	453.06
362.749	465.06
362.976	443.06
363.203	450.06
363.429	419.06
363.656	451.06
363.882	438.06
364.109	432.06
364.335	444.06
364.562	432.06
364.788	426.06
365.015	440.06
365.241	457.06
365.468	453.06
365.694	449.06
365.92	460.06
366.147	454.06
366.373	437.06
366.599	445.06
366.826	443.06
367.052	429.06
367.278	443.06
367.505	425.06
367.731	458.06
367.957	430.06
368.184	435.06
368.41	440.06
368.636	443.06
368.862	460.06
369.089	455.06
369.315	460.06
369.541	437.06
369.767	448.06
369.993	446.06
370.219	449.06
370.445	448.06
370.672	442.06
370.898	446.06
371.124	454.06
371.35	435.06
371.576	462.06
371.802	472.06
372.028	440.06
372.254	444.06
372.48	459.06
372.706	463.06
372.932	436.06
373.158	450.06
373.384	444.06
373.61	436.06
373.835	434.06
374.061	456.06
374.287	462.06
374.513	449.06
374.739	457.06
374.965	462.06
375.191	471.06
375.416	451.06
375.642	466.06
375.868	459.06
376.094	434.06
376.319	444.06
376.545	452.06
376.771	477.06
376.997	458.06
377.222	436.06
377.448	466.06
377.674	445.06
377.899	436.06
378.125	439.06
378.35	452.06
378.576	448.06
378.802	432.06
379.027	438.06
379.253	443.06
379.478	429.06
379.704	448.06
379.929	446.06
380.155	434.06
380.38	446.06
380.606	458.06
380.831	460.06
381.057	450.06
381.282	447.06
381.507	436.06
381.733	481.06
381.958	483.06
382.184	453.06
382.409	472.06
382.634	465.06
382.86	453.06
383.085	485.06
383.31	477.06
383.535	481.06
383.761	482.06
383.986	469.06
384.211	475.06
384.436	491.06
384.662	481.06
384.887	496.06
385.112	496.06
385.337	488.06
385.562	489.06
385.787	509.06
386.013	510.06
386.238	517.06
386.463	504.06
386.688	491.06
386.913	492.06
387.138	480.06
387.363	500.06
387.588	504.06
387.813	520.06
388.038	520.06
388.263	502.06
388.488	532.06
388.713	509.06
388.938	487.06
389.163	508.06
389.387	520.06
389.612	524.06
389.837	508.06
390.062	512.06
390.287	509.06
390.512	491.06
390.736	502.06
390.961	522.06
391.186	520.06
391.411	498.06
391.636	520.06
391.86	541.06
392.085	542.06
392.31	542.06
392.534	552.06
392.759	523.06
392.984	514.06
393.208	518.06
393.433	518.06
393.658	543.06
393.882	493.06
394.107	536.06
394.331	541.06
394.556	508.06
394.78	517.06
395.005	526.06
395.229	521.06
395.454	546.06
395.678	546.06
395.903	510.06
396.127	574.06
396.352	572.06
396.576	554.06
396.801	548.06
397.025	532.06
397.249	533.06
397.474	541.06
397.698	553.06
397.922	590.06
398.147	589.06
398.371	580.06
398.595	562.06
398.82	584.06
399.044	610.06
399.268	630.06
399.492	681.06
399.717	711.06
399.941	764.06
400.165	743.06
400.389	745.06
400.613	680.06
400.837	644.06
401.062	595.06
401.286	592.06
401.51	601.06
401.734	594.06
401.958	600.06
402.182	603.06
402.406	619.06
402.63	604.06
402.854	579.06
403.078	587.06
403.302	619.06
403.526	617.06
403.75	643.06
403.974	622.06
404.198	619.06
404.422	634.06
404.645	661.06
404.869	647.06
405.093	670.06
405.317	684.06
405.541	725.06
405.765	666.06
405.988	650.06
406.212	651.06
406.436	656.06
406.66	674.06
406.883	666.06
407.107	683.06
407.331	721.06
407.555	811.06
407.778	794.06
408.002	716.06
408.226	692.06
408.449	670.06
408.673	668.06
408.896	695.06
409.12	732.06
409.344	708.06
409.567	650.06
409.791	606.06
410.014	620.06
410.238	632.06
410.461	634.06
410.685	611.06
410.908	634.06
411.132	684.06
411.355	704.06
411.578	673.06
411.802	642.06
412.025	621.06
412.249	614.06
412.472	659.06
412.695	677.06
412.919	668.06
413.142	633.06
413.365	623.06
413.589	596.06
413.812	625.06
414.035	599.06
414.258	589.06
414.482	599.06
414.705	597.06
414.928	583.06
415.151	583.06
415.374	596.06
415.597	568.06
415.821	594.06
416.044	603.06
416.267	602.06
416.49	581.06
416.713	558.06
416.936	573.06
417.159	591.06
417.382	573.06
417.605	582.06
417.828	606.06
418.051	615.06
418.274	601.06
418.497	616.06
418.72	585.06
418.943	590.06
419.166	644.06
419.389	646.06
419.611	654.06
419.834	630.06
420.057	615.06
420.28	628.06
420.503	630.06
420.726	617.06
420.948	642.06
421.171	680.06
421.394	689.06
421.617	610.06
421.839	599.06
422.062	610.06
422.285	607.06
422.507	694.06
422.73	762.06
422.953	722.06
423.175	683.06
423.398	652.06
423.621	649.06
423.843	661.06
424.066	658.06
424.288	641.06
424.511	668.06
424.733	729.06
424.956	799.06
425.178	741.06
425.401	771.06
425.623	789.06
425.846	679.06
426.068	627.06
426.291	644.06
426.513	624.06
426.735	637.06
426.958	660.06
427.18	770.06
427.402	889.06
427.625	993.06
427.847	849.06
428.069	717.06
428.292	652.06
428.514	660.06
428.736	611.06
428.958	613.06
429.181	591.06
429.403	578.06
429.625	603.06
429.847	634.06
430.069	698.06
430.292	694.06
430.514	613.06
430.736	600.06
430.958	601.06
431.18	591.06
431.402	563.06
431.624	562.06
431.846	546.06
432.068	547.06
432.29	576.06
432.512	562.06
432.734	576.06
432.956	568.06
433.178	576.06
433.4	592.06
433.622	593.06
433.844	595.06
434.066	588.06
434.287	576.06
434.509	565.06
434.731	579.06
434.953	586.06
435.175	622.06
435.397	661.06
435.618	645.06
435.84	672.06
436.062	774.06
436.284	841.06
436.505	702.06
436.727	640.06
436.949	614.06
437.17	590.06
437.392	564.06
437.614	580.06
437.835	620.06
438.057	708.06
438.278	806.06
438.5	804.06
438.721	906.06
438.943	862.06
439.165	680.06
439.386	656.06
439.608	636.06
439.829	631.06
440.05	651.06
440.272	682.06
440.493	650.06
440.715	636.06
440.936	636.06
441.158	598.06
441.379	612.06
441.6	616.06
441.822	662.06
442.043	684.06
442.264	733.06
442.486	801.06
442.707	711.06
442.928	678.06
443.149	655.06
443.371	681.06
443.592	682.06
443.813	818.06
444.034	889.06
444.255	754.06
444.476	677.06
444.698	672.06
444.919	656.06
445.14	769.06
445.361	715.06
445.582	707.06
445.803	752.06
446.024	825.06
446.245	854.06
446.466	780.06
446.687	696.06
446.908	640.06
447.129	595.06
447.35	576.06
447.571	579.06
447.792	576.06
448.013	571.06
448.234	583.06
448.455	644.06
448.675	745.06
448.896	869.06
449.117	748.06
449.338	723.06
449.559	822.06
449.779	942.06
450	743.06
450.221	640.06
450.442	583.06
450.662	565.06
450.883	554.06
451.104	574.06
451.324	567.06
451.545	556.06
451.766	541.06
451.986	527.06
452.207	528.06
452.428	507.06
452.648	524.06
452.869	536.06
453.089	529.06
453.31	538.06
453.53	538.06
453.751	532.06
453.971	531.06
454.192	533.06
454.412	516.06
454.633	526.06
454.853	500.06
455.073	506.06
455.294	543.06
455.514	592.06
455.734	584.06
455.955	523.06
456.175	531.06
456.395	500.06
456.616	498.06
456.836	494.06
457.056	506.06
457.276	478.06
457.497	504.06
457.717	484.06
457.937	509.06
458.157	504.06
458.377	524.06
458.598	535.06
458.818	568.06
459.038	666.06
459.258	677.06
459.478	624.06
459.698	566.06
459.918	590.06
460.138	577.06
460.358	582.06
460.578	576.06
460.798	587.06
461.018	617.06
461.238	584.06
461.458	593.06
461.678	589.06
461.898	596.06
462.118	588.06
462.338	624.06
462.558	611.06
462.777	630.06
462.997	658.06
463.217	670.06
463.437	693.06
463.657	662.06
463.876	646.06
464.096	646.06
464.316	674.06
464.536	635.06
464.755	652.06
464.975	636.06
465.195	647.06
465.414	688.06
465.634	650.06
465.854	603.06
466.073	573.06
466.293	561.06
466.512	550.06
466.732	553.06
466.951	569.06
467.171	549.06
467.391	554.06
467.61	535.06
467.829	539.06
468.049	554.06
468.268	560.06
468.488	549.06
468.707	539.06
468.927	532.06
469.146	515.06
469.365	521.06
469.585	518.06
469.804	533.06
470.023	547.06
470.243	557.06
470.462	581.06
470.681	586.06
470.901	559.06
471.12	530.06
471.339	547.06
471.558	557.06
471.777	580.06
471.997	558.06
472.216	549.06
472.435	588.06
472.654	566.06
472.873	568.06
473.092	562.06
473.311	544.06
473.53	532.06
473.749	571.06
473.968	587.06
474.187	662.06
474.406	685.06
474.625	594.06
474.844	553.06
475.063	565.06
475.282	559.06
475.501	558.06
475.72	580.06
475.939	556.06
476.158	555.06
476.377	575.06
476.596	549.06
476.814	572.06
477.033	592.06
477.252	599.06
477.471	594.06
477.69	582.06
477.908	616.06
478.127	621.06
478.346	605.06
478.564	600.06
478.783	613.06
479.002	632.06
479.22	638.06
479.439	633.06
479.658	662.06
479.876	659.06
480.095	667.06
480.313	701.06
480.532	670.06
480.751	685.06
480.969	681.06
481.188	711.06
481.406	753.06
481.624	678.06
481.843	656.06
482.061	661.06
482.28	634.06
482.498	637.06
482.717	660.06
482.935	638.06
483.153	656.06
483.372	654.06
483.59	638.06
483.808	640.06
484.027	624.06
484.245	633.06
484.463	646.06
484.681	659.06
484.9	670.06
485.118	677.06
485.336	651.06
485.554	665.06
485.772	659.06
485.99	678.06
486.209	644.06
486.427	669.06
486.645	672.06
486.863	685.06
487.081	665.06
487.299	693.06
487.517	698.06
487.735	672.06
487.953	677.06
488.171	702.06
488.389	690.06
488.607	682.06
488.825	693.06
489.043	711.06
489.261	683.06
489.479	726.06
489.696	718.06
489.914	723.06
490.132	726.06
490.35	716.06
490.568	747.06
490.786	740.06
491.003	743.06
491.221	750.06
491.439	769.06
491.657	779.06
491.874	796.06
492.092	769.06
492.31	785.06
492.527	798.06
492.745	830.06
492.963	828.06
493.18	816.06
493.398	822.06
493.615	817.06
493.833	846.06
494.05	818.06
494.268	842.06
494.485	808.06
494.703	817.06
494.92	786.06
495.138	843.06
495.355	822.06
495.573	818.06
495.79	851.06
496.008	810.06
496.225	798.06
496.442	808.06
496.66	820.06
496.877	842.06
497.094	845.06
497.312	851.06
497.529	891.06
497.746	871.06
497.963	875.06
498.181	907.06
498.398	921.06
498.615	923.06
498.832	942.06
499.049	984.06
499.267	1021.06
499.484	1045.06
499.701	1127.06
499.918	1148.06
500.135	1210.06
500.352	1298.06
500.569	1324.06
500.786	1313.06
501.003	1297.06
501.22	1243.06
501.437	1214.06
501.654	1142.06
