Data from 1974.PennyLincolnUp.Lamp.En5.5.200Scan.071719.P1.Changed Mount._HRD10591_15-52-18-856.txt Node
Date: Thu Jul 18 15:52:18 EDT 2019
User: cochatt
Spectrometer: HR+D1059
Trigger mode: 1
Integration Time (sec): 1.000000E-1
Scans to average: 1
Electric dark correction enabled: true
Nonlinearity correction enabled: false
Boxcar width: 0
XAxis mode: Wavelengths
Number of Pixels in Spectrum: 2048
>>>>>Begin Spectral Data<<<<<
223.165	-12.31
223.4	-12.31
223.635	-12.31
223.869	-7.31
224.104	-21.31
224.338	-16.31
224.573	-17.31
224.808	-15.31
225.042	-9.31
225.277	-9.31
225.511	-2.31
225.746	-0.31
225.98	12.69
226.215	11.69
226.449	14.69
226.683	16.69
226.918	21.69
227.152	33.69
227.387	32.69
227.621	28.69
227.856	44.69
228.09	47.69
228.324	48.69
228.559	41.69
228.793	60.69
229.027	104.69
229.262	116.69
229.496	123.69
229.73	138.69
229.964	161.69
230.199	139.69
230.433	106.69
230.667	125.69
230.901	124.69
231.136	118.69
231.37	110.69
231.604	112.69
231.838	116.69
232.072	131.69
232.306	120.69
232.541	139.69
232.775	111.69
233.009	113.69
233.243	116.69
233.477	115.69
233.711	108.69
233.945	126.69
234.179	115.69
234.413	123.69
234.647	125.69
234.881	125.69
235.115	114.69
235.349	125.69
235.583	124.69
235.817	125.69
236.051	139.69
236.285	129.69
236.519	135.69
236.753	132.69
236.987	147.69
237.221	168.69
237.455	248.69
237.689	192.69
237.922	133.69
238.156	132.69
238.39	140.69
238.624	136.69
238.858	123.69
239.091	126.69
239.325	125.69
239.559	131.69
239.793	153.69
240.027	148.69
240.26	144.69
240.494	161.69
240.728	165.69
240.961	158.69
241.195	153.69
241.429	141.69
241.662	135.69
241.896	148.69
242.13	141.69
242.363	149.69
242.597	149.69
242.83	150.69
243.064	139.69
243.298	142.69
243.531	143.69
243.765	151.69
243.998	156.69
244.232	145.69
244.465	161.69
244.699	161.69
244.932	158.69
245.166	142.69
245.399	151.69
245.633	163.69
245.866	163.69
246.099	160.69
246.333	159.69
246.566	160.69
246.8	165.69
247.033	166.69
247.266	158.69
247.5	167.69
247.733	166.69
247.966	188.69
248.2	181.69
248.433	200.69
248.666	196.69
248.899	209.69
249.133	196.69
249.366	216.69
249.599	198.69
249.832	178.69
250.066	195.69
250.299	193.69
250.532	211.69
250.765	210.69
250.998	216.69
251.231	230.69
251.465	212.69
251.698	217.69
251.931	205.69
252.164	212.69
252.397	216.69
252.63	214.69
252.863	225.69
253.096	228.69
253.329	235.69
253.562	232.69
253.795	224.69
254.028	221.69
254.261	224.69
254.494	223.69
254.727	260.69
254.96	283.69
255.193	270.69
255.426	259.69
255.659	247.69
255.892	238.69
256.124	240.69
256.357	238.69
256.59	230.69
256.823	223.69
257.056	227.69
257.289	215.69
257.521	217.69
257.754	222.69
257.987	207.69
258.22	216.69
258.452	235.69
258.685	211.69
258.918	204.69
259.151	210.69
259.383	233.69
259.616	222.69
259.849	240.69
260.081	255.69
260.314	265.69
260.547	263.69
260.779	256.69
261.012	245.69
261.244	257.69
261.477	257.69
261.71	232.69
261.942	232.69
262.175	239.69
262.407	240.69
262.64	222.69
262.872	229.69
263.105	221.69
263.337	230.69
263.57	220.69
263.802	224.69
264.035	221.69
264.267	224.69
264.499	233.69
264.732	225.69
264.964	233.69
265.197	221.69
265.429	245.69
265.661	231.69
265.894	224.69
266.126	239.69
266.358	232.69
266.591	237.69
266.823	222.69
267.055	238.69
267.287	223.69
267.52	241.69
267.752	238.69
267.984	219.69
268.216	240.69
268.448	252.69
268.681	244.69
268.913	263.69
269.145	274.69
269.377	270.69
269.609	292.69
269.841	283.69
270.073	288.69
270.306	305.69
270.538	307.69
270.77	313.69
271.002	316.69
271.234	316.69
271.466	314.69
271.698	299.69
271.93	315.69
272.162	344.69
272.394	324.69
272.626	312.69
272.858	285.69
273.09	314.69
273.322	302.69
273.553	281.69
273.785	276.69
274.017	273.69
274.249	284.69
274.481	269.69
274.713	276.69
274.945	291.69
275.176	266.69
275.408	285.69
275.64	274.69
275.872	255.69
276.104	271.69
276.335	272.69
276.567	297.69
276.799	279.69
277.031	320.69
277.262	315.69
277.494	332.69
277.726	293.69
277.957	317.69
278.189	293.69
278.421	295.69
278.652	293.69
278.884	292.69
279.115	282.69
279.347	265.69
279.579	294.69
279.81	289.69
280.042	283.69
280.273	282.69
280.505	292.69
280.736	304.69
280.968	296.69
281.199	286.69
281.431	284.69
281.662	284.69
281.894	310.69
282.125	279.69
282.356	313.69
282.588	314.69
282.819	330.69
283.051	307.69
283.282	300.69
283.513	320.69
283.745	296.69
283.976	303.69
284.207	299.69
284.439	298.69
284.67	302.69
284.901	299.69
285.132	311.69
285.364	297.69
285.595	309.69
285.826	300.69
286.057	311.69
286.288	305.69
286.52	300.69
286.751	313.69
286.982	314.69
287.213	308.69
287.444	315.69
287.675	304.69
287.906	334.69
288.138	315.69
288.369	336.69
288.6	317.69
288.831	320.69
289.062	302.69
289.293	307.69
289.524	320.69
289.755	319.69
289.986	301.69
290.217	311.69
290.448	310.69
290.679	317.69
290.91	322.69
291.141	327.69
291.371	326.69
291.602	327.69
291.833	293.69
292.064	312.69
292.295	350.69
292.526	320.69
292.757	307.69
292.987	326.69
293.218	314.69
293.449	335.69
293.68	339.69
293.91	329.69
294.141	321.69
294.372	309.69
294.603	322.69
294.833	325.69
295.064	311.69
295.295	303.69
295.525	327.69
295.756	328.69
295.987	316.69
296.217	364.69
296.448	350.69
296.679	351.69
296.909	321.69
297.14	310.69
297.37	327.69
297.601	332.69
297.831	326.69
298.062	347.69
298.292	332.69
298.523	336.69
298.753	352.69
298.984	336.69
299.214	343.69
299.445	360.69
299.675	334.69
299.905	342.69
300.136	328.69
300.366	333.69
300.597	358.69
300.827	351.69
301.057	373.69
301.288	361.69
301.518	362.69
301.748	366.69
301.979	369.69
302.209	365.69
302.439	362.69
302.669	360.69
302.9	346.69
303.13	357.69
303.36	368.69
303.59	338.69
303.82	357.69
304.051	383.69
304.281	367.69
304.511	345.69
304.741	348.69
304.971	356.69
305.201	363.69
305.431	357.69
305.661	359.69
305.891	351.69
306.121	357.69
306.352	381.69
306.582	358.69
306.812	349.69
307.042	355.69
307.272	372.69
307.502	357.69
307.731	366.69
307.961	362.69
308.191	363.69
308.421	356.69
308.651	369.69
308.881	369.69
309.111	353.69
309.341	359.69
309.571	359.69
309.8	361.69
310.03	378.69
310.26	397.69
310.49	397.69
310.72	400.69
310.949	398.69
311.179	415.69
311.409	406.69
311.639	372.69
311.868	387.69
312.098	392.69
312.328	401.69
312.557	428.69
312.787	425.69
313.017	422.69
313.246	405.69
313.476	385.69
313.706	400.69
313.935	389.69
314.165	419.69
314.394	422.69
314.624	435.69
314.853	422.69
315.083	413.69
315.312	421.69
315.542	398.69
315.771	414.69
316.001	387.69
316.23	392.69
316.46	405.69
316.689	407.69
316.919	404.69
317.148	426.69
317.377	407.69
317.607	398.69
317.836	409.69
318.065	419.69
318.295	399.69
318.524	405.69
318.753	399.69
318.983	407.69
319.212	389.69
319.441	410.69
319.67	428.69
319.9	407.69
320.129	407.69
320.358	413.69
320.587	399.69
320.816	408.69
321.046	427.69
321.275	433.69
321.504	416.69
321.733	404.69
321.962	425.69
322.191	432.69
322.42	453.69
322.649	455.69
322.878	448.69
323.108	446.69
323.337	480.69
323.566	495.69
323.795	511.69
324.024	539.69
324.253	618.69
324.482	814.69
324.71	1199.69
324.939	1763.69
325.168	1589.69
325.397	816.69
325.626	577.69
325.855	505.69
326.084	497.69
326.313	493.69
326.542	486.69
326.77	512.69
326.999	575.69
327.228	763.69
327.457	1112.69
327.686	1409.69
327.914	945.69
328.143	645.69
328.372	563.69
328.6	538.69
328.829	531.69
329.058	539.69
329.287	548.69
329.515	512.69
329.744	478.69
329.972	507.69
330.201	528.69
330.43	543.69
330.658	548.69
330.887	569.69
331.115	576.69
331.344	527.69
331.572	489.69
331.801	499.69
332.03	491.69
332.258	507.69
332.486	483.69
332.715	490.69
332.943	491.69
333.172	483.69
333.4	500.69
333.629	502.69
333.857	525.69
334.085	541.69
334.314	524.69
334.542	567.69
334.771	574.69
334.999	547.69
335.227	521.69
335.455	528.69
335.684	506.69
335.912	500.69
336.14	494.69
336.369	487.69
336.597	506.69
336.825	485.69
337.053	496.69
337.281	495.69
337.51	488.69
337.738	487.69
337.966	475.69
338.194	489.69
338.422	502.69
338.65	461.69
338.878	473.69
339.106	471.69
339.334	482.69
339.562	471.69
339.79	461.69
340.018	483.69
340.246	465.69
340.474	474.69
340.702	471.69
340.93	458.69
341.158	448.69
341.386	455.69
341.614	448.69
341.842	475.69
342.07	468.69
342.298	472.69
342.526	451.69
342.754	449.69
342.981	436.69
343.209	463.69
343.437	478.69
343.665	479.69
343.893	490.69
344.12	488.69
344.348	492.69
344.576	479.69
344.804	499.69
345.031	471.69
345.259	480.69
345.487	481.69
345.714	461.69
345.942	459.69
346.17	460.69
346.397	458.69
346.625	452.69
346.853	447.69
347.08	445.69
347.308	444.69
347.535	465.69
347.763	445.69
347.99	447.69
348.218	442.69
348.445	456.69
348.673	444.69
348.9	451.69
349.128	437.69
349.355	454.69
349.583	447.69
349.81	421.69
350.037	445.69
350.265	443.69
350.492	465.69
350.72	438.69
350.947	451.69
351.174	455.69
351.402	455.69
351.629	449.69
351.856	428.69
352.083	451.69
352.311	459.69
352.538	449.69
352.765	440.69
352.992	438.69
353.22	446.69
353.447	451.69
353.674	459.69
353.901	424.69
354.128	433.69
354.355	436.69
354.583	441.69
354.81	440.69
355.037	444.69
355.264	440.69
355.491	455.69
355.718	449.69
355.945	428.69
356.172	444.69
356.399	431.69
356.626	430.69
356.853	440.69
357.08	428.69
357.307	432.69
357.534	438.69
357.761	423.69
357.988	434.69
358.215	445.69
358.441	441.69
358.668	425.69
358.895	446.69
359.122	436.69
359.349	448.69
359.576	457.69
359.802	474.69
360.029	478.69
360.256	491.69
360.483	470.69
360.709	453.69
360.936	467.69
361.163	441.69
361.39	467.69
361.616	461.69
361.843	454.69
362.07	472.69
362.296	474.69
362.523	464.69
362.749	428.69
362.976	441.69
363.203	455.69
363.429	445.69
363.656	437.69
363.882	455.69
364.109	463.69
364.335	449.69
364.562	424.69
364.788	450.69
365.015	435.69
365.241	458.69
365.468	433.69
365.694	470.69
365.92	437.69
366.147	443.69
366.373	424.69
366.599	444.69
366.826	427.69
367.052	417.69
367.278	439.69
367.505	452.69
367.731	459.69
367.957	452.69
368.184	450.69
368.41	465.69
368.636	455.69
368.862	470.69
369.089	459.69
369.315	428.69
369.541	438.69
369.767	429.69
369.993	442.69
370.219	445.69
370.445	437.69
370.672	462.69
370.898	431.69
371.124	457.69
371.35	453.69
371.576	455.69
371.802	458.69
372.028	483.69
372.254	447.69
372.48	441.69
372.706	469.69
372.932	447.69
373.158	457.69
373.384	468.69
373.61	455.69
373.835	453.69
374.061	463.69
374.287	462.69
374.513	471.69
374.739	461.69
374.965	479.69
375.191	465.69
375.416	454.69
375.642	470.69
375.868	461.69
376.094	487.69
376.319	463.69
376.545	441.69
376.771	467.69
376.997	457.69
377.222	435.69
377.448	429.69
377.674	431.69
377.899	432.69
378.125	457.69
378.35	455.69
378.576	468.69
378.802	454.69
379.027	464.69
379.253	424.69
379.478	448.69
379.704	460.69
379.929	453.69
380.155	460.69
380.38	461.69
380.606	460.69
380.831	465.69
381.057	464.69
381.282	468.69
381.507	461.69
381.733	466.69
381.958	453.69
382.184	468.69
382.409	474.69
382.634	469.69
382.86	459.69
383.085	471.69
383.31	500.69
383.535	457.69
383.761	494.69
383.986	495.69
384.211	481.69
384.436	484.69
384.662	499.69
384.887	500.69
385.112	508.69
385.337	500.69
385.562	519.69
385.787	525.69
386.013	522.69
386.238	528.69
386.463	522.69
386.688	507.69
386.913	538.69
387.138	520.69
387.363	515.69
387.588	501.69
387.813	523.69
388.038	493.69
388.263	524.69
388.488	517.69
388.713	499.69
388.938	504.69
389.163	508.69
389.387	511.69
389.612	502.69
389.837	529.69
390.062	504.69
390.287	510.69
390.512	507.69
390.736	505.69
390.961	504.69
391.186	517.69
391.411	529.69
391.636	539.69
391.86	543.69
392.085	548.69
392.31	527.69
392.534	545.69
392.759	530.69
392.984	504.69
393.208	518.69
393.433	503.69
393.658	506.69
393.882	512.69
394.107	543.69
394.331	535.69
394.556	513.69
394.78	528.69
395.005	523.69
395.229	515.69
395.454	554.69
395.678	509.69
395.903	548.69
396.127	569.69
396.352	598.69
396.576	553.69
396.801	541.69
397.025	537.69
397.249	539.69
397.474	551.69
397.698	531.69
397.922	584.69
398.147	583.69
398.371	580.69
398.595	591.69
398.82	580.69
399.044	605.69
399.268	632.69
399.492	676.69
399.717	721.69
399.941	762.69
400.165	757.69
400.389	729.69
400.613	682.69
400.837	643.69
401.062	621.69
401.286	618.69
401.51	591.69
401.734	618.69
401.958	621.69
402.182	604.69
402.406	609.69
402.63	601.69
402.854	632.69
403.078	617.69
403.302	641.69
403.526	630.69
403.75	632.69
403.974	633.69
404.198	622.69
404.422	645.69
404.645	649.69
404.869	646.69
405.093	668.69
405.317	712.69
405.541	733.69
405.765	674.69
405.988	649.69
406.212	677.69
406.436	665.69
406.66	672.69
406.883	679.69
407.107	721.69
407.331	732.69
407.555	796.69
407.778	823.69
408.002	744.69
408.226	687.69
408.449	699.69
408.673	672.69
408.896	712.69
409.12	726.69
409.344	696.69
409.567	651.69
409.791	643.69
410.014	635.69
410.238	621.69
410.461	641.69
410.685	623.69
410.908	650.69
411.132	691.69
411.355	721.69
411.578	680.69
411.802	623.69
412.025	619.69
412.249	637.69
412.472	667.69
412.695	670.69
412.919	663.69
413.142	630.69
413.365	614.69
413.589	610.69
413.812	592.69
414.035	574.69
414.258	604.69
414.482	594.69
414.705	580.69
414.928	614.69
415.151	587.69
415.374	604.69
415.597	587.69
415.821	618.69
416.044	584.69
416.267	609.69
416.49	600.69
416.713	571.69
416.936	622.69
417.159	577.69
417.382	614.69
417.605	608.69
417.828	612.69
418.051	604.69
418.274	610.69
418.497	612.69
418.72	601.69
418.943	609.69
419.166	619.69
419.389	661.69
419.611	639.69
419.834	646.69
420.057	614.69
420.28	629.69
420.503	627.69
420.726	624.69
420.948	629.69
421.171	655.69
421.394	720.69
421.617	634.69
421.839	600.69
422.062	620.69
422.285	633.69
422.507	663.69
422.73	758.69
422.953	732.69
423.175	670.69
423.398	629.69
423.621	631.69
423.843	654.69
424.066	681.69
424.288	635.69
424.511	669.69
424.733	719.69
424.956	807.69
425.178	762.69
425.401	775.69
425.623	797.69
425.846	709.69
426.068	640.69
426.291	640.69
426.513	641.69
426.735	657.69
426.958	697.69
427.18	750.69
427.402	889.69
427.625	955.69
427.847	858.69
428.069	722.69
428.292	670.69
428.514	638.69
428.736	627.69
428.958	592.69
429.181	581.69
429.403	630.69
429.625	609.69
429.847	636.69
430.069	669.69
430.292	688.69
430.514	623.69
430.736	594.69
430.958	591.69
431.18	589.69
431.402	545.69
431.624	555.69
431.846	571.69
432.068	569.69
432.29	588.69
432.512	585.69
432.734	591.69
432.956	583.69
433.178	567.69
433.4	591.69
433.622	570.69
433.844	579.69
434.066	570.69
434.287	552.69
434.509	578.69
434.731	611.69
434.953	598.69
435.175	621.69
435.397	629.69
435.618	646.69
435.84	692.69
436.062	777.69
436.284	835.69
436.505	699.69
436.727	656.69
436.949	589.69
437.17	597.69
437.392	571.69
437.614	622.69
437.835	630.69
438.057	719.69
438.278	798.69
438.5	827.69
438.721	884.69
438.943	851.69
439.165	687.69
439.386	632.69
439.608	639.69
439.829	631.69
440.05	647.69
440.272	704.69
440.493	677.69
440.715	641.69
440.936	607.69
441.158	622.69
441.379	606.69
441.6	636.69
441.822	651.69
442.043	695.69
442.264	761.69
442.486	806.69
442.707	716.69
442.928	663.69
443.149	669.69
443.371	668.69
443.592	720.69
443.813	829.69
444.034	867.69
444.255	755.69
444.476	688.69
444.698	665.69
444.919	666.69
445.14	777.69
445.361	687.69
445.582	708.69
445.803	755.69
446.024	814.69
446.245	843.69
446.466	796.69
446.687	665.69
446.908	641.69
447.129	605.69
447.35	590.69
447.571	619.69
447.792	587.69
448.013	572.69
448.234	607.69
448.455	665.69
448.675	747.69
448.896	881.69
449.117	750.69
449.338	706.69
449.559	814.69
449.779	928.69
450	728.69
450.221	637.69
450.442	585.69
450.662	573.69
450.883	560.69
451.104	570.69
451.324	563.69
451.545	546.69
451.766	528.69
451.986	528.69
452.207	526.69
452.428	529.69
452.648	536.69
452.869	523.69
453.089	545.69
453.31	541.69
453.53	532.69
453.751	523.69
453.971	527.69
454.192	523.69
454.412	548.69
454.633	515.69
454.853	523.69
455.073	528.69
455.294	528.69
455.514	612.69
455.734	590.69
455.955	539.69
456.175	506.69
456.395	503.69
456.616	499.69
456.836	496.69
457.056	488.69
457.276	488.69
457.497	522.69
457.717	499.69
457.937	517.69
458.157	527.69
458.377	525.69
458.598	548.69
458.818	561.69
459.038	666.69
459.258	685.69
459.478	587.69
459.698	601.69
459.918	576.69
460.138	594.69
460.358	601.69
460.578	604.69
460.798	585.69
461.018	619.69
461.238	592.69
461.458	603.69
461.678	609.69
461.898	601.69
462.118	596.69
462.338	616.69
462.558	624.69
462.777	617.69
462.997	645.69
463.217	678.69
463.437	657.69
463.657	651.69
463.876	643.69
464.096	650.69
464.316	646.69
464.536	643.69
464.755	638.69
464.975	644.69
465.195	656.69
465.414	697.69
465.634	629.69
465.854	593.69
466.073	569.69
466.293	567.69
466.512	567.69
466.732	557.69
466.951	561.69
467.171	542.69
467.391	562.69
467.61	567.69
467.829	559.69
468.049	556.69
468.268	554.69
468.488	543.69
468.707	536.69
468.927	540.69
469.146	533.69
469.365	545.69
469.585	527.69
469.804	546.69
470.023	555.69
470.243	550.69
470.462	579.69
470.681	589.69
470.901	550.69
471.12	555.69
471.339	567.69
471.558	561.69
471.777	545.69
471.997	539.69
472.216	560.69
472.435	588.69
472.654	554.69
472.873	554.69
473.092	548.69
473.311	536.69
473.53	579.69
473.749	573.69
473.968	590.69
474.187	679.69
474.406	712.69
474.625	607.69
474.844	565.69
475.063	545.69
475.282	552.69
475.501	552.69
475.72	566.69
475.939	566.69
476.158	567.69
476.377	559.69
476.596	571.69
476.814	558.69
477.033	600.69
477.252	581.69
477.471	592.69
477.69	595.69
477.908	631.69
478.127	622.69
478.346	605.69
478.564	630.69
478.783	641.69
479.002	648.69
479.22	631.69
479.439	649.69
479.658	657.69
479.876	687.69
480.095	678.69
480.313	703.69
480.532	697.69
480.751	701.69
480.969	715.69
481.188	726.69
481.406	722.69
481.624	700.69
481.843	671.69
482.061	649.69
482.28	658.69
482.498	653.69
482.717	660.69
482.935	655.69
483.153	645.69
483.372	665.69
483.59	647.69
483.808	638.69
484.027	661.69
484.245	663.69
484.463	645.69
484.681	667.69
484.9	667.69
485.118	656.69
485.336	691.69
485.554	663.69
485.772	649.69
485.99	665.69
486.209	662.69
486.427	676.69
486.645	668.69
486.863	678.69
487.081	705.69
487.299	705.69
487.517	673.69
487.735	722.69
487.953	693.69
488.171	686.69
488.389	697.69
488.607	684.69
488.825	683.69
489.043	683.69
489.261	704.69
489.479	687.69
489.696	713.69
489.914	728.69
490.132	717.69
490.35	721.69
490.568	740.69
490.786	751.69
491.003	782.69
491.221	742.69
491.439	773.69
491.657	799.69
491.874	745.69
492.092	785.69
492.31	779.69
492.527	784.69
492.745	823.69
492.963	811.69
493.18	792.69
493.398	788.69
493.615	800.69
493.833	848.69
494.05	848.69
494.268	816.69
494.485	820.69
494.703	825.69
494.92	821.69
495.138	860.69
495.355	831.69
495.573	835.69
495.79	821.69
496.008	816.69
496.225	815.69
496.442	832.69
496.66	848.69
496.877	823.69
497.094	855.69
497.312	871.69
497.529	831.69
497.746	866.69
497.963	878.69
498.181	870.69
498.398	901.69
498.615	935.69
498.832	969.69
499.049	1019.69
499.267	1013.69
499.484	1029.69
499.701	1134.69
499.918	1180.69
500.135	1252.69
500.352	1294.69
500.569	1373.69
500.786	1339.69
501.003	1356.69
501.22	1269.69
501.437	1197.69
