Data from 1974.PennyLincolnUp.Lamp.En5.5.200Scan.071719.P1.Changed Mount._HRD10591_15-53-20-856.txt Node
Date: Thu Jul 18 15:53:20 EDT 2019
User: cochatt
Spectrometer: HR+D1059
Trigger mode: 1
Integration Time (sec): 1.000000E-1
Scans to average: 1
Electric dark correction enabled: true
Nonlinearity correction enabled: false
Boxcar width: 0
XAxis mode: Wavelengths
Number of Pixels in Spectrum: 2048
>>>>>Begin Spectral Data<<<<<
223.165	-14.31
223.4	-14.31
223.635	-14.31
223.869	-30.31
224.104	-6.31
224.338	-17.31
224.573	-13.31
224.808	-12.31
225.042	-6.31
225.277	2.69
225.511	-0.31
225.746	-10.31
225.98	-9.31
226.215	10.69
226.449	20.69
226.683	19.69
226.918	30.69
227.152	35.69
227.387	23.69
227.621	45.69
227.856	48.69
228.09	42.69
228.324	55.69
228.559	46.69
228.793	62.69
229.027	98.69
229.262	117.69
229.496	121.69
229.73	129.69
229.964	160.69
230.199	130.69
230.433	115.69
230.667	111.69
230.901	103.69
231.136	107.69
231.37	118.69
231.604	123.69
231.838	108.69
232.072	119.69
232.306	119.69
232.541	115.69
232.775	94.69
233.009	121.69
233.243	122.69
233.477	129.69
233.711	122.69
233.945	124.69
234.179	114.69
234.413	124.69
234.647	116.69
234.881	111.69
235.115	133.69
235.349	120.69
235.583	119.69
235.817	131.69
236.051	133.69
236.285	127.69
236.519	137.69
236.753	123.69
236.987	138.69
237.221	182.69
237.455	238.69
237.689	180.69
237.922	148.69
238.156	143.69
238.39	132.69
238.624	142.69
238.858	135.69
239.091	138.69
239.325	133.69
239.559	135.69
239.793	129.69
240.027	149.69
240.26	140.69
240.494	177.69
240.728	154.69
240.961	165.69
241.195	153.69
241.429	142.69
241.662	157.69
241.896	162.69
242.13	143.69
242.363	143.69
242.597	133.69
242.83	139.69
243.064	141.69
243.298	139.69
243.531	153.69
243.765	149.69
243.998	145.69
244.232	142.69
244.465	166.69
244.699	166.69
244.932	159.69
245.166	161.69
245.399	157.69
245.633	163.69
245.866	169.69
246.099	156.69
246.333	157.69
246.566	151.69
246.8	170.69
247.033	173.69
247.266	177.69
247.5	173.69
247.733	173.69
247.966	181.69
248.2	185.69
248.433	181.69
248.666	189.69
248.899	195.69
249.133	211.69
249.366	211.69
249.599	195.69
249.832	192.69
250.066	191.69
250.299	211.69
250.532	205.69
250.765	219.69
250.998	222.69
251.231	223.69
251.465	217.69
251.698	216.69
251.931	207.69
252.164	198.69
252.397	211.69
252.63	211.69
252.863	192.69
253.096	210.69
253.329	253.69
253.562	245.69
253.795	235.69
254.028	235.69
254.261	215.69
254.494	258.69
254.727	260.69
254.96	295.69
255.193	285.69
255.426	261.69
255.659	236.69
255.892	259.69
256.124	247.69
256.357	243.69
256.59	234.69
256.823	214.69
257.056	236.69
257.289	236.69
257.521	220.69
257.754	212.69
257.987	229.69
258.22	207.69
258.452	217.69
258.685	241.69
258.918	210.69
259.151	229.69
259.383	241.69
259.616	234.69
259.849	228.69
260.081	237.69
260.314	262.69
260.547	254.69
260.779	250.69
261.012	248.69
261.244	244.69
261.477	244.69
261.71	235.69
261.942	249.69
262.175	234.69
262.407	266.69
262.64	246.69
262.872	237.69
263.105	219.69
263.337	224.69
263.57	232.69
263.802	225.69
264.035	249.69
264.267	236.69
264.499	231.69
264.732	225.69
264.964	231.69
265.197	234.69
265.429	241.69
265.661	243.69
265.894	227.69
266.126	216.69
266.358	240.69
266.591	245.69
266.823	226.69
267.055	243.69
267.287	227.69
267.52	236.69
267.752	259.69
267.984	229.69
268.216	239.69
268.448	249.69
268.681	265.69
268.913	280.69
269.145	288.69
269.377	299.69
269.609	277.69
269.841	298.69
270.073	290.69
270.306	311.69
270.538	324.69
270.77	337.69
271.002	298.69
271.234	315.69
271.466	311.69
271.698	310.69
271.93	342.69
272.162	321.69
272.394	331.69
272.626	321.69
272.858	301.69
273.09	299.69
273.322	292.69
273.553	291.69
273.785	298.69
274.017	276.69
274.249	275.69
274.481	258.69
274.713	280.69
274.945	281.69
275.176	297.69
275.408	276.69
275.64	275.69
275.872	284.69
276.104	269.69
276.335	278.69
276.567	284.69
276.799	301.69
277.031	302.69
277.262	333.69
277.494	344.69
277.726	333.69
277.957	309.69
278.189	309.69
278.421	285.69
278.652	280.69
278.884	292.69
279.115	282.69
279.347	296.69
279.579	272.69
279.81	298.69
280.042	278.69
280.273	287.69
280.505	298.69
280.736	287.69
280.968	280.69
281.199	297.69
281.431	279.69
281.662	286.69
281.894	287.69
282.125	294.69
282.356	300.69
282.588	310.69
282.819	302.69
283.051	295.69
283.282	299.69
283.513	275.69
283.745	296.69
283.976	305.69
284.207	305.69
284.439	300.69
284.67	318.69
284.901	307.69
285.132	285.69
285.364	312.69
285.595	293.69
285.826	305.69
286.057	306.69
286.288	300.69
286.52	299.69
286.751	315.69
286.982	321.69
287.213	309.69
287.444	314.69
287.675	310.69
287.906	307.69
288.138	331.69
288.369	321.69
288.6	321.69
288.831	301.69
289.062	340.69
289.293	316.69
289.524	300.69
289.755	321.69
289.986	302.69
290.217	293.69
290.448	326.69
290.679	321.69
290.91	324.69
291.141	331.69
291.371	310.69
291.602	323.69
291.833	314.69
292.064	323.69
292.295	310.69
292.526	322.69
292.757	312.69
292.987	294.69
293.218	339.69
293.449	328.69
293.68	329.69
293.91	319.69
294.141	310.69
294.372	315.69
294.603	321.69
294.833	326.69
295.064	322.69
295.295	326.69
295.525	325.69
295.756	333.69
295.987	323.69
296.217	356.69
296.448	340.69
296.679	313.69
296.909	315.69
297.14	322.69
297.37	334.69
297.601	351.69
297.831	348.69
298.062	343.69
298.292	344.69
298.523	333.69
298.753	343.69
298.984	331.69
299.214	332.69
299.445	352.69
299.675	302.69
299.905	348.69
300.136	349.69
300.366	320.69
300.597	330.69
300.827	346.69
301.057	344.69
301.288	353.69
301.518	340.69
301.748	355.69
301.979	352.69
302.209	362.69
302.439	376.69
302.669	353.69
302.9	358.69
303.13	351.69
303.36	356.69
303.59	364.69
303.82	372.69
304.051	363.69
304.281	362.69
304.511	356.69
304.741	368.69
304.971	374.69
305.201	354.69
305.431	353.69
305.661	356.69
305.891	339.69
306.121	351.69
306.352	367.69
306.582	390.69
306.812	358.69
307.042	374.69
307.272	369.69
307.502	381.69
307.731	362.69
307.961	362.69
308.191	354.69
308.421	361.69
308.651	338.69
308.881	361.69
309.111	369.69
309.341	367.69
309.571	374.69
309.8	393.69
310.03	383.69
310.26	397.69
310.49	391.69
310.72	406.69
310.949	396.69
311.179	407.69
311.409	389.69
311.639	373.69
311.868	399.69
312.098	393.69
312.328	399.69
312.557	419.69
312.787	414.69
313.017	405.69
313.246	390.69
313.476	395.69
313.706	411.69
313.935	405.69
314.165	395.69
314.394	394.69
314.624	410.69
314.853	421.69
315.083	409.69
315.312	392.69
315.542	399.69
315.771	375.69
316.001	399.69
316.23	426.69
316.46	404.69
316.689	398.69
316.919	409.69
317.148	387.69
317.377	427.69
317.607	410.69
317.836	403.69
318.065	413.69
318.295	397.69
318.524	407.69
318.753	405.69
318.983	406.69
319.212	388.69
319.441	409.69
319.67	412.69
319.9	404.69
320.129	407.69
320.358	404.69
320.587	423.69
320.816	403.69
321.046	428.69
321.275	405.69
321.504	405.69
321.733	421.69
321.962	435.69
322.191	445.69
322.42	445.69
322.649	455.69
322.878	446.69
323.108	462.69
323.337	476.69
323.566	493.69
323.795	502.69
324.024	569.69
324.253	633.69
324.482	873.69
324.71	1299.69
324.939	1877.69
325.168	1669.69
325.397	870.69
325.626	619.69
325.855	529.69
326.084	511.69
326.313	509.69
326.542	495.69
326.77	532.69
326.999	626.69
327.228	790.69
327.457	1175.69
327.686	1457.69
327.914	950.69
328.143	664.69
328.372	587.69
328.6	566.69
328.829	555.69
329.058	539.69
329.287	548.69
329.515	559.69
329.744	511.69
329.972	541.69
330.201	514.69
330.43	566.69
330.658	585.69
330.887	585.69
331.115	563.69
331.344	538.69
331.572	515.69
331.801	505.69
332.03	522.69
332.258	514.69
332.486	495.69
332.715	478.69
332.943	485.69
333.172	486.69
333.4	493.69
333.629	513.69
333.857	538.69
334.085	522.69
334.314	556.69
334.542	545.69
334.771	574.69
334.999	540.69
335.227	514.69
335.455	503.69
335.684	512.69
335.912	483.69
336.14	489.69
336.369	473.69
336.597	481.69
336.825	484.69
337.053	501.69
337.281	469.69
337.51	477.69
337.738	462.69
337.966	467.69
338.194	473.69
338.422	490.69
338.65	472.69
338.878	474.69
339.106	463.69
339.334	476.69
339.562	471.69
339.79	482.69
340.018	449.69
340.246	453.69
340.474	470.69
340.702	482.69
340.93	460.69
341.158	465.69
341.386	469.69
341.614	469.69
341.842	463.69
342.07	470.69
342.298	467.69
342.526	463.69
342.754	447.69
342.981	439.69
343.209	454.69
343.437	473.69
343.665	470.69
343.893	475.69
344.12	484.69
344.348	501.69
344.576	487.69
344.804	476.69
345.031	483.69
345.259	474.69
345.487	485.69
345.714	468.69
345.942	430.69
346.17	459.69
346.397	468.69
346.625	445.69
346.853	439.69
347.08	458.69
347.308	450.69
347.535	463.69
347.763	443.69
347.99	463.69
348.218	439.69
348.445	451.69
348.673	448.69
348.9	448.69
349.128	440.69
349.355	446.69
349.583	430.69
349.81	434.69
350.037	448.69
350.265	437.69
350.492	441.69
350.72	441.69
350.947	449.69
351.174	446.69
351.402	473.69
351.629	451.69
351.856	438.69
352.083	461.69
352.311	482.69
352.538	462.69
352.765	477.69
352.992	445.69
353.22	439.69
353.447	448.69
353.674	452.69
353.901	443.69
354.128	441.69
354.355	455.69
354.583	426.69
354.81	429.69
355.037	426.69
355.264	427.69
355.491	434.69
355.718	424.69
355.945	437.69
356.172	419.69
356.399	441.69
356.626	428.69
356.853	429.69
357.08	421.69
357.307	434.69
357.534	441.69
357.761	429.69
357.988	423.69
358.215	429.69
358.441	430.69
358.668	411.69
358.895	429.69
359.122	430.69
359.349	441.69
359.576	434.69
359.802	451.69
360.029	485.69
360.256	509.69
360.483	477.69
360.709	462.69
360.936	449.69
361.163	436.69
361.39	456.69
361.616	443.69
361.843	461.69
362.07	457.69
362.296	454.69
362.523	447.69
362.749	478.69
362.976	443.69
363.203	453.69
363.429	437.69
363.656	416.69
363.882	409.69
364.109	458.69
364.335	447.69
364.562	451.69
364.788	454.69
365.015	424.69
365.241	451.69
365.468	446.69
365.694	443.69
365.92	457.69
366.147	427.69
366.373	426.69
366.599	418.69
366.826	443.69
367.052	453.69
367.278	430.69
367.505	435.69
367.731	444.69
367.957	429.69
368.184	447.69
368.41	454.69
368.636	439.69
368.862	460.69
369.089	429.69
369.315	439.69
369.541	440.69
369.767	441.69
369.993	416.69
370.219	444.69
370.445	459.69
370.672	451.69
370.898	443.69
371.124	451.69
371.35	451.69
371.576	422.69
371.802	433.69
372.028	433.69
372.254	446.69
372.48	464.69
372.706	454.69
372.932	459.69
373.158	486.69
373.384	441.69
373.61	450.69
373.835	456.69
374.061	427.69
374.287	468.69
374.513	471.69
374.739	453.69
374.965	454.69
375.191	467.69
375.416	457.69
375.642	462.69
375.868	439.69
376.094	456.69
376.319	461.69
376.545	459.69
376.771	453.69
376.997	439.69
377.222	443.69
377.448	449.69
377.674	443.69
377.899	454.69
378.125	454.69
378.35	458.69
378.576	445.69
378.802	460.69
379.027	467.69
379.253	458.69
379.478	415.69
379.704	428.69
379.929	425.69
380.155	463.69
380.38	447.69
380.606	430.69
380.831	461.69
381.057	462.69
381.282	463.69
381.507	462.69
381.733	469.69
381.958	458.69
382.184	482.69
382.409	452.69
382.634	474.69
382.86	450.69
383.085	471.69
383.31	474.69
383.535	471.69
383.761	472.69
383.986	490.69
384.211	490.69
384.436	462.69
384.662	487.69
384.887	495.69
385.112	486.69
385.337	502.69
385.562	493.69
385.787	497.69
386.013	508.69
386.238	517.69
386.463	516.69
386.688	508.69
386.913	527.69
387.138	511.69
387.363	499.69
387.588	523.69
387.813	483.69
388.038	492.69
388.263	490.69
388.488	499.69
388.713	501.69
388.938	495.69
389.163	490.69
389.387	486.69
389.612	492.69
389.837	493.69
390.062	532.69
390.287	524.69
390.512	498.69
390.736	505.69
390.961	519.69
391.186	515.69
391.411	485.69
391.636	509.69
391.86	522.69
392.085	549.69
392.31	509.69
392.534	504.69
392.759	533.69
392.984	542.69
393.208	520.69
393.433	521.69
393.658	490.69
393.882	505.69
394.107	515.69
394.331	531.69
394.556	506.69
394.78	526.69
395.005	521.69
395.229	524.69
395.454	554.69
395.678	513.69
395.903	540.69
396.127	569.69
396.352	558.69
396.576	526.69
396.801	541.69
397.025	522.69
397.249	555.69
397.474	552.69
397.698	557.69
397.922	568.69
398.147	566.69
398.371	585.69
398.595	547.69
398.82	579.69
399.044	602.69
399.268	622.69
399.492	671.69
399.717	714.69
399.941	737.69
400.165	741.69
400.389	734.69
400.613	669.69
400.837	620.69
401.062	579.69
401.286	609.69
401.51	607.69
401.734	582.69
401.958	609.69
402.182	597.69
402.406	607.69
402.63	601.69
402.854	594.69
403.078	595.69
403.302	614.69
403.526	642.69
403.75	632.69
403.974	626.69
404.198	604.69
404.422	626.69
404.645	648.69
404.869	635.69
405.093	646.69
405.317	698.69
405.541	714.69
405.765	681.69
405.988	656.69
406.212	639.69
406.436	647.69
406.66	654.69
406.883	656.69
407.107	694.69
407.331	756.69
407.555	809.69
407.778	800.69
408.002	724.69
408.226	678.69
408.449	679.69
408.673	656.69
408.896	700.69
409.12	715.69
409.344	693.69
409.567	663.69
409.791	630.69
410.014	631.69
410.238	621.69
410.461	621.69
410.685	635.69
410.908	650.69
411.132	653.69
411.355	710.69
411.578	669.69
411.802	630.69
412.025	610.69
412.249	631.69
412.472	657.69
412.695	680.69
412.919	651.69
413.142	610.69
413.365	594.69
413.589	622.69
413.812	598.69
414.035	584.69
414.258	581.69
414.482	596.69
414.705	606.69
414.928	603.69
415.151	581.69
415.374	604.69
415.597	583.69
415.821	579.69
416.044	566.69
416.267	579.69
416.49	572.69
416.713	565.69
416.936	569.69
417.159	568.69
417.382	586.69
417.605	591.69
417.828	585.69
418.051	597.69
418.274	611.69
418.497	574.69
418.72	571.69
418.943	593.69
419.166	617.69
419.389	669.69
419.611	641.69
419.834	612.69
420.057	634.69
420.28	620.69
420.503	584.69
420.726	613.69
420.948	627.69
421.171	656.69
421.394	683.69
421.617	627.69
421.839	597.69
422.062	606.69
422.285	603.69
422.507	670.69
422.73	747.69
422.953	728.69
423.175	635.69
423.398	652.69
423.621	632.69
423.843	655.69
424.066	649.69
424.288	646.69
424.511	666.69
424.733	719.69
424.956	819.69
425.178	760.69
425.401	767.69
425.623	783.69
425.846	689.69
426.068	632.69
426.291	633.69
426.513	656.69
426.735	643.69
426.958	676.69
427.18	757.69
427.402	902.69
427.625	952.69
427.847	858.69
428.069	744.69
428.292	692.69
428.514	635.69
428.736	607.69
428.958	608.69
429.181	618.69
429.403	583.69
429.625	602.69
429.847	635.69
430.069	695.69
430.292	692.69
430.514	622.69
430.736	604.69
430.958	596.69
431.18	572.69
431.402	554.69
431.624	575.69
431.846	571.69
432.068	570.69
432.29	579.69
432.512	567.69
432.734	601.69
432.956	597.69
433.178	592.69
433.4	569.69
433.622	568.69
433.844	569.69
434.066	542.69
434.287	562.69
434.509	566.69
434.731	607.69
434.953	595.69
435.175	601.69
435.397	627.69
435.618	647.69
435.84	678.69
436.062	754.69
436.284	841.69
436.505	709.69
436.727	659.69
436.949	616.69
437.17	603.69
437.392	587.69
437.614	580.69
437.835	633.69
438.057	721.69
438.278	811.69
438.5	826.69
438.721	892.69
438.943	863.69
439.165	709.69
439.386	644.69
439.608	651.69
439.829	618.69
440.05	666.69
440.272	697.69
440.493	667.69
440.715	629.69
440.936	614.69
441.158	623.69
441.379	615.69
441.6	638.69
441.822	630.69
442.043	663.69
442.264	768.69
442.486	837.69
442.707	699.69
442.928	651.69
443.149	677.69
443.371	667.69
443.592	741.69
443.813	853.69
444.034	868.69
444.255	746.69
444.476	681.69
444.698	673.69
444.919	658.69
445.14	774.69
445.361	699.69
445.582	709.69
445.803	751.69
446.024	828.69
446.245	870.69
446.466	809.69
446.687	708.69
446.908	642.69
447.129	587.69
447.35	601.69
447.571	580.69
447.792	555.69
448.013	573.69
448.234	591.69
448.455	661.69
448.675	756.69
448.896	917.69
449.117	761.69
449.338	715.69
449.559	834.69
449.779	915.69
450	749.69
450.221	635.69
450.442	590.69
450.662	575.69
450.883	573.69
451.104	560.69
451.324	551.69
451.545	549.69
451.766	545.69
451.986	528.69
452.207	529.69
452.428	523.69
452.648	534.69
452.869	511.69
453.089	524.69
453.31	551.69
453.53	533.69
453.751	489.69
453.971	522.69
454.192	513.69
454.412	527.69
454.633	514.69
454.853	517.69
455.073	507.69
455.294	537.69
455.514	602.69
455.734	610.69
455.955	503.69
456.175	519.69
456.395	503.69
456.616	506.69
456.836	491.69
457.056	495.69
457.276	491.69
457.497	529.69
457.717	524.69
457.937	506.69
458.157	511.69
458.377	515.69
458.598	550.69
458.818	589.69
459.038	659.69
459.258	694.69
459.478	620.69
459.698	572.69
459.918	571.69
460.138	572.69
460.358	568.69
460.578	586.69
460.798	603.69
461.018	599.69
461.238	591.69
461.458	599.69
461.678	581.69
461.898	586.69
462.118	600.69
462.338	608.69
462.558	611.69
462.777	633.69
462.997	639.69
463.217	669.69
463.437	687.69
463.657	645.69
463.876	632.69
464.096	638.69
464.316	628.69
464.536	621.69
464.755	607.69
464.975	622.69
465.195	657.69
465.414	692.69
465.634	636.69
465.854	601.69
466.073	569.69
466.293	574.69
466.512	556.69
466.732	559.69
466.951	552.69
467.171	538.69
467.391	547.69
467.61	546.69
467.829	578.69
468.049	535.69
468.268	533.69
468.488	520.69
468.707	511.69
468.927	534.69
469.146	520.69
469.365	525.69
469.585	522.69
469.804	544.69
470.023	562.69
470.243	572.69
470.462	556.69
470.681	572.69
470.901	564.69
471.12	537.69
471.339	552.69
471.558	550.69
471.777	562.69
471.997	543.69
472.216	550.69
472.435	565.69
472.654	573.69
472.873	534.69
473.092	531.69
473.311	571.69
473.53	540.69
473.749	583.69
473.968	597.69
474.187	678.69
474.406	733.69
474.625	597.69
474.844	563.69
475.063	554.69
475.282	529.69
475.501	573.69
475.72	553.69
475.939	559.69
476.158	567.69
476.377	554.69
476.596	540.69
476.814	596.69
477.033	578.69
477.252	602.69
477.471	592.69
477.69	577.69
477.908	578.69
478.127	618.69
478.346	618.69
478.564	636.69
478.783	627.69
479.002	604.69
479.22	629.69
479.439	655.69
479.658	650.69
479.876	670.69
480.095	690.69
480.313	691.69
480.532	700.69
480.751	691.69
480.969	694.69
481.188	726.69
481.406	761.69
481.624	692.69
481.843	677.69
482.061	675.69
482.28	644.69
482.498	633.69
482.717	644.69
482.935	614.69
483.153	629.69
483.372	649.69
483.59	643.69
483.808	641.69
484.027	640.69
484.245	659.69
484.463	635.69
484.681	646.69
484.9	649.69
485.118	655.69
485.336	664.69
485.554	659.69
485.772	662.69
485.99	652.69
486.209	694.69
486.427	676.69
486.645	686.69
486.863	696.69
487.081	685.69
487.299	685.69
487.517	692.69
487.735	653.69
487.953	675.69
488.171	683.69
488.389	674.69
488.607	678.69
488.825	683.69
489.043	709.69
489.261	703.69
489.479	687.69
489.696	714.69
489.914	702.69
490.132	715.69
490.35	718.69
490.568	727.69
490.786	740.69
491.003	748.69
491.221	745.69
491.439	769.69
491.657	777.69
491.874	796.69
492.092	801.69
492.31	774.69
492.527	801.69
492.745	783.69
492.963	797.69
493.18	797.69
493.398	808.69
493.615	838.69
493.833	815.69
494.05	805.69
494.268	822.69
494.485	815.69
494.703	814.69
494.92	815.69
495.138	805.69
495.355	826.69
495.573	817.69
495.79	829.69
496.008	830.69
496.225	819.69
496.442	821.69
496.66	829.69
496.877	837.69
497.094	850.69
497.312	843.69
497.529	863.69
497.746	864.69
497.963	883.69
498.181	894.69
498.398	910.69
498.615	931.69
498.832	959.69
499.049	998.69
499.267	999.69
499.484	1045.69
499.701	1113.69
499.918	1162.69
500.135	1230.69
500.352	1284.69
500.569	1270.69
500.786	1290.69
501.003	1273.69
501.22	1229.69
501.437	1207.69
501.654	1149.69
