Data from 1974.PennyLincolnUp.Lamp.En5.5.200Scan.071719.P1.Changed Mount._HRD10591_15-51-37-856.txt Node
Date: Thu Jul 18 15:51:37 EDT 2019
User: cochatt
Spectrometer: HR+D1059
Trigger mode: 1
Integration Time (sec): 1.000000E-1
Scans to average: 1
Electric dark correction enabled: true
Nonlinearity correction enabled: false
Boxcar width: 0
XAxis mode: Wavelengths
Number of Pixels in Spectrum: 2048
>>>>>Begin Spectral Data<<<<<
223.165	-18.75
223.4	-18.75
223.635	-18.75
223.869	-13.75
224.104	-26.75
224.338	5.25
224.573	-20.75
224.808	-2.75
225.042	-9.75
225.277	-3.75
225.511	-3.75
225.746	4.25
225.98	-5.75
226.215	23.25
226.449	9.25
226.683	17.25
226.918	21.25
227.152	25.25
227.387	37.25
227.621	41.25
227.856	43.25
228.09	36.25
228.324	53.25
228.559	40.25
228.793	61.25
229.027	100.25
229.262	92.25
229.496	117.25
229.73	131.25
229.964	139.25
230.199	113.25
230.433	107.25
230.667	119.25
230.901	116.25
231.136	122.25
231.37	106.25
231.604	110.25
231.838	110.25
232.072	91.25
232.306	113.25
232.541	108.25
232.775	118.25
233.009	109.25
233.243	99.25
233.477	110.25
233.711	122.25
233.945	115.25
234.179	120.25
234.413	106.25
234.647	105.25
234.881	125.25
235.115	106.25
235.349	113.25
235.583	110.25
235.817	129.25
236.051	113.25
236.285	129.25
236.519	118.25
236.753	129.25
236.987	115.25
237.221	155.25
237.455	201.25
237.689	182.25
237.922	130.25
238.156	128.25
238.39	133.25
238.624	127.25
238.858	125.25
239.091	126.25
239.325	131.25
239.559	123.25
239.793	123.25
240.027	126.25
240.26	144.25
240.494	157.25
240.728	144.25
240.961	141.25
241.195	147.25
241.429	124.25
241.662	141.25
241.896	134.25
242.13	142.25
242.363	138.25
242.597	133.25
242.83	141.25
243.064	148.25
243.298	138.25
243.531	147.25
243.765	129.25
243.998	118.25
244.232	149.25
244.465	131.25
244.699	145.25
244.932	141.25
245.166	152.25
245.399	145.25
245.633	142.25
245.866	136.25
246.099	154.25
246.333	158.25
246.566	139.25
246.8	143.25
247.033	147.25
247.266	168.25
247.5	158.25
247.733	172.25
247.966	172.25
248.2	168.25
248.433	177.25
248.666	166.25
248.899	187.25
249.133	181.25
249.366	180.25
249.599	197.25
249.832	183.25
250.066	186.25
250.299	179.25
250.532	197.25
250.765	191.25
250.998	208.25
251.231	209.25
251.465	211.25
251.698	203.25
251.931	175.25
252.164	197.25
252.397	190.25
252.63	198.25
252.863	203.25
253.096	215.25
253.329	221.25
253.562	223.25
253.795	210.25
254.028	225.25
254.261	197.25
254.494	218.25
254.727	239.25
254.96	267.25
255.193	269.25
255.426	238.25
255.659	232.25
255.892	241.25
256.124	232.25
256.357	217.25
256.59	225.25
256.823	212.25
257.056	214.25
257.289	206.25
257.521	209.25
257.754	202.25
257.987	207.25
258.22	221.25
258.452	222.25
258.685	211.25
258.918	214.25
259.151	204.25
259.383	219.25
259.616	218.25
259.849	222.25
260.081	230.25
260.314	227.25
260.547	253.25
260.779	241.25
261.012	214.25
261.244	214.25
261.477	210.25
261.71	228.25
261.942	228.25
262.175	223.25
262.407	221.25
262.64	217.25
262.872	219.25
263.105	225.25
263.337	227.25
263.57	200.25
263.802	218.25
264.035	198.25
264.267	209.25
264.499	218.25
264.732	218.25
264.964	207.25
265.197	213.25
265.429	199.25
265.661	220.25
265.894	206.25
266.126	212.25
266.358	217.25
266.591	222.25
266.823	211.25
267.055	226.25
267.287	219.25
267.52	223.25
267.752	226.25
267.984	220.25
268.216	236.25
268.448	234.25
268.681	245.25
268.913	253.25
269.145	234.25
269.377	269.25
269.609	265.25
269.841	259.25
270.073	266.25
270.306	274.25
270.538	297.25
270.77	294.25
271.002	292.25
271.234	303.25
271.466	279.25
271.698	300.25
271.93	303.25
272.162	292.25
272.394	290.25
272.626	279.25
272.858	290.25
273.09	257.25
273.322	249.25
273.553	264.25
273.785	262.25
274.017	258.25
274.249	260.25
274.481	259.25
274.713	253.25
274.945	263.25
275.176	269.25
275.408	264.25
275.64	276.25
275.872	277.25
276.104	266.25
276.335	259.25
276.567	275.25
276.799	277.25
277.031	294.25
277.262	297.25
277.494	309.25
277.726	289.25
277.957	284.25
278.189	265.25
278.421	274.25
278.652	277.25
278.884	280.25
279.115	257.25
279.347	263.25
279.579	261.25
279.81	259.25
280.042	264.25
280.273	263.25
280.505	261.25
280.736	288.25
280.968	271.25
281.199	277.25
281.431	278.25
281.662	265.25
281.894	265.25
282.125	272.25
282.356	306.25
282.588	298.25
282.819	302.25
283.051	269.25
283.282	260.25
283.513	274.25
283.745	287.25
283.976	282.25
284.207	270.25
284.439	300.25
284.67	289.25
284.901	295.25
285.132	292.25
285.364	287.25
285.595	292.25
285.826	291.25
286.057	280.25
286.288	285.25
286.52	293.25
286.751	278.25
286.982	283.25
287.213	292.25
287.444	289.25
287.675	293.25
287.906	291.25
288.138	306.25
288.369	317.25
288.6	296.25
288.831	297.25
289.062	306.25
289.293	291.25
289.524	298.25
289.755	277.25
289.986	270.25
290.217	289.25
290.448	278.25
290.679	283.25
290.91	298.25
291.141	306.25
291.371	314.25
291.602	300.25
291.833	286.25
292.064	319.25
292.295	295.25
292.526	284.25
292.757	294.25
292.987	289.25
293.218	295.25
293.449	326.25
293.68	305.25
293.91	290.25
294.141	295.25
294.372	286.25
294.603	305.25
294.833	298.25
295.064	297.25
295.295	290.25
295.525	315.25
295.756	305.25
295.987	319.25
296.217	322.25
296.448	323.25
296.679	308.25
296.909	310.25
297.14	321.25
297.37	316.25
297.601	293.25
297.831	302.25
298.062	323.25
298.292	310.25
298.523	310.25
298.753	310.25
298.984	311.25
299.214	309.25
299.445	321.25
299.675	315.25
299.905	314.25
300.136	321.25
300.366	322.25
300.597	322.25
300.827	335.25
301.057	344.25
301.288	350.25
301.518	326.25
301.748	319.25
301.979	345.25
302.209	318.25
302.439	334.25
302.669	314.25
302.9	316.25
303.13	329.25
303.36	348.25
303.59	329.25
303.82	333.25
304.051	349.25
304.281	325.25
304.511	339.25
304.741	335.25
304.971	323.25
305.201	321.25
305.431	308.25
305.661	333.25
305.891	345.25
306.121	338.25
306.352	329.25
306.582	331.25
306.812	343.25
307.042	341.25
307.272	341.25
307.502	334.25
307.731	346.25
307.961	348.25
308.191	342.25
308.421	327.25
308.651	335.25
308.881	349.25
309.111	347.25
309.341	336.25
309.571	327.25
309.8	329.25
310.03	360.25
310.26	358.25
310.49	367.25
310.72	362.25
310.949	385.25
311.179	369.25
311.409	353.25
311.639	353.25
311.868	358.25
312.098	348.25
312.328	386.25
312.557	389.25
312.787	378.25
313.017	383.25
313.246	387.25
313.476	371.25
313.706	370.25
313.935	375.25
314.165	363.25
314.394	372.25
314.624	369.25
314.853	380.25
315.083	361.25
315.312	372.25
315.542	372.25
315.771	367.25
316.001	359.25
316.23	362.25
316.46	374.25
316.689	358.25
316.919	359.25
317.148	379.25
317.377	378.25
317.607	390.25
317.836	378.25
318.065	376.25
318.295	376.25
318.524	379.25
318.753	367.25
318.983	370.25
319.212	375.25
319.441	381.25
319.67	384.25
319.9	376.25
320.129	369.25
320.358	386.25
320.587	390.25
320.816	382.25
321.046	391.25
321.275	400.25
321.504	375.25
321.733	386.25
321.962	399.25
322.191	371.25
322.42	397.25
322.649	417.25
322.878	425.25
323.108	416.25
323.337	421.25
323.566	420.25
323.795	467.25
324.024	484.25
324.253	541.25
324.482	723.25
324.71	1102.25
324.939	1601.25
325.168	1438.25
325.397	732.25
325.626	539.25
325.855	485.25
326.084	453.25
326.313	452.25
326.542	454.25
326.77	495.25
326.999	525.25
327.228	694.25
327.457	1009.25
327.686	1235.25
327.914	846.25
328.143	578.25
328.372	542.25
328.6	509.25
328.829	449.25
329.058	497.25
329.287	503.25
329.515	484.25
329.744	463.25
329.972	459.25
330.201	485.25
330.43	494.25
330.658	509.25
330.887	513.25
331.115	505.25
331.344	467.25
331.572	465.25
331.801	461.25
332.03	461.25
332.258	463.25
332.486	461.25
332.715	435.25
332.943	467.25
333.172	462.25
333.4	433.25
333.629	461.25
333.857	501.25
334.085	477.25
334.314	513.25
334.542	511.25
334.771	526.25
334.999	495.25
335.227	475.25
335.455	454.25
335.684	452.25
335.912	458.25
336.14	437.25
336.369	425.25
336.597	460.25
336.825	462.25
337.053	459.25
337.281	443.25
337.51	456.25
337.738	438.25
337.966	437.25
338.194	459.25
338.422	447.25
338.65	446.25
338.878	424.25
339.106	452.25
339.334	424.25
339.562	441.25
339.79	413.25
340.018	435.25
340.246	428.25
340.474	460.25
340.702	435.25
340.93	422.25
341.158	427.25
341.386	436.25
341.614	441.25
341.842	421.25
342.07	425.25
342.298	403.25
342.526	394.25
342.754	403.25
342.981	434.25
343.209	434.25
343.437	436.25
343.665	443.25
343.893	469.25
344.12	449.25
344.348	451.25
344.576	444.25
344.804	434.25
345.031	447.25
345.259	456.25
345.487	462.25
345.714	441.25
345.942	433.25
346.17	435.25
346.397	419.25
346.625	411.25
346.853	405.25
347.08	418.25
347.308	422.25
347.535	417.25
347.763	413.25
347.99	440.25
348.218	425.25
348.445	410.25
348.673	448.25
348.9	405.25
349.128	411.25
349.355	417.25
349.583	387.25
349.81	419.25
350.037	405.25
350.265	424.25
350.492	399.25
350.72	417.25
350.947	423.25
351.174	412.25
351.402	396.25
351.629	387.25
351.856	414.25
352.083	407.25
352.311	427.25
352.538	423.25
352.765	434.25
352.992	417.25
353.22	409.25
353.447	404.25
353.674	411.25
353.901	418.25
354.128	404.25
354.355	387.25
354.583	409.25
354.81	404.25
355.037	398.25
355.264	400.25
355.491	410.25
355.718	411.25
355.945	416.25
356.172	404.25
356.399	386.25
356.626	414.25
356.853	412.25
357.08	394.25
357.307	397.25
357.534	430.25
357.761	417.25
357.988	402.25
358.215	403.25
358.441	396.25
358.668	415.25
358.895	395.25
359.122	437.25
359.349	435.25
359.576	414.25
359.802	436.25
360.029	458.25
360.256	451.25
360.483	457.25
360.709	419.25
360.936	436.25
361.163	423.25
361.39	426.25
361.616	446.25
361.843	419.25
362.07	427.25
362.296	422.25
362.523	403.25
362.749	395.25
362.976	420.25
363.203	418.25
363.429	406.25
363.656	396.25
363.882	417.25
364.109	407.25
364.335	421.25
364.562	410.25
364.788	410.25
365.015	408.25
365.241	399.25
365.468	394.25
365.694	434.25
365.92	416.25
366.147	406.25
366.373	409.25
366.599	406.25
366.826	396.25
367.052	397.25
367.278	417.25
367.505	410.25
367.731	421.25
367.957	423.25
368.184	420.25
368.41	412.25
368.636	411.25
368.862	432.25
369.089	419.25
369.315	435.25
369.541	409.25
369.767	407.25
369.993	412.25
370.219	410.25
370.445	414.25
370.672	399.25
370.898	396.25
371.124	422.25
371.35	423.25
371.576	455.25
371.802	438.25
372.028	426.25
372.254	425.25
372.48	431.25
372.706	450.25
372.932	450.25
373.158	425.25
373.384	422.25
373.61	431.25
373.835	425.25
374.061	433.25
374.287	440.25
374.513	417.25
374.739	450.25
374.965	422.25
375.191	446.25
375.416	455.25
375.642	437.25
375.868	440.25
376.094	433.25
376.319	401.25
376.545	416.25
376.771	424.25
376.997	423.25
377.222	438.25
377.448	426.25
377.674	436.25
377.899	439.25
378.125	425.25
378.35	415.25
378.576	423.25
378.802	406.25
379.027	409.25
379.253	438.25
379.478	405.25
379.704	425.25
379.929	419.25
380.155	453.25
380.38	434.25
380.606	429.25
380.831	427.25
381.057	441.25
381.282	415.25
381.507	433.25
381.733	445.25
381.958	445.25
382.184	434.25
382.409	430.25
382.634	441.25
382.86	449.25
383.085	446.25
383.31	466.25
383.535	470.25
383.761	457.25
383.986	447.25
384.211	454.25
384.436	442.25
384.662	478.25
384.887	471.25
385.112	492.25
385.337	471.25
385.562	471.25
385.787	460.25
386.013	502.25
386.238	463.25
386.463	485.25
386.688	487.25
386.913	472.25
387.138	476.25
387.363	469.25
387.588	482.25
387.813	478.25
388.038	464.25
388.263	455.25
388.488	466.25
388.713	471.25
388.938	468.25
389.163	455.25
389.387	491.25
389.612	489.25
389.837	482.25
390.062	470.25
390.287	471.25
390.512	469.25
390.736	476.25
390.961	461.25
391.186	476.25
391.411	503.25
391.636	526.25
391.86	477.25
392.085	494.25
392.31	478.25
392.534	500.25
392.759	505.25
392.984	493.25
393.208	490.25
393.433	513.25
393.658	474.25
393.882	474.25
394.107	476.25
394.331	485.25
394.556	485.25
394.78	479.25
395.005	494.25
395.229	480.25
395.454	501.25
395.678	492.25
395.903	509.25
396.127	520.25
396.352	528.25
396.576	517.25
396.801	509.25
397.025	515.25
397.249	513.25
397.474	521.25
397.698	537.25
397.922	521.25
398.147	541.25
398.371	577.25
398.595	556.25
398.82	551.25
399.044	567.25
399.268	609.25
399.492	653.25
399.717	661.25
399.941	676.25
400.165	707.25
400.389	694.25
400.613	631.25
400.837	581.25
401.062	579.25
401.286	590.25
401.51	579.25
401.734	540.25
401.958	554.25
402.182	579.25
402.406	583.25
402.63	578.25
402.854	555.25
403.078	566.25
403.302	577.25
403.526	579.25
403.75	596.25
403.974	589.25
404.198	591.25
404.422	605.25
404.645	594.25
404.869	599.25
405.093	631.25
405.317	683.25
405.541	681.25
405.765	635.25
405.988	599.25
406.212	600.25
406.436	619.25
406.66	645.25
406.883	632.25
407.107	657.25
407.331	679.25
407.555	750.25
407.778	757.25
408.002	698.25
408.226	665.25
408.449	630.25
408.673	632.25
408.896	659.25
409.12	699.25
409.344	644.25
409.567	595.25
409.791	592.25
410.014	591.25
410.238	596.25
410.461	577.25
410.685	580.25
410.908	587.25
411.132	640.25
411.355	665.25
411.578	620.25
411.802	583.25
412.025	586.25
412.249	583.25
412.472	615.25
412.695	652.25
412.919	637.25
413.142	581.25
413.365	571.25
413.589	574.25
413.812	547.25
414.035	555.25
414.258	543.25
414.482	563.25
414.705	571.25
414.928	564.25
415.151	538.25
415.374	540.25
415.597	550.25
415.821	539.25
416.044	534.25
416.267	578.25
416.49	549.25
416.713	531.25
416.936	541.25
417.159	510.25
417.382	538.25
417.605	570.25
417.828	573.25
418.051	568.25
418.274	548.25
418.497	556.25
418.72	538.25
418.943	539.25
419.166	564.25
419.389	620.25
419.611	607.25
419.834	597.25
420.057	586.25
420.28	597.25
420.503	572.25
420.726	577.25
420.948	583.25
421.171	611.25
421.394	659.25
421.617	597.25
421.839	543.25
422.062	573.25
422.285	587.25
422.507	613.25
422.73	704.25
422.953	657.25
423.175	604.25
423.398	611.25
423.621	641.25
423.843	610.25
424.066	609.25
424.288	642.25
424.511	616.25
424.733	650.25
424.956	733.25
425.178	723.25
425.401	697.25
425.623	736.25
425.846	634.25
426.068	601.25
426.291	587.25
426.513	596.25
426.735	585.25
426.958	638.25
427.18	721.25
427.402	827.25
427.625	923.25
427.847	793.25
428.069	683.25
428.292	607.25
428.514	590.25
428.736	559.25
428.958	571.25
429.181	557.25
429.403	545.25
429.625	537.25
429.847	573.25
430.069	637.25
430.292	644.25
430.514	557.25
430.736	579.25
430.958	545.25
431.18	526.25
431.402	548.25
431.624	522.25
431.846	526.25
432.068	522.25
432.29	534.25
432.512	513.25
432.734	537.25
432.956	565.25
433.178	565.25
433.4	555.25
433.622	537.25
433.844	520.25
434.066	549.25
434.287	539.25
434.509	549.25
434.731	549.25
434.953	558.25
435.175	581.25
435.397	583.25
435.618	620.25
435.84	635.25
436.062	727.25
436.284	759.25
436.505	641.25
436.727	595.25
436.949	567.25
437.17	562.25
437.392	558.25
437.614	566.25
437.835	594.25
438.057	655.25
438.278	796.25
438.5	745.25
438.721	843.25
438.943	821.25
439.165	633.25
439.386	586.25
439.608	596.25
439.829	591.25
440.05	634.25
440.272	639.25
440.493	609.25
440.715	577.25
440.936	563.25
441.158	554.25
441.379	575.25
441.6	596.25
441.822	589.25
442.043	633.25
442.264	698.25
442.486	733.25
442.707	629.25
442.928	638.25
443.149	629.25
443.371	629.25
443.592	665.25
443.813	765.25
444.034	830.25
444.255	702.25
444.476	648.25
444.698	634.25
444.919	636.25
445.14	733.25
445.361	672.25
445.582	647.25
445.803	694.25
446.024	783.25
446.245	788.25
446.466	719.25
446.687	633.25
446.908	581.25
447.129	560.25
447.35	558.25
447.571	553.25
447.792	552.25
448.013	565.25
448.234	565.25
448.455	610.25
448.675	689.25
448.896	846.25
449.117	705.25
449.338	658.25
449.559	756.25
449.779	858.25
450	700.25
450.221	590.25
450.442	552.25
450.662	509.25
450.883	518.25
451.104	539.25
451.324	535.25
451.545	506.25
451.766	485.25
451.986	483.25
452.207	494.25
452.428	479.25
452.648	489.25
452.869	499.25
453.089	510.25
453.31	494.25
453.53	491.25
453.751	495.25
453.971	472.25
454.192	503.25
454.412	474.25
454.633	482.25
454.853	466.25
455.073	486.25
455.294	505.25
455.514	593.25
455.734	558.25
455.955	479.25
456.175	471.25
456.395	445.25
456.616	462.25
456.836	478.25
457.056	440.25
457.276	457.25
457.497	466.25
457.717	461.25
457.937	475.25
458.157	474.25
458.377	489.25
458.598	479.25
458.818	532.25
459.038	611.25
459.258	638.25
459.478	569.25
459.698	531.25
459.918	535.25
460.138	535.25
460.358	549.25
460.578	527.25
460.798	551.25
461.018	574.25
461.238	558.25
461.458	559.25
461.678	547.25
461.898	552.25
462.118	556.25
462.338	574.25
462.558	586.25
462.777	581.25
462.997	609.25
463.217	634.25
463.437	646.25
463.657	616.25
463.876	594.25
464.096	597.25
464.316	569.25
464.536	612.25
464.755	606.25
464.975	613.25
465.195	574.25
465.414	649.25
465.634	599.25
465.854	553.25
466.073	534.25
466.293	507.25
466.512	512.25
466.732	510.25
466.951	530.25
467.171	512.25
467.391	530.25
467.61	519.25
467.829	520.25
468.049	506.25
468.268	498.25
468.488	500.25
468.707	504.25
468.927	495.25
469.146	491.25
469.365	518.25
469.585	499.25
469.804	516.25
470.023	531.25
470.243	541.25
470.462	534.25
470.681	514.25
470.901	517.25
471.12	539.25
471.339	501.25
471.558	538.25
471.777	533.25
471.997	504.25
472.216	522.25
472.435	524.25
472.654	534.25
472.873	517.25
473.092	509.25
473.311	480.25
473.53	498.25
473.749	512.25
473.968	547.25
474.187	640.25
474.406	645.25
474.625	581.25
474.844	537.25
475.063	547.25
475.282	525.25
475.501	526.25
475.72	546.25
475.939	529.25
476.158	526.25
476.377	544.25
476.596	519.25
476.814	552.25
477.033	521.25
477.252	531.25
477.471	556.25
477.69	556.25
477.908	562.25
478.127	570.25
478.346	558.25
478.564	568.25
478.783	559.25
479.002	552.25
479.22	578.25
479.439	617.25
479.658	605.25
479.876	610.25
480.095	617.25
480.313	651.25
480.532	657.25
480.751	638.25
480.969	635.25
481.188	667.25
481.406	674.25
481.624	633.25
481.843	607.25
482.061	591.25
482.28	591.25
482.498	595.25
482.717	601.25
482.935	602.25
483.153	565.25
483.372	614.25
483.59	611.25
483.808	602.25
484.027	603.25
484.245	585.25
484.463	602.25
484.681	659.25
484.9	629.25
485.118	624.25
485.336	623.25
485.554	628.25
485.772	634.25
485.99	618.25
486.209	625.25
486.427	627.25
486.645	621.25
486.863	627.25
487.081	645.25
487.299	663.25
487.517	640.25
487.735	626.25
487.953	632.25
488.171	627.25
488.389	649.25
488.607	659.25
488.825	646.25
489.043	648.25
489.261	645.25
489.479	659.25
489.696	643.25
489.914	663.25
490.132	662.25
490.35	655.25
490.568	691.25
490.786	691.25
491.003	685.25
491.221	702.25
491.439	708.25
491.657	723.25
491.874	738.25
492.092	738.25
492.31	753.25
492.527	741.25
492.745	744.25
492.963	743.25
493.18	749.25
493.398	754.25
493.615	766.25
493.833	766.25
494.05	739.25
494.268	767.25
494.485	747.25
494.703	747.25
494.92	762.25
495.138	764.25
495.355	757.25
495.573	749.25
495.79	773.25
496.008	773.25
496.225	766.25
496.442	765.25
496.66	782.25
496.877	768.25
497.094	780.25
497.312	779.25
497.529	800.25
497.746	786.25
497.963	791.25
498.181	817.25
498.398	840.25
498.615	883.25
498.832	884.25
499.049	925.25
499.267	964.25
499.484	1011.25
499.701	1068.25
499.918	1081.25
500.135	1147.25
500.352	1220.25
500.569	1237.25
500.786	1242.25
501.003	1218.25
501.22	1179.25
501.437	1082.25
501.654	1047.25
