Data from 1974.PennyLincolnUp.Lamp.En5.5.200Scan.071719.P1.Changed Mount._HRD10591_15-52-21-856.txt Node
Date: Thu Jul 18 15:52:21 EDT 2019
User: cochatt
Spectrometer: HR+D1059
Trigger mode: 1
Integration Time (sec): 1.000000E-1
Scans to average: 1
Electric dark correction enabled: true
Nonlinearity correction enabled: false
Boxcar width: 0
XAxis mode: Wavelengths
Number of Pixels in Spectrum: 2048
>>>>>Begin Spectral Data<<<<<
223.165	-13.88
223.4	-13.88
223.635	-13.88
223.869	-16.88
224.104	-29.88
224.338	-16.88
224.573	-5.88
224.808	-1.88
225.042	-10.88
225.277	-4.88
225.511	2.12
225.746	-0.88
225.98	10.12
226.215	5.12
226.449	17.12
226.683	19.12
226.918	32.12
227.152	16.12
227.387	31.12
227.621	54.12
227.856	55.12
228.09	46.12
228.324	52.12
228.559	45.12
228.793	81.12
229.027	106.12
229.262	102.12
229.496	118.12
229.73	132.12
229.964	145.12
230.199	127.12
230.433	130.12
230.667	130.12
230.901	95.12
231.136	109.12
231.37	119.12
231.604	108.12
231.838	102.12
232.072	127.12
232.306	108.12
232.541	120.12
232.775	131.12
233.009	126.12
233.243	112.12
233.477	124.12
233.711	115.12
233.945	134.12
234.179	136.12
234.413	131.12
234.647	111.12
234.881	117.12
235.115	127.12
235.349	119.12
235.583	136.12
235.817	128.12
236.051	123.12
236.285	121.12
236.519	130.12
236.753	137.12
236.987	142.12
237.221	166.12
237.455	236.12
237.689	196.12
237.922	155.12
238.156	140.12
238.39	144.12
238.624	112.12
238.858	126.12
239.091	121.12
239.325	126.12
239.559	133.12
239.793	143.12
240.027	143.12
240.26	144.12
240.494	138.12
240.728	149.12
240.961	164.12
241.195	166.12
241.429	140.12
241.662	126.12
241.896	146.12
242.13	141.12
242.363	161.12
242.597	134.12
242.83	142.12
243.064	163.12
243.298	144.12
243.531	149.12
243.765	133.12
243.998	152.12
244.232	152.12
244.465	148.12
244.699	149.12
244.932	139.12
245.166	138.12
245.399	158.12
245.633	145.12
245.866	140.12
246.099	154.12
246.333	151.12
246.566	154.12
246.8	152.12
247.033	159.12
247.266	167.12
247.5	156.12
247.733	180.12
247.966	174.12
248.2	195.12
248.433	167.12
248.666	189.12
248.899	194.12
249.133	207.12
249.366	218.12
249.599	221.12
249.832	190.12
250.066	198.12
250.299	186.12
250.532	198.12
250.765	208.12
250.998	225.12
251.231	222.12
251.465	224.12
251.698	223.12
251.931	207.12
252.164	206.12
252.397	206.12
252.63	195.12
252.863	201.12
253.096	207.12
253.329	229.12
253.562	223.12
253.795	222.12
254.028	222.12
254.261	225.12
254.494	233.12
254.727	265.12
254.96	295.12
255.193	293.12
255.426	251.12
255.659	256.12
255.892	236.12
256.124	251.12
256.357	249.12
256.59	220.12
256.823	223.12
257.056	215.12
257.289	236.12
257.521	220.12
257.754	203.12
257.987	230.12
258.22	210.12
258.452	226.12
258.685	214.12
258.918	212.12
259.151	240.12
259.383	242.12
259.616	230.12
259.849	226.12
260.081	237.12
260.314	264.12
260.547	258.12
260.779	239.12
261.012	244.12
261.244	242.12
261.477	227.12
261.71	233.12
261.942	228.12
262.175	236.12
262.407	243.12
262.64	221.12
262.872	226.12
263.105	238.12
263.337	236.12
263.57	217.12
263.802	205.12
264.035	232.12
264.267	218.12
264.499	230.12
264.732	222.12
264.964	219.12
265.197	213.12
265.429	236.12
265.661	244.12
265.894	212.12
266.126	227.12
266.358	231.12
266.591	242.12
266.823	239.12
267.055	230.12
267.287	238.12
267.52	231.12
267.752	230.12
267.984	247.12
268.216	233.12
268.448	246.12
268.681	238.12
268.913	253.12
269.145	273.12
269.377	292.12
269.609	271.12
269.841	262.12
270.073	285.12
270.306	295.12
270.538	322.12
270.77	319.12
271.002	297.12
271.234	302.12
271.466	303.12
271.698	310.12
271.93	329.12
272.162	307.12
272.394	296.12
272.626	310.12
272.858	306.12
273.09	313.12
273.322	278.12
273.553	268.12
273.785	272.12
274.017	272.12
274.249	277.12
274.481	271.12
274.713	262.12
274.945	278.12
275.176	277.12
275.408	281.12
275.64	276.12
275.872	269.12
276.104	264.12
276.335	269.12
276.567	278.12
276.799	298.12
277.031	300.12
277.262	321.12
277.494	322.12
277.726	302.12
277.957	302.12
278.189	280.12
278.421	289.12
278.652	289.12
278.884	269.12
279.115	267.12
279.347	269.12
279.579	278.12
279.81	286.12
280.042	276.12
280.273	279.12
280.505	268.12
280.736	290.12
280.968	284.12
281.199	288.12
281.431	280.12
281.662	293.12
281.894	294.12
282.125	290.12
282.356	306.12
282.588	317.12
282.819	299.12
283.051	278.12
283.282	291.12
283.513	283.12
283.745	292.12
283.976	289.12
284.207	288.12
284.439	284.12
284.67	283.12
284.901	295.12
285.132	306.12
285.364	274.12
285.595	286.12
285.826	292.12
286.057	306.12
286.288	288.12
286.52	309.12
286.751	319.12
286.982	303.12
287.213	290.12
287.444	300.12
287.675	296.12
287.906	313.12
288.138	311.12
288.369	292.12
288.6	322.12
288.831	323.12
289.062	315.12
289.293	303.12
289.524	323.12
289.755	314.12
289.986	294.12
290.217	315.12
290.448	323.12
290.679	295.12
290.91	298.12
291.141	323.12
291.371	328.12
291.602	313.12
291.833	307.12
292.064	306.12
292.295	301.12
292.526	311.12
292.757	325.12
292.987	322.12
293.218	317.12
293.449	303.12
293.68	319.12
293.91	295.12
294.141	314.12
294.372	302.12
294.603	310.12
294.833	310.12
295.064	322.12
295.295	312.12
295.525	318.12
295.756	327.12
295.987	310.12
296.217	328.12
296.448	341.12
296.679	340.12
296.909	326.12
297.14	319.12
297.37	331.12
297.601	324.12
297.831	340.12
298.062	319.12
298.292	321.12
298.523	321.12
298.753	329.12
298.984	339.12
299.214	327.12
299.445	324.12
299.675	343.12
299.905	333.12
300.136	342.12
300.366	340.12
300.597	332.12
300.827	327.12
301.057	344.12
301.288	352.12
301.518	352.12
301.748	340.12
301.979	333.12
302.209	343.12
302.439	353.12
302.669	330.12
302.9	355.12
303.13	326.12
303.36	335.12
303.59	366.12
303.82	350.12
304.051	357.12
304.281	346.12
304.511	348.12
304.741	355.12
304.971	355.12
305.201	355.12
305.431	350.12
305.661	359.12
305.891	346.12
306.121	352.12
306.352	347.12
306.582	336.12
306.812	350.12
307.042	348.12
307.272	365.12
307.502	332.12
307.731	340.12
307.961	351.12
308.191	331.12
308.421	353.12
308.651	362.12
308.881	362.12
309.111	358.12
309.341	346.12
309.571	395.12
309.8	371.12
310.03	379.12
310.26	378.12
310.49	371.12
310.72	388.12
310.949	406.12
311.179	385.12
311.409	367.12
311.639	392.12
311.868	386.12
312.098	377.12
312.328	371.12
312.557	391.12
312.787	394.12
313.017	413.12
313.246	390.12
313.476	399.12
313.706	378.12
313.935	384.12
314.165	406.12
314.394	388.12
314.624	420.12
314.853	404.12
315.083	407.12
315.312	397.12
315.542	384.12
315.771	384.12
316.001	381.12
316.23	406.12
316.46	377.12
316.689	390.12
316.919	391.12
317.148	399.12
317.377	394.12
317.607	396.12
317.836	394.12
318.065	393.12
318.295	391.12
318.524	390.12
318.753	383.12
318.983	382.12
319.212	390.12
319.441	395.12
319.67	400.12
319.9	403.12
320.129	391.12
320.358	391.12
320.587	407.12
320.816	430.12
321.046	404.12
321.275	405.12
321.504	409.12
321.733	405.12
321.962	414.12
322.191	429.12
322.42	426.12
322.649	436.12
322.878	470.12
323.108	450.12
323.337	455.12
323.566	468.12
323.795	491.12
324.024	524.12
324.253	601.12
324.482	797.12
324.71	1202.12
324.939	1762.12
325.168	1551.12
325.397	827.12
325.626	572.12
325.855	517.12
326.084	496.12
326.313	470.12
326.542	469.12
326.77	507.12
326.999	591.12
327.228	759.12
327.457	1082.12
327.686	1355.12
327.914	954.12
328.143	648.12
328.372	566.12
328.6	575.12
328.829	526.12
329.058	521.12
329.287	541.12
329.515	523.12
329.744	491.12
329.972	493.12
330.201	517.12
330.43	548.12
330.658	571.12
330.887	571.12
331.115	538.12
331.344	499.12
331.572	502.12
331.801	508.12
332.03	471.12
332.258	466.12
332.486	475.12
332.715	482.12
332.943	472.12
333.172	464.12
333.4	501.12
333.629	483.12
333.857	510.12
334.085	511.12
334.314	508.12
334.542	545.12
334.771	570.12
334.999	516.12
335.227	495.12
335.455	508.12
335.684	480.12
335.912	498.12
336.14	479.12
336.369	474.12
336.597	498.12
336.825	499.12
337.053	475.12
337.281	459.12
337.51	474.12
337.738	433.12
337.966	454.12
338.194	467.12
338.422	467.12
338.65	454.12
338.878	466.12
339.106	450.12
339.334	466.12
339.562	438.12
339.79	445.12
340.018	438.12
340.246	437.12
340.474	461.12
340.702	459.12
340.93	461.12
341.158	452.12
341.386	431.12
341.614	450.12
341.842	437.12
342.07	442.12
342.298	443.12
342.526	459.12
342.754	424.12
342.981	434.12
343.209	441.12
343.437	435.12
343.665	460.12
343.893	458.12
344.12	474.12
344.348	480.12
344.576	490.12
344.804	448.12
345.031	470.12
345.259	476.12
345.487	486.12
345.714	452.12
345.942	446.12
346.17	429.12
346.397	455.12
346.625	451.12
346.853	427.12
347.08	422.12
347.308	463.12
347.535	434.12
347.763	436.12
347.99	454.12
348.218	448.12
348.445	461.12
348.673	436.12
348.9	430.12
349.128	426.12
349.355	427.12
349.583	430.12
349.81	401.12
350.037	435.12
350.265	439.12
350.492	439.12
350.72	427.12
350.947	439.12
351.174	442.12
351.402	450.12
351.629	437.12
351.856	422.12
352.083	421.12
352.311	430.12
352.538	451.12
352.765	448.12
352.992	442.12
353.22	415.12
353.447	426.12
353.674	428.12
353.901	425.12
354.128	423.12
354.355	429.12
354.583	424.12
354.81	438.12
355.037	415.12
355.264	429.12
355.491	398.12
355.718	413.12
355.945	422.12
356.172	413.12
356.399	419.12
356.626	411.12
356.853	405.12
357.08	415.12
357.307	430.12
357.534	404.12
357.761	415.12
357.988	427.12
358.215	430.12
358.441	422.12
358.668	435.12
358.895	423.12
359.122	426.12
359.349	429.12
359.576	442.12
359.802	463.12
360.029	482.12
360.256	482.12
360.483	476.12
360.709	444.12
360.936	438.12
361.163	441.12
361.39	449.12
361.616	452.12
361.843	439.12
362.07	434.12
362.296	439.12
362.523	433.12
362.749	438.12
362.976	448.12
363.203	437.12
363.429	444.12
363.656	423.12
363.882	424.12
364.109	421.12
364.335	427.12
364.562	434.12
364.788	420.12
365.015	427.12
365.241	430.12
365.468	428.12
365.694	447.12
365.92	438.12
366.147	427.12
366.373	450.12
366.599	416.12
366.826	422.12
367.052	400.12
367.278	410.12
367.505	432.12
367.731	448.12
367.957	445.12
368.184	427.12
368.41	459.12
368.636	428.12
368.862	424.12
369.089	450.12
369.315	457.12
369.541	435.12
369.767	437.12
369.993	446.12
370.219	434.12
370.445	428.12
370.672	442.12
370.898	428.12
371.124	421.12
371.35	432.12
371.576	433.12
371.802	459.12
372.028	434.12
372.254	440.12
372.48	441.12
372.706	439.12
372.932	445.12
373.158	468.12
373.384	442.12
373.61	455.12
373.835	434.12
374.061	434.12
374.287	433.12
374.513	470.12
374.739	454.12
374.965	451.12
375.191	453.12
375.416	453.12
375.642	443.12
375.868	437.12
376.094	442.12
376.319	449.12
376.545	445.12
376.771	428.12
376.997	440.12
377.222	436.12
377.448	427.12
377.674	431.12
377.899	422.12
378.125	426.12
378.35	437.12
378.576	420.12
378.802	450.12
379.027	443.12
379.253	445.12
379.478	436.12
379.704	443.12
379.929	443.12
380.155	460.12
380.38	462.12
380.606	441.12
380.831	437.12
381.057	430.12
381.282	452.12
381.507	446.12
381.733	455.12
381.958	444.12
382.184	441.12
382.409	467.12
382.634	450.12
382.86	454.12
383.085	455.12
383.31	454.12
383.535	460.12
383.761	480.12
383.986	493.12
384.211	462.12
384.436	479.12
384.662	479.12
384.887	494.12
385.112	467.12
385.337	509.12
385.562	498.12
385.787	482.12
386.013	503.12
386.238	499.12
386.463	503.12
386.688	505.12
386.913	496.12
387.138	516.12
387.363	493.12
387.588	492.12
387.813	500.12
388.038	513.12
388.263	503.12
388.488	495.12
388.713	482.12
388.938	483.12
389.163	501.12
389.387	506.12
389.612	482.12
389.837	502.12
390.062	489.12
390.287	469.12
390.512	478.12
390.736	494.12
390.961	501.12
391.186	506.12
391.411	500.12
391.636	511.12
391.86	534.12
392.085	542.12
392.31	532.12
392.534	517.12
392.759	513.12
392.984	515.12
393.208	520.12
393.433	515.12
393.658	519.12
393.882	515.12
394.107	515.12
394.331	509.12
394.556	529.12
394.78	498.12
395.005	512.12
395.229	496.12
395.454	513.12
395.678	516.12
395.903	523.12
396.127	563.12
396.352	554.12
396.576	502.12
396.801	515.12
397.025	512.12
397.249	509.12
397.474	555.12
397.698	544.12
397.922	530.12
398.147	558.12
398.371	563.12
398.595	550.12
398.82	570.12
399.044	603.12
399.268	608.12
399.492	638.12
399.717	684.12
399.941	698.12
400.165	718.12
400.389	719.12
400.613	653.12
400.837	621.12
401.062	599.12
401.286	590.12
401.51	598.12
401.734	552.12
401.958	577.12
402.182	587.12
402.406	580.12
402.63	596.12
402.854	579.12
403.078	591.12
403.302	599.12
403.526	615.12
403.75	606.12
403.974	608.12
404.198	624.12
404.422	607.12
404.645	620.12
404.869	618.12
405.093	657.12
405.317	686.12
405.541	712.12
405.765	657.12
405.988	618.12
406.212	636.12
406.436	622.12
406.66	657.12
406.883	642.12
407.107	677.12
407.331	687.12
407.555	770.12
407.778	790.12
408.002	731.12
408.226	677.12
408.449	660.12
408.673	661.12
408.896	695.12
409.12	729.12
409.344	662.12
409.567	623.12
409.791	608.12
410.014	606.12
410.238	583.12
410.461	627.12
410.685	593.12
410.908	615.12
411.132	672.12
411.355	670.12
411.578	646.12
411.802	607.12
412.025	582.12
412.249	613.12
412.472	624.12
412.695	666.12
412.919	646.12
413.142	600.12
413.365	590.12
413.589	605.12
413.812	591.12
414.035	576.12
414.258	587.12
414.482	578.12
414.705	566.12
414.928	559.12
415.151	557.12
415.374	574.12
415.597	580.12
415.821	572.12
416.044	575.12
416.267	565.12
416.49	580.12
416.713	563.12
416.936	581.12
417.159	583.12
417.382	544.12
417.605	570.12
417.828	585.12
418.051	597.12
418.274	579.12
418.497	550.12
418.72	559.12
418.943	569.12
419.166	592.12
419.389	635.12
419.611	619.12
419.834	620.12
420.057	594.12
420.28	590.12
420.503	602.12
420.726	608.12
420.948	606.12
421.171	655.12
421.394	674.12
421.617	628.12
421.839	589.12
422.062	604.12
422.285	603.12
422.507	663.12
422.73	739.12
422.953	716.12
423.175	645.12
423.398	618.12
423.621	603.12
423.843	631.12
424.066	635.12
424.288	642.12
424.511	674.12
424.733	676.12
424.956	790.12
425.178	751.12
425.401	727.12
425.623	757.12
425.846	646.12
426.068	614.12
426.291	630.12
426.513	636.12
426.735	618.12
426.958	646.12
427.18	743.12
427.402	888.12
427.625	956.12
427.847	818.12
428.069	728.12
428.292	667.12
428.514	618.12
428.736	582.12
428.958	609.12
429.181	557.12
429.403	548.12
429.625	583.12
429.847	642.12
430.069	668.12
430.292	677.12
430.514	579.12
430.736	584.12
430.958	562.12
431.18	558.12
431.402	570.12
431.624	540.12
431.846	565.12
432.068	551.12
432.29	547.12
432.512	535.12
432.734	582.12
432.956	566.12
433.178	560.12
433.4	564.12
433.622	545.12
433.844	574.12
434.066	544.12
434.287	563.12
434.509	552.12
434.731	575.12
434.953	586.12
435.175	587.12
435.397	615.12
435.618	631.12
435.84	666.12
436.062	752.12
436.284	791.12
436.505	687.12
436.727	626.12
436.949	606.12
437.17	565.12
437.392	599.12
437.614	591.12
437.835	617.12
438.057	692.12
438.278	804.12
438.5	799.12
438.721	840.12
438.943	847.12
439.165	699.12
439.386	634.12
439.608	616.12
439.829	608.12
440.05	641.12
440.272	648.12
440.493	644.12
440.715	613.12
440.936	585.12
441.158	585.12
441.379	592.12
441.6	596.12
441.822	631.12
442.043	646.12
442.264	750.12
442.486	789.12
442.707	678.12
442.928	614.12
443.149	666.12
443.371	675.12
443.592	719.12
443.813	832.12
444.034	854.12
444.255	740.12
444.476	647.12
444.698	658.12
444.919	655.12
445.14	731.12
445.361	697.12
445.582	708.12
445.803	718.12
446.024	814.12
446.245	827.12
446.466	736.12
446.687	641.12
446.908	616.12
447.129	601.12
447.35	578.12
447.571	561.12
447.792	544.12
448.013	553.12
448.234	591.12
448.455	608.12
448.675	728.12
448.896	846.12
449.117	721.12
449.338	698.12
449.559	817.12
449.779	916.12
450	736.12
450.221	610.12
450.442	576.12
450.662	565.12
450.883	548.12
451.104	552.12
451.324	550.12
451.545	550.12
451.766	524.12
451.986	512.12
452.207	515.12
452.428	513.12
452.648	524.12
452.869	510.12
453.089	534.12
453.31	506.12
453.53	505.12
453.751	513.12
453.971	514.12
454.192	517.12
454.412	517.12
454.633	498.12
454.853	512.12
455.073	488.12
455.294	555.12
455.514	578.12
455.734	584.12
455.955	484.12
456.175	491.12
456.395	479.12
456.616	482.12
456.836	505.12
457.056	471.12
457.276	466.12
457.497	500.12
457.717	484.12
457.937	495.12
458.157	492.12
458.377	509.12
458.598	503.12
458.818	564.12
459.038	631.12
459.258	672.12
459.478	607.12
459.698	543.12
459.918	570.12
460.138	554.12
460.358	554.12
460.578	567.12
460.798	581.12
461.018	566.12
461.238	563.12
461.458	568.12
461.678	552.12
461.898	569.12
462.118	574.12
462.338	577.12
462.558	608.12
462.777	602.12
462.997	629.12
463.217	664.12
463.437	691.12
463.657	629.12
463.876	620.12
464.096	609.12
464.316	632.12
464.536	644.12
464.755	620.12
464.975	601.12
465.195	636.12
465.414	673.12
465.634	598.12
465.854	583.12
466.073	556.12
466.293	565.12
466.512	542.12
466.732	554.12
466.951	536.12
467.171	528.12
467.391	542.12
467.61	528.12
467.829	557.12
468.049	531.12
468.268	518.12
468.488	528.12
468.707	505.12
468.927	508.12
469.146	516.12
469.365	498.12
469.585	513.12
469.804	526.12
470.023	568.12
470.243	551.12
470.462	540.12
470.681	544.12
470.901	574.12
471.12	552.12
471.339	553.12
471.558	544.12
471.777	540.12
471.997	534.12
472.216	526.12
472.435	576.12
472.654	549.12
472.873	529.12
473.092	522.12
473.311	518.12
473.53	532.12
473.749	534.12
473.968	570.12
474.187	671.12
474.406	674.12
474.625	570.12
474.844	565.12
475.063	562.12
475.282	527.12
475.501	542.12
475.72	535.12
475.939	556.12
476.158	555.12
476.377	557.12
476.596	523.12
476.814	565.12
477.033	573.12
477.252	549.12
477.471	569.12
477.69	570.12
477.908	596.12
478.127	592.12
478.346	600.12
478.564	603.12
478.783	604.12
479.002	622.12
479.22	612.12
479.439	614.12
479.658	640.12
479.876	646.12
480.095	659.12
480.313	668.12
480.532	675.12
480.751	655.12
480.969	678.12
481.188	691.12
481.406	735.12
481.624	666.12
481.843	646.12
482.061	644.12
482.28	643.12
482.498	621.12
482.717	614.12
482.935	620.12
483.153	614.12
483.372	617.12
483.59	644.12
483.808	646.12
484.027	629.12
484.245	643.12
484.463	629.12
484.681	647.12
484.9	663.12
485.118	653.12
485.336	627.12
485.554	639.12
485.772	663.12
485.99	656.12
486.209	646.12
486.427	646.12
486.645	675.12
486.863	661.12
487.081	679.12
487.299	654.12
487.517	672.12
487.735	684.12
487.953	648.12
488.171	691.12
488.389	668.12
488.607	694.12
488.825	682.12
489.043	698.12
489.261	698.12
489.479	700.12
489.696	712.12
489.914	708.12
490.132	711.12
490.35	734.12
490.568	739.12
490.786	726.12
491.003	743.12
491.221	760.12
491.439	764.12
491.657	740.12
491.874	755.12
492.092	766.12
492.31	779.12
492.527	784.12
492.745	776.12
492.963	808.12
493.18	780.12
493.398	780.12
493.615	788.12
493.833	804.12
494.05	792.12
494.268	790.12
494.485	805.12
494.703	812.12
494.92	810.12
495.138	814.12
495.355	819.12
495.573	788.12
495.79	828.12
496.008	799.12
496.225	820.12
496.442	815.12
496.66	814.12
496.877	778.12
497.094	827.12
497.312	834.12
497.529	834.12
497.746	848.12
497.963	838.12
498.181	886.12
498.398	893.12
498.615	902.12
498.832	944.12
499.049	959.12
499.267	974.12
499.484	1010.12
499.701	1096.12
499.918	1120.12
500.135	1206.12
500.352	1268.12
500.569	1284.12
500.786	1301.12
501.003	1271.12
501.22	1210.12
501.437	1140.12
501.654	1071.12
