Data from 1974.PennyLincolnUp.Lamp.En5.5.200Scan.071719.P1.Changed Mount._HRD10591_15-51-25-857.txt Node
Date: Thu Jul 18 15:51:25 EDT 2019
User: cochatt
Spectrometer: HR+D1059
Trigger mode: 1
Integration Time (sec): 1.000000E-1
Scans to average: 1
Electric dark correction enabled: true
Nonlinearity correction enabled: false
Boxcar width: 0
XAxis mode: Wavelengths
Number of Pixels in Spectrum: 2048
>>>>>Begin Spectral Data<<<<<
223.165	-13.38
223.4	-13.38
223.635	-13.38
223.869	-22.38
224.104	-15.38
224.338	-15.38
224.573	-15.38
224.808	-12.38
225.042	-8.38
225.277	-5.38
225.511	-4.38
225.746	7.62
225.98	2.62
226.215	15.62
226.449	22.62
226.683	18.62
226.918	11.62
227.152	33.62
227.387	40.62
227.621	34.62
227.856	42.62
228.09	41.62
228.324	56.62
228.559	59.62
228.793	78.62
229.027	90.62
229.262	102.62
229.496	108.62
229.73	108.62
229.964	140.62
230.199	130.62
230.433	112.62
230.667	93.62
230.901	99.62
231.136	117.62
231.37	112.62
231.604	94.62
231.838	116.62
232.072	119.62
232.306	112.62
232.541	121.62
232.775	112.62
233.009	118.62
233.243	115.62
233.477	120.62
233.711	116.62
233.945	114.62
234.179	121.62
234.413	130.62
234.647	125.62
234.881	108.62
235.115	117.62
235.349	136.62
235.583	126.62
235.817	128.62
236.051	138.62
236.285	121.62
236.519	120.62
236.753	123.62
236.987	128.62
237.221	169.62
237.455	214.62
237.689	183.62
237.922	138.62
238.156	129.62
238.39	131.62
238.624	128.62
238.858	120.62
239.091	129.62
239.325	124.62
239.559	128.62
239.793	125.62
240.027	132.62
240.26	134.62
240.494	146.62
240.728	148.62
240.961	144.62
241.195	132.62
241.429	139.62
241.662	155.62
241.896	136.62
242.13	126.62
242.363	129.62
242.597	134.62
242.83	142.62
243.064	147.62
243.298	128.62
243.531	125.62
243.765	141.62
243.998	148.62
244.232	143.62
244.465	150.62
244.699	147.62
244.932	149.62
245.166	159.62
245.399	152.62
245.633	141.62
245.866	137.62
246.099	154.62
246.333	160.62
246.566	157.62
246.8	158.62
247.033	169.62
247.266	179.62
247.5	166.62
247.733	172.62
247.966	175.62
248.2	161.62
248.433	159.62
248.666	195.62
248.899	179.62
249.133	207.62
249.366	194.62
249.599	181.62
249.832	183.62
250.066	170.62
250.299	180.62
250.532	182.62
250.765	205.62
250.998	214.62
251.231	206.62
251.465	210.62
251.698	193.62
251.931	192.62
252.164	198.62
252.397	203.62
252.63	198.62
252.863	202.62
253.096	203.62
253.329	214.62
253.562	217.62
253.795	219.62
254.028	206.62
254.261	200.62
254.494	223.62
254.727	231.62
254.96	270.62
255.193	246.62
255.426	235.62
255.659	229.62
255.892	228.62
256.124	225.62
256.357	207.62
256.59	229.62
256.823	210.62
257.056	216.62
257.289	206.62
257.521	205.62
257.754	197.62
257.987	209.62
258.22	204.62
258.452	205.62
258.685	199.62
258.918	196.62
259.151	202.62
259.383	220.62
259.616	228.62
259.849	220.62
260.081	232.62
260.314	233.62
260.547	236.62
260.779	229.62
261.012	235.62
261.244	233.62
261.477	229.62
261.71	216.62
261.942	232.62
262.175	231.62
262.407	232.62
262.64	209.62
262.872	197.62
263.105	199.62
263.337	214.62
263.57	192.62
263.802	218.62
264.035	217.62
264.267	205.62
264.499	218.62
264.732	213.62
264.964	204.62
265.197	210.62
265.429	221.62
265.661	212.62
265.894	215.62
266.126	208.62
266.358	204.62
266.591	210.62
266.823	221.62
267.055	228.62
267.287	232.62
267.52	219.62
267.752	220.62
267.984	215.62
268.216	216.62
268.448	221.62
268.681	226.62
268.913	240.62
269.145	256.62
269.377	271.62
269.609	261.62
269.841	271.62
270.073	249.62
270.306	275.62
270.538	301.62
270.77	298.62
271.002	285.62
271.234	280.62
271.466	270.62
271.698	286.62
271.93	309.62
272.162	283.62
272.394	304.62
272.626	299.62
272.858	289.62
273.09	282.62
273.322	245.62
273.553	247.62
273.785	252.62
274.017	266.62
274.249	257.62
274.481	268.62
274.713	250.62
274.945	273.62
275.176	264.62
275.408	255.62
275.64	260.62
275.872	246.62
276.104	246.62
276.335	244.62
276.567	262.62
276.799	282.62
277.031	280.62
277.262	296.62
277.494	322.62
277.726	301.62
277.957	276.62
278.189	275.62
278.421	269.62
278.652	274.62
278.884	275.62
279.115	270.62
279.347	272.62
279.579	270.62
279.81	282.62
280.042	266.62
280.273	263.62
280.505	280.62
280.736	275.62
280.968	268.62
281.199	265.62
281.431	277.62
281.662	266.62
281.894	274.62
282.125	294.62
282.356	289.62
282.588	296.62
282.819	296.62
283.051	280.62
283.282	276.62
283.513	266.62
283.745	286.62
283.976	297.62
284.207	290.62
284.439	275.62
284.67	290.62
284.901	277.62
285.132	276.62
285.364	281.62
285.595	266.62
285.826	276.62
286.057	278.62
286.288	293.62
286.52	293.62
286.751	293.62
286.982	284.62
287.213	284.62
287.444	282.62
287.675	292.62
287.906	280.62
288.138	288.62
288.369	312.62
288.6	297.62
288.831	316.62
289.062	302.62
289.293	296.62
289.524	308.62
289.755	295.62
289.986	299.62
290.217	289.62
290.448	293.62
290.679	287.62
290.91	288.62
291.141	282.62
291.371	304.62
291.602	304.62
291.833	294.62
292.064	309.62
292.295	304.62
292.526	298.62
292.757	284.62
292.987	300.62
293.218	292.62
293.449	302.62
293.68	315.62
293.91	310.62
294.141	299.62
294.372	288.62
294.603	317.62
294.833	278.62
295.064	301.62
295.295	298.62
295.525	294.62
295.756	297.62
295.987	276.62
296.217	326.62
296.448	307.62
296.679	323.62
296.909	298.62
297.14	310.62
297.37	300.62
297.601	312.62
297.831	315.62
298.062	308.62
298.292	306.62
298.523	324.62
298.753	320.62
298.984	321.62
299.214	311.62
299.445	312.62
299.675	312.62
299.905	298.62
300.136	319.62
300.366	307.62
300.597	323.62
300.827	331.62
301.057	319.62
301.288	307.62
301.518	320.62
301.748	326.62
301.979	327.62
302.209	330.62
302.439	325.62
302.669	335.62
302.9	326.62
303.13	329.62
303.36	342.62
303.59	317.62
303.82	333.62
304.051	327.62
304.281	327.62
304.511	315.62
304.741	337.62
304.971	324.62
305.201	329.62
305.431	323.62
305.661	326.62
305.891	326.62
306.121	326.62
306.352	342.62
306.582	327.62
306.812	344.62
307.042	328.62
307.272	320.62
307.502	347.62
307.731	335.62
307.961	341.62
308.191	340.62
308.421	317.62
308.651	349.62
308.881	355.62
309.111	339.62
309.341	339.62
309.571	342.62
309.8	362.62
310.03	353.62
310.26	363.62
310.49	363.62
310.72	349.62
310.949	385.62
311.179	360.62
311.409	361.62
311.639	350.62
311.868	357.62
312.098	343.62
312.328	382.62
312.557	380.62
312.787	346.62
313.017	403.62
313.246	361.62
313.476	363.62
313.706	382.62
313.935	374.62
314.165	401.62
314.394	385.62
314.624	386.62
314.853	369.62
315.083	391.62
315.312	358.62
315.542	370.62
315.771	361.62
316.001	360.62
316.23	380.62
316.46	365.62
316.689	352.62
316.919	366.62
317.148	360.62
317.377	374.62
317.607	377.62
317.836	372.62
318.065	388.62
318.295	362.62
318.524	372.62
318.753	370.62
318.983	351.62
319.212	388.62
319.441	390.62
319.67	379.62
319.9	362.62
320.129	352.62
320.358	373.62
320.587	372.62
320.816	376.62
321.046	363.62
321.275	395.62
321.504	372.62
321.733	378.62
321.962	381.62
322.191	395.62
322.42	392.62
322.649	402.62
322.878	418.62
323.108	420.62
323.337	440.62
323.566	453.62
323.795	453.62
324.024	473.62
324.253	547.62
324.482	709.62
324.71	1079.62
324.939	1577.62
325.168	1400.62
325.397	728.62
325.626	506.62
325.855	460.62
326.084	455.62
326.313	454.62
326.542	416.62
326.77	453.62
326.999	510.62
327.228	662.62
327.457	974.62
327.686	1168.62
327.914	782.62
328.143	556.62
328.372	530.62
328.6	476.62
328.829	490.62
329.058	466.62
329.287	469.62
329.515	464.62
329.744	463.62
329.972	443.62
330.201	440.62
330.43	464.62
330.658	499.62
330.887	525.62
331.115	524.62
331.344	476.62
331.572	452.62
331.801	437.62
332.03	464.62
332.258	460.62
332.486	420.62
332.715	437.62
332.943	456.62
333.172	453.62
333.4	456.62
333.629	473.62
333.857	472.62
334.085	485.62
334.314	501.62
334.542	514.62
334.771	495.62
334.999	481.62
335.227	464.62
335.455	459.62
335.684	453.62
335.912	441.62
336.14	448.62
336.369	454.62
336.597	446.62
336.825	469.62
337.053	444.62
337.281	437.62
337.51	433.62
337.738	448.62
337.966	432.62
338.194	411.62
338.422	432.62
338.65	416.62
338.878	429.62
339.106	445.62
339.334	435.62
339.562	413.62
339.79	420.62
340.018	417.62
340.246	418.62
340.474	416.62
340.702	441.62
340.93	429.62
341.158	423.62
341.386	433.62
341.614	448.62
341.842	427.62
342.07	411.62
342.298	419.62
342.526	412.62
342.754	424.62
342.981	425.62
343.209	416.62
343.437	423.62
343.665	420.62
343.893	442.62
344.12	476.62
344.348	458.62
344.576	421.62
344.804	455.62
345.031	446.62
345.259	453.62
345.487	444.62
345.714	445.62
345.942	400.62
346.17	414.62
346.397	421.62
346.625	418.62
346.853	421.62
347.08	406.62
347.308	427.62
347.535	416.62
347.763	416.62
347.99	419.62
348.218	406.62
348.445	418.62
348.673	416.62
348.9	434.62
349.128	426.62
349.355	402.62
349.583	405.62
349.81	392.62
350.037	394.62
350.265	397.62
350.492	413.62
350.72	402.62
350.947	424.62
351.174	391.62
351.402	394.62
351.629	411.62
351.856	410.62
352.083	408.62
352.311	418.62
352.538	399.62
352.765	417.62
352.992	423.62
353.22	427.62
353.447	421.62
353.674	411.62
353.901	385.62
354.128	387.62
354.355	396.62
354.583	395.62
354.81	400.62
355.037	394.62
355.264	393.62
355.491	370.62
355.718	382.62
355.945	399.62
356.172	392.62
356.399	397.62
356.626	395.62
356.853	406.62
357.08	396.62
357.307	398.62
357.534	386.62
357.761	418.62
357.988	388.62
358.215	396.62
358.441	406.62
358.668	380.62
358.895	407.62
359.122	386.62
359.349	390.62
359.576	407.62
359.802	418.62
360.029	428.62
360.256	441.62
360.483	413.62
360.709	424.62
360.936	402.62
361.163	421.62
361.39	425.62
361.616	407.62
361.843	412.62
362.07	419.62
362.296	406.62
362.523	413.62
362.749	418.62
362.976	416.62
363.203	389.62
363.429	387.62
363.656	417.62
363.882	414.62
364.109	413.62
364.335	403.62
364.562	403.62
364.788	403.62
365.015	405.62
365.241	413.62
365.468	425.62
365.694	427.62
365.92	424.62
366.147	405.62
366.373	394.62
366.599	391.62
366.826	397.62
367.052	393.62
367.278	408.62
367.505	404.62
367.731	408.62
367.957	419.62
368.184	398.62
368.41	409.62
368.636	431.62
368.862	412.62
369.089	418.62
369.315	410.62
369.541	412.62
369.767	412.62
369.993	417.62
370.219	412.62
370.445	405.62
370.672	406.62
370.898	419.62
371.124	414.62
371.35	426.62
371.576	406.62
371.802	415.62
372.028	416.62
372.254	396.62
372.48	429.62
372.706	436.62
372.932	421.62
373.158	420.62
373.384	441.62
373.61	438.62
373.835	428.62
374.061	422.62
374.287	429.62
374.513	410.62
374.739	448.62
374.965	426.62
375.191	440.62
375.416	434.62
375.642	444.62
375.868	421.62
376.094	427.62
376.319	441.62
376.545	412.62
376.771	416.62
376.997	426.62
377.222	411.62
377.448	410.62
377.674	421.62
377.899	424.62
378.125	430.62
378.35	448.62
378.576	417.62
378.802	398.62
379.027	421.62
379.253	419.62
379.478	391.62
379.704	406.62
379.929	422.62
380.155	426.62
380.38	443.62
380.606	429.62
380.831	413.62
381.057	444.62
381.282	427.62
381.507	440.62
381.733	428.62
381.958	405.62
382.184	427.62
382.409	429.62
382.634	453.62
382.86	433.62
383.085	449.62
383.31	435.62
383.535	451.62
383.761	442.62
383.986	453.62
384.211	434.62
384.436	458.62
384.662	447.62
384.887	477.62
385.112	482.62
385.337	451.62
385.562	463.62
385.787	475.62
386.013	476.62
386.238	473.62
386.463	483.62
386.688	474.62
386.913	478.62
387.138	478.62
387.363	485.62
387.588	475.62
387.813	486.62
388.038	463.62
388.263	488.62
388.488	474.62
388.713	482.62
388.938	488.62
389.163	473.62
389.387	482.62
389.612	466.62
389.837	477.62
390.062	464.62
390.287	474.62
390.512	454.62
390.736	481.62
390.961	486.62
391.186	494.62
391.411	502.62
391.636	470.62
391.86	501.62
392.085	490.62
392.31	507.62
392.534	478.62
392.759	477.62
392.984	473.62
393.208	480.62
393.433	508.62
393.658	469.62
393.882	485.62
394.107	468.62
394.331	492.62
394.556	489.62
394.78	479.62
395.005	475.62
395.229	496.62
395.454	481.62
395.678	486.62
395.903	501.62
396.127	513.62
396.352	538.62
396.576	482.62
396.801	488.62
397.025	502.62
397.249	514.62
397.474	508.62
397.698	507.62
397.922	506.62
398.147	530.62
398.371	567.62
398.595	532.62
398.82	531.62
399.044	587.62
399.268	574.62
399.492	621.62
399.717	648.62
399.941	691.62
400.165	701.62
400.389	688.62
400.613	610.62
400.837	566.62
401.062	570.62
401.286	560.62
401.51	543.62
401.734	560.62
401.958	562.62
402.182	548.62
402.406	576.62
402.63	571.62
402.854	550.62
403.078	572.62
403.302	586.62
403.526	581.62
403.75	584.62
403.974	579.62
404.198	585.62
404.422	590.62
404.645	585.62
404.869	597.62
405.093	602.62
405.317	642.62
405.541	694.62
405.765	636.62
405.988	610.62
406.212	613.62
406.436	604.62
406.66	633.62
406.883	632.62
407.107	642.62
407.331	700.62
407.555	770.62
407.778	745.62
408.002	685.62
408.226	634.62
408.449	617.62
408.673	658.62
408.896	650.62
409.12	711.62
409.344	660.62
409.567	604.62
409.791	586.62
410.014	578.62
410.238	581.62
410.461	597.62
410.685	568.62
410.908	590.62
411.132	603.62
411.355	659.62
411.578	645.62
411.802	600.62
412.025	570.62
412.249	588.62
412.472	611.62
412.695	637.62
412.919	626.62
413.142	597.62
413.365	560.62
413.589	571.62
413.812	547.62
414.035	530.62
414.258	535.62
414.482	558.62
414.705	528.62
414.928	536.62
415.151	559.62
415.374	576.62
415.597	543.62
415.821	544.62
416.044	545.62
416.267	557.62
416.49	524.62
416.713	540.62
416.936	544.62
417.159	552.62
417.382	566.62
417.605	540.62
417.828	558.62
418.051	566.62
418.274	568.62
418.497	537.62
418.72	542.62
418.943	560.62
419.166	577.62
419.389	604.62
419.611	586.62
419.834	586.62
420.057	595.62
420.28	600.62
420.503	576.62
420.726	576.62
420.948	549.62
421.171	606.62
421.394	643.62
421.617	571.62
421.839	541.62
422.062	560.62
422.285	572.62
422.507	605.62
422.73	725.62
422.953	691.62
423.175	624.62
423.398	600.62
423.621	586.62
423.843	620.62
424.066	619.62
424.288	599.62
424.511	614.62
424.733	654.62
424.956	760.62
425.178	718.62
425.401	712.62
425.623	731.62
425.846	650.62
426.068	576.62
426.291	609.62
426.513	594.62
426.735	596.62
426.958	658.62
427.18	695.62
427.402	844.62
427.625	925.62
427.847	761.62
428.069	675.62
428.292	618.62
428.514	583.62
428.736	553.62
428.958	542.62
429.181	554.62
429.403	544.62
429.625	550.62
429.847	588.62
430.069	624.62
430.292	629.62
430.514	556.62
430.736	540.62
430.958	546.62
431.18	554.62
431.402	508.62
431.624	524.62
431.846	536.62
432.068	509.62
432.29	532.62
432.512	562.62
432.734	536.62
432.956	525.62
433.178	557.62
433.4	537.62
433.622	546.62
433.844	550.62
434.066	526.62
434.287	529.62
434.509	528.62
434.731	560.62
434.953	564.62
435.175	593.62
435.397	581.62
435.618	583.62
435.84	618.62
436.062	695.62
436.284	791.62
436.505	647.62
436.727	605.62
436.949	553.62
437.17	553.62
437.392	534.62
437.614	560.62
437.835	575.62
438.057	662.62
438.278	754.62
438.5	750.62
438.721	820.62
438.943	840.62
439.165	644.62
439.386	570.62
439.608	597.62
439.829	594.62
440.05	596.62
440.272	617.62
440.493	613.62
440.715	561.62
440.936	563.62
441.158	554.62
441.379	557.62
441.6	583.62
441.822	597.62
442.043	635.62
442.264	725.62
442.486	740.62
442.707	612.62
442.928	599.62
443.149	627.62
443.371	631.62
443.592	694.62
443.813	752.62
444.034	834.62
444.255	698.62
444.476	640.62
444.698	629.62
444.919	618.62
445.14	711.62
445.361	655.62
445.582	643.62
445.803	694.62
446.024	791.62
446.245	778.62
446.466	718.62
446.687	611.62
446.908	581.62
447.129	548.62
447.35	544.62
447.571	571.62
447.792	531.62
448.013	552.62
448.234	554.62
448.455	580.62
448.675	694.62
448.896	860.62
449.117	712.62
449.338	653.62
449.559	738.62
449.779	891.62
450	688.62
450.221	578.62
450.442	553.62
450.662	516.62
450.883	515.62
451.104	541.62
451.324	517.62
451.545	510.62
451.766	509.62
451.986	470.62
452.207	473.62
452.428	493.62
452.648	496.62
452.869	467.62
453.089	482.62
453.31	512.62
453.53	505.62
453.751	481.62
453.971	479.62
454.192	503.62
454.412	464.62
454.633	483.62
454.853	453.62
455.073	481.62
455.294	505.62
455.514	548.62
455.734	551.62
455.955	479.62
456.175	470.62
456.395	459.62
456.616	474.62
456.836	456.62
457.056	461.62
457.276	435.62
457.497	472.62
457.717	462.62
457.937	465.62
458.157	488.62
458.377	468.62
458.598	481.62
458.818	518.62
459.038	586.62
459.258	624.62
459.478	549.62
459.698	498.62
459.918	537.62
460.138	543.62
460.358	533.62
460.578	526.62
460.798	549.62
461.018	556.62
461.238	548.62
461.458	552.62
461.678	537.62
461.898	559.62
462.118	550.62
462.338	558.62
462.558	585.62
462.777	596.62
462.997	622.62
463.217	650.62
463.437	650.62
463.657	617.62
463.876	620.62
464.096	602.62
464.316	597.62
464.536	605.62
464.755	580.62
464.975	594.62
465.195	594.62
465.414	622.62
465.634	572.62
465.854	553.62
466.073	550.62
466.293	517.62
466.512	529.62
466.732	506.62
466.951	502.62
467.171	505.62
467.391	526.62
467.61	522.62
467.829	512.62
468.049	504.62
468.268	514.62
468.488	508.62
468.707	477.62
468.927	496.62
469.146	508.62
469.365	473.62
469.585	492.62
469.804	504.62
470.023	522.62
470.243	528.62
470.462	518.62
470.681	533.62
470.901	533.62
471.12	509.62
471.339	540.62
471.558	532.62
471.777	510.62
471.997	525.62
472.216	508.62
472.435	537.62
472.654	527.62
472.873	518.62
473.092	509.62
473.311	499.62
473.53	507.62
473.749	510.62
473.968	530.62
474.187	636.62
474.406	652.62
474.625	565.62
474.844	517.62
475.063	522.62
475.282	516.62
475.501	502.62
475.72	531.62
475.939	526.62
476.158	544.62
476.377	537.62
476.596	537.62
476.814	536.62
477.033	524.62
477.252	522.62
477.471	552.62
477.69	560.62
477.908	566.62
478.127	580.62
478.346	568.62
478.564	589.62
478.783	572.62
479.002	594.62
479.22	582.62
479.439	596.62
479.658	601.62
479.876	591.62
480.095	609.62
480.313	664.62
480.532	620.62
480.751	634.62
480.969	635.62
481.188	646.62
481.406	688.62
481.624	646.62
481.843	619.62
482.061	615.62
482.28	610.62
482.498	589.62
482.717	590.62
482.935	604.62
483.153	593.62
483.372	606.62
483.59	589.62
483.808	582.62
484.027	588.62
484.245	605.62
484.463	613.62
484.681	615.62
484.9	620.62
485.118	613.62
485.336	627.62
485.554	603.62
485.772	608.62
485.99	614.62
486.209	615.62
486.427	617.62
486.645	643.62
486.863	631.62
487.081	637.62
487.299	618.62
487.517	634.62
487.735	629.62
487.953	671.62
488.171	644.62
488.389	633.62
488.607	630.62
488.825	653.62
489.043	647.62
489.261	665.62
489.479	649.62
489.696	632.62
489.914	644.62
490.132	658.62
490.35	681.62
490.568	678.62
490.786	687.62
491.003	664.62
491.221	697.62
491.439	745.62
491.657	725.62
491.874	741.62
492.092	738.62
492.31	729.62
492.527	735.62
492.745	759.62
492.963	739.62
493.18	732.62
493.398	777.62
493.615	739.62
493.833	732.62
494.05	767.62
494.268	731.62
494.485	741.62
494.703	780.62
494.92	774.62
495.138	740.62
495.355	772.62
495.573	731.62
495.79	728.62
496.008	792.62
496.225	755.62
496.442	784.62
496.66	772.62
496.877	776.62
497.094	768.62
497.312	758.62
497.529	794.62
497.746	808.62
497.963	834.62
498.181	810.62
498.398	834.62
498.615	857.62
498.832	892.62
499.049	927.62
499.267	941.62
499.484	1004.62
499.701	1045.62
499.918	1138.62
500.135	1114.62
500.352	1203.62
500.569	1261.62
500.786	1219.62
501.003	1204.62
501.22	1149.62
501.437	1108.62
501.654	1074.62
