Data from 1974.PennyLincolnUp.Lamp.En5.5.200Scan.071719.P1.Changed Mount._HRD10591_15-52-24-856.txt Node
Date: Thu Jul 18 15:52:24 EDT 2019
User: cochatt
Spectrometer: HR+D1059
Trigger mode: 1
Integration Time (sec): 1.000000E-1
Scans to average: 1
Electric dark correction enabled: true
Nonlinearity correction enabled: false
Boxcar width: 0
XAxis mode: Wavelengths
Number of Pixels in Spectrum: 2048
>>>>>Begin Spectral Data<<<<<
223.165	-13.19
223.4	-13.19
223.635	-13.19
223.869	-21.19
224.104	-17.19
224.338	-13.19
224.573	-23.19
224.808	-14.19
225.042	-20.19
225.277	-3.19
225.511	8.81
225.746	-3.19
225.98	7.81
226.215	8.81
226.449	18.81
226.683	25.81
226.918	26.81
227.152	31.81
227.387	32.81
227.621	37.81
227.856	34.81
228.09	47.81
228.324	43.81
228.559	53.81
228.793	66.81
229.027	77.81
229.262	102.81
229.496	103.81
229.73	139.81
229.964	129.81
230.199	124.81
230.433	106.81
230.667	118.81
230.901	107.81
231.136	113.81
231.37	118.81
231.604	95.81
231.838	112.81
232.072	122.81
232.306	107.81
232.541	119.81
232.775	110.81
233.009	116.81
233.243	116.81
233.477	129.81
233.711	123.81
233.945	125.81
234.179	121.81
234.413	118.81
234.647	119.81
234.881	126.81
235.115	119.81
235.349	130.81
235.583	117.81
235.817	122.81
236.051	126.81
236.285	120.81
236.519	125.81
236.753	120.81
236.987	144.81
237.221	177.81
237.455	225.81
237.689	186.81
237.922	138.81
238.156	142.81
238.39	128.81
238.624	134.81
238.858	116.81
239.091	124.81
239.325	120.81
239.559	127.81
239.793	128.81
240.027	130.81
240.26	154.81
240.494	150.81
240.728	167.81
240.961	159.81
241.195	156.81
241.429	138.81
241.662	139.81
241.896	138.81
242.13	135.81
242.363	114.81
242.597	136.81
242.83	127.81
243.064	134.81
243.298	141.81
243.531	157.81
243.765	150.81
243.998	152.81
244.232	152.81
244.465	140.81
244.699	148.81
244.932	144.81
245.166	160.81
245.399	159.81
245.633	150.81
245.866	167.81
246.099	138.81
246.333	146.81
246.566	161.81
246.8	157.81
247.033	160.81
247.266	149.81
247.5	183.81
247.733	159.81
247.966	185.81
248.2	178.81
248.433	175.81
248.666	176.81
248.899	176.81
249.133	216.81
249.366	203.81
249.599	191.81
249.832	171.81
250.066	211.81
250.299	203.81
250.532	185.81
250.765	222.81
250.998	245.81
251.231	243.81
251.465	223.81
251.698	198.81
251.931	217.81
252.164	226.81
252.397	202.81
252.63	211.81
252.863	231.81
253.096	235.81
253.329	234.81
253.562	245.81
253.795	226.81
254.028	226.81
254.261	232.81
254.494	224.81
254.727	264.81
254.96	289.81
255.193	284.81
255.426	276.81
255.659	228.81
255.892	250.81
256.124	249.81
256.357	258.81
256.59	243.81
256.823	226.81
257.056	229.81
257.289	221.81
257.521	208.81
257.754	223.81
257.987	212.81
258.22	223.81
258.452	222.81
258.685	246.81
258.918	228.81
259.151	211.81
259.383	228.81
259.616	224.81
259.849	235.81
260.081	235.81
260.314	273.81
260.547	276.81
260.779	268.81
261.012	235.81
261.244	235.81
261.477	232.81
261.71	228.81
261.942	228.81
262.175	246.81
262.407	239.81
262.64	230.81
262.872	209.81
263.105	204.81
263.337	226.81
263.57	220.81
263.802	204.81
264.035	210.81
264.267	249.81
264.499	228.81
264.732	223.81
264.964	219.81
265.197	235.81
265.429	255.81
265.661	231.81
265.894	238.81
266.126	222.81
266.358	217.81
266.591	238.81
266.823	241.81
267.055	239.81
267.287	257.81
267.52	231.81
267.752	254.81
267.984	244.81
268.216	248.81
268.448	251.81
268.681	256.81
268.913	269.81
269.145	290.81
269.377	294.81
269.609	293.81
269.841	291.81
270.073	295.81
270.306	303.81
270.538	326.81
270.77	340.81
271.002	314.81
271.234	307.81
271.466	324.81
271.698	324.81
271.93	335.81
272.162	328.81
272.394	323.81
272.626	306.81
272.858	307.81
273.09	293.81
273.322	302.81
273.553	268.81
273.785	279.81
274.017	274.81
274.249	272.81
274.481	296.81
274.713	269.81
274.945	295.81
275.176	267.81
275.408	272.81
275.64	278.81
275.872	262.81
276.104	287.81
276.335	277.81
276.567	294.81
276.799	294.81
277.031	314.81
277.262	318.81
277.494	332.81
277.726	315.81
277.957	315.81
278.189	301.81
278.421	279.81
278.652	288.81
278.884	292.81
279.115	309.81
279.347	286.81
279.579	298.81
279.81	280.81
280.042	288.81
280.273	304.81
280.505	306.81
280.736	290.81
280.968	298.81
281.199	296.81
281.431	307.81
281.662	310.81
281.894	278.81
282.125	283.81
282.356	288.81
282.588	325.81
282.819	316.81
283.051	315.81
283.282	294.81
283.513	300.81
283.745	302.81
283.976	318.81
284.207	315.81
284.439	291.81
284.67	303.81
284.901	290.81
285.132	318.81
285.364	311.81
285.595	295.81
285.826	294.81
286.057	306.81
286.288	307.81
286.52	310.81
286.751	297.81
286.982	304.81
287.213	315.81
287.444	317.81
287.675	330.81
287.906	310.81
288.138	321.81
288.369	338.81
288.6	322.81
288.831	339.81
289.062	306.81
289.293	332.81
289.524	347.81
289.755	313.81
289.986	295.81
290.217	298.81
290.448	317.81
290.679	312.81
290.91	306.81
291.141	322.81
291.371	310.81
291.602	326.81
291.833	296.81
292.064	323.81
292.295	322.81
292.526	330.81
292.757	306.81
292.987	315.81
293.218	307.81
293.449	332.81
293.68	340.81
293.91	323.81
294.141	329.81
294.372	320.81
294.603	312.81
294.833	310.81
295.064	328.81
295.295	316.81
295.525	323.81
295.756	324.81
295.987	326.81
296.217	341.81
296.448	363.81
296.679	336.81
296.909	314.81
297.14	324.81
297.37	338.81
297.601	329.81
297.831	334.81
298.062	329.81
298.292	339.81
298.523	334.81
298.753	324.81
298.984	332.81
299.214	337.81
299.445	327.81
299.675	339.81
299.905	331.81
300.136	318.81
300.366	338.81
300.597	334.81
300.827	341.81
301.057	358.81
301.288	365.81
301.518	366.81
301.748	367.81
301.979	347.81
302.209	350.81
302.439	366.81
302.669	356.81
302.9	360.81
303.13	357.81
303.36	350.81
303.59	371.81
303.82	359.81
304.051	378.81
304.281	352.81
304.511	366.81
304.741	355.81
304.971	338.81
305.201	343.81
305.431	353.81
305.661	346.81
305.891	354.81
306.121	350.81
306.352	369.81
306.582	379.81
306.812	360.81
307.042	360.81
307.272	383.81
307.502	358.81
307.731	380.81
307.961	369.81
308.191	366.81
308.421	372.81
308.651	376.81
308.881	371.81
309.111	374.81
309.341	351.81
309.571	382.81
309.8	372.81
310.03	372.81
310.26	378.81
310.49	397.81
310.72	432.81
310.949	418.81
311.179	406.81
311.409	395.81
311.639	390.81
311.868	390.81
312.098	401.81
312.328	408.81
312.557	425.81
312.787	402.81
313.017	403.81
313.246	409.81
313.476	403.81
313.706	396.81
313.935	402.81
314.165	395.81
314.394	404.81
314.624	434.81
314.853	401.81
315.083	418.81
315.312	396.81
315.542	404.81
315.771	400.81
316.001	407.81
316.23	397.81
316.46	409.81
316.689	410.81
316.919	416.81
317.148	424.81
317.377	399.81
317.607	400.81
317.836	407.81
318.065	418.81
318.295	414.81
318.524	383.81
318.753	403.81
318.983	401.81
319.212	401.81
319.441	416.81
319.67	415.81
319.9	417.81
320.129	393.81
320.358	389.81
320.587	413.81
320.816	413.81
321.046	422.81
321.275	431.81
321.504	428.81
321.733	424.81
321.962	432.81
322.191	437.81
322.42	432.81
322.649	455.81
322.878	448.81
323.108	468.81
323.337	479.81
323.566	478.81
323.795	499.81
324.024	544.81
324.253	623.81
324.482	823.81
324.71	1256.81
324.939	1836.81
325.168	1599.81
325.397	856.81
325.626	602.81
325.855	538.81
326.084	481.81
326.313	499.81
326.542	480.81
326.77	517.81
326.999	591.81
327.228	763.81
327.457	1124.81
327.686	1406.81
327.914	949.81
328.143	662.81
328.372	585.81
328.6	554.81
328.829	538.81
329.058	552.81
329.287	533.81
329.515	532.81
329.744	524.81
329.972	525.81
330.201	518.81
330.43	562.81
330.658	576.81
330.887	562.81
331.115	577.81
331.344	519.81
331.572	516.81
331.801	520.81
332.03	531.81
332.258	478.81
332.486	474.81
332.715	477.81
332.943	468.81
333.172	490.81
333.4	527.81
333.629	519.81
333.857	545.81
334.085	530.81
334.314	562.81
334.542	554.81
334.771	579.81
334.999	544.81
335.227	522.81
335.455	517.81
335.684	519.81
335.912	498.81
336.14	499.81
336.369	488.81
336.597	485.81
336.825	505.81
337.053	476.81
337.281	490.81
337.51	495.81
337.738	478.81
337.966	481.81
338.194	483.81
338.422	476.81
338.65	486.81
338.878	481.81
339.106	463.81
339.334	464.81
339.562	451.81
339.79	462.81
340.018	483.81
340.246	484.81
340.474	463.81
340.702	476.81
340.93	456.81
341.158	476.81
341.386	460.81
341.614	476.81
341.842	453.81
342.07	442.81
342.298	456.81
342.526	455.81
342.754	462.81
342.981	430.81
343.209	460.81
343.437	473.81
343.665	460.81
343.893	470.81
344.12	501.81
344.348	506.81
344.576	483.81
344.804	466.81
345.031	485.81
345.259	497.81
345.487	476.81
345.714	448.81
345.942	458.81
346.17	471.81
346.397	450.81
346.625	462.81
346.853	443.81
347.08	439.81
347.308	435.81
347.535	455.81
347.763	465.81
347.99	435.81
348.218	475.81
348.445	451.81
348.673	450.81
348.9	458.81
349.128	442.81
349.355	441.81
349.583	417.81
349.81	430.81
350.037	436.81
350.265	434.81
350.492	454.81
350.72	441.81
350.947	455.81
351.174	428.81
351.402	452.81
351.629	454.81
351.856	444.81
352.083	447.81
352.311	434.81
352.538	458.81
352.765	472.81
352.992	464.81
353.22	464.81
353.447	439.81
353.674	446.81
353.901	426.81
354.128	444.81
354.355	431.81
354.583	430.81
354.81	433.81
355.037	449.81
355.264	425.81
355.491	425.81
355.718	425.81
355.945	426.81
356.172	438.81
356.399	433.81
356.626	441.81
356.853	428.81
357.08	427.81
357.307	428.81
357.534	427.81
357.761	412.81
357.988	441.81
358.215	431.81
358.441	448.81
358.668	433.81
358.895	446.81
359.122	447.81
359.349	440.81
359.576	466.81
359.802	482.81
360.029	487.81
360.256	470.81
360.483	490.81
360.709	473.81
360.936	461.81
361.163	451.81
361.39	451.81
361.616	461.81
361.843	472.81
362.07	450.81
362.296	444.81
362.523	451.81
362.749	457.81
362.976	443.81
363.203	448.81
363.429	433.81
363.656	426.81
363.882	431.81
364.109	434.81
364.335	436.81
364.562	437.81
364.788	457.81
365.015	436.81
365.241	470.81
365.468	449.81
365.694	444.81
365.92	442.81
366.147	433.81
366.373	440.81
366.599	455.81
366.826	441.81
367.052	432.81
367.278	444.81
367.505	439.81
367.731	450.81
367.957	439.81
368.184	448.81
368.41	439.81
368.636	459.81
368.862	491.81
369.089	464.81
369.315	480.81
369.541	456.81
369.767	442.81
369.993	448.81
370.219	437.81
370.445	439.81
370.672	449.81
370.898	456.81
371.124	461.81
371.35	466.81
371.576	463.81
371.802	442.81
372.028	460.81
372.254	455.81
372.48	448.81
372.706	450.81
372.932	457.81
373.158	461.81
373.384	466.81
373.61	440.81
373.835	446.81
374.061	437.81
374.287	470.81
374.513	455.81
374.739	454.81
374.965	478.81
375.191	481.81
375.416	483.81
375.642	470.81
375.868	460.81
376.094	451.81
376.319	460.81
376.545	476.81
376.771	471.81
376.997	439.81
377.222	452.81
377.448	436.81
377.674	440.81
377.899	470.81
378.125	463.81
378.35	451.81
378.576	482.81
378.802	460.81
379.027	448.81
379.253	458.81
379.478	441.81
379.704	425.81
379.929	451.81
380.155	459.81
380.38	453.81
380.606	465.81
380.831	460.81
381.057	449.81
381.282	470.81
381.507	470.81
381.733	474.81
381.958	462.81
382.184	468.81
382.409	456.81
382.634	479.81
382.86	477.81
383.085	489.81
383.31	474.81
383.535	499.81
383.761	460.81
383.986	506.81
384.211	485.81
384.436	510.81
384.662	498.81
384.887	489.81
385.112	494.81
385.337	485.81
385.562	503.81
385.787	512.81
386.013	512.81
386.238	528.81
386.463	516.81
386.688	516.81
386.913	491.81
387.138	516.81
387.363	521.81
387.588	528.81
387.813	531.81
388.038	506.81
388.263	524.81
388.488	498.81
388.713	513.81
388.938	523.81
389.163	512.81
389.387	525.81
389.612	494.81
389.837	488.81
390.062	510.81
390.287	522.81
390.512	522.81
390.736	509.81
390.961	513.81
391.186	513.81
391.411	510.81
391.636	539.81
391.86	545.81
392.085	523.81
392.31	538.81
392.534	533.81
392.759	529.81
392.984	532.81
393.208	502.81
393.433	512.81
393.658	510.81
393.882	510.81
394.107	487.81
394.331	521.81
394.556	517.81
394.78	530.81
395.005	521.81
395.229	515.81
395.454	534.81
395.678	556.81
395.903	558.81
396.127	572.81
396.352	559.81
396.576	552.81
396.801	516.81
397.025	528.81
397.249	539.81
397.474	538.81
397.698	531.81
397.922	572.81
398.147	587.81
398.371	603.81
398.595	604.81
398.82	601.81
399.044	619.81
399.268	642.81
399.492	665.81
399.717	714.81
399.941	742.81
400.165	745.81
400.389	728.81
400.613	686.81
400.837	633.81
401.062	634.81
401.286	616.81
401.51	632.81
401.734	588.81
401.958	584.81
402.182	595.81
402.406	595.81
402.63	626.81
402.854	604.81
403.078	627.81
403.302	608.81
403.526	636.81
403.75	633.81
403.974	642.81
404.198	636.81
404.422	635.81
404.645	630.81
404.869	649.81
405.093	683.81
405.317	722.81
405.541	760.81
405.765	720.81
405.988	651.81
406.212	650.81
406.436	689.81
406.66	697.81
406.883	691.81
407.107	696.81
407.331	753.81
407.555	830.81
407.778	799.81
408.002	740.81
408.226	698.81
408.449	693.81
408.673	683.81
408.896	718.81
409.12	750.81
409.344	713.81
409.567	628.81
409.791	642.81
410.014	620.81
410.238	628.81
410.461	599.81
410.685	631.81
410.908	624.81
411.132	659.81
411.355	721.81
411.578	690.81
411.802	641.81
412.025	630.81
412.249	638.81
412.472	659.81
412.695	698.81
412.919	664.81
413.142	619.81
413.365	627.81
413.589	609.81
413.812	594.81
414.035	609.81
414.258	583.81
414.482	585.81
414.705	592.81
414.928	573.81
415.151	585.81
415.374	600.81
415.597	584.81
415.821	594.81
416.044	574.81
416.267	594.81
416.49	599.81
416.713	581.81
416.936	582.81
417.159	583.81
417.382	581.81
417.605	579.81
417.828	605.81
418.051	617.81
418.274	596.81
418.497	612.81
418.72	605.81
418.943	592.81
419.166	621.81
419.389	636.81
419.611	614.81
419.834	631.81
420.057	636.81
420.28	625.81
420.503	619.81
420.726	601.81
420.948	644.81
421.171	663.81
421.394	702.81
421.617	626.81
421.839	638.81
422.062	632.81
422.285	629.81
422.507	709.81
422.73	767.81
422.953	739.81
423.175	644.81
423.398	649.81
423.621	636.81
423.843	647.81
424.066	649.81
424.288	672.81
424.511	658.81
424.733	731.81
424.956	814.81
425.178	790.81
425.401	760.81
425.623	784.81
425.846	695.81
426.068	627.81
426.291	624.81
426.513	658.81
426.735	646.81
426.958	707.81
427.18	746.81
427.402	909.81
427.625	998.81
427.847	838.81
428.069	751.81
428.292	689.81
428.514	626.81
428.736	613.81
428.958	612.81
429.181	599.81
429.403	596.81
429.625	599.81
429.847	643.81
430.069	686.81
430.292	708.81
430.514	639.81
430.736	610.81
430.958	607.81
431.18	568.81
431.402	586.81
431.624	576.81
431.846	566.81
432.068	577.81
432.29	589.81
432.512	560.81
432.734	591.81
432.956	548.81
433.178	583.81
433.4	586.81
433.622	586.81
433.844	583.81
434.066	561.81
434.287	580.81
434.509	564.81
434.731	562.81
434.953	608.81
435.175	638.81
435.397	635.81
435.618	650.81
435.84	686.81
436.062	742.81
436.284	822.81
436.505	716.81
436.727	647.81
436.949	600.81
437.17	598.81
437.392	596.81
437.614	615.81
437.835	640.81
438.057	727.81
438.278	824.81
438.5	824.81
438.721	908.81
438.943	865.81
439.165	680.81
439.386	645.81
439.608	647.81
439.829	651.81
440.05	658.81
440.272	720.81
440.493	647.81
440.715	639.81
440.936	633.81
441.158	610.81
441.379	629.81
441.6	614.81
441.822	640.81
442.043	694.81
442.264	780.81
442.486	795.81
442.707	712.81
442.928	654.81
443.149	675.81
443.371	692.81
443.592	748.81
443.813	829.81
444.034	868.81
444.255	766.81
444.476	690.81
444.698	675.81
444.919	689.81
445.14	770.81
445.361	709.81
445.582	698.81
445.803	726.81
446.024	837.81
446.245	855.81
446.466	796.81
446.687	690.81
446.908	647.81
447.129	602.81
447.35	564.81
447.571	582.81
447.792	594.81
448.013	573.81
448.234	608.81
448.455	619.81
448.675	764.81
448.896	902.81
449.117	786.81
449.338	734.81
449.559	828.81
449.779	930.81
450	745.81
450.221	634.81
450.442	571.81
450.662	589.81
450.883	573.81
451.104	565.81
451.324	553.81
451.545	524.81
451.766	556.81
451.986	530.81
452.207	522.81
452.428	502.81
452.648	523.81
452.869	522.81
453.089	538.81
453.31	560.81
453.53	537.81
453.751	537.81
453.971	524.81
454.192	539.81
454.412	533.81
454.633	543.81
454.853	533.81
455.073	502.81
455.294	565.81
455.514	614.81
455.734	588.81
455.955	546.81
456.175	498.81
456.395	519.81
456.616	499.81
456.836	522.81
457.056	502.81
457.276	488.81
457.497	486.81
457.717	517.81
457.937	511.81
458.157	519.81
458.377	530.81
458.598	526.81
458.818	594.81
459.038	639.81
459.258	694.81
459.478	633.81
459.698	598.81
459.918	594.81
460.138	594.81
460.358	598.81
460.578	609.81
460.798	594.81
461.018	613.81
461.238	580.81
461.458	581.81
461.678	589.81
461.898	606.81
462.118	592.81
462.338	606.81
462.558	634.81
462.777	640.81
462.997	642.81
463.217	675.81
463.437	688.81
463.657	664.81
463.876	636.81
464.096	643.81
464.316	634.81
464.536	662.81
464.755	652.81
464.975	644.81
465.195	659.81
465.414	706.81
465.634	624.81
465.854	599.81
466.073	581.81
466.293	552.81
466.512	568.81
466.732	531.81
466.951	569.81
467.171	556.81
467.391	550.81
467.61	567.81
467.829	561.81
468.049	561.81
468.268	549.81
468.488	540.81
468.707	538.81
468.927	531.81
469.146	521.81
469.365	510.81
469.585	531.81
469.804	546.81
470.023	558.81
470.243	571.81
470.462	549.81
470.681	568.81
470.901	589.81
471.12	568.81
471.339	570.81
471.558	545.81
471.777	579.81
471.997	554.81
472.216	551.81
472.435	580.81
472.654	569.81
472.873	554.81
473.092	548.81
473.311	554.81
473.53	543.81
473.749	545.81
473.968	593.81
474.187	704.81
474.406	726.81
474.625	611.81
474.844	559.81
475.063	545.81
475.282	555.81
475.501	575.81
475.72	595.81
475.939	581.81
476.158	574.81
476.377	568.81
476.596	576.81
476.814	573.81
477.033	583.81
477.252	584.81
477.471	595.81
477.69	588.81
477.908	619.81
478.127	622.81
478.346	624.81
478.564	644.81
478.783	638.81
479.002	634.81
479.22	645.81
479.439	656.81
479.658	695.81
479.876	666.81
480.095	676.81
480.313	709.81
480.532	693.81
480.751	690.81
480.969	719.81
481.188	730.81
481.406	747.81
481.624	680.81
481.843	658.81
482.061	660.81
482.28	647.81
482.498	635.81
482.717	668.81
482.935	664.81
483.153	641.81
483.372	639.81
483.59	665.81
483.808	646.81
484.027	625.81
484.245	642.81
484.463	648.81
484.681	670.81
484.9	662.81
485.118	678.81
485.336	656.81
485.554	662.81
485.772	697.81
485.99	690.81
486.209	666.81
486.427	685.81
486.645	670.81
486.863	700.81
487.081	685.81
487.299	670.81
487.517	710.81
487.735	712.81
487.953	715.81
488.171	690.81
488.389	720.81
488.607	708.81
488.825	707.81
489.043	712.81
489.261	707.81
489.479	725.81
489.696	696.81
489.914	728.81
490.132	736.81
490.35	753.81
490.568	743.81
490.786	788.81
491.003	759.81
491.221	786.81
491.439	761.81
491.657	786.81
491.874	814.81
492.092	828.81
492.31	810.81
492.527	831.81
492.745	825.81
492.963	823.81
493.18	843.81
493.398	834.81
493.615	864.81
493.833	826.81
494.05	833.81
494.268	842.81
494.485	835.81
494.703	818.81
494.92	828.81
495.138	820.81
495.355	844.81
495.573	854.81
495.79	850.81
496.008	836.81
496.225	845.81
496.442	846.81
496.66	849.81
496.877	852.81
497.094	852.81
497.312	883.81
497.529	869.81
497.746	898.81
497.963	900.81
498.181	917.81
498.398	922.81
498.615	954.81
498.832	998.81
499.049	995.81
499.267	1010.81
499.484	1055.81
499.701	1103.81
499.918	1195.81
500.135	1257.81
500.352	1298.81
500.569	1353.81
500.786	1293.81
501.003	1346.81
501.22	1259.81
501.437	1177.81
501.654	1135.81
