Data from 1974.PennyLincolnUp.Lamp.En5.5.200Scan.071719.P1.Changed Mount._HRD10591_15-51-22-856.txt Node
Date: Thu Jul 18 15:51:22 EDT 2019
User: cochatt
Spectrometer: HR+D1059
Trigger mode: 1
Integration Time (sec): 1.000000E-1
Scans to average: 1
Electric dark correction enabled: true
Nonlinearity correction enabled: false
Boxcar width: 0
XAxis mode: Wavelengths
Number of Pixels in Spectrum: 2048
>>>>>Begin Spectral Data<<<<<
223.165	-26.75
223.4	-26.75
223.635	-26.75
223.869	-28.75
224.104	-3.75
224.338	-5.75
224.573	-10.75
224.808	-3.75
225.042	-10.75
225.277	-15.75
225.511	-8.75
225.746	-4.75
225.98	11.25
226.215	21.25
226.449	14.25
226.683	21.25
226.918	22.25
227.152	29.25
227.387	28.25
227.621	40.25
227.856	39.25
228.09	43.25
228.324	45.25
228.559	58.25
228.793	70.25
229.027	90.25
229.262	93.25
229.496	89.25
229.73	110.25
229.964	130.25
230.199	114.25
230.433	105.25
230.667	121.25
230.901	128.25
231.136	120.25
231.37	119.25
231.604	118.25
231.838	114.25
232.072	122.25
232.306	98.25
232.541	123.25
232.775	99.25
233.009	124.25
233.243	114.25
233.477	109.25
233.711	112.25
233.945	120.25
234.179	105.25
234.413	119.25
234.647	109.25
234.881	115.25
235.115	110.25
235.349	118.25
235.583	126.25
235.817	120.25
236.051	108.25
236.285	118.25
236.519	133.25
236.753	132.25
236.987	127.25
237.221	158.25
237.455	197.25
237.689	180.25
237.922	155.25
238.156	136.25
238.39	131.25
238.624	124.25
238.858	118.25
239.091	114.25
239.325	113.25
239.559	120.25
239.793	125.25
240.027	128.25
240.26	142.25
240.494	161.25
240.728	158.25
240.961	148.25
241.195	130.25
241.429	135.25
241.662	124.25
241.896	125.25
242.13	126.25
242.363	124.25
242.597	138.25
242.83	141.25
243.064	139.25
243.298	136.25
243.531	150.25
243.765	150.25
243.998	143.25
244.232	146.25
244.465	124.25
244.699	141.25
244.932	148.25
245.166	144.25
245.399	152.25
245.633	176.25
245.866	166.25
246.099	136.25
246.333	142.25
246.566	158.25
246.8	149.25
247.033	163.25
247.266	170.25
247.5	164.25
247.733	158.25
247.966	164.25
248.2	179.25
248.433	163.25
248.666	166.25
248.899	165.25
249.133	178.25
249.366	198.25
249.599	169.25
249.832	193.25
250.066	190.25
250.299	164.25
250.532	180.25
250.765	200.25
250.998	219.25
251.231	205.25
251.465	205.25
251.698	184.25
251.931	203.25
252.164	176.25
252.397	177.25
252.63	168.25
252.863	188.25
253.096	220.25
253.329	221.25
253.562	199.25
253.795	213.25
254.028	216.25
254.261	210.25
254.494	200.25
254.727	238.25
254.96	260.25
255.193	252.25
255.426	234.25
255.659	221.25
255.892	223.25
256.124	217.25
256.357	211.25
256.59	213.25
256.823	199.25
257.056	212.25
257.289	204.25
257.521	173.25
257.754	209.25
257.987	201.25
258.22	205.25
258.452	192.25
258.685	197.25
258.918	197.25
259.151	212.25
259.383	217.25
259.616	198.25
259.849	215.25
260.081	221.25
260.314	224.25
260.547	230.25
260.779	231.25
261.012	224.25
261.244	209.25
261.477	219.25
261.71	215.25
261.942	224.25
262.175	216.25
262.407	215.25
262.64	198.25
262.872	206.25
263.105	195.25
263.337	197.25
263.57	209.25
263.802	189.25
264.035	204.25
264.267	206.25
264.499	217.25
264.732	212.25
264.964	218.25
265.197	218.25
265.429	208.25
265.661	205.25
265.894	195.25
266.126	216.25
266.358	222.25
266.591	213.25
266.823	221.25
267.055	210.25
267.287	223.25
267.52	225.25
267.752	210.25
267.984	219.25
268.216	219.25
268.448	227.25
268.681	234.25
268.913	235.25
269.145	241.25
269.377	265.25
269.609	269.25
269.841	259.25
270.073	258.25
270.306	265.25
270.538	292.25
270.77	280.25
271.002	276.25
271.234	262.25
271.466	243.25
271.698	285.25
271.93	277.25
272.162	276.25
272.394	278.25
272.626	286.25
272.858	288.25
273.09	250.25
273.322	246.25
273.553	258.25
273.785	251.25
274.017	240.25
274.249	246.25
274.481	249.25
274.713	253.25
274.945	272.25
275.176	245.25
275.408	235.25
275.64	235.25
275.872	261.25
276.104	254.25
276.335	262.25
276.567	262.25
276.799	270.25
277.031	280.25
277.262	285.25
277.494	290.25
277.726	290.25
277.957	266.25
278.189	261.25
278.421	260.25
278.652	264.25
278.884	272.25
279.115	254.25
279.347	246.25
279.579	250.25
279.81	247.25
280.042	266.25
280.273	273.25
280.505	259.25
280.736	261.25
280.968	256.25
281.199	264.25
281.431	265.25
281.662	268.25
281.894	267.25
282.125	270.25
282.356	262.25
282.588	267.25
282.819	285.25
283.051	258.25
283.282	257.25
283.513	280.25
283.745	279.25
283.976	255.25
284.207	272.25
284.439	259.25
284.67	272.25
284.901	253.25
285.132	273.25
285.364	262.25
285.595	256.25
285.826	270.25
286.057	278.25
286.288	284.25
286.52	285.25
286.751	261.25
286.982	279.25
287.213	288.25
287.444	277.25
287.675	272.25
287.906	282.25
288.138	303.25
288.369	301.25
288.6	302.25
288.831	309.25
289.062	286.25
289.293	268.25
289.524	294.25
289.755	284.25
289.986	280.25
290.217	286.25
290.448	280.25
290.679	278.25
290.91	281.25
291.141	276.25
291.371	281.25
291.602	278.25
291.833	277.25
292.064	276.25
292.295	273.25
292.526	285.25
292.757	288.25
292.987	278.25
293.218	274.25
293.449	278.25
293.68	305.25
293.91	287.25
294.141	292.25
294.372	280.25
294.603	275.25
294.833	284.25
295.064	300.25
295.295	281.25
295.525	295.25
295.756	305.25
295.987	274.25
296.217	294.25
296.448	292.25
296.679	295.25
296.909	267.25
297.14	301.25
297.37	289.25
297.601	296.25
297.831	285.25
298.062	308.25
298.292	312.25
298.523	291.25
298.753	288.25
298.984	310.25
299.214	301.25
299.445	307.25
299.675	305.25
299.905	296.25
300.136	314.25
300.366	301.25
300.597	326.25
300.827	297.25
301.057	318.25
301.288	295.25
301.518	308.25
301.748	315.25
301.979	330.25
302.209	330.25
302.439	317.25
302.669	315.25
302.9	321.25
303.13	324.25
303.36	308.25
303.59	343.25
303.82	328.25
304.051	323.25
304.281	312.25
304.511	315.25
304.741	317.25
304.971	322.25
305.201	324.25
305.431	318.25
305.661	324.25
305.891	312.25
306.121	319.25
306.352	309.25
306.582	325.25
306.812	308.25
307.042	328.25
307.272	315.25
307.502	317.25
307.731	317.25
307.961	343.25
308.191	339.25
308.421	318.25
308.651	320.25
308.881	316.25
309.111	326.25
309.341	313.25
309.571	343.25
309.8	336.25
310.03	354.25
310.26	350.25
310.49	320.25
310.72	356.25
310.949	349.25
311.179	349.25
311.409	333.25
311.639	357.25
311.868	344.25
312.098	358.25
312.328	345.25
312.557	363.25
312.787	371.25
313.017	364.25
313.246	365.25
313.476	377.25
313.706	346.25
313.935	347.25
314.165	369.25
314.394	363.25
314.624	352.25
314.853	358.25
315.083	368.25
315.312	368.25
315.542	349.25
315.771	351.25
316.001	350.25
316.23	357.25
316.46	356.25
316.689	349.25
316.919	349.25
317.148	348.25
317.377	364.25
317.607	362.25
317.836	352.25
318.065	356.25
318.295	366.25
318.524	345.25
318.753	355.25
318.983	366.25
319.212	353.25
319.441	378.25
319.67	350.25
319.9	344.25
320.129	350.25
320.358	343.25
320.587	384.25
320.816	363.25
321.046	360.25
321.275	372.25
321.504	361.25
321.733	354.25
321.962	364.25
322.191	378.25
322.42	377.25
322.649	387.25
322.878	404.25
323.108	402.25
323.337	422.25
323.566	425.25
323.795	431.25
324.024	454.25
324.253	513.25
324.482	664.25
324.71	998.25
324.939	1453.25
325.168	1293.25
325.397	668.25
325.626	476.25
325.855	450.25
326.084	445.25
326.313	416.25
326.542	419.25
326.77	443.25
326.999	499.25
327.228	627.25
327.457	928.25
327.686	1118.25
327.914	776.25
328.143	557.25
328.372	484.25
328.6	472.25
328.829	452.25
329.058	466.25
329.287	474.25
329.515	461.25
329.744	438.25
329.972	426.25
330.201	426.25
330.43	444.25
330.658	478.25
330.887	493.25
331.115	465.25
331.344	446.25
331.572	433.25
331.801	442.25
332.03	448.25
332.258	429.25
332.486	415.25
332.715	436.25
332.943	439.25
333.172	429.25
333.4	434.25
333.629	420.25
333.857	459.25
334.085	462.25
334.314	472.25
334.542	474.25
334.771	484.25
334.999	438.25
335.227	451.25
335.455	450.25
335.684	450.25
335.912	436.25
336.14	428.25
336.369	443.25
336.597	427.25
336.825	421.25
337.053	422.25
337.281	421.25
337.51	433.25
337.738	423.25
337.966	411.25
338.194	421.25
338.422	429.25
338.65	421.25
338.878	420.25
339.106	400.25
339.334	410.25
339.562	424.25
339.79	395.25
340.018	405.25
340.246	424.25
340.474	414.25
340.702	414.25
340.93	410.25
341.158	407.25
341.386	420.25
341.614	420.25
341.842	401.25
342.07	413.25
342.298	407.25
342.526	393.25
342.754	416.25
342.981	397.25
343.209	380.25
343.437	419.25
343.665	411.25
343.893	434.25
344.12	441.25
344.348	422.25
344.576	418.25
344.804	423.25
345.031	423.25
345.259	423.25
345.487	414.25
345.714	405.25
345.942	390.25
346.17	419.25
346.397	397.25
346.625	379.25
346.853	402.25
347.08	414.25
347.308	415.25
347.535	402.25
347.763	400.25
347.99	408.25
348.218	406.25
348.445	418.25
348.673	409.25
348.9	408.25
349.128	397.25
349.355	397.25
349.583	389.25
349.81	386.25
350.037	382.25
350.265	380.25
350.492	396.25
350.72	387.25
350.947	401.25
351.174	390.25
351.402	391.25
351.629	395.25
351.856	388.25
352.083	406.25
352.311	400.25
352.538	395.25
352.765	411.25
352.992	402.25
353.22	380.25
353.447	413.25
353.674	395.25
353.901	390.25
354.128	386.25
354.355	388.25
354.583	398.25
354.81	399.25
355.037	376.25
355.264	402.25
355.491	377.25
355.718	382.25
355.945	387.25
356.172	403.25
356.399	372.25
356.626	381.25
356.853	387.25
357.08	398.25
357.307	371.25
357.534	373.25
357.761	380.25
357.988	379.25
358.215	381.25
358.441	373.25
358.668	375.25
358.895	392.25
359.122	393.25
359.349	398.25
359.576	377.25
359.802	405.25
360.029	412.25
360.256	425.25
360.483	416.25
360.709	390.25
360.936	408.25
361.163	388.25
361.39	398.25
361.616	392.25
361.843	397.25
362.07	392.25
362.296	402.25
362.523	405.25
362.749	402.25
362.976	384.25
363.203	385.25
363.429	387.25
363.656	404.25
363.882	395.25
364.109	396.25
364.335	385.25
364.562	390.25
364.788	392.25
365.015	423.25
365.241	391.25
365.468	403.25
365.694	382.25
365.92	398.25
366.147	377.25
366.373	380.25
366.599	378.25
366.826	393.25
367.052	383.25
367.278	386.25
367.505	395.25
367.731	381.25
367.957	407.25
368.184	379.25
368.41	413.25
368.636	401.25
368.862	412.25
369.089	412.25
369.315	385.25
369.541	419.25
369.767	396.25
369.993	395.25
370.219	392.25
370.445	414.25
370.672	390.25
370.898	409.25
371.124	376.25
371.35	405.25
371.576	388.25
371.802	399.25
372.028	393.25
372.254	402.25
372.48	414.25
372.706	425.25
372.932	413.25
373.158	388.25
373.384	407.25
373.61	415.25
373.835	397.25
374.061	402.25
374.287	434.25
374.513	419.25
374.739	420.25
374.965	430.25
375.191	420.25
375.416	429.25
375.642	422.25
375.868	433.25
376.094	404.25
376.319	394.25
376.545	397.25
376.771	406.25
376.997	409.25
377.222	388.25
377.448	407.25
377.674	403.25
377.899	397.25
378.125	408.25
378.35	404.25
378.576	398.25
378.802	408.25
379.027	411.25
379.253	386.25
379.478	412.25
379.704	416.25
379.929	427.25
380.155	410.25
380.38	402.25
380.606	393.25
380.831	404.25
381.057	394.25
381.282	404.25
381.507	413.25
381.733	398.25
381.958	417.25
382.184	404.25
382.409	425.25
382.634	416.25
382.86	413.25
383.085	416.25
383.31	429.25
383.535	437.25
383.761	433.25
383.986	422.25
384.211	432.25
384.436	423.25
384.662	442.25
384.887	428.25
385.112	437.25
385.337	458.25
385.562	452.25
385.787	448.25
386.013	461.25
386.238	479.25
386.463	474.25
386.688	473.25
386.913	473.25
387.138	450.25
387.363	460.25
387.588	463.25
387.813	444.25
388.038	457.25
388.263	458.25
388.488	462.25
388.713	438.25
388.938	451.25
389.163	461.25
389.387	436.25
389.612	473.25
389.837	466.25
390.062	452.25
390.287	459.25
390.512	439.25
390.736	454.25
390.961	473.25
391.186	457.25
391.411	467.25
391.636	456.25
391.86	486.25
392.085	482.25
392.31	460.25
392.534	481.25
392.759	469.25
392.984	476.25
393.208	456.25
393.433	469.25
393.658	461.25
393.882	461.25
394.107	471.25
394.331	454.25
394.556	448.25
394.78	465.25
395.005	459.25
395.229	452.25
395.454	471.25
395.678	493.25
395.903	506.25
396.127	494.25
396.352	485.25
396.576	491.25
396.801	462.25
397.025	477.25
397.249	484.25
397.474	492.25
397.698	494.25
397.922	509.25
398.147	504.25
398.371	522.25
398.595	512.25
398.82	512.25
399.044	541.25
399.268	555.25
399.492	624.25
399.717	630.25
399.941	664.25
400.165	662.25
400.389	649.25
400.613	601.25
400.837	585.25
401.062	542.25
401.286	547.25
401.51	524.25
401.734	534.25
401.958	536.25
402.182	520.25
402.406	524.25
402.63	556.25
402.854	531.25
403.078	539.25
403.302	541.25
403.526	571.25
403.75	572.25
403.974	566.25
404.198	591.25
404.422	544.25
404.645	564.25
404.869	588.25
405.093	590.25
405.317	614.25
405.541	653.25
405.765	597.25
405.988	581.25
406.212	578.25
406.436	588.25
406.66	594.25
406.883	592.25
407.107	609.25
407.331	644.25
407.555	716.25
407.778	705.25
408.002	647.25
408.226	636.25
408.449	613.25
408.673	603.25
408.896	648.25
409.12	669.25
409.344	605.25
409.567	575.25
409.791	556.25
410.014	572.25
410.238	565.25
410.461	566.25
410.685	548.25
410.908	572.25
411.132	591.25
411.355	627.25
411.578	610.25
411.802	563.25
412.025	560.25
412.249	557.25
412.472	562.25
412.695	596.25
412.919	607.25
413.142	564.25
413.365	512.25
413.589	541.25
413.812	539.25
414.035	550.25
414.258	520.25
414.482	536.25
414.705	540.25
414.928	539.25
415.151	529.25
415.374	537.25
415.597	525.25
415.821	519.25
416.044	512.25
416.267	533.25
416.49	506.25
416.713	500.25
416.936	496.25
417.159	530.25
417.382	531.25
417.605	521.25
417.828	550.25
418.051	538.25
418.274	538.25
418.497	526.25
418.72	548.25
418.943	526.25
419.166	547.25
419.389	584.25
419.611	566.25
419.834	550.25
420.057	549.25
420.28	541.25
420.503	539.25
420.726	535.25
420.948	547.25
421.171	577.25
421.394	608.25
421.617	577.25
421.839	541.25
422.062	552.25
422.285	554.25
422.507	610.25
422.73	668.25
422.953	654.25
423.175	581.25
423.398	565.25
423.621	549.25
423.843	578.25
424.066	590.25
424.288	563.25
424.511	562.25
424.733	644.25
424.956	732.25
425.178	691.25
425.401	677.25
425.623	722.25
425.846	599.25
426.068	581.25
426.291	549.25
426.513	564.25
426.735	571.25
426.958	589.25
427.18	690.25
427.402	790.25
427.625	885.25
427.847	725.25
428.069	662.25
428.292	602.25
428.514	549.25
428.736	552.25
428.958	532.25
429.181	522.25
429.403	522.25
429.625	542.25
429.847	543.25
430.069	595.25
430.292	588.25
430.514	537.25
430.736	516.25
430.958	503.25
431.18	504.25
431.402	509.25
431.624	490.25
431.846	482.25
432.068	500.25
432.29	509.25
432.512	491.25
432.734	493.25
432.956	497.25
433.178	512.25
433.4	536.25
433.622	526.25
433.844	514.25
434.066	499.25
434.287	489.25
434.509	532.25
434.731	526.25
434.953	533.25
435.175	544.25
435.397	560.25
435.618	569.25
435.84	583.25
436.062	679.25
436.284	767.25
436.505	637.25
436.727	560.25
436.949	548.25
437.17	536.25
437.392	524.25
437.614	536.25
437.835	553.25
438.057	627.25
438.278	725.25
438.5	737.25
438.721	827.25
438.943	790.25
439.165	625.25
439.386	584.25
439.608	551.25
439.829	553.25
440.05	563.25
440.272	623.25
440.493	579.25
440.715	555.25
440.936	557.25
441.158	540.25
441.379	544.25
441.6	549.25
441.822	569.25
442.043	602.25
442.264	680.25
442.486	713.25
442.707	615.25
442.928	572.25
443.149	582.25
443.371	602.25
443.592	640.25
443.813	710.25
444.034	800.25
444.255	650.25
444.476	588.25
444.698	597.25
444.919	605.25
445.14	701.25
445.361	648.25
445.582	617.25
445.803	662.25
446.024	730.25
446.245	733.25
446.466	698.25
446.687	592.25
446.908	568.25
447.129	542.25
447.35	535.25
447.571	521.25
447.792	507.25
448.013	513.25
448.234	535.25
448.455	550.25
448.675	688.25
448.896	798.25
449.117	667.25
449.338	632.25
449.559	712.25
449.779	838.25
450	650.25
450.221	569.25
450.442	544.25
450.662	522.25
450.883	510.25
451.104	511.25
451.324	477.25
451.545	473.25
451.766	478.25
451.986	461.25
452.207	469.25
452.428	467.25
452.648	472.25
452.869	462.25
453.089	433.25
453.31	474.25
453.53	457.25
453.751	462.25
453.971	460.25
454.192	477.25
454.412	481.25
454.633	456.25
454.853	468.25
455.073	462.25
455.294	498.25
455.514	540.25
455.734	529.25
455.955	444.25
456.175	465.25
456.395	442.25
456.616	434.25
456.836	436.25
457.056	461.25
457.276	426.25
457.497	456.25
457.717	432.25
457.937	454.25
458.157	451.25
458.377	492.25
458.598	467.25
458.818	516.25
459.038	545.25
459.258	586.25
459.478	537.25
459.698	518.25
459.918	511.25
460.138	520.25
460.358	512.25
460.578	520.25
460.798	545.25
461.018	541.25
461.238	534.25
461.458	525.25
461.678	505.25
461.898	523.25
462.118	538.25
462.338	534.25
462.558	561.25
462.777	554.25
462.997	575.25
463.217	591.25
463.437	612.25
463.657	581.25
463.876	587.25
464.096	567.25
464.316	567.25
464.536	565.25
464.755	576.25
464.975	568.25
465.195	566.25
465.414	597.25
465.634	553.25
465.854	523.25
466.073	521.25
466.293	502.25
466.512	511.25
466.732	494.25
466.951	506.25
467.171	490.25
467.391	504.25
467.61	506.25
467.829	498.25
468.049	498.25
468.268	480.25
468.488	482.25
468.707	478.25
468.927	474.25
469.146	455.25
469.365	463.25
469.585	483.25
469.804	492.25
470.023	512.25
470.243	497.25
470.462	499.25
470.681	507.25
470.901	508.25
471.12	494.25
471.339	516.25
471.558	485.25
471.777	500.25
471.997	502.25
472.216	486.25
472.435	514.25
472.654	508.25
472.873	492.25
473.092	481.25
473.311	480.25
473.53	464.25
473.749	512.25
473.968	522.25
474.187	612.25
474.406	630.25
474.625	526.25
474.844	511.25
475.063	522.25
475.282	506.25
475.501	488.25
475.72	500.25
475.939	516.25
476.158	497.25
476.377	529.25
476.596	516.25
476.814	499.25
477.033	510.25
477.252	534.25
477.471	521.25
477.69	546.25
477.908	519.25
478.127	552.25
478.346	561.25
478.564	553.25
478.783	565.25
479.002	568.25
479.22	565.25
479.439	604.25
479.658	585.25
479.876	587.25
480.095	626.25
480.313	627.25
480.532	610.25
480.751	627.25
480.969	602.25
481.188	612.25
481.406	617.25
481.624	636.25
481.843	602.25
482.061	592.25
482.28	579.25
482.498	586.25
482.717	577.25
482.935	576.25
483.153	577.25
483.372	580.25
483.59	585.25
483.808	566.25
484.027	579.25
484.245	573.25
484.463	576.25
484.681	592.25
484.9	572.25
485.118	587.25
485.336	579.25
485.554	600.25
485.772	600.25
485.99	573.25
486.209	592.25
486.427	609.25
486.645	596.25
486.863	635.25
487.081	630.25
487.299	611.25
487.517	620.25
487.735	617.25
487.953	621.25
488.171	624.25
488.389	624.25
488.607	620.25
488.825	608.25
489.043	605.25
489.261	627.25
489.479	618.25
489.696	615.25
489.914	639.25
490.132	622.25
490.35	645.25
490.568	637.25
490.786	655.25
491.003	671.25
491.221	668.25
491.439	700.25
491.657	694.25
491.874	695.25
492.092	691.25
492.31	695.25
492.527	685.25
492.745	731.25
492.963	734.25
493.18	738.25
493.398	723.25
493.615	750.25
493.833	720.25
494.05	730.25
494.268	725.25
494.485	724.25
494.703	736.25
494.92	719.25
495.138	727.25
495.355	720.25
495.573	731.25
495.79	754.25
496.008	724.25
496.225	742.25
496.442	744.25
496.66	758.25
496.877	748.25
497.094	755.25
497.312	721.25
497.529	768.25
497.746	763.25
497.963	775.25
498.181	791.25
498.398	790.25
498.615	829.25
498.832	858.25
499.049	860.25
499.267	899.25
499.484	947.25
499.701	963.25
499.918	1023.25
500.135	1092.25
500.352	1177.25
500.569	1205.25
500.786	1158.25
501.003	1153.25
501.22	1109.25
501.437	1065.25
501.654	990.25
