Data from 1974.PennyLincolnUp.Lamp.En5.5.200Scan.071719.P1.Changed Mount._HRD10591_15-53-07-856.txt Node
Date: Thu Jul 18 15:53:07 EDT 2019
User: cochatt
Spectrometer: HR+D1059
Trigger mode: 1
Integration Time (sec): 1.000000E-1
Scans to average: 1
Electric dark correction enabled: true
Nonlinearity correction enabled: false
Boxcar width: 0
XAxis mode: Wavelengths
Number of Pixels in Spectrum: 2048
>>>>>Begin Spectral Data<<<<<
223.165	-28.75
223.4	-28.75
223.635	-28.75
223.869	-23.75
224.104	-17.75
224.338	-24.75
224.573	-8.75
224.808	-1.75
225.042	-12.75
225.277	7.25
225.511	-5.75
225.746	-4.75
225.98	7.25
226.215	12.25
226.449	23.25
226.683	29.25
226.918	21.25
227.152	28.25
227.387	33.25
227.621	42.25
227.856	54.25
228.09	43.25
228.324	43.25
228.559	46.25
228.793	80.25
229.027	100.25
229.262	107.25
229.496	128.25
229.73	142.25
229.964	155.25
230.199	123.25
230.433	123.25
230.667	128.25
230.901	141.25
231.136	117.25
231.37	124.25
231.604	117.25
231.838	103.25
232.072	123.25
232.306	125.25
232.541	132.25
232.775	120.25
233.009	134.25
233.243	125.25
233.477	110.25
233.711	121.25
233.945	120.25
234.179	122.25
234.413	124.25
234.647	125.25
234.881	144.25
235.115	123.25
235.349	120.25
235.583	139.25
235.817	129.25
236.051	136.25
236.285	142.25
236.519	128.25
236.753	135.25
236.987	145.25
237.221	181.25
237.455	240.25
237.689	186.25
237.922	157.25
238.156	146.25
238.39	146.25
238.624	132.25
238.858	140.25
239.091	145.25
239.325	130.25
239.559	136.25
239.793	146.25
240.027	145.25
240.26	135.25
240.494	157.25
240.728	156.25
240.961	155.25
241.195	150.25
241.429	140.25
241.662	139.25
241.896	147.25
242.13	145.25
242.363	144.25
242.597	149.25
242.83	140.25
243.064	164.25
243.298	152.25
243.531	147.25
243.765	155.25
243.998	148.25
244.232	148.25
244.465	149.25
244.699	165.25
244.932	164.25
245.166	158.25
245.399	144.25
245.633	167.25
245.866	159.25
246.099	150.25
246.333	153.25
246.566	165.25
246.8	168.25
247.033	165.25
247.266	181.25
247.5	176.25
247.733	187.25
247.966	186.25
248.2	191.25
248.433	185.25
248.666	174.25
248.899	199.25
249.133	230.25
249.366	233.25
249.599	195.25
249.832	197.25
250.066	186.25
250.299	194.25
250.532	197.25
250.765	216.25
250.998	252.25
251.231	234.25
251.465	228.25
251.698	214.25
251.931	224.25
252.164	227.25
252.397	213.25
252.63	222.25
252.863	233.25
253.096	232.25
253.329	247.25
253.562	252.25
253.795	225.25
254.028	241.25
254.261	241.25
254.494	225.25
254.727	288.25
254.96	302.25
255.193	302.25
255.426	270.25
255.659	255.25
255.892	246.25
256.124	252.25
256.357	241.25
256.59	235.25
256.823	239.25
257.056	237.25
257.289	221.25
257.521	231.25
257.754	217.25
257.987	217.25
258.22	233.25
258.452	221.25
258.685	231.25
258.918	231.25
259.151	229.25
259.383	250.25
259.616	233.25
259.849	233.25
260.081	253.25
260.314	273.25
260.547	268.25
260.779	277.25
261.012	254.25
261.244	246.25
261.477	233.25
261.71	238.25
261.942	233.25
262.175	254.25
262.407	249.25
262.64	257.25
262.872	236.25
263.105	238.25
263.337	230.25
263.57	232.25
263.802	233.25
264.035	248.25
264.267	250.25
264.499	241.25
264.732	227.25
264.964	232.25
265.197	260.25
265.429	225.25
265.661	257.25
265.894	215.25
266.126	237.25
266.358	225.25
266.591	265.25
266.823	264.25
267.055	246.25
267.287	263.25
267.52	270.25
267.752	256.25
267.984	250.25
268.216	244.25
268.448	248.25
268.681	253.25
268.913	259.25
269.145	273.25
269.377	295.25
269.609	295.25
269.841	291.25
270.073	281.25
270.306	311.25
270.538	330.25
270.77	335.25
271.002	311.25
271.234	306.25
271.466	333.25
271.698	332.25
271.93	334.25
272.162	356.25
272.394	343.25
272.626	350.25
272.858	326.25
273.09	307.25
273.322	303.25
273.553	282.25
273.785	296.25
274.017	297.25
274.249	288.25
274.481	296.25
274.713	283.25
274.945	293.25
275.176	293.25
275.408	279.25
275.64	282.25
275.872	319.25
276.104	283.25
276.335	282.25
276.567	275.25
276.799	304.25
277.031	342.25
277.262	332.25
277.494	347.25
277.726	317.25
277.957	315.25
278.189	318.25
278.421	303.25
278.652	292.25
278.884	293.25
279.115	293.25
279.347	311.25
279.579	311.25
279.81	284.25
280.042	307.25
280.273	295.25
280.505	299.25
280.736	308.25
280.968	289.25
281.199	300.25
281.431	296.25
281.662	274.25
281.894	311.25
282.125	283.25
282.356	325.25
282.588	344.25
282.819	329.25
283.051	313.25
283.282	293.25
283.513	302.25
283.745	329.25
283.976	311.25
284.207	313.25
284.439	316.25
284.67	302.25
284.901	308.25
285.132	301.25
285.364	329.25
285.595	313.25
285.826	319.25
286.057	318.25
286.288	314.25
286.52	310.25
286.751	315.25
286.982	320.25
287.213	307.25
287.444	317.25
287.675	315.25
287.906	327.25
288.138	345.25
288.369	322.25
288.6	342.25
288.831	326.25
289.062	349.25
289.293	337.25
289.524	336.25
289.755	320.25
289.986	341.25
290.217	318.25
290.448	312.25
290.679	337.25
290.91	320.25
291.141	302.25
291.371	301.25
291.602	323.25
291.833	324.25
292.064	316.25
292.295	327.25
292.526	321.25
292.757	335.25
292.987	343.25
293.218	327.25
293.449	321.25
293.68	328.25
293.91	336.25
294.141	325.25
294.372	341.25
294.603	318.25
294.833	321.25
295.064	324.25
295.295	327.25
295.525	339.25
295.756	339.25
295.987	345.25
296.217	363.25
296.448	357.25
296.679	345.25
296.909	363.25
297.14	349.25
297.37	344.25
297.601	321.25
297.831	330.25
298.062	336.25
298.292	334.25
298.523	336.25
298.753	362.25
298.984	347.25
299.214	353.25
299.445	336.25
299.675	363.25
299.905	342.25
300.136	356.25
300.366	373.25
300.597	361.25
300.827	363.25
301.057	374.25
301.288	345.25
301.518	369.25
301.748	380.25
301.979	367.25
302.209	371.25
302.439	362.25
302.669	361.25
302.9	368.25
303.13	344.25
303.36	389.25
303.59	367.25
303.82	389.25
304.051	393.25
304.281	361.25
304.511	386.25
304.741	366.25
304.971	359.25
305.201	379.25
305.431	381.25
305.661	380.25
305.891	363.25
306.121	371.25
306.352	377.25
306.582	381.25
306.812	366.25
307.042	386.25
307.272	365.25
307.502	367.25
307.731	381.25
307.961	377.25
308.191	382.25
308.421	373.25
308.651	389.25
308.881	374.25
309.111	389.25
309.341	387.25
309.571	380.25
309.8	394.25
310.03	396.25
310.26	413.25
310.49	410.25
310.72	393.25
310.949	404.25
311.179	411.25
311.409	438.25
311.639	405.25
311.868	416.25
312.098	419.25
312.328	423.25
312.557	427.25
312.787	430.25
313.017	440.25
313.246	421.25
313.476	420.25
313.706	404.25
313.935	417.25
314.165	415.25
314.394	437.25
314.624	429.25
314.853	414.25
315.083	405.25
315.312	386.25
315.542	407.25
315.771	415.25
316.001	395.25
316.23	399.25
316.46	420.25
316.689	441.25
316.919	429.25
317.148	419.25
317.377	419.25
317.607	407.25
317.836	428.25
318.065	422.25
318.295	401.25
318.524	393.25
318.753	415.25
318.983	416.25
319.212	425.25
319.441	443.25
319.67	437.25
319.9	421.25
320.129	430.25
320.358	423.25
320.587	407.25
320.816	445.25
321.046	433.25
321.275	443.25
321.504	435.25
321.733	419.25
321.962	446.25
322.191	444.25
322.42	465.25
322.649	469.25
322.878	465.25
323.108	480.25
323.337	495.25
323.566	500.25
323.795	515.25
324.024	561.25
324.253	658.25
324.482	881.25
324.71	1363.25
324.939	1935.25
325.168	1703.25
325.397	891.25
325.626	635.25
325.855	546.25
326.084	541.25
326.313	513.25
326.542	514.25
326.77	544.25
326.999	631.25
327.228	816.25
327.457	1191.25
327.686	1486.25
327.914	994.25
328.143	687.25
328.372	634.25
328.6	587.25
328.829	555.25
329.058	602.25
329.287	598.25
329.515	584.25
329.744	545.25
329.972	551.25
330.201	569.25
330.43	585.25
330.658	573.25
330.887	587.25
331.115	587.25
331.344	544.25
331.572	513.25
331.801	494.25
332.03	527.25
332.258	507.25
332.486	495.25
332.715	519.25
332.943	517.25
333.172	513.25
333.4	513.25
333.629	517.25
333.857	540.25
334.085	535.25
334.314	549.25
334.542	566.25
334.771	595.25
334.999	530.25
335.227	526.25
335.455	513.25
335.684	528.25
335.912	512.25
336.14	496.25
336.369	499.25
336.597	485.25
336.825	521.25
337.053	489.25
337.281	501.25
337.51	500.25
337.738	484.25
337.966	488.25
338.194	502.25
338.422	515.25
338.65	504.25
338.878	513.25
339.106	494.25
339.334	463.25
339.562	470.25
339.79	493.25
340.018	530.25
340.246	479.25
340.474	487.25
340.702	480.25
340.93	484.25
341.158	475.25
341.386	500.25
341.614	472.25
341.842	489.25
342.07	457.25
342.298	462.25
342.526	454.25
342.754	460.25
342.981	458.25
343.209	482.25
343.437	485.25
343.665	505.25
343.893	505.25
344.12	524.25
344.348	480.25
344.576	499.25
344.804	509.25
345.031	495.25
345.259	512.25
345.487	490.25
345.714	480.25
345.942	488.25
346.17	452.25
346.397	453.25
346.625	471.25
346.853	459.25
347.08	469.25
347.308	451.25
347.535	488.25
347.763	468.25
347.99	501.25
348.218	474.25
348.445	463.25
348.673	487.25
348.9	489.25
349.128	458.25
349.355	449.25
349.583	456.25
349.81	455.25
350.037	450.25
350.265	442.25
350.492	466.25
350.72	454.25
350.947	451.25
351.174	466.25
351.402	476.25
351.629	461.25
351.856	449.25
352.083	477.25
352.311	470.25
352.538	453.25
352.765	457.25
352.992	475.25
353.22	471.25
353.447	454.25
353.674	457.25
353.901	454.25
354.128	453.25
354.355	463.25
354.583	443.25
354.81	448.25
355.037	450.25
355.264	440.25
355.491	445.25
355.718	429.25
355.945	452.25
356.172	440.25
356.399	441.25
356.626	448.25
356.853	442.25
357.08	437.25
357.307	437.25
357.534	439.25
357.761	449.25
357.988	450.25
358.215	432.25
358.441	451.25
358.668	435.25
358.895	453.25
359.122	458.25
359.349	466.25
359.576	462.25
359.802	469.25
360.029	501.25
360.256	527.25
360.483	487.25
360.709	487.25
360.936	464.25
361.163	471.25
361.39	474.25
361.616	488.25
361.843	469.25
362.07	469.25
362.296	476.25
362.523	466.25
362.749	463.25
362.976	453.25
363.203	465.25
363.429	455.25
363.656	480.25
363.882	458.25
364.109	449.25
364.335	446.25
364.562	461.25
364.788	467.25
365.015	473.25
365.241	450.25
365.468	457.25
365.694	449.25
365.92	485.25
366.147	457.25
366.373	460.25
366.599	456.25
366.826	461.25
367.052	439.25
367.278	445.25
367.505	460.25
367.731	477.25
367.957	445.25
368.184	464.25
368.41	468.25
368.636	483.25
368.862	458.25
369.089	452.25
369.315	478.25
369.541	448.25
369.767	453.25
369.993	453.25
370.219	480.25
370.445	464.25
370.672	459.25
370.898	460.25
371.124	452.25
371.35	466.25
371.576	468.25
371.802	480.25
372.028	449.25
372.254	480.25
372.48	470.25
372.706	472.25
372.932	465.25
373.158	456.25
373.384	480.25
373.61	478.25
373.835	477.25
374.061	473.25
374.287	458.25
374.513	465.25
374.739	493.25
374.965	522.25
375.191	499.25
375.416	492.25
375.642	498.25
375.868	464.25
376.094	471.25
376.319	467.25
376.545	469.25
376.771	488.25
376.997	472.25
377.222	493.25
377.448	477.25
377.674	469.25
377.899	465.25
378.125	460.25
378.35	457.25
378.576	470.25
378.802	460.25
379.027	442.25
379.253	477.25
379.478	491.25
379.704	459.25
379.929	476.25
380.155	476.25
380.38	463.25
380.606	466.25
380.831	492.25
381.057	476.25
381.282	479.25
381.507	471.25
381.733	478.25
381.958	475.25
382.184	484.25
382.409	468.25
382.634	477.25
382.86	485.25
383.085	492.25
383.31	491.25
383.535	469.25
383.761	518.25
383.986	519.25
384.211	507.25
384.436	512.25
384.662	528.25
384.887	513.25
385.112	534.25
385.337	517.25
385.562	525.25
385.787	507.25
386.013	542.25
386.238	558.25
386.463	526.25
386.688	550.25
386.913	513.25
387.138	501.25
387.363	539.25
387.588	509.25
387.813	530.25
388.038	480.25
388.263	515.25
388.488	544.25
388.713	527.25
388.938	522.25
389.163	541.25
389.387	505.25
389.612	521.25
389.837	535.25
390.062	512.25
390.287	529.25
390.512	516.25
390.736	532.25
390.961	517.25
391.186	517.25
391.411	527.25
391.636	550.25
391.86	527.25
392.085	550.25
392.31	569.25
392.534	538.25
392.759	536.25
392.984	542.25
393.208	525.25
393.433	534.25
393.658	531.25
393.882	536.25
394.107	527.25
394.331	541.25
394.556	528.25
394.78	541.25
395.005	551.25
395.229	543.25
395.454	554.25
395.678	556.25
395.903	544.25
396.127	580.25
396.352	575.25
396.576	559.25
396.801	540.25
397.025	555.25
397.249	536.25
397.474	578.25
397.698	561.25
397.922	589.25
398.147	605.25
398.371	602.25
398.595	575.25
398.82	585.25
399.044	632.25
399.268	661.25
399.492	699.25
399.717	753.25
399.941	779.25
400.165	822.25
400.389	780.25
400.613	714.25
400.837	648.25
401.062	633.25
401.286	624.25
401.51	619.25
401.734	615.25
401.958	614.25
402.182	616.25
402.406	626.25
402.63	634.25
402.854	632.25
403.078	647.25
403.302	639.25
403.526	644.25
403.75	625.25
403.974	659.25
404.198	645.25
404.422	668.25
404.645	651.25
404.869	641.25
405.093	651.25
405.317	719.25
405.541	761.25
405.765	727.25
405.988	701.25
406.212	671.25
406.436	679.25
406.66	718.25
406.883	678.25
407.107	741.25
407.331	758.25
407.555	858.25
407.778	823.25
408.002	742.25
408.226	716.25
408.449	689.25
408.673	716.25
408.896	741.25
409.12	764.25
409.344	751.25
409.567	682.25
409.791	659.25
410.014	620.25
410.238	649.25
410.461	647.25
410.685	673.25
410.908	653.25
411.132	684.25
411.355	737.25
411.578	678.25
411.802	649.25
412.025	645.25
412.249	619.25
412.472	671.25
412.695	707.25
412.919	693.25
413.142	645.25
413.365	630.25
413.589	629.25
413.812	640.25
414.035	622.25
414.258	623.25
414.482	627.25
414.705	601.25
414.928	613.25
415.151	617.25
415.374	603.25
415.597	615.25
415.821	595.25
416.044	604.25
416.267	590.25
416.49	592.25
416.713	603.25
416.936	589.25
417.159	602.25
417.382	639.25
417.605	601.25
417.828	627.25
418.051	655.25
418.274	649.25
418.497	616.25
418.72	627.25
418.943	603.25
419.166	636.25
419.389	685.25
419.611	656.25
419.834	669.25
420.057	669.25
420.28	624.25
420.503	659.25
420.726	618.25
420.948	639.25
421.171	675.25
421.394	718.25
421.617	652.25
421.839	619.25
422.062	639.25
422.285	659.25
422.507	742.25
422.73	803.25
422.953	749.25
423.175	663.25
423.398	656.25
423.621	675.25
423.843	695.25
424.066	703.25
424.288	710.25
424.511	717.25
424.733	751.25
424.956	843.25
425.178	800.25
425.401	795.25
425.623	807.25
425.846	719.25
426.068	707.25
426.291	668.25
426.513	638.25
426.735	670.25
426.958	722.25
427.18	823.25
427.402	941.25
427.625	1000.25
427.847	850.25
428.069	771.25
428.292	691.25
428.514	644.25
428.736	635.25
428.958	641.25
429.181	643.25
429.403	607.25
429.625	624.25
429.847	675.25
430.069	727.25
430.292	727.25
430.514	617.25
430.736	608.25
430.958	616.25
431.18	589.25
431.402	570.25
431.624	575.25
431.846	585.25
432.068	558.25
432.29	570.25
432.512	588.25
432.734	613.25
432.956	585.25
433.178	596.25
433.4	629.25
433.622	601.25
433.844	592.25
434.066	576.25
434.287	579.25
434.509	589.25
434.731	601.25
434.953	640.25
435.175	637.25
435.397	643.25
435.618	659.25
435.84	707.25
436.062	811.25
436.284	875.25
436.505	729.25
436.727	652.25
436.949	628.25
437.17	629.25
437.392	616.25
437.614	601.25
437.835	681.25
438.057	755.25
438.278	846.25
438.5	859.25
438.721	929.25
438.943	928.25
439.165	756.25
439.386	681.25
439.608	675.25
439.829	659.25
440.05	679.25
440.272	725.25
440.493	695.25
440.715	630.25
440.936	633.25
441.158	617.25
441.379	599.25
441.6	635.25
441.822	648.25
442.043	691.25
442.264	771.25
442.486	824.25
442.707	701.25
442.928	671.25
443.149	710.25
443.371	695.25
443.592	741.25
443.813	829.25
444.034	905.25
444.255	797.25
444.476	728.25
444.698	720.25
444.919	702.25
445.14	798.25
445.361	740.25
445.582	725.25
445.803	771.25
446.024	848.25
446.245	873.25
446.466	791.25
446.687	702.25
446.908	661.25
447.129	632.25
447.35	613.25
447.571	588.25
447.792	615.25
448.013	605.25
448.234	607.25
448.455	660.25
448.675	783.25
448.896	918.25
449.117	811.25
449.338	745.25
449.559	853.25
449.779	963.25
450	759.25
450.221	657.25
450.442	607.25
450.662	596.25
450.883	602.25
451.104	619.25
451.324	604.25
451.545	572.25
451.766	546.25
451.986	551.25
452.207	540.25
452.428	538.25
452.648	555.25
452.869	552.25
453.089	540.25
453.31	569.25
453.53	560.25
453.751	541.25
453.971	558.25
454.192	573.25
454.412	538.25
454.633	515.25
454.853	546.25
455.073	528.25
455.294	574.25
455.514	616.25
455.734	628.25
455.955	541.25
456.175	522.25
456.395	525.25
456.616	501.25
456.836	495.25
457.056	523.25
457.276	490.25
457.497	509.25
457.717	512.25
457.937	539.25
458.157	514.25
458.377	499.25
458.598	541.25
458.818	639.25
459.038	697.25
459.258	704.25
459.478	656.25
459.698	590.25
459.918	593.25
460.138	597.25
460.358	613.25
460.578	613.25
460.798	630.25
461.018	606.25
461.238	615.25
461.458	595.25
461.678	595.25
461.898	593.25
462.118	599.25
462.338	624.25
462.558	654.25
462.777	661.25
462.997	677.25
463.217	717.25
463.437	721.25
463.657	688.25
463.876	661.25
464.096	673.25
464.316	684.25
464.536	687.25
464.755	658.25
464.975	656.25
465.195	643.25
465.414	729.25
465.634	671.25
465.854	621.25
466.073	578.25
466.293	578.25
466.512	588.25
466.732	578.25
466.951	554.25
467.171	556.25
467.391	577.25
467.61	583.25
467.829	575.25
468.049	579.25
468.268	571.25
468.488	555.25
468.707	563.25
468.927	542.25
469.146	553.25
469.365	555.25
469.585	553.25
469.804	549.25
470.023	549.25
470.243	573.25
470.462	570.25
470.681	607.25
470.901	585.25
471.12	600.25
471.339	578.25
471.558	575.25
471.777	592.25
471.997	571.25
472.216	560.25
472.435	605.25
472.654	591.25
472.873	579.25
473.092	565.25
473.311	574.25
473.53	563.25
473.749	592.25
473.968	639.25
474.187	705.25
474.406	727.25
474.625	635.25
474.844	593.25
475.063	585.25
475.282	580.25
475.501	580.25
475.72	599.25
475.939	583.25
476.158	598.25
476.377	585.25
476.596	599.25
476.814	594.25
477.033	615.25
477.252	608.25
477.471	605.25
477.69	624.25
477.908	646.25
478.127	634.25
478.346	623.25
478.564	631.25
478.783	658.25
479.002	679.25
479.22	678.25
479.439	663.25
479.658	698.25
479.876	685.25
480.095	687.25
480.313	742.25
480.532	732.25
480.751	699.25
480.969	695.25
481.188	760.25
481.406	745.25
481.624	716.25
481.843	659.25
482.061	675.25
482.28	651.25
482.498	654.25
482.717	650.25
482.935	672.25
483.153	652.25
483.372	693.25
483.59	677.25
483.808	685.25
484.027	664.25
484.245	684.25
484.463	671.25
484.681	701.25
484.9	692.25
485.118	685.25
485.336	685.25
485.554	674.25
485.772	731.25
485.99	677.25
486.209	679.25
486.427	687.25
486.645	701.25
486.863	726.25
487.081	699.25
487.299	699.25
487.517	692.25
487.735	689.25
487.953	715.25
488.171	736.25
488.389	727.25
488.607	709.25
488.825	725.25
489.043	719.25
489.261	718.25
489.479	747.25
489.696	725.25
489.914	760.25
490.132	742.25
490.35	782.25
490.568	771.25
490.786	748.25
491.003	756.25
491.221	787.25
491.439	796.25
491.657	808.25
491.874	830.25
492.092	832.25
492.31	815.25
492.527	810.25
492.745	829.25
492.963	823.25
493.18	848.25
493.398	847.25
493.615	875.25
493.833	829.25
494.05	832.25
494.268	862.25
494.485	852.25
494.703	862.25
494.92	849.25
495.138	829.25
495.355	830.25
495.573	874.25
495.79	848.25
496.008	858.25
496.225	854.25
496.442	867.25
496.66	888.25
496.877	877.25
497.094	866.25
497.312	887.25
497.529	921.25
497.746	900.25
497.963	919.25
498.181	927.25
498.398	929.25
498.615	957.25
498.832	1014.25
499.049	1044.25
499.267	1081.25
499.484	1128.25
499.701	1130.25
499.918	1194.25
500.135	1295.25
500.352	1379.25
500.569	1385.25
500.786	1372.25
501.003	1357.25
501.22	1281.25
501.437	1215.25
