Data from 1974.PennyLincolnUp.Lamp.En5.5.200Scan.071719.P1.Changed Mount._HRD10591_15-52-50-856.txt Node
Date: Thu Jul 18 15:52:50 EDT 2019
User: cochatt
Spectrometer: HR+D1059
Trigger mode: 1
Integration Time (sec): 1.000000E-1
Scans to average: 1
Electric dark correction enabled: true
Nonlinearity correction enabled: false
Boxcar width: 0
XAxis mode: Wavelengths
Number of Pixels in Spectrum: 2048
>>>>>Begin Spectral Data<<<<<
223.165	-10.56
223.4	-10.56
223.635	-10.56
223.869	-24.56
224.104	-9.56
224.338	-5.56
224.573	-10.56
224.808	-5.56
225.042	1.44
225.277	-7.56
225.511	-18.56
225.746	-1.56
225.98	13.44
226.215	6.44
226.449	1.44
226.683	26.44
226.918	22.44
227.152	22.44
227.387	41.44
227.621	38.44
227.856	45.44
228.09	35.44
228.324	41.44
228.559	41.44
228.793	68.44
229.027	102.44
229.262	108.44
229.496	115.44
229.73	130.44
229.964	163.44
230.199	124.44
230.433	130.44
230.667	116.44
230.901	126.44
231.136	116.44
231.37	123.44
231.604	122.44
231.838	109.44
232.072	103.44
232.306	107.44
232.541	105.44
232.775	110.44
233.009	108.44
233.243	128.44
233.477	116.44
233.711	117.44
233.945	124.44
234.179	113.44
234.413	96.44
234.647	112.44
234.881	106.44
235.115	122.44
235.349	108.44
235.583	137.44
235.817	119.44
236.051	124.44
236.285	126.44
236.519	120.44
236.753	138.44
236.987	142.44
237.221	170.44
237.455	239.44
237.689	199.44
237.922	149.44
238.156	132.44
238.39	148.44
238.624	125.44
238.858	125.44
239.091	133.44
239.325	149.44
239.559	127.44
239.793	122.44
240.027	133.44
240.26	147.44
240.494	178.44
240.728	159.44
240.961	157.44
241.195	150.44
241.429	146.44
241.662	138.44
241.896	141.44
242.13	140.44
242.363	124.44
242.597	132.44
242.83	146.44
243.064	132.44
243.298	139.44
243.531	139.44
243.765	149.44
243.998	167.44
244.232	154.44
244.465	142.44
244.699	135.44
244.932	153.44
245.166	168.44
245.399	151.44
245.633	157.44
245.866	154.44
246.099	159.44
246.333	149.44
246.566	161.44
246.8	173.44
247.033	165.44
247.266	174.44
247.5	176.44
247.733	175.44
247.966	180.44
248.2	184.44
248.433	185.44
248.666	188.44
248.899	196.44
249.133	195.44
249.366	209.44
249.599	220.44
249.832	199.44
250.066	204.44
250.299	214.44
250.532	200.44
250.765	220.44
250.998	214.44
251.231	240.44
251.465	227.44
251.698	196.44
251.931	209.44
252.164	198.44
252.397	201.44
252.63	207.44
252.863	220.44
253.096	222.44
253.329	248.44
253.562	240.44
253.795	224.44
254.028	224.44
254.261	236.44
254.494	245.44
254.727	268.44
254.96	301.44
255.193	285.44
255.426	275.44
255.659	254.44
255.892	260.44
256.124	252.44
256.357	245.44
256.59	244.44
256.823	217.44
257.056	225.44
257.289	221.44
257.521	222.44
257.754	242.44
257.987	217.44
258.22	240.44
258.452	210.44
258.685	216.44
258.918	210.44
259.151	222.44
259.383	237.44
259.616	220.44
259.849	243.44
260.081	258.44
260.314	262.44
260.547	302.44
260.779	270.44
261.012	276.44
261.244	231.44
261.477	223.44
261.71	236.44
261.942	232.44
262.175	244.44
262.407	234.44
262.64	219.44
262.872	214.44
263.105	205.44
263.337	218.44
263.57	233.44
263.802	225.44
264.035	235.44
264.267	230.44
264.499	212.44
264.732	232.44
264.964	232.44
265.197	227.44
265.429	227.44
265.661	230.44
265.894	230.44
266.126	228.44
266.358	229.44
266.591	259.44
266.823	243.44
267.055	237.44
267.287	250.44
267.52	230.44
267.752	254.44
267.984	255.44
268.216	227.44
268.448	262.44
268.681	248.44
268.913	268.44
269.145	275.44
269.377	292.44
269.609	293.44
269.841	274.44
270.073	287.44
270.306	310.44
270.538	344.44
270.77	331.44
271.002	318.44
271.234	316.44
271.466	327.44
271.698	328.44
271.93	334.44
272.162	337.44
272.394	328.44
272.626	314.44
272.858	306.44
273.09	291.44
273.322	286.44
273.553	270.44
273.785	287.44
274.017	279.44
274.249	282.44
274.481	268.44
274.713	281.44
274.945	291.44
275.176	278.44
275.408	281.44
275.64	274.44
275.872	275.44
276.104	292.44
276.335	267.44
276.567	306.44
276.799	312.44
277.031	311.44
277.262	322.44
277.494	352.44
277.726	320.44
277.957	336.44
278.189	296.44
278.421	288.44
278.652	294.44
278.884	284.44
279.115	287.44
279.347	283.44
279.579	283.44
279.81	277.44
280.042	295.44
280.273	290.44
280.505	297.44
280.736	304.44
280.968	280.44
281.199	284.44
281.431	282.44
281.662	289.44
281.894	300.44
282.125	291.44
282.356	284.44
282.588	329.44
282.819	342.44
283.051	306.44
283.282	300.44
283.513	301.44
283.745	322.44
283.976	305.44
284.207	329.44
284.439	310.44
284.67	320.44
284.901	311.44
285.132	294.44
285.364	318.44
285.595	312.44
285.826	304.44
286.057	301.44
286.288	298.44
286.52	294.44
286.751	312.44
286.982	298.44
287.213	294.44
287.444	341.44
287.675	309.44
287.906	313.44
288.138	329.44
288.369	317.44
288.6	340.44
288.831	342.44
289.062	336.44
289.293	333.44
289.524	306.44
289.755	326.44
289.986	335.44
290.217	329.44
290.448	305.44
290.679	316.44
290.91	318.44
291.141	325.44
291.371	322.44
291.602	311.44
291.833	317.44
292.064	305.44
292.295	321.44
292.526	320.44
292.757	321.44
292.987	305.44
293.218	328.44
293.449	326.44
293.68	328.44
293.91	320.44
294.141	300.44
294.372	321.44
294.603	323.44
294.833	322.44
295.064	315.44
295.295	326.44
295.525	315.44
295.756	328.44
295.987	328.44
296.217	343.44
296.448	341.44
296.679	334.44
296.909	324.44
297.14	337.44
297.37	352.44
297.601	342.44
297.831	349.44
298.062	339.44
298.292	333.44
298.523	334.44
298.753	351.44
298.984	329.44
299.214	338.44
299.445	352.44
299.675	347.44
299.905	365.44
300.136	344.44
300.366	350.44
300.597	343.44
300.827	346.44
301.057	352.44
301.288	359.44
301.518	348.44
301.748	358.44
301.979	355.44
302.209	362.44
302.439	368.44
302.669	360.44
302.9	353.44
303.13	361.44
303.36	349.44
303.59	352.44
303.82	370.44
304.051	384.44
304.281	381.44
304.511	364.44
304.741	347.44
304.971	371.44
305.201	351.44
305.431	353.44
305.661	350.44
305.891	376.44
306.121	368.44
306.352	373.44
306.582	354.44
306.812	358.44
307.042	373.44
307.272	362.44
307.502	357.44
307.731	350.44
307.961	355.44
308.191	363.44
308.421	342.44
308.651	372.44
308.881	380.44
309.111	379.44
309.341	388.44
309.571	378.44
309.8	404.44
310.03	395.44
310.26	377.44
310.49	405.44
310.72	406.44
310.949	414.44
311.179	447.44
311.409	410.44
311.639	390.44
311.868	405.44
312.098	406.44
312.328	414.44
312.557	423.44
312.787	416.44
313.017	437.44
313.246	416.44
313.476	416.44
313.706	406.44
313.935	424.44
314.165	449.44
314.394	419.44
314.624	424.44
314.853	422.44
315.083	406.44
315.312	420.44
315.542	400.44
315.771	404.44
316.001	402.44
316.23	391.44
316.46	403.44
316.689	404.44
316.919	428.44
317.148	417.44
317.377	420.44
317.607	428.44
317.836	403.44
318.065	408.44
318.295	407.44
318.524	422.44
318.753	409.44
318.983	420.44
319.212	408.44
319.441	388.44
319.67	405.44
319.9	423.44
320.129	407.44
320.358	413.44
320.587	434.44
320.816	424.44
321.046	413.44
321.275	422.44
321.504	444.44
321.733	418.44
321.962	436.44
322.191	452.44
322.42	461.44
322.649	454.44
322.878	457.44
323.108	475.44
323.337	484.44
323.566	513.44
323.795	527.44
324.024	540.44
324.253	630.44
324.482	841.44
324.71	1292.44
324.939	1882.44
325.168	1717.44
325.397	871.44
325.626	618.44
325.855	576.44
326.084	513.44
326.313	504.44
326.542	489.44
326.77	538.44
326.999	616.44
327.228	809.44
327.457	1149.44
327.686	1442.44
327.914	1004.44
328.143	674.44
328.372	590.44
328.6	569.44
328.829	553.44
329.058	553.44
329.287	577.44
329.515	539.44
329.744	534.44
329.972	509.44
330.201	528.44
330.43	581.44
330.658	584.44
330.887	607.44
331.115	573.44
331.344	531.44
331.572	519.44
331.801	505.44
332.03	514.44
332.258	482.44
332.486	504.44
332.715	496.44
332.943	508.44
333.172	475.44
333.4	500.44
333.629	536.44
333.857	535.44
334.085	536.44
334.314	553.44
334.542	554.44
334.771	580.44
334.999	545.44
335.227	532.44
335.455	506.44
335.684	498.44
335.912	487.44
336.14	478.44
336.369	496.44
336.597	491.44
336.825	510.44
337.053	484.44
337.281	492.44
337.51	482.44
337.738	489.44
337.966	502.44
338.194	486.44
338.422	503.44
338.65	478.44
338.878	484.44
339.106	464.44
339.334	488.44
339.562	483.44
339.79	452.44
340.018	476.44
340.246	458.44
340.474	469.44
340.702	469.44
340.93	474.44
341.158	469.44
341.386	482.44
341.614	487.44
341.842	475.44
342.07	470.44
342.298	468.44
342.526	474.44
342.754	472.44
342.981	461.44
343.209	480.44
343.437	493.44
343.665	491.44
343.893	489.44
344.12	500.44
344.348	510.44
344.576	486.44
344.804	493.44
345.031	474.44
345.259	478.44
345.487	489.44
345.714	484.44
345.942	486.44
346.17	442.44
346.397	477.44
346.625	460.44
346.853	459.44
347.08	443.44
347.308	460.44
347.535	448.44
347.763	442.44
347.99	453.44
348.218	473.44
348.445	469.44
348.673	450.44
348.9	455.44
349.128	450.44
349.355	438.44
349.583	439.44
349.81	445.44
350.037	457.44
350.265	434.44
350.492	437.44
350.72	449.44
350.947	455.44
351.174	443.44
351.402	469.44
351.629	451.44
351.856	476.44
352.083	462.44
352.311	455.44
352.538	455.44
352.765	463.44
352.992	480.44
353.22	446.44
353.447	452.44
353.674	466.44
353.901	445.44
354.128	448.44
354.355	443.44
354.583	460.44
354.81	428.44
355.037	432.44
355.264	446.44
355.491	442.44
355.718	448.44
355.945	424.44
356.172	404.44
356.399	451.44
356.626	430.44
356.853	442.44
357.08	426.44
357.307	449.44
357.534	424.44
357.761	422.44
357.988	453.44
358.215	433.44
358.441	433.44
358.668	422.44
358.895	454.44
359.122	459.44
359.349	442.44
359.576	442.44
359.802	485.44
360.029	493.44
360.256	521.44
360.483	504.44
360.709	489.44
360.936	450.44
361.163	457.44
361.39	468.44
361.616	474.44
361.843	476.44
362.07	478.44
362.296	470.44
362.523	444.44
362.749	452.44
362.976	470.44
363.203	438.44
363.429	430.44
363.656	448.44
363.882	460.44
364.109	438.44
364.335	445.44
364.562	425.44
364.788	457.44
365.015	453.44
365.241	451.44
365.468	434.44
365.694	457.44
365.92	462.44
366.147	453.44
366.373	467.44
366.599	441.44
366.826	456.44
367.052	437.44
367.278	442.44
367.505	424.44
367.731	445.44
367.957	452.44
368.184	452.44
368.41	458.44
368.636	468.44
368.862	450.44
369.089	451.44
369.315	444.44
369.541	451.44
369.767	457.44
369.993	442.44
370.219	471.44
370.445	458.44
370.672	455.44
370.898	475.44
371.124	468.44
371.35	491.44
371.576	459.44
371.802	477.44
372.028	453.44
372.254	459.44
372.48	465.44
372.706	483.44
372.932	472.44
373.158	469.44
373.384	467.44
373.61	449.44
373.835	480.44
374.061	446.44
374.287	479.44
374.513	459.44
374.739	496.44
374.965	479.44
375.191	497.44
375.416	469.44
375.642	461.44
375.868	486.44
376.094	462.44
376.319	467.44
376.545	445.44
376.771	461.44
376.997	474.44
377.222	452.44
377.448	450.44
377.674	480.44
377.899	464.44
378.125	459.44
378.35	461.44
378.576	443.44
378.802	438.44
379.027	471.44
379.253	466.44
379.478	456.44
379.704	496.44
379.929	462.44
380.155	464.44
380.38	470.44
380.606	454.44
380.831	469.44
381.057	456.44
381.282	457.44
381.507	467.44
381.733	465.44
381.958	466.44
382.184	475.44
382.409	463.44
382.634	469.44
382.86	460.44
383.085	470.44
383.31	470.44
383.535	483.44
383.761	504.44
383.986	482.44
384.211	488.44
384.436	486.44
384.662	484.44
384.887	512.44
385.112	494.44
385.337	524.44
385.562	510.44
385.787	499.44
386.013	544.44
386.238	506.44
386.463	511.44
386.688	532.44
386.913	492.44
387.138	507.44
387.363	515.44
387.588	509.44
387.813	527.44
388.038	519.44
388.263	537.44
388.488	515.44
388.713	518.44
388.938	535.44
389.163	504.44
389.387	527.44
389.612	518.44
389.837	510.44
390.062	525.44
390.287	529.44
390.512	511.44
390.736	520.44
390.961	531.44
391.186	508.44
391.411	525.44
391.636	506.44
391.86	549.44
392.085	555.44
392.31	537.44
392.534	554.44
392.759	534.44
392.984	533.44
393.208	550.44
393.433	521.44
393.658	514.44
393.882	522.44
394.107	514.44
394.331	524.44
394.556	545.44
394.78	528.44
395.005	519.44
395.229	531.44
395.454	556.44
395.678	544.44
395.903	560.44
396.127	588.44
396.352	587.44
396.576	550.44
396.801	555.44
397.025	563.44
397.249	546.44
397.474	541.44
397.698	560.44
397.922	558.44
398.147	562.44
398.371	596.44
398.595	616.44
398.82	610.44
399.044	627.44
399.268	640.44
399.492	688.44
399.717	712.44
399.941	757.44
400.165	739.44
400.389	780.44
400.613	679.44
400.837	639.44
401.062	613.44
401.286	615.44
401.51	632.44
401.734	614.44
401.958	584.44
402.182	620.44
402.406	605.44
402.63	609.44
402.854	646.44
403.078	632.44
403.302	614.44
403.526	655.44
403.75	625.44
403.974	655.44
404.198	640.44
404.422	617.44
404.645	621.44
404.869	656.44
405.093	658.44
405.317	713.44
405.541	745.44
405.765	693.44
405.988	658.44
406.212	644.44
406.436	673.44
406.66	692.44
406.883	668.44
407.107	725.44
407.331	757.44
407.555	844.44
407.778	832.44
408.002	758.44
408.226	717.44
408.449	674.44
408.673	669.44
408.896	716.44
409.12	747.44
409.344	708.44
409.567	664.44
409.791	640.44
410.014	635.44
410.238	626.44
410.461	641.44
410.685	638.44
410.908	659.44
411.132	690.44
411.355	712.44
411.578	673.44
411.802	643.44
412.025	646.44
412.249	637.44
412.472	646.44
412.695	700.44
412.919	692.44
413.142	624.44
413.365	627.44
413.589	632.44
413.812	624.44
414.035	611.44
414.258	600.44
414.482	595.44
414.705	604.44
414.928	604.44
415.151	574.44
415.374	599.44
415.597	602.44
415.821	594.44
416.044	593.44
416.267	586.44
416.49	594.44
416.713	590.44
416.936	598.44
417.159	582.44
417.382	623.44
417.605	588.44
417.828	626.44
418.051	633.44
418.274	628.44
418.497	585.44
418.72	590.44
418.943	599.44
419.166	634.44
419.389	658.44
419.611	673.44
419.834	638.44
420.057	633.44
420.28	622.44
420.503	632.44
420.726	596.44
420.948	636.44
421.171	674.44
421.394	704.44
421.617	670.44
421.839	596.44
422.062	622.44
422.285	630.44
422.507	662.44
422.73	758.44
422.953	753.44
423.175	680.44
423.398	664.44
423.621	665.44
423.843	680.44
424.066	672.44
424.288	665.44
424.511	669.44
424.733	759.44
424.956	850.44
425.178	802.44
425.401	791.44
425.623	816.44
425.846	715.44
426.068	644.44
426.291	655.44
426.513	647.44
426.735	653.44
426.958	691.44
427.18	782.44
427.402	915.44
427.625	981.44
427.847	844.44
428.069	757.44
428.292	695.44
428.514	641.44
428.736	641.44
428.958	609.44
429.181	611.44
429.403	608.44
429.625	600.44
429.847	656.44
430.069	715.44
430.292	717.44
430.514	613.44
430.736	612.44
430.958	579.44
431.18	587.44
431.402	604.44
431.624	572.44
431.846	564.44
432.068	582.44
432.29	590.44
432.512	570.44
432.734	607.44
432.956	580.44
433.178	549.44
433.4	592.44
433.622	601.44
433.844	574.44
434.066	589.44
434.287	584.44
434.509	606.44
434.731	626.44
434.953	598.44
435.175	628.44
435.397	658.44
435.618	657.44
435.84	692.44
436.062	802.44
436.284	843.44
436.505	727.44
436.727	632.44
436.949	615.44
437.17	624.44
437.392	608.44
437.614	563.44
437.835	642.44
438.057	720.44
438.278	842.44
438.5	846.44
438.721	889.44
438.943	882.44
439.165	705.44
439.386	651.44
439.608	670.44
439.829	626.44
440.05	671.44
440.272	729.44
440.493	686.44
440.715	638.44
440.936	621.44
441.158	605.44
441.379	630.44
441.6	631.44
441.822	631.44
442.043	700.44
442.264	790.44
442.486	835.44
442.707	715.44
442.928	696.44
443.149	680.44
443.371	687.44
443.592	718.44
443.813	830.44
444.034	884.44
444.255	772.44
444.476	692.44
444.698	678.44
444.919	672.44
445.14	796.44
445.361	718.44
445.582	722.44
445.803	752.44
446.024	854.44
446.245	885.44
446.466	790.44
446.687	685.44
446.908	657.44
447.129	626.44
447.35	601.44
447.571	610.44
447.792	577.44
448.013	581.44
448.234	595.44
448.455	677.44
448.675	781.44
448.896	879.44
449.117	775.44
449.338	730.44
449.559	824.44
449.779	968.44
450	769.44
450.221	642.44
450.442	608.44
450.662	582.44
450.883	569.44
451.104	583.44
451.324	564.44
451.545	568.44
451.766	544.44
451.986	555.44
452.207	502.44
452.428	519.44
452.648	530.44
452.869	542.44
453.089	550.44
453.31	569.44
453.53	559.44
453.751	520.44
453.971	538.44
454.192	553.44
454.412	539.44
454.633	520.44
454.853	532.44
455.073	523.44
455.294	549.44
455.514	614.44
455.734	608.44
455.955	529.44
456.175	513.44
456.395	530.44
456.616	506.44
456.836	496.44
457.056	502.44
457.276	501.44
457.497	521.44
457.717	498.44
457.937	514.44
458.157	523.44
458.377	532.44
458.598	534.44
458.818	606.44
459.038	660.44
459.258	699.44
459.478	645.44
459.698	580.44
459.918	561.44
460.138	568.44
460.358	601.44
460.578	589.44
460.798	604.44
461.018	614.44
461.238	589.44
461.458	624.44
461.678	584.44
461.898	588.44
462.118	603.44
462.338	627.44
462.558	625.44
462.777	663.44
462.997	673.44
463.217	680.44
463.437	694.44
463.657	676.44
463.876	665.44
464.096	653.44
464.316	636.44
464.536	640.44
464.755	661.44
464.975	652.44
465.195	674.44
465.414	707.44
465.634	644.44
465.854	626.44
466.073	597.44
466.293	585.44
466.512	562.44
466.732	556.44
466.951	563.44
467.171	568.44
467.391	565.44
467.61	557.44
467.829	543.44
468.049	553.44
468.268	557.44
468.488	541.44
468.707	538.44
468.927	529.44
469.146	545.44
469.365	543.44
469.585	516.44
469.804	549.44
470.023	576.44
470.243	546.44
470.462	555.44
470.681	593.44
470.901	587.44
471.12	579.44
471.339	542.44
471.558	582.44
471.777	563.44
471.997	557.44
472.216	577.44
472.435	583.44
472.654	567.44
472.873	545.44
473.092	558.44
473.311	544.44
473.53	562.44
473.749	585.44
473.968	613.44
474.187	703.44
474.406	725.44
474.625	597.44
474.844	566.44
475.063	563.44
475.282	564.44
475.501	563.44
475.72	558.44
475.939	564.44
476.158	581.44
476.377	579.44
476.596	582.44
476.814	593.44
477.033	573.44
477.252	598.44
477.471	602.44
477.69	598.44
477.908	613.44
478.127	625.44
478.346	619.44
478.564	635.44
478.783	643.44
479.002	641.44
479.22	635.44
479.439	655.44
479.658	674.44
479.876	655.44
480.095	670.44
480.313	721.44
480.532	697.44
480.751	697.44
480.969	715.44
481.188	736.44
481.406	750.44
481.624	706.44
481.843	677.44
482.061	665.44
482.28	677.44
482.498	653.44
482.717	674.44
482.935	665.44
483.153	654.44
483.372	664.44
483.59	643.44
483.808	645.44
484.027	665.44
484.245	647.44
484.463	680.44
484.681	689.44
484.9	669.44
485.118	697.44
485.336	695.44
485.554	645.44
485.772	646.44
485.99	664.44
486.209	674.44
486.427	682.44
486.645	690.44
486.863	717.44
487.081	682.44
487.299	716.44
487.517	698.44
487.735	724.44
487.953	716.44
488.171	711.44
488.389	717.44
488.607	687.44
488.825	714.44
489.043	699.44
489.261	743.44
489.479	732.44
489.696	702.44
489.914	733.44
490.132	730.44
490.35	724.44
490.568	745.44
490.786	766.44
491.003	772.44
491.221	791.44
491.439	812.44
491.657	794.44
491.874	812.44
492.092	825.44
492.31	826.44
492.527	805.44
492.745	822.44
492.963	837.44
493.18	841.44
493.398	842.44
493.615	844.44
493.833	841.44
494.05	843.44
494.268	839.44
494.485	838.44
494.703	842.44
494.92	836.44
495.138	832.44
495.355	853.44
495.573	842.44
495.79	825.44
496.008	857.44
496.225	845.44
496.442	850.44
496.66	851.44
496.877	857.44
497.094	845.44
497.312	835.44
497.529	890.44
497.746	897.44
497.963	896.44
498.181	877.44
498.398	928.44
498.615	939.44
498.832	971.44
499.049	1005.44
499.267	1037.44
499.484	1077.44
499.701	1133.44
499.918	1176.44
500.135	1278.44
500.352	1338.44
500.569	1357.44
500.786	1368.44
501.003	1320.44
501.22	1264.44
501.437	1196.44
501.654	1153.44
