Data from 1974.PennyLincolnUp.Lamp.En5.5.200Scan.071719.P1.Changed Mount._HRD10591_15-54-19-858.txt Node
Date: Thu Jul 18 15:54:19 EDT 2019
User: cochatt
Spectrometer: HR+D1059
Trigger mode: 1
Integration Time (sec): 1.000000E-1
Scans to average: 1
Electric dark correction enabled: true
Nonlinearity correction enabled: false
Boxcar width: 0
XAxis mode: Wavelengths
Number of Pixels in Spectrum: 2048
>>>>>Begin Spectral Data<<<<<
223.165	-17.62
223.4	-17.62
223.635	-17.62
223.869	-16.62
224.104	-17.62
224.338	-13.62
224.573	-17.62
224.808	-15.62
225.042	-12.62
225.277	-1.62
225.511	0.38
225.746	6.38
225.98	6.38
226.215	5.38
226.449	15.38
226.683	20.38
226.918	26.38
227.152	32.38
227.387	32.38
227.621	37.38
227.856	36.38
228.09	47.38
228.324	49.38
228.559	51.38
228.793	64.38
229.027	103.38
229.262	109.38
229.496	104.38
229.73	138.38
229.964	150.38
230.199	132.38
230.433	118.38
230.667	119.38
230.901	112.38
231.136	121.38
231.37	127.38
231.604	127.38
231.838	132.38
232.072	127.38
232.306	131.38
232.541	112.38
232.775	121.38
233.009	105.38
233.243	128.38
233.477	109.38
233.711	117.38
233.945	127.38
234.179	104.38
234.413	132.38
234.647	106.38
234.881	110.38
235.115	118.38
235.349	107.38
235.583	118.38
235.817	120.38
236.051	123.38
236.285	126.38
236.519	142.38
236.753	139.38
236.987	150.38
237.221	196.38
237.455	239.38
237.689	208.38
237.922	152.38
238.156	142.38
238.39	142.38
238.624	124.38
238.858	130.38
239.091	128.38
239.325	127.38
239.559	137.38
239.793	131.38
240.027	138.38
240.26	154.38
240.494	161.38
240.728	167.38
240.961	152.38
241.195	157.38
241.429	146.38
241.662	130.38
241.896	139.38
242.13	139.38
242.363	153.38
242.597	138.38
242.83	131.38
243.064	153.38
243.298	144.38
243.531	143.38
243.765	144.38
243.998	153.38
244.232	153.38
244.465	153.38
244.699	151.38
244.932	156.38
245.166	159.38
245.399	169.38
245.633	177.38
245.866	165.38
246.099	159.38
246.333	160.38
246.566	147.38
246.8	172.38
247.033	194.38
247.266	158.38
247.5	159.38
247.733	182.38
247.966	171.38
248.2	198.38
248.433	192.38
248.666	185.38
248.899	190.38
249.133	200.38
249.366	203.38
249.599	184.38
249.832	189.38
250.066	191.38
250.299	206.38
250.532	195.38
250.765	225.38
250.998	250.38
251.231	234.38
251.465	231.38
251.698	233.38
251.931	211.38
252.164	227.38
252.397	216.38
252.63	196.38
252.863	221.38
253.096	224.38
253.329	233.38
253.562	242.38
253.795	224.38
254.028	238.38
254.261	229.38
254.494	227.38
254.727	272.38
254.96	295.38
255.193	287.38
255.426	281.38
255.659	244.38
255.892	252.38
256.124	238.38
256.357	243.38
256.59	242.38
256.823	222.38
257.056	228.38
257.289	222.38
257.521	220.38
257.754	228.38
257.987	208.38
258.22	218.38
258.452	229.38
258.685	221.38
258.918	225.38
259.151	230.38
259.383	225.38
259.616	242.38
259.849	234.38
260.081	257.38
260.314	280.38
260.547	269.38
260.779	275.38
261.012	251.38
261.244	225.38
261.477	261.38
261.71	228.38
261.942	252.38
262.175	246.38
262.407	259.38
262.64	251.38
262.872	252.38
263.105	230.38
263.337	230.38
263.57	231.38
263.802	220.38
264.035	233.38
264.267	229.38
264.499	223.38
264.732	227.38
264.964	231.38
265.197	224.38
265.429	244.38
265.661	222.38
265.894	235.38
266.126	234.38
266.358	227.38
266.591	234.38
266.823	239.38
267.055	236.38
267.287	256.38
267.52	264.38
267.752	251.38
267.984	256.38
268.216	254.38
268.448	247.38
268.681	259.38
268.913	254.38
269.145	266.38
269.377	297.38
269.609	292.38
269.841	284.38
270.073	307.38
270.306	305.38
270.538	336.38
270.77	336.38
271.002	312.38
271.234	322.38
271.466	331.38
271.698	342.38
271.93	342.38
272.162	339.38
272.394	347.38
272.626	340.38
272.858	313.38
273.09	310.38
273.322	305.38
273.553	284.38
273.785	293.38
274.017	274.38
274.249	283.38
274.481	262.38
274.713	280.38
274.945	309.38
275.176	304.38
275.408	280.38
275.64	287.38
275.872	280.38
276.104	278.38
276.335	271.38
276.567	296.38
276.799	304.38
277.031	329.38
277.262	337.38
277.494	335.38
277.726	321.38
277.957	310.38
278.189	312.38
278.421	295.38
278.652	307.38
278.884	314.38
279.115	296.38
279.347	284.38
279.579	282.38
279.81	280.38
280.042	290.38
280.273	300.38
280.505	297.38
280.736	302.38
280.968	317.38
281.199	289.38
281.431	289.38
281.662	311.38
281.894	294.38
282.125	316.38
282.356	310.38
282.588	342.38
282.819	330.38
283.051	307.38
283.282	298.38
283.513	298.38
283.745	303.38
283.976	319.38
284.207	319.38
284.439	314.38
284.67	295.38
284.901	322.38
285.132	314.38
285.364	301.38
285.595	315.38
285.826	324.38
286.057	311.38
286.288	294.38
286.52	316.38
286.751	323.38
286.982	316.38
287.213	309.38
287.444	314.38
287.675	322.38
287.906	313.38
288.138	333.38
288.369	322.38
288.6	338.38
288.831	335.38
289.062	330.38
289.293	333.38
289.524	322.38
289.755	329.38
289.986	331.38
290.217	314.38
290.448	311.38
290.679	338.38
290.91	307.38
291.141	318.38
291.371	323.38
291.602	333.38
291.833	304.38
292.064	329.38
292.295	343.38
292.526	316.38
292.757	321.38
292.987	303.38
293.218	302.38
293.449	324.38
293.68	311.38
293.91	297.38
294.141	319.38
294.372	332.38
294.603	330.38
294.833	330.38
295.064	329.38
295.295	335.38
295.525	326.38
295.756	319.38
295.987	330.38
296.217	353.38
296.448	358.38
296.679	325.38
296.909	323.38
297.14	309.38
297.37	329.38
297.601	333.38
297.831	336.38
298.062	336.38
298.292	352.38
298.523	337.38
298.753	337.38
298.984	335.38
299.214	334.38
299.445	343.38
299.675	332.38
299.905	342.38
300.136	337.38
300.366	346.38
300.597	359.38
300.827	348.38
301.057	371.38
301.288	371.38
301.518	354.38
301.748	368.38
301.979	371.38
302.209	354.38
302.439	355.38
302.669	368.38
302.9	377.38
303.13	355.38
303.36	368.38
303.59	359.38
303.82	377.38
304.051	363.38
304.281	362.38
304.511	370.38
304.741	352.38
304.971	363.38
305.201	370.38
305.431	326.38
305.661	366.38
305.891	350.38
306.121	366.38
306.352	350.38
306.582	342.38
306.812	357.38
307.042	369.38
307.272	368.38
307.502	360.38
307.731	361.38
307.961	383.38
308.191	376.38
308.421	342.38
308.651	378.38
308.881	366.38
309.111	375.38
309.341	372.38
309.571	396.38
309.8	379.38
310.03	407.38
310.26	398.38
310.49	394.38
310.72	412.38
310.949	406.38
311.179	416.38
311.409	410.38
311.639	406.38
311.868	412.38
312.098	394.38
312.328	406.38
312.557	414.38
312.787	434.38
313.017	406.38
313.246	389.38
313.476	408.38
313.706	405.38
313.935	432.38
314.165	430.38
314.394	417.38
314.624	402.38
314.853	424.38
315.083	414.38
315.312	431.38
315.542	405.38
315.771	400.38
316.001	389.38
316.23	399.38
316.46	400.38
316.689	409.38
316.919	415.38
317.148	403.38
317.377	440.38
317.607	415.38
317.836	414.38
318.065	399.38
318.295	411.38
318.524	406.38
318.753	403.38
318.983	414.38
319.212	406.38
319.441	402.38
319.67	406.38
319.9	418.38
320.129	404.38
320.358	427.38
320.587	436.38
320.816	436.38
321.046	434.38
321.275	431.38
321.504	420.38
321.733	410.38
321.962	426.38
322.191	440.38
322.42	444.38
322.649	457.38
322.878	461.38
323.108	483.38
323.337	491.38
323.566	483.38
323.795	524.38
324.024	560.38
324.253	656.38
324.482	909.38
324.71	1339.38
324.939	2050.38
325.168	1782.38
325.397	889.38
325.626	616.38
325.855	571.38
326.084	511.38
326.313	513.38
326.542	518.38
326.77	548.38
326.999	630.38
327.228	849.38
327.457	1268.38
327.686	1566.38
327.914	1036.38
328.143	712.38
328.372	632.38
328.6	590.38
328.829	574.38
329.058	572.38
329.287	588.38
329.515	550.38
329.744	544.38
329.972	535.38
330.201	544.38
330.43	584.38
330.658	614.38
330.887	619.38
331.115	624.38
331.344	552.38
331.572	523.38
331.801	510.38
332.03	524.38
332.258	527.38
332.486	525.38
332.715	494.38
332.943	500.38
333.172	513.38
333.4	533.38
333.629	536.38
333.857	531.38
334.085	540.38
334.314	571.38
334.542	567.38
334.771	603.38
334.999	558.38
335.227	511.38
335.455	520.38
335.684	523.38
335.912	491.38
336.14	479.38
336.369	490.38
336.597	501.38
336.825	522.38
337.053	491.38
337.281	481.38
337.51	472.38
337.738	499.38
337.966	500.38
338.194	503.38
338.422	502.38
338.65	469.38
338.878	471.38
339.106	484.38
339.334	466.38
339.562	461.38
339.79	470.38
340.018	487.38
340.246	468.38
340.474	459.38
340.702	481.38
340.93	478.38
341.158	474.38
341.386	492.38
341.614	498.38
341.842	476.38
342.07	466.38
342.298	483.38
342.526	458.38
342.754	472.38
342.981	453.38
343.209	466.38
343.437	474.38
343.665	491.38
343.893	510.38
344.12	500.38
344.348	499.38
344.576	463.38
344.804	494.38
345.031	494.38
345.259	482.38
345.487	477.38
345.714	467.38
345.942	461.38
346.17	455.38
346.397	477.38
346.625	452.38
346.853	439.38
347.08	470.38
347.308	456.38
347.535	462.38
347.763	473.38
347.99	500.38
348.218	470.38
348.445	479.38
348.673	476.38
348.9	470.38
349.128	466.38
349.355	459.38
349.583	445.38
349.81	448.38
350.037	438.38
350.265	438.38
350.492	457.38
350.72	455.38
350.947	448.38
351.174	466.38
351.402	476.38
351.629	476.38
351.856	460.38
352.083	472.38
352.311	473.38
352.538	470.38
352.765	467.38
352.992	463.38
353.22	454.38
353.447	444.38
353.674	464.38
353.901	437.38
354.128	437.38
354.355	417.38
354.583	425.38
354.81	448.38
355.037	450.38
355.264	449.38
355.491	435.38
355.718	448.38
355.945	417.38
356.172	406.38
356.399	448.38
356.626	433.38
356.853	438.38
357.08	432.38
357.307	426.38
357.534	449.38
357.761	427.38
357.988	447.38
358.215	424.38
358.441	447.38
358.668	451.38
358.895	443.38
359.122	465.38
359.349	444.38
359.576	450.38
359.802	477.38
360.029	508.38
360.256	493.38
360.483	480.38
360.709	462.38
360.936	466.38
361.163	463.38
361.39	472.38
361.616	456.38
361.843	468.38
362.07	472.38
362.296	477.38
362.523	463.38
362.749	459.38
362.976	460.38
363.203	451.38
363.429	441.38
363.656	454.38
363.882	443.38
364.109	455.38
364.335	462.38
364.562	442.38
364.788	458.38
365.015	455.38
365.241	425.38
365.468	436.38
365.694	456.38
365.92	455.38
366.147	466.38
366.373	442.38
366.599	435.38
366.826	475.38
367.052	437.38
367.278	448.38
367.505	478.38
367.731	437.38
367.957	454.38
368.184	461.38
368.41	442.38
368.636	470.38
368.862	466.38
369.089	470.38
369.315	435.38
369.541	452.38
369.767	434.38
369.993	455.38
370.219	424.38
370.445	465.38
370.672	451.38
370.898	467.38
371.124	449.38
371.35	448.38
371.576	451.38
371.802	448.38
372.028	460.38
372.254	481.38
372.48	451.38
372.706	479.38
372.932	468.38
373.158	447.38
373.384	450.38
373.61	450.38
373.835	450.38
374.061	476.38
374.287	458.38
374.513	482.38
374.739	477.38
374.965	506.38
375.191	454.38
375.416	482.38
375.642	457.38
375.868	479.38
376.094	472.38
376.319	438.38
376.545	472.38
376.771	454.38
376.997	459.38
377.222	472.38
377.448	489.38
377.674	470.38
377.899	464.38
378.125	459.38
378.35	439.38
378.576	435.38
378.802	455.38
379.027	458.38
379.253	459.38
379.478	463.38
379.704	465.38
379.929	464.38
380.155	448.38
380.38	454.38
380.606	459.38
380.831	460.38
381.057	474.38
381.282	474.38
381.507	486.38
381.733	460.38
381.958	467.38
382.184	480.38
382.409	461.38
382.634	483.38
382.86	466.38
383.085	480.38
383.31	472.38
383.535	504.38
383.761	486.38
383.986	490.38
384.211	499.38
384.436	487.38
384.662	488.38
384.887	506.38
385.112	491.38
385.337	506.38
385.562	499.38
385.787	502.38
386.013	516.38
386.238	531.38
386.463	507.38
386.688	516.38
386.913	519.38
387.138	518.38
387.363	514.38
387.588	515.38
387.813	509.38
388.038	528.38
388.263	538.38
388.488	518.38
388.713	501.38
388.938	521.38
389.163	508.38
389.387	521.38
389.612	518.38
389.837	497.38
390.062	528.38
390.287	518.38
390.512	498.38
390.736	519.38
390.961	507.38
391.186	520.38
391.411	531.38
391.636	512.38
391.86	510.38
392.085	547.38
392.31	539.38
392.534	529.38
392.759	540.38
392.984	539.38
393.208	529.38
393.433	515.38
393.658	547.38
393.882	529.38
394.107	532.38
394.331	501.38
394.556	514.38
394.78	520.38
395.005	560.38
395.229	540.38
395.454	566.38
395.678	564.38
395.903	552.38
396.127	577.38
396.352	556.38
396.576	569.38
396.801	556.38
397.025	548.38
397.249	573.38
397.474	568.38
397.698	573.38
397.922	580.38
398.147	586.38
398.371	610.38
398.595	587.38
398.82	605.38
399.044	608.38
399.268	672.38
399.492	698.38
399.717	755.38
399.941	754.38
400.165	754.38
400.389	764.38
400.613	732.38
400.837	652.38
401.062	624.38
401.286	630.38
401.51	608.38
401.734	595.38
401.958	605.38
402.182	605.38
402.406	647.38
402.63	614.38
402.854	604.38
403.078	626.38
403.302	618.38
403.526	651.38
403.75	642.38
403.974	626.38
404.198	632.38
404.422	629.38
404.645	627.38
404.869	655.38
405.093	658.38
405.317	721.38
405.541	749.38
405.765	726.38
405.988	690.38
406.212	655.38
406.436	688.38
406.66	707.38
406.883	672.38
407.107	726.38
407.331	777.38
407.555	825.38
407.778	839.38
408.002	754.38
408.226	716.38
408.449	683.38
408.673	690.38
408.896	696.38
409.12	765.38
409.344	711.38
409.567	682.38
409.791	637.38
410.014	646.38
410.238	618.38
410.461	641.38
410.685	621.38
410.908	647.38
411.132	672.38
411.355	721.38
411.578	688.38
411.802	651.38
412.025	615.38
412.249	624.38
412.472	674.38
412.695	691.38
412.919	700.38
413.142	642.38
413.365	620.38
413.589	630.38
413.812	601.38
414.035	603.38
414.258	613.38
414.482	604.38
414.705	602.38
414.928	607.38
415.151	610.38
415.374	591.38
415.597	592.38
415.821	591.38
416.044	576.38
416.267	589.38
416.49	583.38
416.713	585.38
416.936	598.38
417.159	590.38
417.382	598.38
417.605	601.38
417.828	599.38
418.051	657.38
418.274	635.38
418.497	624.38
418.72	594.38
418.943	603.38
419.166	614.38
419.389	665.38
419.611	638.38
419.834	622.38
420.057	658.38
420.28	632.38
420.503	639.38
420.726	598.38
420.948	640.38
421.171	673.38
421.394	699.38
421.617	632.38
421.839	654.38
422.062	631.38
422.285	642.38
422.507	689.38
422.73	759.38
422.953	753.38
423.175	674.38
423.398	660.38
423.621	653.38
423.843	672.38
424.066	660.38
424.288	655.38
424.511	684.38
424.733	751.38
424.956	840.38
425.178	811.38
425.401	808.38
425.623	819.38
425.846	724.38
426.068	659.38
426.291	648.38
426.513	654.38
426.735	675.38
426.958	691.38
427.18	784.38
427.402	935.38
427.625	1018.38
427.847	871.38
428.069	760.38
428.292	712.38
428.514	639.38
428.736	612.38
428.958	622.38
429.181	598.38
429.403	592.38
429.625	604.38
429.847	663.38
430.069	742.38
430.292	741.38
430.514	641.38
430.736	600.38
430.958	608.38
431.18	582.38
431.402	586.38
431.624	578.38
431.846	559.38
432.068	596.38
432.29	589.38
432.512	596.38
432.734	584.38
432.956	594.38
433.178	598.38
433.4	615.38
433.622	591.38
433.844	595.38
434.066	567.38
434.287	591.38
434.509	582.38
434.731	600.38
434.953	630.38
435.175	636.38
435.397	658.38
435.618	656.38
435.84	686.38
436.062	798.38
436.284	871.38
436.505	719.38
436.727	652.38
436.949	637.38
437.17	608.38
437.392	598.38
437.614	600.38
437.835	665.38
438.057	723.38
438.278	874.38
438.5	876.38
438.721	952.38
438.943	904.38
439.165	733.38
439.386	672.38
439.608	647.38
439.829	642.38
440.05	680.38
440.272	706.38
440.493	706.38
440.715	661.38
440.936	628.38
441.158	610.38
441.379	631.38
441.6	644.38
441.822	641.38
442.043	675.38
442.264	780.38
442.486	855.38
442.707	722.38
442.928	681.38
443.149	688.38
443.371	711.38
443.592	765.38
443.813	852.38
444.034	937.38
444.255	786.38
444.476	713.38
444.698	707.38
444.919	676.38
445.14	798.38
445.361	743.38
445.582	723.38
445.803	774.38
446.024	890.38
446.245	882.38
446.466	826.38
446.687	696.38
446.908	653.38
447.129	632.38
447.35	602.38
447.571	616.38
447.792	592.38
448.013	599.38
448.234	608.38
448.455	668.38
448.675	781.38
448.896	931.38
449.117	790.38
449.338	720.38
449.559	866.38
449.779	968.38
450	744.38
450.221	682.38
450.442	616.38
450.662	585.38
450.883	585.38
451.104	613.38
451.324	584.38
451.545	578.38
451.766	539.38
451.986	535.38
452.207	544.38
452.428	528.38
452.648	542.38
452.869	550.38
453.089	529.38
453.31	552.38
453.53	552.38
453.751	561.38
453.971	522.38
454.192	558.38
454.412	553.38
454.633	540.38
454.853	524.38
455.073	518.38
455.294	559.38
455.514	640.38
455.734	631.38
455.955	547.38
456.175	519.38
456.395	511.38
456.616	504.38
456.836	501.38
457.056	501.38
457.276	498.38
457.497	515.38
457.717	511.38
457.937	515.38
458.157	540.38
458.377	532.38
458.598	544.38
458.818	609.38
459.038	673.38
459.258	678.38
459.478	643.38
459.698	577.38
459.918	591.38
460.138	570.38
460.358	598.38
460.578	593.38
460.798	597.38
461.018	616.38
461.238	609.38
461.458	592.38
461.678	598.38
461.898	617.38
462.118	612.38
462.338	633.38
462.558	634.38
462.777	635.38
462.997	642.38
463.217	684.38
463.437	732.38
463.657	644.38
463.876	636.38
464.096	647.38
464.316	653.38
464.536	655.38
464.755	661.38
464.975	627.38
465.195	693.38
465.414	698.38
465.634	650.38
465.854	632.38
466.073	601.38
466.293	572.38
466.512	570.38
466.732	576.38
466.951	560.38
467.171	541.38
467.391	561.38
467.61	566.38
467.829	562.38
468.049	582.38
468.268	573.38
468.488	563.38
468.707	539.38
468.927	537.38
469.146	545.38
469.365	553.38
469.585	533.38
469.804	579.38
470.023	593.38
470.243	566.38
470.462	583.38
470.681	581.38
470.901	607.38
471.12	583.38
471.339	557.38
471.558	580.38
471.777	569.38
471.997	542.38
472.216	572.38
472.435	588.38
472.654	583.38
472.873	568.38
473.092	555.38
473.311	556.38
473.53	562.38
473.749	590.38
473.968	624.38
474.187	709.38
474.406	742.38
474.625	632.38
474.844	574.38
475.063	570.38
475.282	545.38
475.501	562.38
475.72	578.38
475.939	562.38
476.158	582.38
476.377	586.38
476.596	582.38
476.814	595.38
477.033	592.38
477.252	602.38
477.471	587.38
477.69	614.38
477.908	603.38
478.127	618.38
478.346	623.38
478.564	646.38
478.783	655.38
479.002	638.38
479.22	679.38
479.439	688.38
479.658	674.38
479.876	676.38
480.095	678.38
480.313	715.38
480.532	719.38
480.751	700.38
480.969	706.38
481.188	724.38
481.406	786.38
481.624	700.38
481.843	704.38
482.061	683.38
482.28	664.38
482.498	652.38
482.717	668.38
482.935	673.38
483.153	658.38
483.372	668.38
483.59	642.38
483.808	670.38
484.027	667.38
484.245	663.38
484.463	684.38
484.681	690.38
484.9	682.38
485.118	679.38
485.336	663.38
485.554	680.38
485.772	670.38
485.99	657.38
486.209	679.38
486.427	692.38
486.645	726.38
486.863	691.38
487.081	713.38
487.299	701.38
487.517	712.38
487.735	728.38
487.953	703.38
488.171	708.38
488.389	702.38
488.607	696.38
488.825	694.38
489.043	705.38
489.261	709.38
489.479	728.38
489.696	729.38
489.914	731.38
490.132	740.38
490.35	760.38
490.568	761.38
490.786	775.38
491.003	774.38
491.221	792.38
491.439	780.38
491.657	832.38
491.874	831.38
492.092	816.38
492.31	838.38
492.527	808.38
492.745	816.38
492.963	866.38
493.18	846.38
493.398	821.38
493.615	842.38
493.833	850.38
494.05	826.38
494.268	866.38
494.485	849.38
494.703	846.38
494.92	855.38
495.138	850.38
495.355	853.38
495.573	855.38
495.79	857.38
496.008	868.38
496.225	853.38
496.442	844.38
496.66	883.38
496.877	884.38
497.094	867.38
497.312	864.38
497.529	872.38
497.746	894.38
497.963	890.38
498.181	935.38
498.398	952.38
498.615	968.38
498.832	1004.38
499.049	996.38
499.267	1017.38
499.484	1086.38
499.701	1143.38
499.918	1209.38
500.135	1247.38
500.352	1351.38
500.569	1366.38
500.786	1391.38
501.003	1370.38
501.22	1325.38
501.437	1240.38
