Data from 1974.PennyLincolnUp.Lamp.En5.5.200Scan.071719.P1.Changed Mount._HRD10591_15-54-07-858.txt Node
Date: Thu Jul 18 15:54:07 EDT 2019
User: cochatt
Spectrometer: HR+D1059
Trigger mode: 1
Integration Time (sec): 1.000000E-1
Scans to average: 1
Electric dark correction enabled: true
Nonlinearity correction enabled: false
Boxcar width: 0
XAxis mode: Wavelengths
Number of Pixels in Spectrum: 2048
>>>>>Begin Spectral Data<<<<<
223.165	-17.62
223.4	-17.62
223.635	-17.62
223.869	-9.62
224.104	-23.62
224.338	-10.62
224.573	-1.62
224.808	-11.62
225.042	2.38
225.277	-4.62
225.511	10.38
225.746	-9.62
225.98	-0.62
226.215	-5.62
226.449	8.38
226.683	22.38
226.918	24.38
227.152	27.38
227.387	30.38
227.621	33.38
227.856	49.38
228.09	57.38
228.324	40.38
228.559	52.38
228.793	69.38
229.027	106.38
229.262	113.38
229.496	108.38
229.73	115.38
229.964	164.38
230.199	134.38
230.433	109.38
230.667	120.38
230.901	109.38
231.136	100.38
231.37	132.38
231.604	124.38
231.838	123.38
232.072	110.38
232.306	127.38
232.541	124.38
232.775	91.38
233.009	113.38
233.243	127.38
233.477	135.38
233.711	115.38
233.945	123.38
234.179	130.38
234.413	119.38
234.647	119.38
234.881	133.38
235.115	119.38
235.349	112.38
235.583	116.38
235.817	130.38
236.051	140.38
236.285	139.38
236.519	139.38
236.753	148.38
236.987	149.38
237.221	189.38
237.455	245.38
237.689	204.38
237.922	152.38
238.156	132.38
238.39	137.38
238.624	126.38
238.858	153.38
239.091	146.38
239.325	135.38
239.559	155.38
239.793	154.38
240.027	151.38
240.26	143.38
240.494	180.38
240.728	175.38
240.961	165.38
241.195	167.38
241.429	150.38
241.662	148.38
241.896	133.38
242.13	153.38
242.363	146.38
242.597	149.38
242.83	144.38
243.064	145.38
243.298	158.38
243.531	148.38
243.765	161.38
243.998	170.38
244.232	152.38
244.465	155.38
244.699	150.38
244.932	161.38
245.166	165.38
245.399	166.38
245.633	183.38
245.866	157.38
246.099	156.38
246.333	155.38
246.566	163.38
246.8	169.38
247.033	162.38
247.266	166.38
247.5	174.38
247.733	193.38
247.966	191.38
248.2	188.38
248.433	193.38
248.666	179.38
248.899	193.38
249.133	222.38
249.366	222.38
249.599	211.38
249.832	206.38
250.066	181.38
250.299	201.38
250.532	207.38
250.765	226.38
250.998	228.38
251.231	255.38
251.465	233.38
251.698	244.38
251.931	229.38
252.164	206.38
252.397	222.38
252.63	207.38
252.863	230.38
253.096	232.38
253.329	242.38
253.562	228.38
253.795	222.38
254.028	229.38
254.261	242.38
254.494	244.38
254.727	257.38
254.96	302.38
255.193	287.38
255.426	295.38
255.659	244.38
255.892	242.38
256.124	242.38
256.357	251.38
256.59	234.38
256.823	242.38
257.056	242.38
257.289	218.38
257.521	226.38
257.754	236.38
257.987	226.38
258.22	233.38
258.452	232.38
258.685	234.38
258.918	220.38
259.151	223.38
259.383	220.38
259.616	219.38
259.849	247.38
260.081	265.38
260.314	263.38
260.547	297.38
260.779	284.38
261.012	251.38
261.244	261.38
261.477	243.38
261.71	245.38
261.942	223.38
262.175	241.38
262.407	238.38
262.64	246.38
262.872	226.38
263.105	221.38
263.337	223.38
263.57	251.38
263.802	234.38
264.035	225.38
264.267	236.38
264.499	227.38
264.732	236.38
264.964	213.38
265.197	243.38
265.429	231.38
265.661	229.38
265.894	236.38
266.126	253.38
266.358	247.38
266.591	253.38
266.823	244.38
267.055	255.38
267.287	261.38
267.52	255.38
267.752	263.38
267.984	248.38
268.216	269.38
268.448	269.38
268.681	263.38
268.913	263.38
269.145	284.38
269.377	299.38
269.609	292.38
269.841	301.38
270.073	309.38
270.306	320.38
270.538	332.38
270.77	342.38
271.002	325.38
271.234	324.38
271.466	321.38
271.698	343.38
271.93	349.38
272.162	343.38
272.394	351.38
272.626	315.38
272.858	329.38
273.09	309.38
273.322	303.38
273.553	315.38
273.785	286.38
274.017	300.38
274.249	295.38
274.481	293.38
274.713	300.38
274.945	298.38
275.176	293.38
275.408	293.38
275.64	295.38
275.872	290.38
276.104	314.38
276.335	287.38
276.567	295.38
276.799	294.38
277.031	337.38
277.262	365.38
277.494	348.38
277.726	328.38
277.957	316.38
278.189	322.38
278.421	315.38
278.652	311.38
278.884	317.38
279.115	298.38
279.347	310.38
279.579	315.38
279.81	310.38
280.042	304.38
280.273	284.38
280.505	307.38
280.736	314.38
280.968	292.38
281.199	316.38
281.431	302.38
281.662	308.38
281.894	289.38
282.125	308.38
282.356	313.38
282.588	341.38
282.819	330.38
283.051	297.38
283.282	310.38
283.513	304.38
283.745	309.38
283.976	321.38
284.207	337.38
284.439	334.38
284.67	328.38
284.901	299.38
285.132	295.38
285.364	329.38
285.595	316.38
285.826	315.38
286.057	318.38
286.288	321.38
286.52	333.38
286.751	325.38
286.982	313.38
287.213	326.38
287.444	313.38
287.675	325.38
287.906	327.38
288.138	320.38
288.369	334.38
288.6	342.38
288.831	339.38
289.062	339.38
289.293	328.38
289.524	341.38
289.755	343.38
289.986	320.38
290.217	331.38
290.448	326.38
290.679	318.38
290.91	331.38
291.141	331.38
291.371	342.38
291.602	346.38
291.833	342.38
292.064	337.38
292.295	321.38
292.526	328.38
292.757	339.38
292.987	330.38
293.218	329.38
293.449	326.38
293.68	322.38
293.91	324.38
294.141	311.38
294.372	337.38
294.603	333.38
294.833	337.38
295.064	332.38
295.295	327.38
295.525	334.38
295.756	333.38
295.987	355.38
296.217	356.38
296.448	349.38
296.679	360.38
296.909	350.38
297.14	325.38
297.37	345.38
297.601	339.38
297.831	339.38
298.062	330.38
298.292	357.38
298.523	339.38
298.753	350.38
298.984	346.38
299.214	356.38
299.445	339.38
299.675	365.38
299.905	365.38
300.136	347.38
300.366	351.38
300.597	342.38
300.827	356.38
301.057	363.38
301.288	373.38
301.518	357.38
301.748	349.38
301.979	358.38
302.209	383.38
302.439	393.38
302.669	383.38
302.9	362.38
303.13	367.38
303.36	383.38
303.59	369.38
303.82	383.38
304.051	375.38
304.281	358.38
304.511	372.38
304.741	355.38
304.971	376.38
305.201	373.38
305.431	379.38
305.661	376.38
305.891	364.38
306.121	367.38
306.352	373.38
306.582	373.38
306.812	371.38
307.042	382.38
307.272	394.38
307.502	387.38
307.731	374.38
307.961	353.38
308.191	369.38
308.421	382.38
308.651	397.38
308.881	393.38
309.111	378.38
309.341	392.38
309.571	395.38
309.8	382.38
310.03	391.38
310.26	403.38
310.49	417.38
310.72	407.38
310.949	424.38
311.179	421.38
311.409	414.38
311.639	421.38
311.868	430.38
312.098	404.38
312.328	427.38
312.557	419.38
312.787	434.38
313.017	449.38
313.246	414.38
313.476	409.38
313.706	417.38
313.935	416.38
314.165	425.38
314.394	444.38
314.624	428.38
314.853	427.38
315.083	422.38
315.312	426.38
315.542	429.38
315.771	423.38
316.001	422.38
316.23	418.38
316.46	401.38
316.689	414.38
316.919	449.38
317.148	426.38
317.377	435.38
317.607	449.38
317.836	411.38
318.065	422.38
318.295	417.38
318.524	413.38
318.753	401.38
318.983	419.38
319.212	410.38
319.441	429.38
319.67	446.38
319.9	415.38
320.129	422.38
320.358	423.38
320.587	413.38
320.816	408.38
321.046	443.38
321.275	446.38
321.504	439.38
321.733	446.38
321.962	451.38
322.191	461.38
322.42	458.38
322.649	482.38
322.878	496.38
323.108	471.38
323.337	492.38
323.566	513.38
323.795	533.38
324.024	566.38
324.253	652.38
324.482	877.38
324.71	1362.38
324.939	2034.38
325.168	1765.38
325.397	925.38
325.626	647.38
325.855	583.38
326.084	535.38
326.313	519.38
326.542	529.38
326.77	565.38
326.999	633.38
327.228	847.38
327.457	1245.38
327.686	1516.38
327.914	1022.38
328.143	706.38
328.372	620.38
328.6	595.38
328.829	569.38
329.058	562.38
329.287	595.38
329.515	566.38
329.744	547.38
329.972	532.38
330.201	576.38
330.43	581.38
330.658	616.38
330.887	626.38
331.115	619.38
331.344	547.38
331.572	524.38
331.801	521.38
332.03	514.38
332.258	541.38
332.486	512.38
332.715	528.38
332.943	514.38
333.172	513.38
333.4	545.38
333.629	543.38
333.857	544.38
334.085	546.38
334.314	568.38
334.542	578.38
334.771	601.38
334.999	533.38
335.227	557.38
335.455	524.38
335.684	520.38
335.912	517.38
336.14	521.38
336.369	513.38
336.597	502.38
336.825	509.38
337.053	508.38
337.281	500.38
337.51	502.38
337.738	523.38
337.966	497.38
338.194	505.38
338.422	490.38
338.65	497.38
338.878	485.38
339.106	518.38
339.334	509.38
339.562	497.38
339.79	491.38
340.018	473.38
340.246	482.38
340.474	501.38
340.702	504.38
340.93	502.38
341.158	477.38
341.386	482.38
341.614	474.38
341.842	494.38
342.07	459.38
342.298	476.38
342.526	503.38
342.754	471.38
342.981	478.38
343.209	460.38
343.437	480.38
343.665	501.38
343.893	493.38
344.12	534.38
344.348	537.38
344.576	492.38
344.804	513.38
345.031	502.38
345.259	518.38
345.487	491.38
345.714	487.38
345.942	478.38
346.17	475.38
346.397	471.38
346.625	452.38
346.853	467.38
347.08	460.38
347.308	478.38
347.535	501.38
347.763	469.38
347.99	452.38
348.218	481.38
348.445	468.38
348.673	473.38
348.9	467.38
349.128	469.38
349.355	476.38
349.583	461.38
349.81	442.38
350.037	445.38
350.265	457.38
350.492	444.38
350.72	479.38
350.947	478.38
351.174	461.38
351.402	483.38
351.629	458.38
351.856	488.38
352.083	466.38
352.311	485.38
352.538	478.38
352.765	483.38
352.992	470.38
353.22	482.38
353.447	459.38
353.674	475.38
353.901	455.38
354.128	448.38
354.355	455.38
354.583	443.38
354.81	441.38
355.037	442.38
355.264	433.38
355.491	417.38
355.718	457.38
355.945	450.38
356.172	459.38
356.399	449.38
356.626	433.38
356.853	450.38
357.08	440.38
357.307	462.38
357.534	450.38
357.761	457.38
357.988	458.38
358.215	450.38
358.441	446.38
358.668	465.38
358.895	424.38
359.122	454.38
359.349	458.38
359.576	463.38
359.802	483.38
360.029	518.38
360.256	520.38
360.483	501.38
360.709	490.38
360.936	458.38
361.163	474.38
361.39	466.38
361.616	464.38
361.843	451.38
362.07	467.38
362.296	485.38
362.523	476.38
362.749	473.38
362.976	478.38
363.203	460.38
363.429	461.38
363.656	480.38
363.882	476.38
364.109	466.38
364.335	443.38
364.562	460.38
364.788	470.38
365.015	489.38
365.241	457.38
365.468	475.38
365.694	469.38
365.92	457.38
366.147	476.38
366.373	449.38
366.599	471.38
366.826	461.38
367.052	458.38
367.278	471.38
367.505	469.38
367.731	462.38
367.957	471.38
368.184	488.38
368.41	464.38
368.636	463.38
368.862	476.38
369.089	499.38
369.315	476.38
369.541	473.38
369.767	451.38
369.993	454.38
370.219	472.38
370.445	471.38
370.672	473.38
370.898	472.38
371.124	481.38
371.35	477.38
371.576	466.38
371.802	477.38
372.028	463.38
372.254	460.38
372.48	473.38
372.706	459.38
372.932	481.38
373.158	476.38
373.384	492.38
373.61	465.38
373.835	479.38
374.061	472.38
374.287	468.38
374.513	488.38
374.739	482.38
374.965	510.38
375.191	487.38
375.416	471.38
375.642	471.38
375.868	476.38
376.094	500.38
376.319	463.38
376.545	481.38
376.771	487.38
376.997	473.38
377.222	461.38
377.448	474.38
377.674	474.38
377.899	461.38
378.125	481.38
378.35	461.38
378.576	471.38
378.802	465.38
379.027	485.38
379.253	470.38
379.478	461.38
379.704	481.38
379.929	473.38
380.155	463.38
380.38	485.38
380.606	450.38
380.831	475.38
381.057	496.38
381.282	471.38
381.507	459.38
381.733	514.38
381.958	473.38
382.184	464.38
382.409	479.38
382.634	469.38
382.86	497.38
383.085	496.38
383.31	494.38
383.535	502.38
383.761	492.38
383.986	515.38
384.211	513.38
384.436	529.38
384.662	517.38
384.887	504.38
385.112	483.38
385.337	519.38
385.562	529.38
385.787	510.38
386.013	544.38
386.238	564.38
386.463	531.38
386.688	517.38
386.913	509.38
387.138	545.38
387.363	514.38
387.588	523.38
387.813	527.38
388.038	539.38
388.263	524.38
388.488	539.38
388.713	520.38
388.938	528.38
389.163	543.38
389.387	534.38
389.612	525.38
389.837	527.38
390.062	517.38
390.287	529.38
390.512	537.38
390.736	548.38
390.961	549.38
391.186	526.38
391.411	550.38
391.636	531.38
391.86	550.38
392.085	545.38
392.31	550.38
392.534	557.38
392.759	538.38
392.984	535.38
393.208	532.38
393.433	538.38
393.658	519.38
393.882	528.38
394.107	539.38
394.331	526.38
394.556	542.38
394.78	530.38
395.005	549.38
395.229	536.38
395.454	549.38
395.678	571.38
395.903	552.38
396.127	581.38
396.352	579.38
396.576	575.38
396.801	550.38
397.025	561.38
397.249	550.38
397.474	587.38
397.698	571.38
397.922	598.38
398.147	610.38
398.371	613.38
398.595	597.38
398.82	630.38
399.044	640.38
399.268	665.38
399.492	736.38
399.717	748.38
399.941	787.38
400.165	805.38
400.389	768.38
400.613	695.38
400.837	646.38
401.062	647.38
401.286	609.38
401.51	605.38
401.734	614.38
401.958	647.38
402.182	617.38
402.406	630.38
402.63	647.38
402.854	649.38
403.078	639.38
403.302	635.38
403.526	637.38
403.75	639.38
403.974	658.38
404.198	668.38
404.422	639.38
404.645	651.38
404.869	655.38
405.093	676.38
405.317	729.38
405.541	781.38
405.765	733.38
405.988	676.38
406.212	678.38
406.436	709.38
406.66	714.38
406.883	697.38
407.107	732.38
407.331	777.38
407.555	843.38
407.778	844.38
408.002	786.38
408.226	726.38
408.449	713.38
408.673	701.38
408.896	705.38
409.12	772.38
409.344	720.38
409.567	665.38
409.791	654.38
410.014	645.38
410.238	648.38
410.461	643.38
410.685	630.38
410.908	661.38
411.132	701.38
411.355	742.38
411.578	717.38
411.802	637.38
412.025	649.38
412.249	651.38
412.472	672.38
412.695	695.38
412.919	702.38
413.142	649.38
413.365	632.38
413.589	625.38
413.812	633.38
414.035	625.38
414.258	632.38
414.482	626.38
414.705	643.38
414.928	619.38
415.151	612.38
415.374	635.38
415.597	597.38
415.821	582.38
416.044	627.38
416.267	630.38
416.49	614.38
416.713	595.38
416.936	613.38
417.159	603.38
417.382	638.38
417.605	621.38
417.828	635.38
418.051	639.38
418.274	629.38
418.497	613.38
418.72	613.38
418.943	587.38
419.166	653.38
419.389	663.38
419.611	677.38
419.834	669.38
420.057	638.38
420.28	645.38
420.503	653.38
420.726	667.38
420.948	621.38
421.171	691.38
421.394	730.38
421.617	665.38
421.839	635.38
422.062	621.38
422.285	641.38
422.507	711.38
422.73	791.38
422.953	778.38
423.175	700.38
423.398	663.38
423.621	645.38
423.843	701.38
424.066	706.38
424.288	681.38
424.511	713.38
424.733	751.38
424.956	830.38
425.178	813.38
425.401	797.38
425.623	846.38
425.846	726.38
426.068	661.38
426.291	669.38
426.513	678.38
426.735	679.38
426.958	718.38
427.18	797.38
427.402	945.38
427.625	1013.38
427.847	874.38
428.069	805.38
428.292	726.38
428.514	667.38
428.736	649.38
428.958	654.38
429.181	627.38
429.403	610.38
429.625	634.38
429.847	677.38
430.069	718.38
430.292	719.38
430.514	650.38
430.736	644.38
430.958	601.38
431.18	614.38
431.402	630.38
431.624	603.38
431.846	579.38
432.068	597.38
432.29	598.38
432.512	596.38
432.734	612.38
432.956	592.38
433.178	595.38
433.4	610.38
433.622	580.38
433.844	611.38
434.066	613.38
434.287	614.38
434.509	612.38
434.731	608.38
434.953	619.38
435.175	647.38
435.397	679.38
435.618	675.38
435.84	722.38
436.062	817.38
436.284	866.38
436.505	758.38
436.727	687.38
436.949	637.38
437.17	614.38
437.392	633.38
437.614	617.38
437.835	646.38
438.057	719.38
438.278	867.38
438.5	843.38
438.721	956.38
438.943	922.38
439.165	714.38
439.386	667.38
439.608	681.38
439.829	661.38
440.05	699.38
440.272	729.38
440.493	707.38
440.715	673.38
440.936	632.38
441.158	618.38
441.379	645.38
441.6	627.38
441.822	672.38
442.043	716.38
442.264	825.38
442.486	835.38
442.707	747.38
442.928	693.38
443.149	715.38
443.371	706.38
443.592	743.38
443.813	873.38
444.034	933.38
444.255	807.38
444.476	735.38
444.698	723.38
444.919	721.38
445.14	795.38
445.361	758.38
445.582	745.38
445.803	769.38
446.024	888.38
446.245	880.38
446.466	822.38
446.687	729.38
446.908	659.38
447.129	636.38
447.35	641.38
447.571	606.38
447.792	614.38
448.013	621.38
448.234	629.38
448.455	654.38
448.675	791.38
448.896	917.38
449.117	790.38
449.338	755.38
449.559	885.38
449.779	986.38
450	789.38
450.221	653.38
450.442	633.38
450.662	597.38
450.883	610.38
451.104	593.38
451.324	594.38
451.545	570.38
451.766	566.38
451.986	567.38
452.207	562.38
452.428	544.38
452.648	539.38
452.869	538.38
453.089	574.38
453.31	588.38
453.53	548.38
453.751	536.38
453.971	531.38
454.192	567.38
454.412	548.38
454.633	526.38
454.853	544.38
455.073	531.38
455.294	547.38
455.514	646.38
455.734	648.38
455.955	551.38
456.175	555.38
456.395	538.38
456.616	540.38
456.836	525.38
457.056	523.38
457.276	515.38
457.497	543.38
457.717	503.38
457.937	509.38
458.157	532.38
458.377	550.38
458.598	554.38
458.818	603.38
459.038	693.38
459.258	728.38
459.478	642.38
459.698	607.38
459.918	597.38
460.138	600.38
460.358	613.38
460.578	629.38
460.798	627.38
461.018	600.38
461.238	628.38
461.458	613.38
461.678	605.38
461.898	629.38
462.118	633.38
462.338	641.38
462.558	644.38
462.777	660.38
462.997	698.38
463.217	696.38
463.437	702.38
463.657	700.38
463.876	679.38
464.096	659.38
464.316	670.38
464.536	665.38
464.755	674.38
464.975	661.38
465.195	686.38
465.414	731.38
465.634	637.38
465.854	618.38
466.073	602.38
466.293	597.38
466.512	594.38
466.732	567.38
466.951	574.38
467.171	548.38
467.391	582.38
467.61	611.38
467.829	582.38
468.049	570.38
468.268	572.38
468.488	561.38
468.707	540.38
468.927	556.38
469.146	530.38
469.365	586.38
469.585	569.38
469.804	575.38
470.023	605.38
470.243	595.38
470.462	587.38
470.681	594.38
470.901	590.38
471.12	574.38
471.339	566.38
471.558	573.38
471.777	581.38
471.997	571.38
472.216	562.38
472.435	615.38
472.654	590.38
472.873	593.38
473.092	568.38
473.311	574.38
473.53	570.38
473.749	602.38
473.968	626.38
474.187	703.38
474.406	775.38
474.625	635.38
474.844	594.38
475.063	577.38
475.282	578.38
475.501	578.38
475.72	579.38
475.939	549.38
476.158	588.38
476.377	610.38
476.596	585.38
476.814	585.38
477.033	602.38
477.252	605.38
477.471	588.38
477.69	610.38
477.908	607.38
478.127	637.38
478.346	655.38
478.564	650.38
478.783	648.38
479.002	652.38
479.22	665.38
479.439	693.38
479.658	697.38
479.876	693.38
480.095	702.38
480.313	723.38
480.532	725.38
480.751	698.38
480.969	725.38
481.188	782.38
481.406	817.38
481.624	711.38
481.843	701.38
482.061	682.38
482.28	679.38
482.498	659.38
482.717	647.38
482.935	676.38
483.153	665.38
483.372	693.38
483.59	678.38
483.808	682.38
484.027	670.38
484.245	691.38
484.463	653.38
484.681	693.38
484.9	694.38
485.118	696.38
485.336	689.38
485.554	682.38
485.772	681.38
485.99	715.38
486.209	729.38
486.427	708.38
486.645	713.38
486.863	723.38
487.081	730.38
487.299	714.38
487.517	726.38
487.735	699.38
487.953	740.38
488.171	725.38
488.389	695.38
488.607	722.38
488.825	735.38
489.043	722.38
489.261	736.38
489.479	715.38
489.696	742.38
489.914	733.38
490.132	768.38
490.35	779.38
490.568	756.38
490.786	776.38
491.003	802.38
491.221	812.38
491.439	804.38
491.657	834.38
491.874	819.38
492.092	843.38
492.31	863.38
492.527	842.38
492.745	846.38
492.963	835.38
493.18	874.38
493.398	861.38
493.615	874.38
493.833	883.38
494.05	857.38
494.268	868.38
494.485	841.38
494.703	850.38
494.92	839.38
495.138	836.38
495.355	844.38
495.573	867.38
495.79	863.38
496.008	865.38
496.225	835.38
496.442	852.38
496.66	870.38
496.877	883.38
497.094	841.38
497.312	876.38
497.529	900.38
497.746	892.38
497.963	938.38
498.181	965.38
498.398	971.38
498.615	966.38
498.832	1000.38
499.049	1004.38
499.267	1046.38
499.484	1092.38
499.701	1162.38
499.918	1203.38
500.135	1294.38
500.352	1364.38
500.569	1415.38
500.786	1409.38
501.003	1357.38
501.22	1293.38
501.437	1246.38
501.654	1209.38
