Data from 1974.PennyLincolnUp.Lamp.En5.5.200Scan.071719.P1.Changed Mount._HRD10591_15-52-39-858.txt Node
Date: Thu Jul 18 15:52:39 EDT 2019
User: cochatt
Spectrometer: HR+D1059
Trigger mode: 1
Integration Time (sec): 1.000000E-1
Scans to average: 1
Electric dark correction enabled: true
Nonlinearity correction enabled: false
Boxcar width: 0
XAxis mode: Wavelengths
Number of Pixels in Spectrum: 2048
>>>>>Begin Spectral Data<<<<<
223.165	-21.06
223.4	-21.06
223.635	-21.06
223.869	-14.06
224.104	-15.06
224.338	-11.06
224.573	-0.06
224.808	-16.06
225.042	-13.06
225.277	5.94
225.511	-22.06
225.746	13.94
225.98	14.94
226.215	7.94
226.449	7.94
226.683	13.94
226.918	20.94
227.152	26.94
227.387	24.94
227.621	32.94
227.856	46.94
228.09	51.94
228.324	50.94
228.559	38.94
228.793	78.94
229.027	98.94
229.262	106.94
229.496	134.94
229.73	130.94
229.964	170.94
230.199	125.94
230.433	107.94
230.667	113.94
230.901	114.94
231.136	116.94
231.37	117.94
231.604	120.94
231.838	111.94
232.072	101.94
232.306	114.94
232.541	126.94
232.775	123.94
233.009	116.94
233.243	128.94
233.477	115.94
233.711	119.94
233.945	129.94
234.179	118.94
234.413	119.94
234.647	111.94
234.881	123.94
235.115	112.94
235.349	116.94
235.583	129.94
235.817	127.94
236.051	143.94
236.285	144.94
236.519	139.94
236.753	152.94
236.987	150.94
237.221	157.94
237.455	226.94
237.689	182.94
237.922	161.94
238.156	129.94
238.39	136.94
238.624	130.94
238.858	111.94
239.091	126.94
239.325	134.94
239.559	137.94
239.793	128.94
240.027	134.94
240.26	145.94
240.494	150.94
240.728	168.94
240.961	168.94
241.195	141.94
241.429	143.94
241.662	139.94
241.896	152.94
242.13	136.94
242.363	132.94
242.597	138.94
242.83	152.94
243.064	140.94
243.298	142.94
243.531	142.94
243.765	149.94
243.998	144.94
244.232	162.94
244.465	153.94
244.699	171.94
244.932	157.94
245.166	152.94
245.399	152.94
245.633	159.94
245.866	163.94
246.099	161.94
246.333	170.94
246.566	167.94
246.8	158.94
247.033	150.94
247.266	178.94
247.5	168.94
247.733	180.94
247.966	175.94
248.2	194.94
248.433	182.94
248.666	182.94
248.899	190.94
249.133	190.94
249.366	224.94
249.599	213.94
249.832	194.94
250.066	188.94
250.299	184.94
250.532	186.94
250.765	231.94
250.998	240.94
251.231	258.94
251.465	221.94
251.698	206.94
251.931	228.94
252.164	209.94
252.397	199.94
252.63	203.94
252.863	203.94
253.096	222.94
253.329	242.94
253.562	230.94
253.795	226.94
254.028	226.94
254.261	210.94
254.494	233.94
254.727	255.94
254.96	271.94
255.193	274.94
255.426	256.94
255.659	237.94
255.892	259.94
256.124	243.94
256.357	255.94
256.59	243.94
256.823	221.94
257.056	229.94
257.289	216.94
257.521	223.94
257.754	226.94
257.987	210.94
258.22	228.94
258.452	240.94
258.685	224.94
258.918	212.94
259.151	222.94
259.383	243.94
259.616	236.94
259.849	232.94
260.081	251.94
260.314	256.94
260.547	269.94
260.779	246.94
261.012	247.94
261.244	258.94
261.477	236.94
261.71	244.94
261.942	238.94
262.175	252.94
262.407	221.94
262.64	224.94
262.872	235.94
263.105	236.94
263.337	242.94
263.57	237.94
263.802	231.94
264.035	224.94
264.267	221.94
264.499	238.94
264.732	244.94
264.964	216.94
265.197	229.94
265.429	231.94
265.661	266.94
265.894	234.94
266.126	253.94
266.358	238.94
266.591	230.94
266.823	249.94
267.055	243.94
267.287	258.94
267.52	231.94
267.752	245.94
267.984	253.94
268.216	244.94
268.448	242.94
268.681	250.94
268.913	259.94
269.145	264.94
269.377	274.94
269.609	301.94
269.841	286.94
270.073	293.94
270.306	301.94
270.538	316.94
270.77	314.94
271.002	306.94
271.234	286.94
271.466	314.94
271.698	312.94
271.93	343.94
272.162	329.94
272.394	322.94
272.626	320.94
272.858	310.94
273.09	286.94
273.322	294.94
273.553	268.94
273.785	295.94
274.017	271.94
274.249	269.94
274.481	295.94
274.713	263.94
274.945	311.94
275.176	291.94
275.408	282.94
275.64	279.94
275.872	294.94
276.104	285.94
276.335	284.94
276.567	308.94
276.799	289.94
277.031	314.94
277.262	334.94
277.494	333.94
277.726	308.94
277.957	314.94
278.189	301.94
278.421	282.94
278.652	282.94
278.884	291.94
279.115	284.94
279.347	295.94
279.579	290.94
279.81	283.94
280.042	287.94
280.273	285.94
280.505	283.94
280.736	281.94
280.968	273.94
281.199	282.94
281.431	296.94
281.662	295.94
281.894	273.94
282.125	286.94
282.356	296.94
282.588	329.94
282.819	322.94
283.051	308.94
283.282	308.94
283.513	300.94
283.745	298.94
283.976	303.94
284.207	295.94
284.439	309.94
284.67	302.94
284.901	298.94
285.132	295.94
285.364	304.94
285.595	307.94
285.826	318.94
286.057	317.94
286.288	310.94
286.52	297.94
286.751	316.94
286.982	318.94
287.213	308.94
287.444	301.94
287.675	318.94
287.906	317.94
288.138	333.94
288.369	316.94
288.6	330.94
288.831	311.94
289.062	321.94
289.293	327.94
289.524	296.94
289.755	340.94
289.986	327.94
290.217	302.94
290.448	328.94
290.679	302.94
290.91	320.94
291.141	314.94
291.371	319.94
291.602	317.94
291.833	333.94
292.064	321.94
292.295	307.94
292.526	325.94
292.757	303.94
292.987	331.94
293.218	315.94
293.449	318.94
293.68	301.94
293.91	326.94
294.141	298.94
294.372	314.94
294.603	329.94
294.833	323.94
295.064	311.94
295.295	322.94
295.525	327.94
295.756	327.94
295.987	343.94
296.217	343.94
296.448	346.94
296.679	343.94
296.909	319.94
297.14	335.94
297.37	332.94
297.601	326.94
297.831	323.94
298.062	327.94
298.292	319.94
298.523	338.94
298.753	315.94
298.984	334.94
299.214	330.94
299.445	329.94
299.675	338.94
299.905	340.94
300.136	359.94
300.366	334.94
300.597	345.94
300.827	351.94
301.057	356.94
301.288	350.94
301.518	360.94
301.748	348.94
301.979	356.94
302.209	358.94
302.439	354.94
302.669	362.94
302.9	364.94
303.13	352.94
303.36	354.94
303.59	366.94
303.82	374.94
304.051	354.94
304.281	361.94
304.511	378.94
304.741	370.94
304.971	343.94
305.201	361.94
305.431	355.94
305.661	363.94
305.891	362.94
306.121	360.94
306.352	360.94
306.582	355.94
306.812	343.94
307.042	354.94
307.272	358.94
307.502	356.94
307.731	361.94
307.961	363.94
308.191	366.94
308.421	364.94
308.651	361.94
308.881	378.94
309.111	376.94
309.341	395.94
309.571	378.94
309.8	367.94
310.03	382.94
310.26	398.94
310.49	379.94
310.72	399.94
310.949	404.94
311.179	400.94
311.409	380.94
311.639	386.94
311.868	392.94
312.098	401.94
312.328	411.94
312.557	398.94
312.787	418.94
313.017	430.94
313.246	415.94
313.476	410.94
313.706	412.94
313.935	406.94
314.165	391.94
314.394	406.94
314.624	402.94
314.853	412.94
315.083	401.94
315.312	406.94
315.542	399.94
315.771	392.94
316.001	386.94
316.23	392.94
316.46	395.94
316.689	409.94
316.919	403.94
317.148	400.94
317.377	395.94
317.607	406.94
317.836	427.94
318.065	392.94
318.295	397.94
318.524	394.94
318.753	401.94
318.983	431.94
319.212	388.94
319.441	402.94
319.67	424.94
319.9	401.94
320.129	396.94
320.358	390.94
320.587	414.94
320.816	420.94
321.046	425.94
321.275	422.94
321.504	420.94
321.733	445.94
321.962	420.94
322.191	438.94
322.42	420.94
322.649	450.94
322.878	445.94
323.108	470.94
323.337	472.94
323.566	493.94
323.795	522.94
324.024	557.94
324.253	646.94
324.482	846.94
324.71	1246.94
324.939	1873.94
325.168	1622.94
325.397	845.94
325.626	601.94
325.855	512.94
326.084	498.94
326.313	476.94
326.542	507.94
326.77	507.94
326.999	614.94
327.228	804.94
327.457	1126.94
327.686	1398.94
327.914	939.94
328.143	640.94
328.372	596.94
328.6	547.94
328.829	547.94
329.058	564.94
329.287	563.94
329.515	522.94
329.744	508.94
329.972	500.94
330.201	502.94
330.43	565.94
330.658	585.94
330.887	588.94
331.115	592.94
331.344	525.94
331.572	491.94
331.801	501.94
332.03	491.94
332.258	489.94
332.486	488.94
332.715	486.94
332.943	501.94
333.172	510.94
333.4	490.94
333.629	503.94
333.857	519.94
334.085	509.94
334.314	540.94
334.542	559.94
334.771	582.94
334.999	538.94
335.227	520.94
335.455	526.94
335.684	504.94
335.912	496.94
336.14	491.94
336.369	516.94
336.597	484.94
336.825	483.94
337.053	489.94
337.281	467.94
337.51	464.94
337.738	479.94
337.966	450.94
338.194	477.94
338.422	488.94
338.65	478.94
338.878	469.94
339.106	438.94
339.334	475.94
339.562	471.94
339.79	460.94
340.018	466.94
340.246	448.94
340.474	471.94
340.702	460.94
340.93	455.94
341.158	472.94
341.386	446.94
341.614	450.94
341.842	475.94
342.07	464.94
342.298	441.94
342.526	453.94
342.754	462.94
342.981	456.94
343.209	445.94
343.437	460.94
343.665	467.94
343.893	490.94
344.12	481.94
344.348	475.94
344.576	485.94
344.804	502.94
345.031	482.94
345.259	452.94
345.487	494.94
345.714	438.94
345.942	438.94
346.17	444.94
346.397	443.94
346.625	469.94
346.853	454.94
347.08	440.94
347.308	465.94
347.535	482.94
347.763	455.94
347.99	455.94
348.218	450.94
348.445	454.94
348.673	448.94
348.9	482.94
349.128	450.94
349.355	441.94
349.583	414.94
349.81	436.94
350.037	436.94
350.265	448.94
350.492	447.94
350.72	438.94
350.947	443.94
351.174	467.94
351.402	449.94
351.629	472.94
351.856	454.94
352.083	459.94
352.311	460.94
352.538	468.94
352.765	474.94
352.992	444.94
353.22	449.94
353.447	462.94
353.674	424.94
353.901	438.94
354.128	427.94
354.355	403.94
354.583	429.94
354.81	429.94
355.037	421.94
355.264	402.94
355.491	421.94
355.718	418.94
355.945	418.94
356.172	442.94
356.399	429.94
356.626	440.94
356.853	458.94
357.08	425.94
357.307	427.94
357.534	425.94
357.761	435.94
357.988	450.94
358.215	418.94
358.441	421.94
358.668	423.94
358.895	432.94
359.122	420.94
359.349	418.94
359.576	419.94
359.802	464.94
360.029	487.94
360.256	503.94
360.483	502.94
360.709	464.94
360.936	459.94
361.163	454.94
361.39	456.94
361.616	479.94
361.843	440.94
362.07	461.94
362.296	439.94
362.523	464.94
362.749	444.94
362.976	448.94
363.203	446.94
363.429	438.94
363.656	469.94
363.882	454.94
364.109	445.94
364.335	438.94
364.562	443.94
364.788	436.94
365.015	455.94
365.241	445.94
365.468	450.94
365.694	458.94
365.92	446.94
366.147	443.94
366.373	424.94
366.599	450.94
366.826	446.94
367.052	462.94
367.278	438.94
367.505	455.94
367.731	444.94
367.957	451.94
368.184	439.94
368.41	434.94
368.636	469.94
368.862	458.94
369.089	458.94
369.315	439.94
369.541	436.94
369.767	444.94
369.993	446.94
370.219	455.94
370.445	446.94
370.672	450.94
370.898	446.94
371.124	436.94
371.35	459.94
371.576	454.94
371.802	455.94
372.028	442.94
372.254	462.94
372.48	462.94
372.706	469.94
372.932	455.94
373.158	464.94
373.384	468.94
373.61	451.94
373.835	462.94
374.061	439.94
374.287	448.94
374.513	441.94
374.739	475.94
374.965	488.94
375.191	473.94
375.416	483.94
375.642	463.94
375.868	466.94
376.094	466.94
376.319	444.94
376.545	468.94
376.771	469.94
376.997	444.94
377.222	436.94
377.448	440.94
377.674	447.94
377.899	445.94
378.125	454.94
378.35	450.94
378.576	447.94
378.802	438.94
379.027	456.94
379.253	459.94
379.478	424.94
379.704	440.94
379.929	452.94
380.155	457.94
380.38	462.94
380.606	465.94
380.831	465.94
381.057	490.94
381.282	462.94
381.507	461.94
381.733	454.94
381.958	452.94
382.184	454.94
382.409	471.94
382.634	471.94
382.86	472.94
383.085	484.94
383.31	467.94
383.535	489.94
383.761	483.94
383.986	464.94
384.211	504.94
384.436	509.94
384.662	501.94
384.887	491.94
385.112	486.94
385.337	521.94
385.562	528.94
385.787	519.94
386.013	522.94
386.238	547.94
386.463	503.94
386.688	519.94
386.913	520.94
387.138	485.94
387.363	487.94
387.588	496.94
387.813	507.94
388.038	505.94
388.263	519.94
388.488	511.94
388.713	500.94
388.938	508.94
389.163	515.94
389.387	489.94
389.612	495.94
389.837	503.94
390.062	509.94
390.287	478.94
390.512	510.94
390.736	513.94
390.961	491.94
391.186	490.94
391.411	510.94
391.636	502.94
391.86	519.94
392.085	549.94
392.31	532.94
392.534	542.94
392.759	521.94
392.984	539.94
393.208	509.94
393.433	516.94
393.658	525.94
393.882	508.94
394.107	532.94
394.331	532.94
394.556	507.94
394.78	530.94
395.005	532.94
395.229	520.94
395.454	526.94
395.678	555.94
395.903	550.94
396.127	553.94
396.352	569.94
396.576	534.94
396.801	546.94
397.025	534.94
397.249	554.94
397.474	551.94
397.698	539.94
397.922	553.94
398.147	573.94
398.371	582.94
398.595	576.94
398.82	570.94
399.044	595.94
399.268	645.94
399.492	658.94
399.717	747.94
399.941	726.94
400.165	741.94
400.389	748.94
400.613	674.94
400.837	622.94
401.062	592.94
401.286	605.94
401.51	584.94
401.734	557.94
401.958	597.94
402.182	580.94
402.406	604.94
402.63	612.94
402.854	610.94
403.078	603.94
403.302	632.94
403.526	628.94
403.75	646.94
403.974	610.94
404.198	634.94
404.422	640.94
404.645	629.94
404.869	641.94
405.093	656.94
405.317	678.94
405.541	738.94
405.765	673.94
405.988	657.94
406.212	650.94
406.436	644.94
406.66	696.94
406.883	666.94
407.107	693.94
407.331	740.94
407.555	804.94
407.778	807.94
408.002	758.94
408.226	690.94
408.449	668.94
408.673	666.94
408.896	701.94
409.12	744.94
409.344	702.94
409.567	653.94
409.791	642.94
410.014	588.94
410.238	607.94
410.461	637.94
410.685	622.94
410.908	634.94
411.132	677.94
411.355	700.94
411.578	670.94
411.802	628.94
412.025	615.94
412.249	654.94
412.472	652.94
412.695	700.94
412.919	672.94
413.142	644.94
413.365	612.94
413.589	611.94
413.812	600.94
414.035	583.94
414.258	590.94
414.482	592.94
414.705	607.94
414.928	596.94
415.151	589.94
415.374	567.94
415.597	579.94
415.821	585.94
416.044	583.94
416.267	580.94
416.49	562.94
416.713	580.94
416.936	592.94
417.159	574.94
417.382	566.94
417.605	578.94
417.828	605.94
418.051	596.94
418.274	603.94
418.497	571.94
418.72	590.94
418.943	589.94
419.166	617.94
419.389	646.94
419.611	649.94
419.834	617.94
420.057	620.94
420.28	612.94
420.503	604.94
420.726	585.94
420.948	627.94
421.171	633.94
421.394	685.94
421.617	616.94
421.839	600.94
422.062	605.94
422.285	616.94
422.507	675.94
422.73	774.94
422.953	719.94
423.175	642.94
423.398	653.94
423.621	607.94
423.843	637.94
424.066	648.94
424.288	634.94
424.511	669.94
424.733	719.94
424.956	791.94
425.178	790.94
425.401	760.94
425.623	785.94
425.846	688.94
426.068	651.94
426.291	648.94
426.513	652.94
426.735	646.94
426.958	673.94
427.18	763.94
427.402	884.94
427.625	986.94
427.847	834.94
428.069	744.94
428.292	656.94
428.514	640.94
428.736	624.94
428.958	596.94
429.181	592.94
429.403	560.94
429.625	606.94
429.847	623.94
430.069	696.94
430.292	695.94
430.514	618.94
430.736	580.94
430.958	595.94
431.18	578.94
431.402	587.94
431.624	558.94
431.846	558.94
432.068	582.94
432.29	576.94
432.512	557.94
432.734	574.94
432.956	568.94
433.178	562.94
433.4	612.94
433.622	571.94
433.844	574.94
434.066	593.94
434.287	566.94
434.509	592.94
434.731	580.94
434.953	590.94
435.175	626.94
435.397	620.94
435.618	644.94
435.84	690.94
436.062	770.94
436.284	863.94
436.505	707.94
436.727	648.94
436.949	624.94
437.17	590.94
437.392	596.94
437.614	589.94
437.835	633.94
438.057	733.94
438.278	839.94
438.5	832.94
438.721	894.94
438.943	884.94
439.165	710.94
439.386	649.94
439.608	648.94
439.829	619.94
440.05	685.94
440.272	719.94
440.493	686.94
440.715	630.94
440.936	616.94
441.158	602.94
441.379	596.94
441.6	620.94
441.822	621.94
442.043	687.94
442.264	764.94
442.486	822.94
442.707	710.94
442.928	664.94
443.149	673.94
443.371	684.94
443.592	704.94
443.813	829.94
444.034	892.94
444.255	755.94
444.476	674.94
444.698	692.94
444.919	655.94
445.14	751.94
445.361	698.94
445.582	703.94
445.803	724.94
446.024	826.94
446.245	830.94
446.466	782.94
446.687	687.94
446.908	664.94
447.129	617.94
447.35	576.94
447.571	582.94
447.792	568.94
448.013	595.94
448.234	590.94
448.455	679.94
448.675	748.94
448.896	900.94
449.117	773.94
449.338	730.94
449.559	818.94
449.779	924.94
450	754.94
450.221	634.94
450.442	598.94
450.662	555.94
450.883	545.94
451.104	588.94
451.324	562.94
451.545	537.94
451.766	564.94
451.986	526.94
452.207	516.94
452.428	524.94
452.648	533.94
452.869	504.94
453.089	520.94
453.31	546.94
453.53	539.94
453.751	527.94
453.971	532.94
454.192	556.94
454.412	519.94
454.633	516.94
454.853	535.94
455.073	527.94
455.294	524.94
455.514	597.94
455.734	594.94
455.955	511.94
456.175	498.94
456.395	493.94
456.616	504.94
456.836	500.94
457.056	500.94
457.276	479.94
457.497	473.94
457.717	509.94
457.937	520.94
458.157	508.94
458.377	528.94
458.598	539.94
458.818	597.94
459.038	644.94
459.258	681.94
459.478	609.94
459.698	574.94
459.918	552.94
460.138	574.94
460.358	598.94
460.578	589.94
460.798	593.94
461.018	575.94
461.238	593.94
461.458	598.94
461.678	569.94
461.898	587.94
462.118	591.94
462.338	601.94
462.558	639.94
462.777	628.94
462.997	644.94
463.217	676.94
463.437	668.94
463.657	654.94
463.876	629.94
464.096	638.94
464.316	660.94
464.536	651.94
464.755	643.94
464.975	654.94
465.195	642.94
465.414	686.94
465.634	641.94
465.854	587.94
466.073	593.94
466.293	563.94
466.512	559.94
466.732	556.94
466.951	550.94
467.171	528.94
467.391	551.94
467.61	538.94
467.829	563.94
468.049	568.94
468.268	547.94
468.488	535.94
468.707	513.94
468.927	559.94
469.146	541.94
469.365	535.94
469.585	537.94
469.804	556.94
470.023	548.94
470.243	566.94
470.462	582.94
470.681	584.94
470.901	573.94
471.12	566.94
471.339	552.94
471.558	570.94
471.777	564.94
471.997	547.94
472.216	543.94
472.435	590.94
472.654	570.94
472.873	543.94
473.092	551.94
473.311	551.94
473.53	566.94
473.749	558.94
473.968	588.94
474.187	696.94
474.406	674.94
474.625	592.94
474.844	564.94
475.063	568.94
475.282	535.94
475.501	544.94
475.72	564.94
475.939	544.94
476.158	557.94
476.377	557.94
476.596	546.94
476.814	555.94
477.033	565.94
477.252	587.94
477.471	572.94
477.69	598.94
477.908	628.94
478.127	615.94
478.346	637.94
478.564	634.94
478.783	623.94
479.002	653.94
479.22	653.94
479.439	636.94
479.658	652.94
479.876	666.94
480.095	687.94
480.313	692.94
480.532	697.94
480.751	672.94
480.969	696.94
481.188	725.94
481.406	747.94
481.624	708.94
481.843	676.94
482.061	662.94
482.28	660.94
482.498	658.94
482.717	627.94
482.935	632.94
483.153	655.94
483.372	671.94
483.59	654.94
483.808	655.94
484.027	627.94
484.245	668.94
484.463	655.94
484.681	661.94
484.9	648.94
485.118	671.94
485.336	661.94
485.554	663.94
485.772	698.94
485.99	655.94
486.209	662.94
486.427	646.94
486.645	662.94
486.863	662.94
487.081	701.94
487.299	673.94
487.517	667.94
487.735	695.94
487.953	698.94
488.171	705.94
488.389	695.94
488.607	691.94
488.825	692.94
489.043	685.94
489.261	700.94
489.479	726.94
489.696	732.94
489.914	708.94
490.132	721.94
490.35	719.94
490.568	767.94
490.786	764.94
491.003	735.94
491.221	762.94
491.439	763.94
491.657	795.94
491.874	777.94
492.092	796.94
492.31	820.94
492.527	800.94
492.745	810.94
492.963	804.94
493.18	828.94
493.398	832.94
493.615	818.94
493.833	820.94
494.05	795.94
494.268	832.94
494.485	839.94
494.703	834.94
494.92	839.94
495.138	812.94
495.355	816.94
495.573	808.94
495.79	818.94
496.008	836.94
496.225	833.94
496.442	855.94
496.66	841.94
496.877	822.94
497.094	867.94
497.312	879.94
497.529	851.94
497.746	850.94
497.963	886.94
498.181	896.94
498.398	925.94
498.615	936.94
498.832	971.94
499.049	1017.94
499.267	1041.94
499.484	1084.94
499.701	1134.94
499.918	1141.94
500.135	1228.94
500.352	1298.94
500.569	1324.94
500.786	1326.94
501.003	1284.94
501.22	1242.94
501.437	1172.94
501.654	1119.94
