Data from 1974.PennyLincolnUp.Lamp.En5.5.200Scan.071719.P1.Changed Mount._HRD10591_15-52-11-857.txt Node
Date: Thu Jul 18 15:52:11 EDT 2019
User: cochatt
Spectrometer: HR+D1059
Trigger mode: 1
Integration Time (sec): 1.000000E-1
Scans to average: 1
Electric dark correction enabled: true
Nonlinearity correction enabled: false
Boxcar width: 0
XAxis mode: Wavelengths
Number of Pixels in Spectrum: 2048
>>>>>Begin Spectral Data<<<<<
223.165	-0.5
223.4	-0.5
223.635	-0.5
223.869	-16.5
224.104	-11.5
224.338	-13.5
224.573	-21.5
224.808	-9.5
225.042	-14.5
225.277	-4.5
225.511	-0.5
225.746	10.5
225.98	7.5
226.215	18.5
226.449	20.5
226.683	-2.5
226.918	8.5
227.152	29.5
227.387	34.5
227.621	36.5
227.856	47.5
228.09	34.5
228.324	38.5
228.559	31.5
228.793	55.5
229.027	87.5
229.262	112.5
229.496	98.5
229.73	135.5
229.964	164.5
230.199	140.5
230.433	124.5
230.667	123.5
230.901	99.5
231.136	103.5
231.37	117.5
231.604	121.5
231.838	105.5
232.072	108.5
232.306	112.5
232.541	116.5
232.775	109.5
233.009	121.5
233.243	112.5
233.477	113.5
233.711	124.5
233.945	121.5
234.179	131.5
234.413	111.5
234.647	114.5
234.881	120.5
235.115	104.5
235.349	115.5
235.583	111.5
235.817	134.5
236.051	109.5
236.285	115.5
236.519	131.5
236.753	138.5
236.987	131.5
237.221	176.5
237.455	218.5
237.689	180.5
237.922	141.5
238.156	139.5
238.39	136.5
238.624	127.5
238.858	135.5
239.091	141.5
239.325	137.5
239.559	136.5
239.793	137.5
240.027	117.5
240.26	132.5
240.494	170.5
240.728	135.5
240.961	146.5
241.195	142.5
241.429	140.5
241.662	136.5
241.896	142.5
242.13	133.5
242.363	153.5
242.597	131.5
242.83	133.5
243.064	148.5
243.298	132.5
243.531	134.5
243.765	147.5
243.998	166.5
244.232	151.5
244.465	148.5
244.699	155.5
244.932	167.5
245.166	156.5
245.399	150.5
245.633	148.5
245.866	142.5
246.099	166.5
246.333	144.5
246.566	147.5
246.8	164.5
247.033	175.5
247.266	155.5
247.5	168.5
247.733	175.5
247.966	188.5
248.2	176.5
248.433	183.5
248.666	187.5
248.899	193.5
249.133	211.5
249.366	197.5
249.599	202.5
249.832	193.5
250.066	190.5
250.299	208.5
250.532	180.5
250.765	208.5
250.998	220.5
251.231	231.5
251.465	215.5
251.698	224.5
251.931	227.5
252.164	187.5
252.397	189.5
252.63	212.5
252.863	220.5
253.096	209.5
253.329	222.5
253.562	226.5
253.795	223.5
254.028	210.5
254.261	217.5
254.494	229.5
254.727	240.5
254.96	276.5
255.193	266.5
255.426	267.5
255.659	236.5
255.892	235.5
256.124	233.5
256.357	233.5
256.59	241.5
256.823	225.5
257.056	203.5
257.289	216.5
257.521	208.5
257.754	219.5
257.987	220.5
258.22	216.5
258.452	231.5
258.685	203.5
258.918	221.5
259.151	220.5
259.383	235.5
259.616	221.5
259.849	221.5
260.081	237.5
260.314	275.5
260.547	256.5
260.779	242.5
261.012	244.5
261.244	256.5
261.477	224.5
261.71	219.5
261.942	227.5
262.175	242.5
262.407	241.5
262.64	235.5
262.872	240.5
263.105	212.5
263.337	213.5
263.57	213.5
263.802	213.5
264.035	221.5
264.267	215.5
264.499	231.5
264.732	220.5
264.964	234.5
265.197	214.5
265.429	216.5
265.661	224.5
265.894	224.5
266.126	225.5
266.358	213.5
266.591	223.5
266.823	259.5
267.055	258.5
267.287	253.5
267.52	229.5
267.752	237.5
267.984	236.5
268.216	248.5
268.448	231.5
268.681	240.5
268.913	240.5
269.145	264.5
269.377	274.5
269.609	271.5
269.841	283.5
270.073	269.5
270.306	279.5
270.538	323.5
270.77	311.5
271.002	307.5
271.234	294.5
271.466	289.5
271.698	309.5
271.93	345.5
272.162	336.5
272.394	333.5
272.626	308.5
272.858	293.5
273.09	285.5
273.322	292.5
273.553	278.5
273.785	293.5
274.017	269.5
274.249	273.5
274.481	266.5
274.713	282.5
274.945	289.5
275.176	258.5
275.408	266.5
275.64	287.5
275.872	257.5
276.104	279.5
276.335	272.5
276.567	284.5
276.799	297.5
277.031	307.5
277.262	332.5
277.494	330.5
277.726	315.5
277.957	300.5
278.189	295.5
278.421	301.5
278.652	287.5
278.884	282.5
279.115	283.5
279.347	292.5
279.579	291.5
279.81	284.5
280.042	293.5
280.273	273.5
280.505	267.5
280.736	275.5
280.968	275.5
281.199	257.5
281.431	275.5
281.662	282.5
281.894	278.5
282.125	289.5
282.356	292.5
282.588	292.5
282.819	312.5
283.051	296.5
283.282	276.5
283.513	301.5
283.745	271.5
283.976	292.5
284.207	288.5
284.439	294.5
284.67	303.5
284.901	303.5
285.132	288.5
285.364	298.5
285.595	297.5
285.826	291.5
286.057	309.5
286.288	312.5
286.52	308.5
286.751	312.5
286.982	308.5
287.213	304.5
287.444	295.5
287.675	292.5
287.906	332.5
288.138	306.5
288.369	346.5
288.6	307.5
288.831	309.5
289.062	310.5
289.293	327.5
289.524	320.5
289.755	297.5
289.986	313.5
290.217	314.5
290.448	320.5
290.679	325.5
290.91	315.5
291.141	300.5
291.371	298.5
291.602	316.5
291.833	320.5
292.064	316.5
292.295	324.5
292.526	307.5
292.757	306.5
292.987	323.5
293.218	292.5
293.449	289.5
293.68	311.5
293.91	287.5
294.141	293.5
294.372	307.5
294.603	319.5
294.833	288.5
295.064	312.5
295.295	323.5
295.525	316.5
295.756	320.5
295.987	323.5
296.217	337.5
296.448	319.5
296.679	310.5
296.909	325.5
297.14	319.5
297.37	333.5
297.601	341.5
297.831	293.5
298.062	328.5
298.292	321.5
298.523	327.5
298.753	316.5
298.984	329.5
299.214	333.5
299.445	322.5
299.675	334.5
299.905	331.5
300.136	317.5
300.366	330.5
300.597	334.5
300.827	341.5
301.057	346.5
301.288	330.5
301.518	323.5
301.748	340.5
301.979	332.5
302.209	348.5
302.439	354.5
302.669	356.5
302.9	353.5
303.13	352.5
303.36	365.5
303.59	358.5
303.82	349.5
304.051	340.5
304.281	330.5
304.511	350.5
304.741	357.5
304.971	339.5
305.201	339.5
305.431	336.5
305.661	345.5
305.891	342.5
306.121	338.5
306.352	344.5
306.582	337.5
306.812	333.5
307.042	361.5
307.272	346.5
307.502	362.5
307.731	350.5
307.961	344.5
308.191	323.5
308.421	366.5
308.651	339.5
308.881	340.5
309.111	343.5
309.341	344.5
309.571	367.5
309.8	367.5
310.03	370.5
310.26	367.5
310.49	374.5
310.72	375.5
310.949	390.5
311.179	397.5
311.409	388.5
311.639	390.5
311.868	391.5
312.098	383.5
312.328	393.5
312.557	381.5
312.787	417.5
313.017	410.5
313.246	393.5
313.476	375.5
313.706	375.5
313.935	382.5
314.165	398.5
314.394	408.5
314.624	393.5
314.853	390.5
315.083	401.5
315.312	394.5
315.542	406.5
315.771	391.5
316.001	380.5
316.23	389.5
316.46	377.5
316.689	398.5
316.919	381.5
317.148	415.5
317.377	404.5
317.607	390.5
317.836	399.5
318.065	394.5
318.295	396.5
318.524	401.5
318.753	387.5
318.983	383.5
319.212	392.5
319.441	392.5
319.67	402.5
319.9	405.5
320.129	413.5
320.358	410.5
320.587	397.5
320.816	398.5
321.046	404.5
321.275	390.5
321.504	415.5
321.733	411.5
321.962	426.5
322.191	413.5
322.42	405.5
322.649	429.5
322.878	439.5
323.108	449.5
323.337	466.5
323.566	465.5
323.795	502.5
324.024	528.5
324.253	601.5
324.482	805.5
324.71	1267.5
324.939	1798.5
325.168	1604.5
325.397	825.5
325.626	601.5
325.855	516.5
326.084	472.5
326.313	462.5
326.542	479.5
326.77	507.5
326.999	578.5
327.228	738.5
327.457	1124.5
327.686	1358.5
327.914	951.5
328.143	650.5
328.372	565.5
328.6	560.5
328.829	545.5
329.058	546.5
329.287	555.5
329.515	516.5
329.744	504.5
329.972	515.5
330.201	507.5
330.43	531.5
330.658	550.5
330.887	592.5
331.115	567.5
331.344	515.5
331.572	503.5
331.801	494.5
332.03	490.5
332.258	471.5
332.486	474.5
332.715	508.5
332.943	480.5
333.172	478.5
333.4	483.5
333.629	509.5
333.857	529.5
334.085	506.5
334.314	516.5
334.542	538.5
334.771	544.5
334.999	538.5
335.227	491.5
335.455	482.5
335.684	493.5
335.912	500.5
336.14	473.5
336.369	475.5
336.597	473.5
336.825	469.5
337.053	461.5
337.281	470.5
337.51	476.5
337.738	475.5
337.966	464.5
338.194	469.5
338.422	454.5
338.65	465.5
338.878	468.5
339.106	453.5
339.334	468.5
339.562	462.5
339.79	431.5
340.018	447.5
340.246	452.5
340.474	453.5
340.702	463.5
340.93	434.5
341.158	435.5
341.386	467.5
341.614	460.5
341.842	438.5
342.07	442.5
342.298	436.5
342.526	452.5
342.754	437.5
342.981	435.5
343.209	457.5
343.437	459.5
343.665	464.5
343.893	455.5
344.12	473.5
344.348	482.5
344.576	489.5
344.804	472.5
345.031	455.5
345.259	473.5
345.487	462.5
345.714	460.5
345.942	443.5
346.17	447.5
346.397	419.5
346.625	442.5
346.853	447.5
347.08	445.5
347.308	406.5
347.535	428.5
347.763	461.5
347.99	460.5
348.218	436.5
348.445	437.5
348.673	448.5
348.9	443.5
349.128	442.5
349.355	432.5
349.583	441.5
349.81	421.5
350.037	402.5
350.265	418.5
350.492	427.5
350.72	430.5
350.947	433.5
351.174	441.5
351.402	433.5
351.629	444.5
351.856	445.5
352.083	444.5
352.311	439.5
352.538	461.5
352.765	447.5
352.992	433.5
353.22	434.5
353.447	431.5
353.674	430.5
353.901	419.5
354.128	431.5
354.355	418.5
354.583	403.5
354.81	413.5
355.037	431.5
355.264	408.5
355.491	407.5
355.718	412.5
355.945	418.5
356.172	420.5
356.399	403.5
356.626	409.5
356.853	422.5
357.08	415.5
357.307	443.5
357.534	403.5
357.761	426.5
357.988	412.5
358.215	429.5
358.441	425.5
358.668	412.5
358.895	408.5
359.122	433.5
359.349	431.5
359.576	433.5
359.802	445.5
360.029	474.5
360.256	482.5
360.483	453.5
360.709	447.5
360.936	432.5
361.163	449.5
361.39	434.5
361.616	447.5
361.843	458.5
362.07	454.5
362.296	424.5
362.523	446.5
362.749	450.5
362.976	435.5
363.203	429.5
363.429	411.5
363.656	421.5
363.882	419.5
364.109	421.5
364.335	413.5
364.562	423.5
364.788	433.5
365.015	428.5
365.241	431.5
365.468	427.5
365.694	428.5
365.92	453.5
366.147	433.5
366.373	441.5
366.599	421.5
366.826	431.5
367.052	419.5
367.278	419.5
367.505	435.5
367.731	439.5
367.957	437.5
368.184	428.5
368.41	436.5
368.636	433.5
368.862	473.5
369.089	441.5
369.315	444.5
369.541	435.5
369.767	421.5
369.993	420.5
370.219	455.5
370.445	419.5
370.672	441.5
370.898	439.5
371.124	417.5
371.35	426.5
371.576	423.5
371.802	442.5
372.028	416.5
372.254	439.5
372.48	435.5
372.706	432.5
372.932	436.5
373.158	456.5
373.384	451.5
373.61	465.5
373.835	466.5
374.061	447.5
374.287	456.5
374.513	429.5
374.739	443.5
374.965	459.5
375.191	469.5
375.416	454.5
375.642	445.5
375.868	451.5
376.094	445.5
376.319	448.5
376.545	442.5
376.771	425.5
376.997	439.5
377.222	436.5
377.448	447.5
377.674	452.5
377.899	429.5
378.125	439.5
378.35	462.5
378.576	455.5
378.802	451.5
379.027	440.5
379.253	423.5
379.478	439.5
379.704	443.5
379.929	450.5
380.155	453.5
380.38	432.5
380.606	464.5
380.831	458.5
381.057	454.5
381.282	444.5
381.507	447.5
381.733	439.5
381.958	456.5
382.184	450.5
382.409	441.5
382.634	455.5
382.86	459.5
383.085	452.5
383.31	461.5
383.535	475.5
383.761	461.5
383.986	466.5
384.211	470.5
384.436	488.5
384.662	471.5
384.887	483.5
385.112	476.5
385.337	483.5
385.562	495.5
385.787	473.5
386.013	494.5
386.238	497.5
386.463	496.5
386.688	498.5
386.913	512.5
387.138	503.5
387.363	484.5
387.588	511.5
387.813	484.5
388.038	509.5
388.263	500.5
388.488	493.5
388.713	491.5
388.938	503.5
389.163	495.5
389.387	492.5
389.612	499.5
389.837	505.5
390.062	497.5
390.287	500.5
390.512	498.5
390.736	510.5
390.961	503.5
391.186	490.5
391.411	513.5
391.636	515.5
391.86	525.5
392.085	513.5
392.31	517.5
392.534	515.5
392.759	502.5
392.984	520.5
393.208	513.5
393.433	517.5
393.658	501.5
393.882	490.5
394.107	523.5
394.331	496.5
394.556	495.5
394.78	499.5
395.005	518.5
395.229	487.5
395.454	536.5
395.678	531.5
395.903	530.5
396.127	565.5
396.352	550.5
396.576	521.5
396.801	544.5
397.025	523.5
397.249	526.5
397.474	519.5
397.698	551.5
397.922	550.5
398.147	564.5
398.371	565.5
398.595	574.5
398.82	551.5
399.044	574.5
399.268	609.5
399.492	661.5
399.717	674.5
399.941	719.5
400.165	753.5
400.389	722.5
400.613	657.5
400.837	641.5
401.062	593.5
401.286	586.5
401.51	586.5
401.734	586.5
401.958	605.5
402.182	577.5
402.406	618.5
402.63	584.5
402.854	593.5
403.078	578.5
403.302	590.5
403.526	595.5
403.75	623.5
403.974	597.5
404.198	617.5
404.422	610.5
404.645	631.5
404.869	632.5
405.093	652.5
405.317	681.5
405.541	729.5
405.765	658.5
405.988	629.5
406.212	659.5
406.436	676.5
406.66	657.5
406.883	631.5
407.107	670.5
407.331	709.5
407.555	782.5
407.778	794.5
408.002	727.5
408.226	682.5
408.449	655.5
408.673	677.5
408.896	683.5
409.12	713.5
409.344	696.5
409.567	623.5
409.791	619.5
410.014	600.5
410.238	622.5
410.461	612.5
410.685	585.5
410.908	617.5
411.132	666.5
411.355	699.5
411.578	661.5
411.802	622.5
412.025	605.5
412.249	615.5
412.472	630.5
412.695	683.5
412.919	659.5
413.142	596.5
413.365	598.5
413.589	596.5
413.812	588.5
414.035	579.5
414.258	577.5
414.482	565.5
414.705	581.5
414.928	588.5
415.151	587.5
415.374	589.5
415.597	554.5
415.821	566.5
416.044	562.5
416.267	581.5
416.49	584.5
416.713	537.5
416.936	569.5
417.159	534.5
417.382	562.5
417.605	560.5
417.828	578.5
418.051	627.5
418.274	581.5
418.497	564.5
418.72	605.5
418.943	581.5
419.166	595.5
419.389	635.5
419.611	610.5
419.834	584.5
420.057	615.5
420.28	602.5
420.503	616.5
420.726	599.5
420.948	611.5
421.171	625.5
421.394	682.5
421.617	627.5
421.839	623.5
422.062	605.5
422.285	620.5
422.507	683.5
422.73	747.5
422.953	725.5
423.175	639.5
423.398	616.5
423.621	637.5
423.843	641.5
424.066	630.5
424.288	632.5
424.511	660.5
424.733	669.5
424.956	791.5
425.178	741.5
425.401	733.5
425.623	769.5
425.846	682.5
426.068	639.5
426.291	636.5
426.513	635.5
426.735	636.5
426.958	671.5
427.18	762.5
427.402	872.5
427.625	931.5
427.847	803.5
428.069	719.5
428.292	665.5
428.514	636.5
428.736	594.5
428.958	585.5
429.181	564.5
429.403	559.5
429.625	581.5
429.847	600.5
430.069	668.5
430.292	665.5
430.514	601.5
430.736	580.5
430.958	576.5
431.18	560.5
431.402	563.5
431.624	558.5
431.846	546.5
432.068	535.5
432.29	584.5
432.512	539.5
432.734	559.5
432.956	552.5
433.178	584.5
433.4	569.5
433.622	574.5
433.844	540.5
434.066	579.5
434.287	556.5
434.509	578.5
434.731	570.5
434.953	580.5
435.175	606.5
435.397	613.5
435.618	630.5
435.84	647.5
436.062	755.5
436.284	819.5
436.505	691.5
436.727	630.5
436.949	591.5
437.17	578.5
437.392	579.5
437.614	604.5
437.835	627.5
438.057	696.5
438.278	819.5
438.5	804.5
438.721	894.5
438.943	845.5
439.165	687.5
439.386	639.5
439.608	639.5
439.829	631.5
440.05	661.5
440.272	688.5
440.493	631.5
440.715	607.5
440.936	589.5
441.158	589.5
441.379	581.5
441.6	626.5
441.822	631.5
442.043	684.5
442.264	746.5
442.486	763.5
442.707	719.5
442.928	641.5
443.149	628.5
443.371	653.5
443.592	710.5
443.813	787.5
444.034	865.5
444.255	721.5
444.476	668.5
444.698	664.5
444.919	629.5
445.14	767.5
445.361	695.5
445.582	666.5
445.803	723.5
446.024	829.5
446.245	833.5
446.466	775.5
446.687	675.5
446.908	625.5
447.129	604.5
447.35	577.5
447.571	570.5
447.792	568.5
448.013	568.5
448.234	557.5
448.455	608.5
448.675	763.5
448.896	876.5
449.117	756.5
449.338	713.5
449.559	803.5
449.779	897.5
450	718.5
450.221	641.5
450.442	576.5
450.662	559.5
450.883	564.5
451.104	563.5
451.324	556.5
451.545	549.5
451.766	524.5
451.986	505.5
452.207	511.5
452.428	519.5
452.648	507.5
452.869	513.5
453.089	495.5
453.31	535.5
453.53	505.5
453.751	509.5
453.971	508.5
454.192	521.5
454.412	525.5
454.633	503.5
454.853	510.5
455.073	502.5
455.294	549.5
455.514	581.5
455.734	587.5
455.955	497.5
456.175	506.5
456.395	481.5
456.616	458.5
456.836	484.5
457.056	489.5
457.276	471.5
457.497	490.5
457.717	494.5
457.937	509.5
458.157	512.5
458.377	513.5
458.598	542.5
458.818	559.5
459.038	644.5
459.258	675.5
459.478	601.5
459.698	579.5
459.918	551.5
460.138	566.5
460.358	574.5
460.578	572.5
460.798	610.5
461.018	585.5
461.238	574.5
461.458	581.5
461.678	562.5
461.898	595.5
462.118	565.5
462.338	577.5
462.558	600.5
462.777	599.5
462.997	644.5
463.217	639.5
463.437	645.5
463.657	634.5
463.876	624.5
464.096	616.5
464.316	625.5
464.536	628.5
464.755	610.5
464.975	619.5
465.195	638.5
465.414	693.5
465.634	631.5
465.854	601.5
466.073	569.5
466.293	545.5
466.512	563.5
466.732	537.5
466.951	519.5
467.171	522.5
467.391	560.5
467.61	537.5
467.829	553.5
468.049	538.5
468.268	535.5
468.488	522.5
468.707	520.5
468.927	519.5
469.146	513.5
469.365	513.5
469.585	534.5
469.804	534.5
470.023	572.5
470.243	547.5
470.462	559.5
470.681	564.5
470.901	567.5
471.12	530.5
471.339	520.5
471.558	556.5
471.777	552.5
471.997	537.5
472.216	514.5
472.435	569.5
472.654	571.5
472.873	540.5
473.092	524.5
473.311	535.5
473.53	539.5
473.749	559.5
473.968	568.5
474.187	676.5
474.406	694.5
474.625	599.5
474.844	547.5
475.063	538.5
475.282	516.5
475.501	523.5
475.72	545.5
475.939	547.5
476.158	521.5
476.377	537.5
476.596	542.5
476.814	569.5
477.033	576.5
477.252	563.5
477.471	593.5
477.69	576.5
477.908	608.5
478.127	579.5
478.346	579.5
478.564	610.5
478.783	608.5
479.002	606.5
479.22	623.5
479.439	635.5
479.658	660.5
479.876	657.5
480.095	669.5
480.313	684.5
480.532	687.5
480.751	671.5
480.969	680.5
481.188	717.5
481.406	732.5
481.624	665.5
481.843	639.5
482.061	621.5
482.28	619.5
482.498	640.5
482.717	646.5
482.935	649.5
483.153	641.5
483.372	626.5
483.59	614.5
483.808	646.5
484.027	625.5
484.245	635.5
484.463	627.5
484.681	647.5
484.9	639.5
485.118	637.5
485.336	646.5
485.554	667.5
485.772	647.5
485.99	633.5
486.209	659.5
486.427	653.5
486.645	701.5
486.863	667.5
487.081	677.5
487.299	696.5
487.517	678.5
487.735	667.5
487.953	669.5
488.171	652.5
488.389	678.5
488.607	686.5
488.825	678.5
489.043	687.5
489.261	675.5
489.479	659.5
489.696	683.5
489.914	702.5
490.132	690.5
490.35	693.5
490.568	692.5
490.786	745.5
491.003	741.5
491.221	757.5
491.439	757.5
491.657	792.5
491.874	769.5
492.092	771.5
492.31	784.5
492.527	785.5
492.745	771.5
492.963	771.5
493.18	787.5
493.398	812.5
493.615	790.5
493.833	787.5
494.05	798.5
494.268	810.5
494.485	833.5
494.703	846.5
494.92	815.5
495.138	795.5
495.355	813.5
495.573	817.5
495.79	830.5
496.008	809.5
496.225	795.5
496.442	802.5
496.66	808.5
496.877	815.5
497.094	850.5
497.312	838.5
497.529	854.5
497.746	832.5
497.963	866.5
498.181	894.5
498.398	903.5
498.615	925.5
498.832	935.5
499.049	965.5
499.267	993.5
499.484	1060.5
499.701	1088.5
499.918	1110.5
500.135	1202.5
500.352	1271.5
500.569	1294.5
500.786	1282.5
501.003	1246.5
501.22	1176.5
501.437	1179.5
501.654	1102.5
501.871	1089.5
502.088	1025.5
502.305	984.5
502.522	929.5
502.739	923.5
502.956	894.5
503.172	895.5
503.389	858.5
503.606	825.5
503.823	857.5
504.04	850.5
504.256	841.5
504.473	854.5
504.69	833.5
504.907	839.5
505.123	823.5
505.34	774.5
505.557	780.5
505.773	796.5
505.99	782.5
506.207	770.5
506.423	777.5
506.64	753.5
506.856	763.5
507.073	770.5
507.289	722.5
507.506	739.5
507.722	726.5
507.939	749.5
508.155	742.5
508.372	728.5
508.588	713.5
508.805	722.5
509.021	698.5
509.238	711.5
509.454	720.5
509.67	713.5
509.887	703.5
510.103	688.5
510.319	699.5
510.536	777.5
510.752	1115.5
510.968	937.5
511.184	711.5
511.401	685.5
511.617	672.5
511.833	653.5
512.049	649.5
512.265	662.5
512.481	673.5
512.698	666.5
512.914	663.5
513.13	654.5
513.346	657.5
513.562	648.5
513.778	651.5
513.994	665.5
514.21	676.5
514.426	701.5
514.642	707.5
514.858	723.5
515.074	764.5
515.29	867.5
515.506	1160.5
515.721	979.5
515.937	753.5
516.153	709.5
516.369	705.5
516.585	701.5
516.801	728.5
517.016	712.5
517.232	715.5
517.448	723.5
517.664	690.5
517.879	709.5
518.095	704.5
518.311	722.5
518.527	695.5
518.742	675.5
518.958	699.5
519.173	663.5
519.389	653.5
519.605	652.5
