Data from 1974.PennyLincolnUp.Lamp.En5.5.200Scan.071719.P1.Changed Mount._HRD10591_15-54-20-857.txt Node
Date: Thu Jul 18 15:54:20 EDT 2019
User: cochatt
Spectrometer: HR+D1059
Trigger mode: 1
Integration Time (sec): 1.000000E-1
Scans to average: 1
Electric dark correction enabled: true
Nonlinearity correction enabled: false
Boxcar width: 0
XAxis mode: Wavelengths
Number of Pixels in Spectrum: 2048
>>>>>Begin Spectral Data<<<<<
223.165	-25.06
223.4	-25.06
223.635	-25.06
223.869	-16.06
224.104	-14.06
224.338	-6.06
224.573	-22.06
224.808	-19.06
225.042	-1.06
225.277	7.94
225.511	-15.06
225.746	-4.06
225.98	1.94
226.215	18.94
226.449	19.94
226.683	26.94
226.918	23.94
227.152	22.94
227.387	15.94
227.621	37.94
227.856	48.94
228.09	47.94
228.324	53.94
228.559	59.94
228.793	69.94
229.027	112.94
229.262	123.94
229.496	127.94
229.73	138.94
229.964	161.94
230.199	123.94
230.433	110.94
230.667	110.94
230.901	114.94
231.136	115.94
231.37	116.94
231.604	127.94
231.838	113.94
232.072	121.94
232.306	118.94
232.541	120.94
232.775	119.94
233.009	116.94
233.243	100.94
233.477	119.94
233.711	114.94
233.945	119.94
234.179	131.94
234.413	123.94
234.647	103.94
234.881	124.94
235.115	108.94
235.349	133.94
235.583	126.94
235.817	120.94
236.051	130.94
236.285	141.94
236.519	144.94
236.753	137.94
236.987	139.94
237.221	181.94
237.455	252.94
237.689	204.94
237.922	150.94
238.156	147.94
238.39	131.94
238.624	146.94
238.858	139.94
239.091	130.94
239.325	138.94
239.559	132.94
239.793	140.94
240.027	156.94
240.26	162.94
240.494	168.94
240.728	153.94
240.961	162.94
241.195	162.94
241.429	148.94
241.662	126.94
241.896	150.94
242.13	139.94
242.363	131.94
242.597	127.94
242.83	141.94
243.064	156.94
243.298	149.94
243.531	154.94
243.765	144.94
243.998	136.94
244.232	146.94
244.465	155.94
244.699	160.94
244.932	156.94
245.166	138.94
245.399	151.94
245.633	155.94
245.866	144.94
246.099	152.94
246.333	154.94
246.566	155.94
246.8	162.94
247.033	160.94
247.266	160.94
247.5	170.94
247.733	176.94
247.966	182.94
248.2	164.94
248.433	176.94
248.666	184.94
248.899	187.94
249.133	209.94
249.366	231.94
249.599	203.94
249.832	196.94
250.066	193.94
250.299	196.94
250.532	184.94
250.765	213.94
250.998	245.94
251.231	250.94
251.465	219.94
251.698	234.94
251.931	234.94
252.164	199.94
252.397	204.94
252.63	208.94
252.863	209.94
253.096	225.94
253.329	243.94
253.562	228.94
253.795	230.94
254.028	228.94
254.261	229.94
254.494	227.94
254.727	272.94
254.96	302.94
255.193	277.94
255.426	271.94
255.659	257.94
255.892	232.94
256.124	259.94
256.357	261.94
256.59	252.94
256.823	230.94
257.056	212.94
257.289	218.94
257.521	223.94
257.754	220.94
257.987	233.94
258.22	228.94
258.452	230.94
258.685	245.94
258.918	225.94
259.151	249.94
259.383	234.94
259.616	238.94
259.849	227.94
260.081	240.94
260.314	270.94
260.547	263.94
260.779	267.94
261.012	260.94
261.244	242.94
261.477	240.94
261.71	239.94
261.942	257.94
262.175	232.94
262.407	246.94
262.64	221.94
262.872	243.94
263.105	221.94
263.337	223.94
263.57	217.94
263.802	223.94
264.035	228.94
264.267	239.94
264.499	224.94
264.732	238.94
264.964	235.94
265.197	233.94
265.429	229.94
265.661	216.94
265.894	231.94
266.126	230.94
266.358	232.94
266.591	244.94
266.823	245.94
267.055	241.94
267.287	230.94
267.52	246.94
267.752	257.94
267.984	253.94
268.216	245.94
268.448	251.94
268.681	259.94
268.913	261.94
269.145	289.94
269.377	286.94
269.609	289.94
269.841	285.94
270.073	304.94
270.306	306.94
270.538	327.94
270.77	331.94
271.002	330.94
271.234	307.94
271.466	322.94
271.698	344.94
271.93	340.94
272.162	340.94
272.394	339.94
272.626	317.94
272.858	319.94
273.09	315.94
273.322	304.94
273.553	286.94
273.785	289.94
274.017	285.94
274.249	288.94
274.481	289.94
274.713	272.94
274.945	297.94
275.176	282.94
275.408	297.94
275.64	271.94
275.872	274.94
276.104	291.94
276.335	304.94
276.567	288.94
276.799	309.94
277.031	314.94
277.262	341.94
277.494	350.94
277.726	323.94
277.957	294.94
278.189	290.94
278.421	305.94
278.652	285.94
278.884	281.94
279.115	286.94
279.347	271.94
279.579	298.94
279.81	302.94
280.042	309.94
280.273	294.94
280.505	288.94
280.736	284.94
280.968	288.94
281.199	302.94
281.431	312.94
281.662	286.94
281.894	291.94
282.125	321.94
282.356	319.94
282.588	332.94
282.819	338.94
283.051	307.94
283.282	311.94
283.513	307.94
283.745	312.94
283.976	313.94
284.207	329.94
284.439	318.94
284.67	297.94
284.901	306.94
285.132	309.94
285.364	309.94
285.595	315.94
285.826	311.94
286.057	315.94
286.288	329.94
286.52	297.94
286.751	313.94
286.982	309.94
287.213	313.94
287.444	308.94
287.675	326.94
287.906	320.94
288.138	345.94
288.369	325.94
288.6	336.94
288.831	350.94
289.062	331.94
289.293	326.94
289.524	328.94
289.755	323.94
289.986	322.94
290.217	332.94
290.448	329.94
290.679	322.94
290.91	317.94
291.141	304.94
291.371	322.94
291.602	311.94
291.833	325.94
292.064	323.94
292.295	289.94
292.526	327.94
292.757	329.94
292.987	342.94
293.218	320.94
293.449	331.94
293.68	330.94
293.91	309.94
294.141	334.94
294.372	316.94
294.603	311.94
294.833	300.94
295.064	322.94
295.295	335.94
295.525	321.94
295.756	337.94
295.987	332.94
296.217	363.94
296.448	346.94
296.679	340.94
296.909	338.94
297.14	337.94
297.37	336.94
297.601	344.94
297.831	338.94
298.062	331.94
298.292	343.94
298.523	328.94
298.753	340.94
298.984	332.94
299.214	345.94
299.445	342.94
299.675	350.94
299.905	364.94
300.136	353.94
300.366	327.94
300.597	349.94
300.827	347.94
301.057	346.94
301.288	361.94
301.518	356.94
301.748	370.94
301.979	363.94
302.209	352.94
302.439	376.94
302.669	371.94
302.9	360.94
303.13	374.94
303.36	386.94
303.59	347.94
303.82	376.94
304.051	384.94
304.281	367.94
304.511	355.94
304.741	374.94
304.971	345.94
305.201	359.94
305.431	380.94
305.661	364.94
305.891	366.94
306.121	377.94
306.352	368.94
306.582	370.94
306.812	341.94
307.042	366.94
307.272	361.94
307.502	368.94
307.731	368.94
307.961	362.94
308.191	367.94
308.421	366.94
308.651	374.94
308.881	383.94
309.111	375.94
309.341	369.94
309.571	382.94
309.8	358.94
310.03	394.94
310.26	404.94
310.49	419.94
310.72	412.94
310.949	408.94
311.179	424.94
311.409	403.94
311.639	382.94
311.868	419.94
312.098	411.94
312.328	405.94
312.557	426.94
312.787	446.94
313.017	432.94
313.246	434.94
313.476	402.94
313.706	414.94
313.935	400.94
314.165	426.94
314.394	439.94
314.624	420.94
314.853	429.94
315.083	423.94
315.312	401.94
315.542	410.94
315.771	409.94
316.001	405.94
316.23	417.94
316.46	400.94
316.689	398.94
316.919	394.94
317.148	426.94
317.377	435.94
317.607	412.94
317.836	399.94
318.065	403.94
318.295	394.94
318.524	402.94
318.753	395.94
318.983	393.94
319.212	423.94
319.441	417.94
319.67	425.94
319.9	401.94
320.129	422.94
320.358	417.94
320.587	413.94
320.816	440.94
321.046	432.94
321.275	419.94
321.504	426.94
321.733	432.94
321.962	428.94
322.191	455.94
322.42	472.94
322.649	461.94
322.878	478.94
323.108	478.94
323.337	495.94
323.566	503.94
323.795	536.94
324.024	577.94
324.253	660.94
324.482	911.94
324.71	1373.94
324.939	2030.94
325.168	1786.94
325.397	920.94
325.626	620.94
325.855	554.94
326.084	516.94
326.313	514.94
326.542	521.94
326.77	559.94
326.999	647.94
327.228	834.94
327.457	1283.94
327.686	1561.94
327.914	1053.94
328.143	698.94
328.372	622.94
328.6	592.94
328.829	585.94
329.058	623.94
329.287	612.94
329.515	578.94
329.744	532.94
329.972	549.94
330.201	568.94
330.43	578.94
330.658	589.94
330.887	597.94
331.115	610.94
331.344	542.94
331.572	524.94
331.801	531.94
332.03	526.94
332.258	532.94
332.486	506.94
332.715	484.94
332.943	520.94
333.172	516.94
333.4	515.94
333.629	516.94
333.857	543.94
334.085	551.94
334.314	572.94
334.542	587.94
334.771	593.94
334.999	540.94
335.227	522.94
335.455	532.94
335.684	514.94
335.912	492.94
336.14	494.94
336.369	506.94
336.597	497.94
336.825	505.94
337.053	502.94
337.281	491.94
337.51	487.94
337.738	477.94
337.966	486.94
338.194	478.94
338.422	485.94
338.65	488.94
338.878	469.94
339.106	471.94
339.334	488.94
339.562	476.94
339.79	464.94
340.018	482.94
340.246	483.94
340.474	499.94
340.702	452.94
340.93	482.94
341.158	488.94
341.386	466.94
341.614	476.94
341.842	469.94
342.07	458.94
342.298	484.94
342.526	464.94
342.754	478.94
342.981	488.94
343.209	471.94
343.437	475.94
343.665	494.94
343.893	494.94
344.12	512.94
344.348	509.94
344.576	489.94
344.804	506.94
345.031	477.94
345.259	474.94
345.487	488.94
345.714	454.94
345.942	450.94
346.17	474.94
346.397	472.94
346.625	473.94
346.853	456.94
347.08	476.94
347.308	463.94
347.535	486.94
347.763	483.94
347.99	468.94
348.218	476.94
348.445	478.94
348.673	499.94
348.9	472.94
349.128	459.94
349.355	439.94
349.583	458.94
349.81	452.94
350.037	458.94
350.265	432.94
350.492	431.94
350.72	455.94
350.947	455.94
351.174	457.94
351.402	460.94
351.629	466.94
351.856	473.94
352.083	486.94
352.311	482.94
352.538	471.94
352.765	478.94
352.992	460.94
353.22	451.94
353.447	457.94
353.674	447.94
353.901	464.94
354.128	431.94
354.355	441.94
354.583	445.94
354.81	447.94
355.037	462.94
355.264	440.94
355.491	432.94
355.718	430.94
355.945	435.94
356.172	441.94
356.399	441.94
356.626	448.94
356.853	454.94
357.08	452.94
357.307	464.94
357.534	437.94
357.761	418.94
357.988	432.94
358.215	432.94
358.441	439.94
358.668	450.94
358.895	455.94
359.122	488.94
359.349	453.94
359.576	467.94
359.802	474.94
360.029	489.94
360.256	514.94
360.483	496.94
360.709	457.94
360.936	456.94
361.163	485.94
361.39	459.94
361.616	486.94
361.843	464.94
362.07	481.94
362.296	476.94
362.523	473.94
362.749	451.94
362.976	462.94
363.203	464.94
363.429	448.94
363.656	465.94
363.882	431.94
364.109	452.94
364.335	433.94
364.562	453.94
364.788	432.94
365.015	464.94
365.241	450.94
365.468	468.94
365.694	470.94
365.92	470.94
366.147	468.94
366.373	457.94
366.599	449.94
366.826	433.94
367.052	434.94
367.278	451.94
367.505	435.94
367.731	448.94
367.957	442.94
368.184	455.94
368.41	460.94
368.636	454.94
368.862	491.94
369.089	479.94
369.315	482.94
369.541	430.94
369.767	470.94
369.993	460.94
370.219	472.94
370.445	462.94
370.672	438.94
370.898	442.94
371.124	456.94
371.35	457.94
371.576	466.94
371.802	479.94
372.028	466.94
372.254	464.94
372.48	449.94
372.706	461.94
372.932	453.94
373.158	467.94
373.384	498.94
373.61	472.94
373.835	449.94
374.061	467.94
374.287	443.94
374.513	487.94
374.739	480.94
374.965	451.94
375.191	451.94
375.416	456.94
375.642	468.94
375.868	465.94
376.094	469.94
376.319	463.94
376.545	463.94
376.771	450.94
376.997	458.94
377.222	471.94
377.448	468.94
377.674	455.94
377.899	454.94
378.125	458.94
378.35	468.94
378.576	469.94
378.802	458.94
379.027	466.94
379.253	452.94
379.478	462.94
379.704	452.94
379.929	472.94
380.155	432.94
380.38	451.94
380.606	448.94
380.831	448.94
381.057	464.94
381.282	444.94
381.507	474.94
381.733	475.94
381.958	468.94
382.184	461.94
382.409	455.94
382.634	464.94
382.86	468.94
383.085	489.94
383.31	512.94
383.535	488.94
383.761	498.94
383.986	489.94
384.211	514.94
384.436	515.94
384.662	498.94
384.887	498.94
385.112	497.94
385.337	525.94
385.562	505.94
385.787	507.94
386.013	532.94
386.238	520.94
386.463	526.94
386.688	521.94
386.913	526.94
387.138	513.94
387.363	540.94
387.588	490.94
387.813	523.94
388.038	530.94
388.263	516.94
388.488	515.94
388.713	508.94
388.938	522.94
389.163	525.94
389.387	517.94
389.612	528.94
389.837	502.94
390.062	513.94
390.287	523.94
390.512	500.94
390.736	496.94
390.961	531.94
391.186	540.94
391.411	532.94
391.636	530.94
391.86	542.94
392.085	543.94
392.31	561.94
392.534	551.94
392.759	543.94
392.984	526.94
393.208	535.94
393.433	521.94
393.658	510.94
393.882	504.94
394.107	529.94
394.331	529.94
394.556	527.94
394.78	543.94
395.005	552.94
395.229	522.94
395.454	541.94
395.678	561.94
395.903	552.94
396.127	570.94
396.352	594.94
396.576	567.94
396.801	520.94
397.025	554.94
397.249	545.94
397.474	560.94
397.698	562.94
397.922	574.94
398.147	604.94
398.371	591.94
398.595	600.94
398.82	607.94
399.044	625.94
399.268	652.94
399.492	682.94
399.717	714.94
399.941	731.94
400.165	774.94
400.389	752.94
400.613	679.94
400.837	632.94
401.062	630.94
401.286	631.94
401.51	604.94
401.734	602.94
401.958	615.94
402.182	599.94
402.406	615.94
402.63	604.94
402.854	615.94
403.078	637.94
403.302	660.94
403.526	633.94
403.75	623.94
403.974	651.94
404.198	633.94
404.422	648.94
404.645	653.94
404.869	647.94
405.093	652.94
405.317	724.94
405.541	752.94
405.765	719.94
405.988	658.94
406.212	659.94
406.436	675.94
406.66	690.94
406.883	696.94
407.107	714.94
407.331	778.94
407.555	837.94
407.778	844.94
408.002	768.94
408.226	714.94
408.449	673.94
408.673	676.94
408.896	699.94
409.12	758.94
409.344	717.94
409.567	647.94
409.791	652.94
410.014	625.94
410.238	653.94
410.461	642.94
410.685	632.94
410.908	644.94
411.132	684.94
411.355	734.94
411.578	695.94
411.802	670.94
412.025	618.94
412.249	657.94
412.472	671.94
412.695	718.94
412.919	672.94
413.142	654.94
413.365	616.94
413.589	611.94
413.812	624.94
414.035	613.94
414.258	602.94
414.482	604.94
414.705	612.94
414.928	598.94
415.151	603.94
415.374	610.94
415.597	592.94
415.821	578.94
416.044	574.94
416.267	593.94
416.49	589.94
416.713	614.94
416.936	597.94
417.159	612.94
417.382	599.94
417.605	604.94
417.828	595.94
418.051	622.94
418.274	617.94
418.497	618.94
418.72	597.94
418.943	610.94
419.166	625.94
419.389	676.94
419.611	676.94
419.834	640.94
420.057	660.94
420.28	637.94
420.503	634.94
420.726	629.94
420.948	629.94
421.171	671.94
421.394	702.94
421.617	666.94
421.839	609.94
422.062	635.94
422.285	635.94
422.507	694.94
422.73	776.94
422.953	740.94
423.175	694.94
423.398	662.94
423.621	650.94
423.843	676.94
424.066	663.94
424.288	669.94
424.511	715.94
424.733	750.94
424.956	846.94
425.178	799.94
425.401	794.94
425.623	842.94
425.846	732.94
426.068	673.94
426.291	659.94
426.513	644.94
426.735	653.94
426.958	713.94
427.18	775.94
427.402	930.94
427.625	1028.94
427.847	878.94
428.069	767.94
428.292	708.94
428.514	647.94
428.736	624.94
428.958	625.94
429.181	612.94
429.403	606.94
429.625	621.94
429.847	668.94
430.069	726.94
430.292	754.94
430.514	615.94
430.736	600.94
430.958	589.94
431.18	593.94
431.402	602.94
431.624	577.94
431.846	570.94
432.068	561.94
432.29	574.94
432.512	571.94
432.734	577.94
432.956	600.94
433.178	611.94
433.4	608.94
433.622	602.94
433.844	569.94
434.066	574.94
434.287	611.94
434.509	593.94
434.731	607.94
434.953	628.94
435.175	633.94
435.397	667.94
435.618	667.94
435.84	680.94
436.062	787.94
436.284	884.94
436.505	723.94
436.727	652.94
436.949	638.94
437.17	616.94
437.392	596.94
437.614	633.94
437.835	651.94
438.057	747.94
438.278	851.94
438.5	851.94
438.721	919.94
438.943	892.94
439.165	733.94
439.386	650.94
439.608	668.94
439.829	660.94
440.05	673.94
440.272	742.94
440.493	694.94
440.715	631.94
440.936	630.94
441.158	618.94
441.379	622.94
441.6	626.94
441.822	663.94
442.043	686.94
442.264	755.94
442.486	874.94
442.707	766.94
442.928	702.94
443.149	682.94
443.371	697.94
443.592	755.94
443.813	842.94
444.034	906.94
444.255	771.94
444.476	688.94
444.698	712.94
444.919	697.94
445.14	805.94
445.361	726.94
445.582	729.94
445.803	763.94
446.024	868.94
446.245	876.94
446.466	822.94
446.687	686.94
446.908	655.94
447.129	627.94
447.35	626.94
447.571	595.94
447.792	584.94
448.013	617.94
448.234	591.94
448.455	674.94
448.675	790.94
448.896	891.94
449.117	771.94
449.338	722.94
449.559	848.94
449.779	988.94
450	782.94
450.221	661.94
450.442	613.94
450.662	568.94
450.883	592.94
451.104	574.94
451.324	601.94
451.545	590.94
451.766	549.94
451.986	551.94
452.207	539.94
452.428	553.94
452.648	520.94
452.869	544.94
453.089	543.94
453.31	572.94
453.53	520.94
453.751	522.94
453.971	544.94
454.192	529.94
454.412	551.94
454.633	554.94
454.853	542.94
455.073	529.94
455.294	554.94
455.514	629.94
455.734	631.94
455.955	558.94
456.175	530.94
456.395	507.94
456.616	517.94
456.836	518.94
457.056	514.94
457.276	496.94
457.497	510.94
457.717	530.94
457.937	518.94
458.157	530.94
458.377	536.94
458.598	553.94
458.818	609.94
459.038	664.94
459.258	706.94
459.478	611.94
459.698	582.94
459.918	588.94
460.138	583.94
460.358	584.94
460.578	611.94
460.798	604.94
461.018	603.94
461.238	614.94
461.458	615.94
461.678	605.94
461.898	621.94
462.118	588.94
462.338	626.94
462.558	644.94
462.777	624.94
462.997	681.94
463.217	690.94
463.437	672.94
463.657	661.94
463.876	648.94
464.096	664.94
464.316	636.94
464.536	647.94
464.755	686.94
464.975	654.94
465.195	672.94
465.414	697.94
465.634	630.94
465.854	608.94
466.073	604.94
466.293	559.94
466.512	556.94
466.732	552.94
466.951	555.94
467.171	554.94
467.391	572.94
467.61	560.94
467.829	568.94
468.049	569.94
468.268	577.94
468.488	561.94
468.707	557.94
468.927	548.94
469.146	564.94
469.365	540.94
469.585	546.94
469.804	555.94
470.023	569.94
470.243	578.94
470.462	570.94
470.681	598.94
470.901	603.94
471.12	560.94
471.339	549.94
471.558	585.94
471.777	559.94
471.997	575.94
472.216	576.94
472.435	587.94
472.654	578.94
472.873	570.94
473.092	547.94
473.311	538.94
473.53	565.94
473.749	574.94
473.968	614.94
474.187	709.94
474.406	739.94
474.625	615.94
474.844	546.94
475.063	565.94
475.282	568.94
475.501	558.94
475.72	576.94
475.939	588.94
476.158	581.94
476.377	594.94
476.596	580.94
476.814	578.94
477.033	591.94
477.252	596.94
477.471	599.94
477.69	617.94
477.908	613.94
478.127	626.94
478.346	630.94
478.564	636.94
478.783	642.94
479.002	625.94
479.22	636.94
479.439	657.94
479.658	694.94
479.876	705.94
480.095	667.94
480.313	737.94
480.532	705.94
480.751	699.94
480.969	722.94
481.188	750.94
481.406	763.94
481.624	737.94
481.843	683.94
482.061	653.94
482.28	665.94
482.498	659.94
482.717	657.94
482.935	642.94
483.153	657.94
483.372	649.94
483.59	682.94
483.808	659.94
484.027	660.94
484.245	655.94
484.463	652.94
484.681	670.94
484.9	704.94
485.118	687.94
485.336	682.94
485.554	658.94
485.772	668.94
485.99	676.94
486.209	695.94
486.427	699.94
486.645	699.94
486.863	730.94
487.081	714.94
487.299	707.94
487.517	706.94
487.735	714.94
487.953	708.94
488.171	719.94
488.389	699.94
488.607	710.94
488.825	750.94
489.043	747.94
489.261	724.94
489.479	726.94
489.696	729.94
489.914	725.94
490.132	737.94
490.35	728.94
490.568	774.94
490.786	768.94
491.003	750.94
491.221	792.94
491.439	812.94
491.657	801.94
491.874	822.94
492.092	830.94
492.31	833.94
492.527	845.94
492.745	836.94
492.963	839.94
493.18	838.94
493.398	862.94
493.615	844.94
493.833	823.94
494.05	866.94
494.268	864.94
494.485	868.94
494.703	836.94
494.92	859.94
495.138	827.94
495.355	842.94
495.573	839.94
495.79	842.94
496.008	865.94
496.225	874.94
496.442	842.94
496.66	865.94
496.877	871.94
497.094	878.94
497.312	890.94
497.529	914.94
497.746	887.94
497.963	908.94
498.181	955.94
498.398	962.94
498.615	930.94
498.832	988.94
499.049	998.94
499.267	1035.94
499.484	1104.94
499.701	1123.94
499.918	1194.94
500.135	1289.94
500.352	1319.94
500.569	1353.94
500.786	1353.94
501.003	1310.94
501.22	1268.94
501.437	1196.94
