Data from 1974.PennyLincolnUp.Lamp.En5.5.200Scan.071719.P1.Changed Mount._HRD10591_15-53-44-857.txt Node
Date: Thu Jul 18 15:53:44 EDT 2019
User: cochatt
Spectrometer: HR+D1059
Trigger mode: 1
Integration Time (sec): 1.000000E-1
Scans to average: 1
Electric dark correction enabled: true
Nonlinearity correction enabled: false
Boxcar width: 0
XAxis mode: Wavelengths
Number of Pixels in Spectrum: 2048
>>>>>Begin Spectral Data<<<<<
223.165	-14.38
223.4	-14.38
223.635	-14.38
223.869	-15.38
224.104	-21.38
224.338	-14.38
224.573	-3.38
224.808	-25.38
225.042	4.62
225.277	-6.38
225.511	-3.38
225.746	15.62
225.98	10.62
226.215	5.62
226.449	8.62
226.683	5.62
226.918	38.62
227.152	14.62
227.387	14.62
227.621	41.62
227.856	38.62
228.09	43.62
228.324	54.62
228.559	68.62
228.793	66.62
229.027	105.62
229.262	99.62
229.496	108.62
229.73	157.62
229.964	158.62
230.199	129.62
230.433	117.62
230.667	118.62
230.901	108.62
231.136	113.62
231.37	121.62
231.604	109.62
231.838	113.62
232.072	106.62
232.306	127.62
232.541	125.62
232.775	106.62
233.009	117.62
233.243	127.62
233.477	118.62
233.711	121.62
233.945	115.62
234.179	120.62
234.413	120.62
234.647	129.62
234.881	131.62
235.115	133.62
235.349	127.62
235.583	126.62
235.817	129.62
236.051	135.62
236.285	144.62
236.519	127.62
236.753	126.62
236.987	143.62
237.221	201.62
237.455	251.62
237.689	184.62
237.922	156.62
238.156	132.62
238.39	131.62
238.624	153.62
238.858	134.62
239.091	133.62
239.325	134.62
239.559	129.62
239.793	136.62
240.027	154.62
240.26	138.62
240.494	165.62
240.728	165.62
240.961	160.62
241.195	161.62
241.429	149.62
241.662	133.62
241.896	145.62
242.13	149.62
242.363	147.62
242.597	149.62
242.83	133.62
243.064	133.62
243.298	167.62
243.531	135.62
243.765	144.62
243.998	146.62
244.232	151.62
244.465	154.62
244.699	155.62
244.932	140.62
245.166	165.62
245.399	165.62
245.633	158.62
245.866	149.62
246.099	146.62
246.333	147.62
246.566	166.62
246.8	164.62
247.033	149.62
247.266	151.62
247.5	163.62
247.733	183.62
247.966	185.62
248.2	188.62
248.433	180.62
248.666	202.62
248.899	204.62
249.133	220.62
249.366	209.62
249.599	206.62
249.832	191.62
250.066	177.62
250.299	195.62
250.532	201.62
250.765	204.62
250.998	223.62
251.231	252.62
251.465	220.62
251.698	206.62
251.931	221.62
252.164	213.62
252.397	208.62
252.63	218.62
252.863	229.62
253.096	223.62
253.329	238.62
253.562	241.62
253.795	243.62
254.028	239.62
254.261	254.62
254.494	242.62
254.727	259.62
254.96	283.62
255.193	283.62
255.426	262.62
255.659	249.62
255.892	245.62
256.124	242.62
256.357	243.62
256.59	242.62
256.823	210.62
257.056	228.62
257.289	226.62
257.521	231.62
257.754	207.62
257.987	232.62
258.22	213.62
258.452	214.62
258.685	207.62
258.918	228.62
259.151	230.62
259.383	242.62
259.616	241.62
259.849	234.62
260.081	262.62
260.314	271.62
260.547	284.62
260.779	271.62
261.012	262.62
261.244	235.62
261.477	249.62
261.71	253.62
261.942	231.62
262.175	269.62
262.407	230.62
262.64	233.62
262.872	244.62
263.105	233.62
263.337	238.62
263.57	250.62
263.802	231.62
264.035	245.62
264.267	239.62
264.499	237.62
264.732	225.62
264.964	210.62
265.197	221.62
265.429	225.62
265.661	237.62
265.894	230.62
266.126	230.62
266.358	236.62
266.591	233.62
266.823	235.62
267.055	223.62
267.287	245.62
267.52	231.62
267.752	236.62
267.984	253.62
268.216	250.62
268.448	271.62
268.681	255.62
268.913	282.62
269.145	287.62
269.377	301.62
269.609	302.62
269.841	294.62
270.073	297.62
270.306	312.62
270.538	329.62
270.77	328.62
271.002	335.62
271.234	322.62
271.466	329.62
271.698	333.62
271.93	330.62
272.162	357.62
272.394	345.62
272.626	338.62
272.858	319.62
273.09	321.62
273.322	299.62
273.553	290.62
273.785	309.62
274.017	294.62
274.249	279.62
274.481	308.62
274.713	259.62
274.945	289.62
275.176	279.62
275.408	284.62
275.64	290.62
275.872	296.62
276.104	298.62
276.335	299.62
276.567	291.62
276.799	321.62
277.031	313.62
277.262	336.62
277.494	348.62
277.726	335.62
277.957	307.62
278.189	292.62
278.421	315.62
278.652	306.62
278.884	301.62
279.115	293.62
279.347	305.62
279.579	305.62
279.81	290.62
280.042	291.62
280.273	296.62
280.505	272.62
280.736	295.62
280.968	308.62
281.199	292.62
281.431	322.62
281.662	284.62
281.894	311.62
282.125	291.62
282.356	318.62
282.588	330.62
282.819	332.62
283.051	298.62
283.282	277.62
283.513	317.62
283.745	311.62
283.976	320.62
284.207	317.62
284.439	313.62
284.67	303.62
284.901	318.62
285.132	310.62
285.364	299.62
285.595	320.62
285.826	309.62
286.057	305.62
286.288	323.62
286.52	305.62
286.751	297.62
286.982	291.62
287.213	307.62
287.444	314.62
287.675	322.62
287.906	343.62
288.138	333.62
288.369	352.62
288.6	353.62
288.831	349.62
289.062	318.62
289.293	320.62
289.524	329.62
289.755	332.62
289.986	326.62
290.217	331.62
290.448	337.62
290.679	329.62
290.91	322.62
291.141	326.62
291.371	331.62
291.602	326.62
291.833	335.62
292.064	326.62
292.295	329.62
292.526	340.62
292.757	340.62
292.987	320.62
293.218	324.62
293.449	307.62
293.68	328.62
293.91	329.62
294.141	342.62
294.372	321.62
294.603	325.62
294.833	317.62
295.064	318.62
295.295	316.62
295.525	342.62
295.756	358.62
295.987	344.62
296.217	367.62
296.448	354.62
296.679	329.62
296.909	343.62
297.14	346.62
297.37	331.62
297.601	322.62
297.831	338.62
298.062	330.62
298.292	343.62
298.523	355.62
298.753	341.62
298.984	340.62
299.214	338.62
299.445	356.62
299.675	343.62
299.905	354.62
300.136	356.62
300.366	342.62
300.597	340.62
300.827	361.62
301.057	356.62
301.288	366.62
301.518	351.62
301.748	370.62
301.979	350.62
302.209	364.62
302.439	371.62
302.669	369.62
302.9	362.62
303.13	360.62
303.36	349.62
303.59	359.62
303.82	379.62
304.051	383.62
304.281	375.62
304.511	362.62
304.741	375.62
304.971	377.62
305.201	372.62
305.431	354.62
305.661	374.62
305.891	366.62
306.121	367.62
306.352	382.62
306.582	364.62
306.812	345.62
307.042	363.62
307.272	369.62
307.502	374.62
307.731	361.62
307.961	356.62
308.191	362.62
308.421	342.62
308.651	374.62
308.881	367.62
309.111	380.62
309.341	382.62
309.571	383.62
309.8	386.62
310.03	407.62
310.26	403.62
310.49	387.62
310.72	407.62
310.949	415.62
311.179	408.62
311.409	409.62
311.639	405.62
311.868	405.62
312.098	423.62
312.328	401.62
312.557	431.62
312.787	437.62
313.017	440.62
313.246	421.62
313.476	420.62
313.706	409.62
313.935	426.62
314.165	422.62
314.394	427.62
314.624	426.62
314.853	420.62
315.083	421.62
315.312	397.62
315.542	421.62
315.771	414.62
316.001	406.62
316.23	403.62
316.46	409.62
316.689	403.62
316.919	419.62
317.148	428.62
317.377	428.62
317.607	408.62
317.836	425.62
318.065	408.62
318.295	404.62
318.524	395.62
318.753	421.62
318.983	427.62
319.212	393.62
319.441	404.62
319.67	424.62
319.9	414.62
320.129	412.62
320.358	423.62
320.587	401.62
320.816	420.62
321.046	442.62
321.275	448.62
321.504	426.62
321.733	423.62
321.962	445.62
322.191	461.62
322.42	466.62
322.649	456.62
322.878	469.62
323.108	490.62
323.337	478.62
323.566	515.62
323.795	526.62
324.024	559.62
324.253	672.62
324.482	891.62
324.71	1339.62
324.939	2010.62
325.168	1751.62
325.397	905.62
325.626	631.62
325.855	569.62
326.084	542.62
326.313	523.62
326.542	538.62
326.77	558.62
326.999	629.62
327.228	817.62
327.457	1236.62
327.686	1559.62
327.914	1032.62
328.143	688.62
328.372	603.62
328.6	606.62
328.829	586.62
329.058	583.62
329.287	575.62
329.515	553.62
329.744	549.62
329.972	525.62
330.201	561.62
330.43	594.62
330.658	588.62
330.887	628.62
331.115	611.62
331.344	537.62
331.572	528.62
331.801	550.62
332.03	535.62
332.258	514.62
332.486	504.62
332.715	499.62
332.943	515.62
333.172	524.62
333.4	499.62
333.629	513.62
333.857	544.62
334.085	539.62
334.314	547.62
334.542	574.62
334.771	585.62
334.999	567.62
335.227	559.62
335.455	509.62
335.684	502.62
335.912	493.62
336.14	491.62
336.369	514.62
336.597	508.62
336.825	499.62
337.053	500.62
337.281	502.62
337.51	481.62
337.738	502.62
337.966	505.62
338.194	521.62
338.422	483.62
338.65	486.62
338.878	509.62
339.106	475.62
339.334	483.62
339.562	477.62
339.79	468.62
340.018	483.62
340.246	469.62
340.474	482.62
340.702	464.62
340.93	474.62
341.158	485.62
341.386	463.62
341.614	479.62
341.842	463.62
342.07	464.62
342.298	484.62
342.526	478.62
342.754	456.62
342.981	461.62
343.209	468.62
343.437	478.62
343.665	493.62
343.893	490.62
344.12	524.62
344.348	501.62
344.576	507.62
344.804	501.62
345.031	512.62
345.259	493.62
345.487	476.62
345.714	508.62
345.942	442.62
346.17	447.62
346.397	460.62
346.625	446.62
346.853	433.62
347.08	464.62
347.308	457.62
347.535	483.62
347.763	474.62
347.99	473.62
348.218	470.62
348.445	459.62
348.673	493.62
348.9	454.62
349.128	468.62
349.355	457.62
349.583	457.62
349.81	456.62
350.037	430.62
350.265	441.62
350.492	444.62
350.72	454.62
350.947	449.62
351.174	445.62
351.402	466.62
351.629	463.62
351.856	448.62
352.083	475.62
352.311	463.62
352.538	486.62
352.765	453.62
352.992	479.62
353.22	453.62
353.447	456.62
353.674	452.62
353.901	461.62
354.128	421.62
354.355	437.62
354.583	435.62
354.81	438.62
355.037	448.62
355.264	457.62
355.491	443.62
355.718	452.62
355.945	441.62
356.172	436.62
356.399	443.62
356.626	460.62
356.853	429.62
357.08	422.62
357.307	442.62
357.534	407.62
357.761	443.62
357.988	443.62
358.215	439.62
358.441	438.62
358.668	457.62
358.895	447.62
359.122	439.62
359.349	442.62
359.576	455.62
359.802	477.62
360.029	518.62
360.256	528.62
360.483	486.62
360.709	473.62
360.936	464.62
361.163	454.62
361.39	461.62
361.616	484.62
361.843	454.62
362.07	467.62
362.296	470.62
362.523	484.62
362.749	468.62
362.976	465.62
363.203	463.62
363.429	451.62
363.656	468.62
363.882	451.62
364.109	457.62
364.335	456.62
364.562	453.62
364.788	429.62
365.015	461.62
365.241	453.62
365.468	459.62
365.694	462.62
365.92	457.62
366.147	436.62
366.373	473.62
366.599	462.62
366.826	450.62
367.052	445.62
367.278	451.62
367.505	457.62
367.731	452.62
367.957	457.62
368.184	446.62
368.41	457.62
368.636	455.62
368.862	472.62
369.089	479.62
369.315	451.62
369.541	470.62
369.767	447.62
369.993	469.62
370.219	458.62
370.445	462.62
370.672	474.62
370.898	456.62
371.124	429.62
371.35	435.62
371.576	454.62
371.802	444.62
372.028	460.62
372.254	463.62
372.48	472.62
372.706	474.62
372.932	472.62
373.158	479.62
373.384	485.62
373.61	461.62
373.835	454.62
374.061	473.62
374.287	465.62
374.513	478.62
374.739	483.62
374.965	493.62
375.191	482.62
375.416	488.62
375.642	474.62
375.868	471.62
376.094	456.62
376.319	439.62
376.545	473.62
376.771	452.62
376.997	445.62
377.222	453.62
377.448	466.62
377.674	471.62
377.899	454.62
378.125	457.62
378.35	471.62
378.576	452.62
378.802	452.62
379.027	452.62
379.253	458.62
379.478	459.62
379.704	465.62
379.929	472.62
380.155	450.62
380.38	467.62
380.606	462.62
380.831	480.62
381.057	474.62
381.282	452.62
381.507	452.62
381.733	470.62
381.958	484.62
382.184	480.62
382.409	458.62
382.634	467.62
382.86	473.62
383.085	471.62
383.31	506.62
383.535	487.62
383.761	500.62
383.986	478.62
384.211	499.62
384.436	501.62
384.662	511.62
384.887	543.62
385.112	505.62
385.337	509.62
385.562	514.62
385.787	501.62
386.013	527.62
386.238	533.62
386.463	517.62
386.688	524.62
386.913	519.62
387.138	528.62
387.363	517.62
387.588	521.62
387.813	519.62
388.038	537.62
388.263	524.62
388.488	522.62
388.713	500.62
388.938	507.62
389.163	534.62
389.387	519.62
389.612	510.62
389.837	500.62
390.062	529.62
390.287	495.62
390.512	517.62
390.736	523.62
390.961	515.62
391.186	544.62
391.411	532.62
391.636	538.62
391.86	513.62
392.085	527.62
392.31	531.62
392.534	531.62
392.759	538.62
392.984	519.62
393.208	528.62
393.433	529.62
393.658	535.62
393.882	497.62
394.107	516.62
394.331	515.62
394.556	537.62
394.78	529.62
395.005	548.62
395.229	546.62
395.454	570.62
395.678	546.62
395.903	561.62
396.127	563.62
396.352	567.62
396.576	545.62
396.801	545.62
397.025	551.62
397.249	558.62
397.474	562.62
397.698	558.62
397.922	587.62
398.147	593.62
398.371	600.62
398.595	565.62
398.82	593.62
399.044	628.62
399.268	653.62
399.492	725.62
399.717	750.62
399.941	755.62
400.165	759.62
400.389	780.62
400.613	693.62
400.837	627.62
401.062	639.62
401.286	610.62
401.51	613.62
401.734	629.62
401.958	615.62
402.182	619.62
402.406	605.62
402.63	603.62
402.854	639.62
403.078	625.62
403.302	628.62
403.526	626.62
403.75	635.62
403.974	637.62
404.198	621.62
404.422	632.62
404.645	625.62
404.869	637.62
405.093	675.62
405.317	720.62
405.541	772.62
405.765	731.62
405.988	673.62
406.212	665.62
406.436	689.62
406.66	693.62
406.883	703.62
407.107	700.62
407.331	733.62
407.555	814.62
407.778	830.62
408.002	762.62
408.226	713.62
408.449	718.62
408.673	689.62
408.896	709.62
409.12	773.62
409.344	716.62
409.567	663.62
409.791	636.62
410.014	639.62
410.238	661.62
410.461	629.62
410.685	623.62
410.908	645.62
411.132	691.62
411.355	700.62
411.578	710.62
411.802	650.62
412.025	633.62
412.249	623.62
412.472	681.62
412.695	703.62
412.919	683.62
413.142	641.62
413.365	636.62
413.589	620.62
413.812	613.62
414.035	632.62
414.258	622.62
414.482	601.62
414.705	574.62
414.928	599.62
415.151	602.62
415.374	581.62
415.597	594.62
415.821	591.62
416.044	578.62
416.267	582.62
416.49	597.62
416.713	597.62
416.936	602.62
417.159	606.62
417.382	611.62
417.605	610.62
417.828	604.62
418.051	658.62
418.274	629.62
418.497	594.62
418.72	621.62
418.943	598.62
419.166	627.62
419.389	667.62
419.611	652.62
419.834	662.62
420.057	645.62
420.28	643.62
420.503	637.62
420.726	634.62
420.948	651.62
421.171	669.62
421.394	705.62
421.617	643.62
421.839	623.62
422.062	625.62
422.285	643.62
422.507	686.62
422.73	775.62
422.953	743.62
423.175	698.62
423.398	656.62
423.621	637.62
423.843	677.62
424.066	653.62
424.288	675.62
424.511	690.62
424.733	741.62
424.956	811.62
425.178	773.62
425.401	781.62
425.623	819.62
425.846	690.62
426.068	656.62
426.291	630.62
426.513	635.62
426.735	661.62
426.958	717.62
427.18	776.62
427.402	911.62
427.625	1011.62
427.847	870.62
428.069	772.62
428.292	682.62
428.514	653.62
428.736	630.62
428.958	619.62
429.181	613.62
429.403	600.62
429.625	610.62
429.847	661.62
430.069	739.62
430.292	715.62
430.514	628.62
430.736	618.62
430.958	614.62
431.18	584.62
431.402	554.62
431.624	571.62
431.846	569.62
432.068	571.62
432.29	591.62
432.512	578.62
432.734	580.62
432.956	591.62
433.178	620.62
433.4	579.62
433.622	585.62
433.844	597.62
434.066	595.62
434.287	597.62
434.509	601.62
434.731	600.62
434.953	598.62
435.175	638.62
435.397	649.62
435.618	659.62
435.84	713.62
436.062	792.62
436.284	899.62
436.505	707.62
436.727	649.62
436.949	633.62
437.17	602.62
437.392	591.62
437.614	629.62
437.835	643.62
438.057	729.62
438.278	865.62
438.5	855.62
438.721	953.62
438.943	907.62
439.165	721.62
439.386	685.62
439.608	678.62
439.829	657.62
440.05	676.62
440.272	725.62
440.493	672.62
440.715	674.62
440.936	628.62
441.158	611.62
441.379	631.62
441.6	647.62
441.822	638.62
442.043	704.62
442.264	781.62
442.486	856.62
442.707	716.62
442.928	689.62
443.149	693.62
443.371	712.62
443.592	743.62
443.813	859.62
444.034	918.62
444.255	796.62
444.476	712.62
444.698	677.62
444.919	671.62
445.14	786.62
445.361	735.62
445.582	701.62
445.803	797.62
446.024	877.62
446.245	863.62
446.466	804.62
446.687	703.62
446.908	661.62
447.129	641.62
447.35	616.62
447.571	633.62
447.792	591.62
448.013	621.62
448.234	622.62
448.455	691.62
448.675	797.62
448.896	899.62
449.117	784.62
449.338	721.62
449.559	831.62
449.779	988.62
450	769.62
450.221	653.62
450.442	614.62
450.662	591.62
450.883	583.62
451.104	605.62
451.324	608.62
451.545	567.62
451.766	553.62
451.986	546.62
452.207	545.62
452.428	563.62
452.648	529.62
452.869	528.62
453.089	556.62
453.31	559.62
453.53	539.62
453.751	521.62
453.971	531.62
454.192	553.62
454.412	553.62
454.633	543.62
454.853	527.62
455.073	511.62
455.294	564.62
455.514	656.62
455.734	631.62
455.955	539.62
456.175	536.62
456.395	529.62
456.616	505.62
456.836	513.62
457.056	500.62
457.276	489.62
457.497	480.62
457.717	502.62
457.937	504.62
458.157	536.62
458.377	559.62
458.598	527.62
458.818	603.62
459.038	665.62
459.258	721.62
459.478	623.62
459.698	581.62
459.918	594.62
460.138	607.62
460.358	601.62
460.578	586.62
460.798	630.62
461.018	601.62
461.238	590.62
461.458	609.62
461.678	605.62
461.898	612.62
462.118	596.62
462.338	609.62
462.558	628.62
462.777	651.62
462.997	665.62
463.217	666.62
463.437	689.62
463.657	665.62
463.876	655.62
464.096	658.62
464.316	649.62
464.536	645.62
464.755	674.62
464.975	635.62
465.195	677.62
465.414	727.62
465.634	650.62
465.854	619.62
466.073	610.62
466.293	565.62
466.512	553.62
466.732	574.62
466.951	541.62
467.171	544.62
467.391	578.62
467.61	554.62
467.829	537.62
468.049	595.62
468.268	551.62
468.488	526.62
468.707	531.62
468.927	536.62
469.146	552.62
469.365	538.62
469.585	551.62
469.804	571.62
470.023	551.62
470.243	564.62
470.462	563.62
470.681	586.62
470.901	568.62
471.12	585.62
471.339	563.62
471.558	569.62
471.777	577.62
471.997	564.62
472.216	558.62
472.435	590.62
472.654	578.62
472.873	558.62
473.092	544.62
473.311	541.62
473.53	570.62
473.749	556.62
473.968	604.62
474.187	713.62
474.406	723.62
474.625	628.62
474.844	581.62
475.063	569.62
475.282	561.62
475.501	562.62
475.72	584.62
475.939	594.62
476.158	583.62
476.377	576.62
476.596	582.62
476.814	599.62
477.033	588.62
477.252	592.62
477.471	585.62
477.69	614.62
477.908	613.62
478.127	622.62
478.346	632.62
478.564	657.62
478.783	655.62
479.002	665.62
479.22	647.62
479.439	666.62
479.658	701.62
479.876	686.62
480.095	683.62
480.313	747.62
480.532	717.62
480.751	715.62
480.969	709.62
481.188	752.62
481.406	785.62
481.624	708.62
481.843	696.62
482.061	656.62
482.28	657.62
482.498	642.62
482.717	649.62
482.935	656.62
483.153	665.62
483.372	674.62
483.59	648.62
483.808	668.62
484.027	683.62
484.245	669.62
484.463	681.62
484.681	689.62
484.9	655.62
485.118	679.62
485.336	648.62
485.554	683.62
485.772	679.62
485.99	673.62
486.209	680.62
486.427	698.62
486.645	687.62
486.863	697.62
487.081	718.62
487.299	693.62
487.517	709.62
487.735	699.62
487.953	705.62
488.171	692.62
488.389	714.62
488.607	725.62
488.825	715.62
489.043	716.62
489.261	718.62
489.479	731.62
489.696	743.62
489.914	715.62
490.132	747.62
490.35	739.62
490.568	755.62
490.786	785.62
491.003	754.62
491.221	808.62
491.439	805.62
491.657	786.62
491.874	804.62
492.092	817.62
492.31	831.62
492.527	830.62
492.745	828.62
492.963	841.62
493.18	846.62
493.398	813.62
493.615	841.62
493.833	811.62
494.05	843.62
494.268	801.62
494.485	835.62
494.703	832.62
494.92	835.62
495.138	813.62
495.355	858.62
495.573	829.62
495.79	863.62
496.008	845.62
496.225	858.62
496.442	861.62
496.66	851.62
496.877	842.62
497.094	861.62
497.312	861.62
497.529	882.62
497.746	887.62
497.963	901.62
498.181	912.62
498.398	921.62
498.615	939.62
498.832	968.62
499.049	1013.62
499.267	1061.62
499.484	1086.62
499.701	1109.62
499.918	1178.62
500.135	1284.62
500.352	1338.62
500.569	1317.62
500.786	1367.62
501.003	1322.62
501.22	1265.62
501.437	1231.62
501.654	1141.62
