Data from 1974.PennyLincolnUp.Lamp.En5.5.200Scan.071719.P1.Changed Mount._HRD10591_15-53-50-857.txt Node
Date: Thu Jul 18 15:53:50 EDT 2019
User: cochatt
Spectrometer: HR+D1059
Trigger mode: 1
Integration Time (sec): 1.000000E-1
Scans to average: 1
Electric dark correction enabled: true
Nonlinearity correction enabled: false
Boxcar width: 0
XAxis mode: Wavelengths
Number of Pixels in Spectrum: 2048
>>>>>Begin Spectral Data<<<<<
223.165	-23.75
223.4	-23.75
223.635	-23.75
223.869	-10.75
224.104	-15.75
224.338	-21.75
224.573	-24.75
224.808	-16.75
225.042	1.25
225.277	0.25
225.511	-9.75
225.746	9.25
225.98	8.25
226.215	13.25
226.449	18.25
226.683	16.25
226.918	32.25
227.152	24.25
227.387	36.25
227.621	32.25
227.856	54.25
228.09	50.25
228.324	56.25
228.559	50.25
228.793	81.25
229.027	96.25
229.262	102.25
229.496	104.25
229.73	139.25
229.964	139.25
230.199	135.25
230.433	127.25
230.667	127.25
230.901	127.25
231.136	104.25
231.37	96.25
231.604	100.25
231.838	122.25
232.072	126.25
232.306	103.25
232.541	109.25
232.775	108.25
233.009	112.25
233.243	125.25
233.477	118.25
233.711	114.25
233.945	116.25
234.179	127.25
234.413	125.25
234.647	100.25
234.881	115.25
235.115	114.25
235.349	127.25
235.583	142.25
235.817	130.25
236.051	128.25
236.285	142.25
236.519	132.25
236.753	145.25
236.987	157.25
237.221	197.25
237.455	230.25
237.689	189.25
237.922	150.25
238.156	145.25
238.39	128.25
238.624	130.25
238.858	133.25
239.091	115.25
239.325	127.25
239.559	124.25
239.793	126.25
240.027	136.25
240.26	154.25
240.494	167.25
240.728	161.25
240.961	147.25
241.195	156.25
241.429	135.25
241.662	150.25
241.896	136.25
242.13	116.25
242.363	150.25
242.597	141.25
242.83	162.25
243.064	144.25
243.298	127.25
243.531	149.25
243.765	152.25
243.998	153.25
244.232	174.25
244.465	159.25
244.699	162.25
244.932	148.25
245.166	152.25
245.399	151.25
245.633	151.25
245.866	147.25
246.099	151.25
246.333	153.25
246.566	150.25
246.8	155.25
247.033	156.25
247.266	152.25
247.5	159.25
247.733	173.25
247.966	188.25
248.2	189.25
248.433	167.25
248.666	159.25
248.899	190.25
249.133	190.25
249.366	207.25
249.599	196.25
249.832	200.25
250.066	187.25
250.299	185.25
250.532	206.25
250.765	218.25
250.998	228.25
251.231	246.25
251.465	232.25
251.698	223.25
251.931	207.25
252.164	204.25
252.397	212.25
252.63	222.25
252.863	205.25
253.096	221.25
253.329	224.25
253.562	235.25
253.795	231.25
254.028	229.25
254.261	236.25
254.494	239.25
254.727	274.25
254.96	278.25
255.193	284.25
255.426	263.25
255.659	234.25
255.892	258.25
256.124	256.25
256.357	237.25
256.59	239.25
256.823	234.25
257.056	238.25
257.289	215.25
257.521	235.25
257.754	233.25
257.987	230.25
258.22	221.25
258.452	223.25
258.685	216.25
258.918	207.25
259.151	208.25
259.383	225.25
259.616	228.25
259.849	238.25
260.081	234.25
260.314	247.25
260.547	270.25
260.779	258.25
261.012	240.25
261.244	239.25
261.477	222.25
261.71	222.25
261.942	235.25
262.175	230.25
262.407	228.25
262.64	242.25
262.872	221.25
263.105	236.25
263.337	210.25
263.57	228.25
263.802	228.25
264.035	242.25
264.267	224.25
264.499	212.25
264.732	230.25
264.964	222.25
265.197	218.25
265.429	212.25
265.661	232.25
265.894	211.25
266.126	227.25
266.358	232.25
266.591	232.25
266.823	232.25
267.055	228.25
267.287	238.25
267.52	243.25
267.752	246.25
267.984	242.25
268.216	217.25
268.448	252.25
268.681	258.25
268.913	260.25
269.145	264.25
269.377	275.25
269.609	298.25
269.841	293.25
270.073	290.25
270.306	298.25
270.538	326.25
270.77	297.25
271.002	325.25
271.234	297.25
271.466	296.25
271.698	321.25
271.93	322.25
272.162	339.25
272.394	317.25
272.626	292.25
272.858	290.25
273.09	300.25
273.322	303.25
273.553	286.25
273.785	267.25
274.017	275.25
274.249	270.25
274.481	277.25
274.713	289.25
274.945	291.25
275.176	277.25
275.408	299.25
275.64	285.25
275.872	273.25
276.104	276.25
276.335	272.25
276.567	293.25
276.799	280.25
277.031	314.25
277.262	322.25
277.494	319.25
277.726	308.25
277.957	311.25
278.189	286.25
278.421	293.25
278.652	293.25
278.884	286.25
279.115	295.25
279.347	276.25
279.579	268.25
279.81	277.25
280.042	290.25
280.273	279.25
280.505	275.25
280.736	279.25
280.968	271.25
281.199	282.25
281.431	294.25
281.662	287.25
281.894	288.25
282.125	302.25
282.356	297.25
282.588	307.25
282.819	322.25
283.051	303.25
283.282	295.25
283.513	293.25
283.745	307.25
283.976	287.25
284.207	303.25
284.439	312.25
284.67	274.25
284.901	303.25
285.132	321.25
285.364	303.25
285.595	300.25
285.826	294.25
286.057	296.25
286.288	300.25
286.52	304.25
286.751	298.25
286.982	328.25
287.213	309.25
287.444	278.25
287.675	315.25
287.906	319.25
288.138	324.25
288.369	319.25
288.6	324.25
288.831	305.25
289.062	313.25
289.293	303.25
289.524	325.25
289.755	326.25
289.986	301.25
290.217	298.25
290.448	291.25
290.679	302.25
290.91	298.25
291.141	308.25
291.371	306.25
291.602	320.25
291.833	308.25
292.064	327.25
292.295	305.25
292.526	320.25
292.757	319.25
292.987	324.25
293.218	311.25
293.449	328.25
293.68	328.25
293.91	320.25
294.141	315.25
294.372	323.25
294.603	318.25
294.833	333.25
295.064	311.25
295.295	328.25
295.525	313.25
295.756	329.25
295.987	339.25
296.217	338.25
296.448	341.25
296.679	328.25
296.909	326.25
297.14	326.25
297.37	324.25
297.601	340.25
297.831	329.25
298.062	334.25
298.292	333.25
298.523	330.25
298.753	321.25
298.984	340.25
299.214	339.25
299.445	340.25
299.675	341.25
299.905	342.25
300.136	321.25
300.366	334.25
300.597	334.25
300.827	348.25
301.057	348.25
301.288	356.25
301.518	347.25
301.748	349.25
301.979	364.25
302.209	350.25
302.439	354.25
302.669	356.25
302.9	354.25
303.13	356.25
303.36	355.25
303.59	359.25
303.82	350.25
304.051	367.25
304.281	363.25
304.511	358.25
304.741	354.25
304.971	337.25
305.201	348.25
305.431	339.25
305.661	336.25
305.891	362.25
306.121	356.25
306.352	355.25
306.582	356.25
306.812	350.25
307.042	353.25
307.272	346.25
307.502	361.25
307.731	358.25
307.961	358.25
308.191	353.25
308.421	357.25
308.651	367.25
308.881	387.25
309.111	363.25
309.341	347.25
309.571	357.25
309.8	366.25
310.03	382.25
310.26	378.25
310.49	388.25
310.72	397.25
310.949	376.25
311.179	391.25
311.409	403.25
311.639	392.25
311.868	378.25
312.098	408.25
312.328	388.25
312.557	393.25
312.787	418.25
313.017	416.25
313.246	416.25
313.476	396.25
313.706	387.25
313.935	403.25
314.165	418.25
314.394	410.25
314.624	399.25
314.853	398.25
315.083	382.25
315.312	400.25
315.542	415.25
315.771	412.25
316.001	387.25
316.23	400.25
316.46	398.25
316.689	414.25
316.919	410.25
317.148	395.25
317.377	404.25
317.607	397.25
317.836	400.25
318.065	396.25
318.295	396.25
318.524	413.25
318.753	390.25
318.983	405.25
319.212	395.25
319.441	418.25
319.67	392.25
319.9	399.25
320.129	411.25
320.358	412.25
320.587	406.25
320.816	400.25
321.046	420.25
321.275	418.25
321.504	405.25
321.733	414.25
321.962	421.25
322.191	446.25
322.42	465.25
322.649	452.25
322.878	441.25
323.108	454.25
323.337	473.25
323.566	488.25
323.795	515.25
324.024	560.25
324.253	605.25
324.482	839.25
324.71	1246.25
324.939	1884.25
325.168	1663.25
325.397	866.25
325.626	621.25
325.855	516.25
326.084	501.25
326.313	479.25
326.542	491.25
326.77	525.25
326.999	587.25
327.228	767.25
327.457	1167.25
327.686	1463.25
327.914	973.25
328.143	676.25
328.372	592.25
328.6	559.25
328.829	542.25
329.058	555.25
329.287	564.25
329.515	514.25
329.744	499.25
329.972	502.25
330.201	514.25
330.43	549.25
330.658	577.25
330.887	597.25
331.115	585.25
331.344	530.25
331.572	516.25
331.801	510.25
332.03	509.25
332.258	487.25
332.486	492.25
332.715	480.25
332.943	488.25
333.172	487.25
333.4	498.25
333.629	505.25
333.857	510.25
334.085	516.25
334.314	564.25
334.542	560.25
334.771	566.25
334.999	544.25
335.227	509.25
335.455	493.25
335.684	493.25
335.912	502.25
336.14	474.25
336.369	477.25
336.597	493.25
336.825	467.25
337.053	488.25
337.281	486.25
337.51	458.25
337.738	458.25
337.966	475.25
338.194	479.25
338.422	482.25
338.65	453.25
338.878	442.25
339.106	485.25
339.334	492.25
339.562	466.25
339.79	458.25
340.018	470.25
340.246	446.25
340.474	450.25
340.702	459.25
340.93	466.25
341.158	463.25
341.386	450.25
341.614	457.25
341.842	475.25
342.07	427.25
342.298	455.25
342.526	447.25
342.754	462.25
342.981	460.25
343.209	450.25
343.437	470.25
343.665	458.25
343.893	475.25
344.12	494.25
344.348	476.25
344.576	502.25
344.804	467.25
345.031	490.25
345.259	484.25
345.487	471.25
345.714	454.25
345.942	462.25
346.17	445.25
346.397	448.25
346.625	442.25
346.853	443.25
347.08	461.25
347.308	455.25
347.535	457.25
347.763	456.25
347.99	438.25
348.218	449.25
348.445	442.25
348.673	464.25
348.9	453.25
349.128	442.25
349.355	442.25
349.583	453.25
349.81	421.25
350.037	428.25
350.265	435.25
350.492	416.25
350.72	425.25
350.947	424.25
351.174	446.25
351.402	451.25
351.629	456.25
351.856	451.25
352.083	464.25
352.311	461.25
352.538	455.25
352.765	461.25
352.992	453.25
353.22	445.25
353.447	457.25
353.674	444.25
353.901	433.25
354.128	428.25
354.355	416.25
354.583	413.25
354.81	422.25
355.037	415.25
355.264	427.25
355.491	431.25
355.718	430.25
355.945	418.25
356.172	424.25
356.399	405.25
356.626	442.25
356.853	408.25
357.08	423.25
357.307	416.25
357.534	423.25
357.761	432.25
357.988	428.25
358.215	412.25
358.441	415.25
358.668	439.25
358.895	424.25
359.122	427.25
359.349	431.25
359.576	464.25
359.802	457.25
360.029	482.25
360.256	494.25
360.483	489.25
360.709	458.25
360.936	463.25
361.163	451.25
361.39	441.25
361.616	453.25
361.843	461.25
362.07	457.25
362.296	478.25
362.523	434.25
362.749	434.25
362.976	456.25
363.203	455.25
363.429	426.25
363.656	434.25
363.882	438.25
364.109	453.25
364.335	454.25
364.562	434.25
364.788	415.25
365.015	428.25
365.241	416.25
365.468	438.25
365.694	452.25
365.92	438.25
366.147	459.25
366.373	428.25
366.599	429.25
366.826	426.25
367.052	435.25
367.278	438.25
367.505	436.25
367.731	419.25
367.957	432.25
368.184	430.25
368.41	442.25
368.636	436.25
368.862	477.25
369.089	438.25
369.315	435.25
369.541	448.25
369.767	442.25
369.993	443.25
370.219	425.25
370.445	440.25
370.672	454.25
370.898	437.25
371.124	434.25
371.35	438.25
371.576	464.25
371.802	448.25
372.028	440.25
372.254	443.25
372.48	438.25
372.706	444.25
372.932	467.25
373.158	452.25
373.384	462.25
373.61	461.25
373.835	450.25
374.061	458.25
374.287	454.25
374.513	457.25
374.739	461.25
374.965	467.25
375.191	469.25
375.416	470.25
375.642	463.25
375.868	449.25
376.094	464.25
376.319	435.25
376.545	451.25
376.771	450.25
376.997	442.25
377.222	448.25
377.448	467.25
377.674	464.25
377.899	448.25
378.125	455.25
378.35	447.25
378.576	449.25
378.802	429.25
379.027	432.25
379.253	440.25
379.478	436.25
379.704	444.25
379.929	449.25
380.155	441.25
380.38	453.25
380.606	458.25
380.831	457.25
381.057	459.25
381.282	443.25
381.507	452.25
381.733	446.25
381.958	442.25
382.184	447.25
382.409	450.25
382.634	461.25
382.86	459.25
383.085	475.25
383.31	458.25
383.535	471.25
383.761	498.25
383.986	467.25
384.211	459.25
384.436	472.25
384.662	485.25
384.887	472.25
385.112	482.25
385.337	486.25
385.562	475.25
385.787	514.25
386.013	508.25
386.238	517.25
386.463	506.25
386.688	493.25
386.913	498.25
387.138	482.25
387.363	491.25
387.588	492.25
387.813	491.25
388.038	487.25
388.263	502.25
388.488	508.25
388.713	489.25
388.938	508.25
389.163	508.25
389.387	510.25
389.612	485.25
389.837	491.25
390.062	494.25
390.287	501.25
390.512	498.25
390.736	484.25
390.961	478.25
391.186	486.25
391.411	516.25
391.636	514.25
391.86	523.25
392.085	512.25
392.31	538.25
392.534	540.25
392.759	523.25
392.984	502.25
393.208	527.25
393.433	504.25
393.658	522.25
393.882	495.25
394.107	518.25
394.331	518.25
394.556	518.25
394.78	514.25
395.005	514.25
395.229	494.25
395.454	509.25
395.678	552.25
395.903	548.25
396.127	563.25
396.352	551.25
396.576	538.25
396.801	512.25
397.025	526.25
397.249	532.25
397.474	542.25
397.698	560.25
397.922	563.25
398.147	586.25
398.371	575.25
398.595	567.25
398.82	585.25
399.044	621.25
399.268	630.25
399.492	688.25
399.717	703.25
399.941	709.25
400.165	744.25
400.389	727.25
400.613	676.25
400.837	598.25
401.062	595.25
401.286	614.25
401.51	594.25
401.734	580.25
401.958	590.25
402.182	591.25
402.406	594.25
402.63	604.25
402.854	611.25
403.078	611.25
403.302	625.25
403.526	618.25
403.75	630.25
403.974	625.25
404.198	621.25
404.422	628.25
404.645	628.25
404.869	639.25
405.093	647.25
405.317	701.25
405.541	702.25
405.765	675.25
405.988	662.25
406.212	627.25
406.436	648.25
406.66	686.25
406.883	658.25
407.107	685.25
407.331	739.25
407.555	798.25
407.778	798.25
408.002	744.25
408.226	692.25
408.449	681.25
408.673	676.25
408.896	688.25
409.12	740.25
409.344	692.25
409.567	655.25
409.791	620.25
410.014	602.25
410.238	611.25
410.461	610.25
410.685	624.25
410.908	614.25
411.132	648.25
411.355	708.25
411.578	672.25
411.802	623.25
412.025	607.25
412.249	621.25
412.472	629.25
412.695	673.25
412.919	664.25
413.142	612.25
413.365	603.25
413.589	617.25
413.812	598.25
414.035	585.25
414.258	578.25
414.482	566.25
414.705	568.25
414.928	538.25
415.151	546.25
415.374	574.25
415.597	580.25
415.821	585.25
416.044	585.25
416.267	576.25
416.49	583.25
416.713	566.25
416.936	616.25
417.159	563.25
417.382	587.25
417.605	594.25
417.828	601.25
418.051	605.25
418.274	605.25
418.497	589.25
418.72	584.25
418.943	568.25
419.166	600.25
419.389	631.25
419.611	604.25
419.834	621.25
420.057	642.25
420.28	618.25
420.503	604.25
420.726	603.25
420.948	600.25
421.171	634.25
421.394	680.25
421.617	599.25
421.839	597.25
422.062	607.25
422.285	603.25
422.507	666.25
422.73	739.25
422.953	732.25
423.175	662.25
423.398	650.25
423.621	642.25
423.843	641.25
424.066	663.25
424.288	658.25
424.511	660.25
424.733	733.25
424.956	795.25
425.178	764.25
425.401	729.25
425.623	804.25
425.846	686.25
426.068	638.25
426.291	621.25
426.513	633.25
426.735	616.25
426.958	650.25
427.18	739.25
427.402	887.25
427.625	975.25
427.847	827.25
428.069	752.25
428.292	688.25
428.514	612.25
428.736	613.25
428.958	586.25
429.181	573.25
429.403	584.25
429.625	598.25
429.847	600.25
430.069	669.25
430.292	676.25
430.514	584.25
430.736	586.25
430.958	592.25
431.18	583.25
431.402	562.25
431.624	566.25
431.846	545.25
432.068	567.25
432.29	551.25
432.512	557.25
432.734	574.25
432.956	566.25
433.178	564.25
433.4	568.25
433.622	564.25
433.844	584.25
434.066	572.25
434.287	570.25
434.509	574.25
434.731	590.25
434.953	573.25
435.175	596.25
435.397	644.25
435.618	630.25
435.84	672.25
436.062	768.25
436.284	812.25
436.505	684.25
436.727	653.25
436.949	618.25
437.17	578.25
437.392	580.25
437.614	584.25
437.835	610.25
438.057	718.25
438.278	811.25
438.5	833.25
438.721	912.25
438.943	896.25
439.165	699.25
439.386	608.25
439.608	636.25
439.829	636.25
440.05	645.25
440.272	695.25
440.493	670.25
440.715	620.25
440.936	598.25
441.158	602.25
441.379	595.25
441.6	627.25
441.822	630.25
442.043	672.25
442.264	748.25
442.486	818.25
442.707	691.25
442.928	669.25
443.149	664.25
443.371	659.25
443.592	699.25
443.813	804.25
444.034	898.25
444.255	777.25
444.476	693.25
444.698	684.25
444.919	668.25
445.14	742.25
445.361	715.25
445.582	682.25
445.803	734.25
446.024	842.25
446.245	846.25
446.466	789.25
446.687	652.25
446.908	646.25
447.129	591.25
447.35	594.25
447.571	574.25
447.792	566.25
448.013	588.25
448.234	601.25
448.455	636.25
448.675	754.25
448.896	866.25
449.117	744.25
449.338	718.25
449.559	796.25
449.779	930.25
450	741.25
450.221	642.25
450.442	597.25
450.662	554.25
450.883	526.25
451.104	554.25
451.324	567.25
451.545	564.25
451.766	544.25
451.986	518.25
452.207	518.25
452.428	521.25
452.648	526.25
452.869	532.25
453.089	520.25
453.31	546.25
453.53	527.25
453.751	506.25
453.971	524.25
454.192	529.25
454.412	532.25
454.633	493.25
454.853	502.25
455.073	526.25
455.294	548.25
455.514	600.25
455.734	594.25
455.955	522.25
456.175	499.25
456.395	502.25
456.616	485.25
456.836	493.25
457.056	495.25
457.276	482.25
457.497	492.25
457.717	510.25
457.937	497.25
458.157	528.25
458.377	514.25
458.598	522.25
458.818	580.25
459.038	634.25
459.258	660.25
459.478	604.25
459.698	572.25
459.918	571.25
460.138	564.25
460.358	589.25
460.578	602.25
460.798	592.25
461.018	597.25
461.238	578.25
461.458	591.25
461.678	571.25
461.898	612.25
462.118	574.25
462.338	600.25
462.558	596.25
462.777	616.25
462.997	644.25
463.217	682.25
463.437	630.25
463.657	668.25
463.876	636.25
464.096	639.25
464.316	636.25
464.536	622.25
464.755	637.25
464.975	632.25
465.195	642.25
465.414	691.25
465.634	627.25
465.854	602.25
466.073	597.25
466.293	560.25
466.512	551.25
466.732	562.25
466.951	539.25
467.171	527.25
467.391	540.25
467.61	551.25
467.829	536.25
468.049	540.25
468.268	552.25
468.488	537.25
468.707	527.25
468.927	520.25
469.146	530.25
469.365	523.25
469.585	537.25
469.804	546.25
470.023	552.25
470.243	547.25
470.462	550.25
470.681	582.25
470.901	560.25
471.12	550.25
471.339	551.25
471.558	542.25
471.777	541.25
471.997	542.25
472.216	556.25
472.435	565.25
472.654	590.25
472.873	523.25
473.092	542.25
473.311	537.25
473.53	527.25
473.749	534.25
473.968	603.25
474.187	696.25
474.406	691.25
474.625	626.25
474.844	557.25
475.063	562.25
475.282	540.25
475.501	554.25
475.72	564.25
475.939	553.25
476.158	567.25
476.377	549.25
476.596	574.25
476.814	570.25
477.033	574.25
477.252	588.25
477.471	581.25
477.69	580.25
477.908	591.25
478.127	596.25
478.346	624.25
478.564	613.25
478.783	656.25
479.002	636.25
479.22	632.25
479.439	651.25
479.658	663.25
479.876	669.25
480.095	658.25
480.313	680.25
480.532	684.25
480.751	683.25
480.969	691.25
481.188	709.25
481.406	732.25
481.624	682.25
481.843	656.25
482.061	644.25
482.28	639.25
482.498	660.25
482.717	635.25
482.935	660.25
483.153	626.25
483.372	630.25
483.59	638.25
483.808	646.25
484.027	638.25
484.245	641.25
484.463	638.25
484.681	662.25
484.9	633.25
485.118	643.25
485.336	648.25
485.554	665.25
485.772	662.25
485.99	674.25
486.209	671.25
486.427	680.25
486.645	676.25
486.863	677.25
487.081	656.25
487.299	679.25
487.517	670.25
487.735	690.25
487.953	664.25
488.171	686.25
488.389	706.25
488.607	688.25
488.825	696.25
489.043	667.25
489.261	676.25
489.479	709.25
489.696	672.25
489.914	710.25
490.132	711.25
490.35	729.25
490.568	757.25
490.786	746.25
491.003	722.25
491.221	741.25
491.439	782.25
491.657	752.25
491.874	789.25
492.092	760.25
492.31	790.25
492.527	795.25
492.745	781.25
492.963	777.25
493.18	777.25
493.398	829.25
493.615	816.25
493.833	815.25
494.05	822.25
494.268	807.25
494.485	820.25
494.703	799.25
494.92	833.25
495.138	834.25
495.355	815.25
495.573	824.25
495.79	815.25
496.008	813.25
496.225	799.25
496.442	838.25
496.66	807.25
496.877	811.25
497.094	851.25
497.312	846.25
497.529	818.25
497.746	850.25
497.963	835.25
498.181	905.25
498.398	916.25
498.615	922.25
498.832	964.25
499.049	982.25
499.267	1015.25
499.484	1050.25
499.701	1090.25
499.918	1147.25
500.135	1208.25
500.352	1270.25
500.569	1312.25
500.786	1279.25
501.003	1258.25
501.22	1223.25
501.437	1155.25
501.654	1114.25
