Data from 1974.PennyLincolnUp.Lamp.En5.5.200Scan.071719.P1.Changed Mount._HRD10591_15-51-56-856.txt Node
Date: Thu Jul 18 15:51:56 EDT 2019
User: cochatt
Spectrometer: HR+D1059
Trigger mode: 1
Integration Time (sec): 1.000000E-1
Scans to average: 1
Electric dark correction enabled: true
Nonlinearity correction enabled: false
Boxcar width: 0
XAxis mode: Wavelengths
Number of Pixels in Spectrum: 2048
>>>>>Begin Spectral Data<<<<<
223.165	-16.19
223.4	-16.19
223.635	-16.19
223.869	-21.19
224.104	-31.19
224.338	-24.19
224.573	-19.19
224.808	-2.19
225.042	-8.19
225.277	-4.19
225.511	-15.19
225.746	9.81
225.98	-10.19
226.215	26.81
226.449	28.81
226.683	25.81
226.918	13.81
227.152	46.81
227.387	28.81
227.621	32.81
227.856	29.81
228.09	40.81
228.324	55.81
228.559	55.81
228.793	65.81
229.027	97.81
229.262	100.81
229.496	118.81
229.73	134.81
229.964	151.81
230.199	125.81
230.433	123.81
230.667	119.81
230.901	101.81
231.136	116.81
231.37	119.81
231.604	110.81
231.838	124.81
232.072	125.81
232.306	110.81
232.541	131.81
232.775	113.81
233.009	129.81
233.243	130.81
233.477	134.81
233.711	117.81
233.945	109.81
234.179	115.81
234.413	118.81
234.647	115.81
234.881	114.81
235.115	123.81
235.349	135.81
235.583	138.81
235.817	119.81
236.051	154.81
236.285	133.81
236.519	122.81
236.753	134.81
236.987	154.81
237.221	179.81
237.455	220.81
237.689	160.81
237.922	150.81
238.156	141.81
238.39	133.81
238.624	126.81
238.858	141.81
239.091	127.81
239.325	126.81
239.559	135.81
239.793	133.81
240.027	135.81
240.26	151.81
240.494	150.81
240.728	161.81
240.961	158.81
241.195	150.81
241.429	138.81
241.662	137.81
241.896	131.81
242.13	137.81
242.363	151.81
242.597	142.81
242.83	143.81
243.064	151.81
243.298	150.81
243.531	138.81
243.765	152.81
243.998	152.81
244.232	154.81
244.465	154.81
244.699	144.81
244.932	157.81
245.166	164.81
245.399	150.81
245.633	155.81
245.866	157.81
246.099	157.81
246.333	169.81
246.566	157.81
246.8	147.81
247.033	157.81
247.266	170.81
247.5	158.81
247.733	164.81
247.966	185.81
248.2	171.81
248.433	183.81
248.666	182.81
248.899	190.81
249.133	194.81
249.366	220.81
249.599	203.81
249.832	181.81
250.066	189.81
250.299	191.81
250.532	200.81
250.765	219.81
250.998	223.81
251.231	232.81
251.465	226.81
251.698	199.81
251.931	212.81
252.164	205.81
252.397	191.81
252.63	197.81
252.863	223.81
253.096	231.81
253.329	237.81
253.562	228.81
253.795	228.81
254.028	230.81
254.261	220.81
254.494	221.81
254.727	234.81
254.96	276.81
255.193	263.81
255.426	258.81
255.659	224.81
255.892	230.81
256.124	226.81
256.357	227.81
256.59	224.81
256.823	226.81
257.056	215.81
257.289	222.81
257.521	224.81
257.754	213.81
257.987	218.81
258.22	203.81
258.452	228.81
258.685	214.81
258.918	210.81
259.151	215.81
259.383	225.81
259.616	223.81
259.849	241.81
260.081	241.81
260.314	251.81
260.547	268.81
260.779	253.81
261.012	249.81
261.244	246.81
261.477	223.81
261.71	233.81
261.942	216.81
262.175	253.81
262.407	242.81
262.64	225.81
262.872	218.81
263.105	219.81
263.337	217.81
263.57	219.81
263.802	209.81
264.035	229.81
264.267	213.81
264.499	236.81
264.732	217.81
264.964	232.81
265.197	227.81
265.429	212.81
265.661	214.81
265.894	204.81
266.126	227.81
266.358	227.81
266.591	230.81
266.823	231.81
267.055	226.81
267.287	239.81
267.52	257.81
267.752	243.81
267.984	239.81
268.216	236.81
268.448	253.81
268.681	240.81
268.913	238.81
269.145	263.81
269.377	285.81
269.609	271.81
269.841	266.81
270.073	276.81
270.306	294.81
270.538	324.81
270.77	315.81
271.002	292.81
271.234	290.81
271.466	283.81
271.698	311.81
271.93	317.81
272.162	330.81
272.394	307.81
272.626	303.81
272.858	290.81
273.09	290.81
273.322	281.81
273.553	285.81
273.785	273.81
274.017	272.81
274.249	274.81
274.481	290.81
274.713	271.81
274.945	269.81
275.176	291.81
275.408	281.81
275.64	264.81
275.872	279.81
276.104	290.81
276.335	296.81
276.567	281.81
276.799	291.81
277.031	305.81
277.262	340.81
277.494	329.81
277.726	296.81
277.957	315.81
278.189	293.81
278.421	289.81
278.652	298.81
278.884	277.81
279.115	280.81
279.347	294.81
279.579	279.81
279.81	275.81
280.042	277.81
280.273	283.81
280.505	286.81
280.736	291.81
280.968	291.81
281.199	279.81
281.431	284.81
281.662	291.81
281.894	285.81
282.125	284.81
282.356	295.81
282.588	315.81
282.819	299.81
283.051	287.81
283.282	296.81
283.513	299.81
283.745	306.81
283.976	290.81
284.207	311.81
284.439	297.81
284.67	301.81
284.901	285.81
285.132	294.81
285.364	294.81
285.595	290.81
285.826	293.81
286.057	313.81
286.288	285.81
286.52	315.81
286.751	312.81
286.982	296.81
287.213	312.81
287.444	300.81
287.675	322.81
287.906	327.81
288.138	324.81
288.369	313.81
288.6	341.81
288.831	291.81
289.062	315.81
289.293	306.81
289.524	308.81
289.755	298.81
289.986	328.81
290.217	312.81
290.448	311.81
290.679	315.81
290.91	301.81
291.141	310.81
291.371	313.81
291.602	313.81
291.833	308.81
292.064	313.81
292.295	312.81
292.526	319.81
292.757	311.81
292.987	314.81
293.218	309.81
293.449	325.81
293.68	315.81
293.91	331.81
294.141	295.81
294.372	295.81
294.603	323.81
294.833	323.81
295.064	317.81
295.295	318.81
295.525	317.81
295.756	309.81
295.987	322.81
296.217	337.81
296.448	337.81
296.679	330.81
296.909	318.81
297.14	333.81
297.37	334.81
297.601	325.81
297.831	313.81
298.062	334.81
298.292	331.81
298.523	324.81
298.753	332.81
298.984	328.81
299.214	330.81
299.445	325.81
299.675	327.81
299.905	353.81
300.136	327.81
300.366	329.81
300.597	346.81
300.827	337.81
301.057	354.81
301.288	371.81
301.518	331.81
301.748	371.81
301.979	334.81
302.209	357.81
302.439	355.81
302.669	361.81
302.9	335.81
303.13	334.81
303.36	339.81
303.59	331.81
303.82	365.81
304.051	343.81
304.281	349.81
304.511	356.81
304.741	350.81
304.971	354.81
305.201	320.81
305.431	358.81
305.661	350.81
305.891	333.81
306.121	343.81
306.352	335.81
306.582	339.81
306.812	354.81
307.042	355.81
307.272	365.81
307.502	370.81
307.731	357.81
307.961	344.81
308.191	353.81
308.421	372.81
308.651	374.81
308.881	359.81
309.111	347.81
309.341	329.81
309.571	371.81
309.8	366.81
310.03	363.81
310.26	390.81
310.49	369.81
310.72	386.81
310.949	394.81
311.179	398.81
311.409	394.81
311.639	386.81
311.868	373.81
312.098	375.81
312.328	391.81
312.557	388.81
312.787	406.81
313.017	406.81
313.246	384.81
313.476	385.81
313.706	388.81
313.935	386.81
314.165	388.81
314.394	403.81
314.624	396.81
314.853	400.81
315.083	395.81
315.312	406.81
315.542	383.81
315.771	369.81
316.001	394.81
316.23	387.81
316.46	382.81
316.689	398.81
316.919	400.81
317.148	399.81
317.377	400.81
317.607	395.81
317.836	407.81
318.065	391.81
318.295	392.81
318.524	394.81
318.753	386.81
318.983	420.81
319.212	413.81
319.441	404.81
319.67	391.81
319.9	393.81
320.129	401.81
320.358	397.81
320.587	405.81
320.816	390.81
321.046	399.81
321.275	393.81
321.504	407.81
321.733	408.81
321.962	421.81
322.191	419.81
322.42	409.81
322.649	439.81
322.878	437.81
323.108	434.81
323.337	466.81
323.566	486.81
323.795	500.81
324.024	540.81
324.253	603.81
324.482	792.81
324.71	1191.81
324.939	1727.81
325.168	1550.81
325.397	796.81
325.626	576.81
325.855	495.81
326.084	473.81
326.313	488.81
326.542	469.81
326.77	500.81
326.999	581.81
327.228	714.81
327.457	1076.81
327.686	1329.81
327.914	923.81
328.143	606.81
328.372	560.81
328.6	543.81
328.829	533.81
329.058	525.81
329.287	558.81
329.515	536.81
329.744	500.81
329.972	488.81
330.201	507.81
330.43	529.81
330.658	530.81
330.887	559.81
331.115	560.81
331.344	494.81
331.572	473.81
331.801	497.81
332.03	478.81
332.258	461.81
332.486	462.81
332.715	465.81
332.943	484.81
333.172	482.81
333.4	477.81
333.629	502.81
333.857	501.81
334.085	516.81
334.314	518.81
334.542	541.81
334.771	567.81
334.999	526.81
335.227	484.81
335.455	488.81
335.684	462.81
335.912	468.81
336.14	466.81
336.369	488.81
336.597	457.81
336.825	483.81
337.053	463.81
337.281	472.81
337.51	453.81
337.738	461.81
337.966	465.81
338.194	469.81
338.422	457.81
338.65	468.81
338.878	461.81
339.106	457.81
339.334	462.81
339.562	453.81
339.79	457.81
340.018	435.81
340.246	459.81
340.474	451.81
340.702	478.81
340.93	450.81
341.158	427.81
341.386	442.81
341.614	462.81
341.842	462.81
342.07	445.81
342.298	453.81
342.526	460.81
342.754	451.81
342.981	443.81
343.209	465.81
343.437	469.81
343.665	456.81
343.893	455.81
344.12	486.81
344.348	495.81
344.576	474.81
344.804	492.81
345.031	469.81
345.259	477.81
345.487	453.81
345.714	462.81
345.942	439.81
346.17	446.81
346.397	436.81
346.625	425.81
346.853	428.81
347.08	428.81
347.308	439.81
347.535	440.81
347.763	447.81
347.99	451.81
348.218	429.81
348.445	453.81
348.673	446.81
348.9	446.81
349.128	437.81
349.355	421.81
349.583	427.81
349.81	427.81
350.037	411.81
350.265	414.81
350.492	439.81
350.72	426.81
350.947	433.81
351.174	437.81
351.402	414.81
351.629	439.81
351.856	428.81
352.083	435.81
352.311	465.81
352.538	435.81
352.765	424.81
352.992	418.81
353.22	420.81
353.447	450.81
353.674	415.81
353.901	413.81
354.128	413.81
354.355	429.81
354.583	431.81
354.81	417.81
355.037	418.81
355.264	396.81
355.491	417.81
355.718	422.81
355.945	437.81
356.172	406.81
356.399	434.81
356.626	422.81
356.853	424.81
357.08	402.81
357.307	405.81
357.534	432.81
357.761	409.81
357.988	421.81
358.215	418.81
358.441	414.81
358.668	405.81
358.895	414.81
359.122	430.81
359.349	424.81
359.576	444.81
359.802	459.81
360.029	467.81
360.256	475.81
360.483	473.81
360.709	449.81
360.936	451.81
361.163	446.81
361.39	426.81
361.616	437.81
361.843	429.81
362.07	426.81
362.296	438.81
362.523	419.81
362.749	430.81
362.976	449.81
363.203	441.81
363.429	443.81
363.656	441.81
363.882	436.81
364.109	415.81
364.335	438.81
364.562	435.81
364.788	450.81
365.015	435.81
365.241	444.81
365.468	435.81
365.694	443.81
365.92	435.81
366.147	433.81
366.373	424.81
366.599	399.81
366.826	420.81
367.052	415.81
367.278	430.81
367.505	430.81
367.731	434.81
367.957	427.81
368.184	427.81
368.41	452.81
368.636	451.81
368.862	460.81
369.089	447.81
369.315	455.81
369.541	438.81
369.767	423.81
369.993	445.81
370.219	445.81
370.445	433.81
370.672	439.81
370.898	420.81
371.124	457.81
371.35	444.81
371.576	438.81
371.802	441.81
372.028	447.81
372.254	453.81
372.48	437.81
372.706	445.81
372.932	469.81
373.158	463.81
373.384	428.81
373.61	460.81
373.835	475.81
374.061	457.81
374.287	466.81
374.513	462.81
374.739	475.81
374.965	454.81
375.191	466.81
375.416	444.81
375.642	452.81
375.868	473.81
376.094	456.81
376.319	447.81
376.545	454.81
376.771	439.81
376.997	467.81
377.222	437.81
377.448	454.81
377.674	459.81
377.899	441.81
378.125	441.81
378.35	469.81
378.576	438.81
378.802	437.81
379.027	446.81
379.253	451.81
379.478	439.81
379.704	449.81
379.929	467.81
380.155	451.81
380.38	451.81
380.606	437.81
380.831	462.81
381.057	447.81
381.282	445.81
381.507	452.81
381.733	440.81
381.958	454.81
382.184	469.81
382.409	453.81
382.634	459.81
382.86	449.81
383.085	465.81
383.31	471.81
383.535	472.81
383.761	458.81
383.986	469.81
384.211	470.81
384.436	482.81
384.662	490.81
384.887	500.81
385.112	494.81
385.337	487.81
385.562	513.81
385.787	490.81
386.013	507.81
386.238	497.81
386.463	497.81
386.688	488.81
386.913	494.81
387.138	497.81
387.363	518.81
387.588	497.81
387.813	494.81
388.038	492.81
388.263	508.81
388.488	514.81
388.713	494.81
388.938	495.81
389.163	509.81
389.387	501.81
389.612	517.81
389.837	526.81
390.062	504.81
390.287	499.81
390.512	507.81
390.736	482.81
390.961	477.81
391.186	519.81
391.411	510.81
391.636	523.81
391.86	503.81
392.085	526.81
392.31	543.81
392.534	540.81
392.759	517.81
392.984	519.81
393.208	501.81
393.433	517.81
393.658	528.81
393.882	511.81
394.107	516.81
394.331	498.81
394.556	515.81
394.78	502.81
395.005	521.81
395.229	526.81
395.454	519.81
395.678	541.81
395.903	535.81
396.127	567.81
396.352	558.81
396.576	557.81
396.801	519.81
397.025	520.81
397.249	537.81
397.474	526.81
397.698	531.81
397.922	555.81
398.147	589.81
398.371	583.81
398.595	555.81
398.82	577.81
399.044	607.81
399.268	619.81
399.492	662.81
399.717	696.81
399.941	737.81
400.165	719.81
400.389	728.81
400.613	661.81
400.837	642.81
401.062	612.81
401.286	596.81
401.51	588.81
401.734	583.81
401.958	579.81
402.182	611.81
402.406	589.81
402.63	607.81
402.854	595.81
403.078	591.81
403.302	604.81
403.526	608.81
403.75	607.81
403.974	629.81
404.198	623.81
404.422	627.81
404.645	627.81
404.869	641.81
405.093	669.81
405.317	702.81
405.541	739.81
405.765	669.81
405.988	641.81
406.212	645.81
406.436	639.81
406.66	651.81
406.883	656.81
407.107	675.81
407.331	709.81
407.555	783.81
407.778	789.81
408.002	748.81
408.226	689.81
408.449	671.81
408.673	690.81
408.896	711.81
409.12	731.81
409.344	699.81
409.567	654.81
409.791	631.81
410.014	613.81
410.238	629.81
410.461	609.81
410.685	612.81
410.908	613.81
411.132	671.81
411.355	709.81
411.578	658.81
411.802	610.81
412.025	604.81
412.249	616.81
412.472	635.81
412.695	689.81
412.919	643.81
413.142	624.81
413.365	612.81
413.589	578.81
413.812	573.81
414.035	596.81
414.258	583.81
414.482	601.81
414.705	589.81
414.928	598.81
415.151	568.81
415.374	546.81
415.597	565.81
415.821	568.81
416.044	586.81
416.267	577.81
416.49	569.81
416.713	583.81
416.936	579.81
417.159	580.81
417.382	569.81
417.605	578.81
417.828	599.81
418.051	597.81
418.274	601.81
418.497	578.81
418.72	593.81
418.943	558.81
419.166	615.81
419.389	665.81
419.611	628.81
419.834	605.81
420.057	596.81
420.28	592.81
420.503	593.81
420.726	609.81
420.948	598.81
421.171	646.81
421.394	678.81
421.617	627.81
421.839	593.81
422.062	598.81
422.285	613.81
422.507	662.81
422.73	732.81
422.953	717.81
423.175	652.81
423.398	644.81
423.621	621.81
423.843	660.81
424.066	645.81
424.288	654.81
424.511	693.81
424.733	703.81
424.956	782.81
425.178	739.81
425.401	755.81
425.623	789.81
425.846	665.81
426.068	637.81
426.291	649.81
426.513	605.81
426.735	612.81
426.958	653.81
427.18	745.81
427.402	878.81
427.625	955.81
427.847	817.81
428.069	744.81
428.292	656.81
428.514	602.81
428.736	597.81
428.958	590.81
429.181	568.81
429.403	594.81
429.625	591.81
429.847	627.81
430.069	697.81
430.292	663.81
430.514	591.81
430.736	582.81
430.958	588.81
431.18	541.81
431.402	564.81
431.624	541.81
431.846	558.81
432.068	539.81
432.29	548.81
432.512	574.81
432.734	557.81
432.956	559.81
433.178	569.81
433.4	569.81
433.622	562.81
433.844	551.81
434.066	547.81
434.287	562.81
434.509	577.81
434.731	569.81
434.953	596.81
435.175	616.81
435.397	645.81
435.618	636.81
435.84	673.81
436.062	778.81
436.284	833.81
436.505	720.81
436.727	629.81
436.949	600.81
437.17	567.81
437.392	598.81
437.614	579.81
437.835	593.81
438.057	696.81
438.278	802.81
438.5	805.81
438.721	871.81
438.943	843.81
439.165	676.81
439.386	631.81
439.608	625.81
439.829	635.81
440.05	637.81
440.272	662.81
440.493	652.81
440.715	618.81
440.936	604.81
441.158	586.81
441.379	595.81
441.6	601.81
441.822	628.81
442.043	663.81
442.264	748.81
442.486	805.81
442.707	683.81
442.928	628.81
443.149	674.81
443.371	666.81
443.592	701.81
443.813	813.81
444.034	851.81
444.255	716.81
444.476	670.81
444.698	667.81
444.919	702.81
445.14	785.81
445.361	671.81
445.582	669.81
445.803	703.81
446.024	825.81
446.245	810.81
446.466	734.81
446.687	645.81
446.908	614.81
447.129	608.81
447.35	592.81
447.571	586.81
447.792	576.81
448.013	602.81
448.234	575.81
448.455	630.81
448.675	727.81
448.896	876.81
449.117	723.81
449.338	691.81
449.559	822.81
449.779	890.81
450	747.81
450.221	635.81
450.442	573.81
450.662	574.81
450.883	558.81
451.104	574.81
451.324	573.81
451.545	523.81
451.766	527.81
451.986	513.81
452.207	499.81
452.428	497.81
452.648	514.81
452.869	519.81
453.089	509.81
453.31	514.81
453.53	502.81
453.751	531.81
453.971	509.81
454.192	531.81
454.412	544.81
454.633	499.81
454.853	489.81
455.073	499.81
455.294	549.81
455.514	587.81
455.734	594.81
455.955	517.81
456.175	497.81
456.395	485.81
456.616	486.81
456.836	486.81
457.056	485.81
457.276	473.81
457.497	484.81
457.717	502.81
457.937	504.81
458.157	485.81
458.377	481.81
458.598	519.81
458.818	550.81
459.038	630.81
459.258	655.81
459.478	583.81
459.698	575.81
459.918	565.81
460.138	554.81
460.358	555.81
460.578	589.81
460.798	579.81
461.018	587.81
461.238	610.81
461.458	583.81
461.678	569.81
461.898	581.81
462.118	587.81
462.338	609.81
462.558	621.81
462.777	643.81
462.997	641.81
463.217	656.81
463.437	653.81
463.657	625.81
463.876	632.81
464.096	625.81
464.316	609.81
464.536	637.81
464.755	655.81
464.975	609.81
465.195	645.81
465.414	678.81
465.634	641.81
465.854	588.81
466.073	571.81
466.293	557.81
466.512	543.81
466.732	518.81
466.951	528.81
467.171	538.81
467.391	527.81
467.61	543.81
467.829	552.81
468.049	544.81
468.268	541.81
468.488	529.81
468.707	516.81
468.927	510.81
469.146	537.81
469.365	519.81
469.585	516.81
469.804	541.81
470.023	556.81
470.243	534.81
470.462	533.81
470.681	542.81
470.901	550.81
471.12	554.81
471.339	515.81
471.558	543.81
471.777	547.81
471.997	516.81
472.216	553.81
472.435	551.81
472.654	550.81
472.873	530.81
473.092	535.81
473.311	537.81
473.53	534.81
473.749	556.81
473.968	566.81
474.187	658.81
474.406	694.81
474.625	595.81
474.844	576.81
475.063	538.81
475.282	526.81
475.501	519.81
475.72	527.81
475.939	550.81
476.158	545.81
476.377	555.81
476.596	570.81
476.814	567.81
477.033	549.81
477.252	579.81
477.471	577.81
477.69	589.81
477.908	603.81
478.127	600.81
478.346	590.81
478.564	627.81
478.783	614.81
479.002	621.81
479.22	635.81
479.439	638.81
479.658	637.81
479.876	651.81
480.095	654.81
480.313	699.81
480.532	677.81
480.751	693.81
480.969	670.81
481.188	700.81
481.406	729.81
481.624	671.81
481.843	658.81
482.061	649.81
482.28	641.81
482.498	628.81
482.717	629.81
482.935	634.81
483.153	633.81
483.372	635.81
483.59	646.81
483.808	641.81
484.027	651.81
484.245	637.81
484.463	635.81
484.681	660.81
484.9	640.81
485.118	635.81
485.336	638.81
485.554	634.81
485.772	656.81
485.99	656.81
486.209	637.81
486.427	642.81
486.645	686.81
486.863	673.81
487.081	669.81
487.299	670.81
487.517	669.81
487.735	670.81
487.953	682.81
488.171	692.81
488.389	693.81
488.607	690.81
488.825	656.81
489.043	679.81
489.261	698.81
489.479	695.81
489.696	701.81
489.914	695.81
490.132	700.81
490.35	706.81
490.568	706.81
490.786	718.81
491.003	749.81
491.221	747.81
491.439	765.81
491.657	793.81
491.874	790.81
492.092	765.81
492.31	794.81
492.527	787.81
492.745	823.81
492.963	788.81
493.18	796.81
493.398	805.81
493.615	823.81
493.833	805.81
494.05	787.81
494.268	808.81
494.485	807.81
494.703	805.81
494.92	821.81
495.138	767.81
495.355	799.81
495.573	823.81
495.79	813.81
496.008	794.81
496.225	780.81
496.442	818.81
496.66	827.81
496.877	829.81
497.094	828.81
497.312	822.81
497.529	841.81
497.746	832.81
497.963	837.81
498.181	894.81
498.398	886.81
498.615	930.81
498.832	958.81
499.049	950.81
499.267	1030.81
499.484	1050.81
499.701	1089.81
499.918	1155.81
500.135	1224.81
500.352	1273.81
500.569	1306.81
500.786	1339.81
501.003	1289.81
501.22	1229.81
501.437	1175.81
501.654	1118.81
