Data from 1974.PennyLincolnUp.Lamp.En5.5.200Scan.071719.P1.Changed Mount._HRD10591_15-52-26-856.txt Node
Date: Thu Jul 18 15:52:26 EDT 2019
User: cochatt
Spectrometer: HR+D1059
Trigger mode: 1
Integration Time (sec): 1.000000E-1
Scans to average: 1
Electric dark correction enabled: true
Nonlinearity correction enabled: false
Boxcar width: 0
XAxis mode: Wavelengths
Number of Pixels in Spectrum: 2048
>>>>>Begin Spectral Data<<<<<
223.165	-12.81
223.4	-12.81
223.635	-12.81
223.869	-18.81
224.104	-15.81
224.338	-17.81
224.573	-6.81
224.808	-7.81
225.042	-2.81
225.277	-14.81
225.511	7.19
225.746	5.19
225.98	3.19
226.215	5.19
226.449	12.19
226.683	37.19
226.918	9.19
227.152	18.19
227.387	38.19
227.621	38.19
227.856	34.19
228.09	42.19
228.324	54.19
228.559	58.19
228.793	70.19
229.027	100.19
229.262	96.19
229.496	113.19
229.73	134.19
229.964	147.19
230.199	124.19
230.433	113.19
230.667	122.19
230.901	117.19
231.136	111.19
231.37	104.19
231.604	116.19
231.838	111.19
232.072	129.19
232.306	122.19
232.541	118.19
232.775	140.19
233.009	121.19
233.243	107.19
233.477	125.19
233.711	129.19
233.945	126.19
234.179	120.19
234.413	115.19
234.647	119.19
234.881	108.19
235.115	117.19
235.349	127.19
235.583	123.19
235.817	128.19
236.051	139.19
236.285	138.19
236.519	125.19
236.753	142.19
236.987	147.19
237.221	183.19
237.455	237.19
237.689	195.19
237.922	143.19
238.156	131.19
238.39	142.19
238.624	138.19
238.858	148.19
239.091	143.19
239.325	133.19
239.559	136.19
239.793	153.19
240.027	134.19
240.26	155.19
240.494	161.19
240.728	144.19
240.961	151.19
241.195	149.19
241.429	136.19
241.662	144.19
241.896	145.19
242.13	134.19
242.363	152.19
242.597	153.19
242.83	129.19
243.064	151.19
243.298	141.19
243.531	147.19
243.765	157.19
243.998	150.19
244.232	167.19
244.465	169.19
244.699	168.19
244.932	153.19
245.166	183.19
245.399	165.19
245.633	167.19
245.866	171.19
246.099	166.19
246.333	155.19
246.566	174.19
246.8	158.19
247.033	173.19
247.266	170.19
247.5	182.19
247.733	185.19
247.966	182.19
248.2	193.19
248.433	189.19
248.666	177.19
248.899	193.19
249.133	213.19
249.366	179.19
249.599	194.19
249.832	188.19
250.066	193.19
250.299	187.19
250.532	206.19
250.765	213.19
250.998	226.19
251.231	242.19
251.465	226.19
251.698	233.19
251.931	196.19
252.164	220.19
252.397	221.19
252.63	231.19
252.863	215.19
253.096	230.19
253.329	228.19
253.562	244.19
253.795	243.19
254.028	238.19
254.261	245.19
254.494	225.19
254.727	237.19
254.96	297.19
255.193	275.19
255.426	257.19
255.659	234.19
255.892	217.19
256.124	219.19
256.357	234.19
256.59	230.19
256.823	223.19
257.056	213.19
257.289	199.19
257.521	212.19
257.754	237.19
257.987	223.19
258.22	218.19
258.452	225.19
258.685	222.19
258.918	214.19
259.151	219.19
259.383	212.19
259.616	238.19
259.849	221.19
260.081	225.19
260.314	260.19
260.547	281.19
260.779	245.19
261.012	249.19
261.244	257.19
261.477	227.19
261.71	253.19
261.942	235.19
262.175	233.19
262.407	242.19
262.64	248.19
262.872	218.19
263.105	219.19
263.337	227.19
263.57	228.19
263.802	233.19
264.035	229.19
264.267	237.19
264.499	234.19
264.732	230.19
264.964	226.19
265.197	218.19
265.429	244.19
265.661	217.19
265.894	236.19
266.126	247.19
266.358	227.19
266.591	224.19
266.823	253.19
267.055	236.19
267.287	239.19
267.52	249.19
267.752	249.19
267.984	234.19
268.216	244.19
268.448	236.19
268.681	270.19
268.913	266.19
269.145	282.19
269.377	281.19
269.609	281.19
269.841	266.19
270.073	277.19
270.306	298.19
270.538	310.19
270.77	339.19
271.002	311.19
271.234	326.19
271.466	299.19
271.698	314.19
271.93	323.19
272.162	314.19
272.394	336.19
272.626	318.19
272.858	286.19
273.09	280.19
273.322	289.19
273.553	271.19
273.785	295.19
274.017	287.19
274.249	269.19
274.481	280.19
274.713	271.19
274.945	294.19
275.176	274.19
275.408	291.19
275.64	273.19
275.872	293.19
276.104	289.19
276.335	276.19
276.567	290.19
276.799	301.19
277.031	315.19
277.262	330.19
277.494	324.19
277.726	314.19
277.957	307.19
278.189	293.19
278.421	287.19
278.652	284.19
278.884	286.19
279.115	292.19
279.347	291.19
279.579	289.19
279.81	301.19
280.042	291.19
280.273	276.19
280.505	293.19
280.736	305.19
280.968	283.19
281.199	294.19
281.431	303.19
281.662	315.19
281.894	273.19
282.125	310.19
282.356	308.19
282.588	331.19
282.819	332.19
283.051	310.19
283.282	305.19
283.513	298.19
283.745	312.19
283.976	294.19
284.207	321.19
284.439	299.19
284.67	307.19
284.901	320.19
285.132	297.19
285.364	301.19
285.595	305.19
285.826	309.19
286.057	309.19
286.288	315.19
286.52	307.19
286.751	299.19
286.982	319.19
287.213	289.19
287.444	320.19
287.675	327.19
287.906	318.19
288.138	317.19
288.369	345.19
288.6	324.19
288.831	314.19
289.062	322.19
289.293	315.19
289.524	318.19
289.755	341.19
289.986	323.19
290.217	348.19
290.448	329.19
290.679	310.19
290.91	323.19
291.141	312.19
291.371	316.19
291.602	311.19
291.833	338.19
292.064	314.19
292.295	324.19
292.526	305.19
292.757	340.19
292.987	331.19
293.218	301.19
293.449	321.19
293.68	321.19
293.91	322.19
294.141	324.19
294.372	330.19
294.603	318.19
294.833	331.19
295.064	328.19
295.295	328.19
295.525	316.19
295.756	332.19
295.987	325.19
296.217	366.19
296.448	354.19
296.679	331.19
296.909	318.19
297.14	336.19
297.37	333.19
297.601	331.19
297.831	335.19
298.062	311.19
298.292	322.19
298.523	342.19
298.753	332.19
298.984	340.19
299.214	325.19
299.445	345.19
299.675	330.19
299.905	327.19
300.136	346.19
300.366	337.19
300.597	344.19
300.827	338.19
301.057	342.19
301.288	355.19
301.518	364.19
301.748	344.19
301.979	339.19
302.209	358.19
302.439	359.19
302.669	362.19
302.9	377.19
303.13	352.19
303.36	378.19
303.59	350.19
303.82	367.19
304.051	379.19
304.281	362.19
304.511	373.19
304.741	341.19
304.971	350.19
305.201	355.19
305.431	339.19
305.661	355.19
305.891	341.19
306.121	374.19
306.352	374.19
306.582	360.19
306.812	371.19
307.042	339.19
307.272	360.19
307.502	359.19
307.731	370.19
307.961	377.19
308.191	352.19
308.421	381.19
308.651	379.19
308.881	369.19
309.111	373.19
309.341	371.19
309.571	372.19
309.8	382.19
310.03	379.19
310.26	385.19
310.49	389.19
310.72	402.19
310.949	399.19
311.179	413.19
311.409	393.19
311.639	402.19
311.868	391.19
312.098	392.19
312.328	405.19
312.557	391.19
312.787	435.19
313.017	425.19
313.246	413.19
313.476	388.19
313.706	392.19
313.935	387.19
314.165	439.19
314.394	417.19
314.624	417.19
314.853	406.19
315.083	413.19
315.312	405.19
315.542	390.19
315.771	405.19
316.001	420.19
316.23	401.19
316.46	400.19
316.689	400.19
316.919	404.19
317.148	421.19
317.377	407.19
317.607	421.19
317.836	415.19
318.065	408.19
318.295	397.19
318.524	417.19
318.753	413.19
318.983	418.19
319.212	393.19
319.441	410.19
319.67	395.19
319.9	401.19
320.129	409.19
320.358	392.19
320.587	426.19
320.816	398.19
321.046	399.19
321.275	425.19
321.504	428.19
321.733	413.19
321.962	427.19
322.191	426.19
322.42	438.19
322.649	446.19
322.878	445.19
323.108	459.19
323.337	469.19
323.566	487.19
323.795	486.19
324.024	525.19
324.253	630.19
324.482	807.19
324.71	1252.19
324.939	1797.19
325.168	1593.19
325.397	837.19
325.626	615.19
325.855	525.19
326.084	493.19
326.313	449.19
326.542	496.19
326.77	527.19
326.999	589.19
327.228	770.19
327.457	1113.19
327.686	1379.19
327.914	948.19
328.143	636.19
328.372	596.19
328.6	559.19
328.829	517.19
329.058	546.19
329.287	558.19
329.515	539.19
329.744	534.19
329.972	508.19
330.201	522.19
330.43	551.19
330.658	556.19
330.887	564.19
331.115	585.19
331.344	515.19
331.572	492.19
331.801	515.19
332.03	485.19
332.258	489.19
332.486	482.19
332.715	487.19
332.943	489.19
333.172	510.19
333.4	502.19
333.629	502.19
333.857	540.19
334.085	541.19
334.314	532.19
334.542	541.19
334.771	570.19
334.999	532.19
335.227	499.19
335.455	510.19
335.684	514.19
335.912	476.19
336.14	475.19
336.369	490.19
336.597	496.19
336.825	481.19
337.053	463.19
337.281	502.19
337.51	493.19
337.738	497.19
337.966	471.19
338.194	454.19
338.422	497.19
338.65	490.19
338.878	457.19
339.106	485.19
339.334	458.19
339.562	463.19
339.79	446.19
340.018	478.19
340.246	475.19
340.474	478.19
340.702	472.19
340.93	441.19
341.158	467.19
341.386	478.19
341.614	473.19
341.842	450.19
342.07	453.19
342.298	469.19
342.526	440.19
342.754	446.19
342.981	439.19
343.209	469.19
343.437	474.19
343.665	478.19
343.893	485.19
344.12	502.19
344.348	511.19
344.576	469.19
344.804	473.19
345.031	488.19
345.259	454.19
345.487	495.19
345.714	455.19
345.942	468.19
346.17	446.19
346.397	440.19
346.625	451.19
346.853	451.19
347.08	460.19
347.308	421.19
347.535	449.19
347.763	463.19
347.99	457.19
348.218	467.19
348.445	475.19
348.673	452.19
348.9	454.19
349.128	435.19
349.355	465.19
349.583	450.19
349.81	434.19
350.037	428.19
350.265	449.19
350.492	444.19
350.72	435.19
350.947	451.19
351.174	431.19
351.402	452.19
351.629	446.19
351.856	424.19
352.083	447.19
352.311	449.19
352.538	466.19
352.765	458.19
352.992	473.19
353.22	461.19
353.447	493.19
353.674	429.19
353.901	443.19
354.128	431.19
354.355	426.19
354.583	442.19
354.81	423.19
355.037	433.19
355.264	445.19
355.491	452.19
355.718	424.19
355.945	444.19
356.172	440.19
356.399	431.19
356.626	433.19
356.853	427.19
357.08	402.19
357.307	413.19
357.534	419.19
357.761	437.19
357.988	434.19
358.215	435.19
358.441	431.19
358.668	439.19
358.895	440.19
359.122	443.19
359.349	456.19
359.576	484.19
359.802	466.19
360.029	480.19
360.256	476.19
360.483	458.19
360.709	477.19
360.936	461.19
361.163	467.19
361.39	459.19
361.616	457.19
361.843	446.19
362.07	449.19
362.296	452.19
362.523	467.19
362.749	467.19
362.976	454.19
363.203	462.19
363.429	470.19
363.656	443.19
363.882	443.19
364.109	447.19
364.335	447.19
364.562	456.19
364.788	458.19
365.015	441.19
365.241	430.19
365.468	446.19
365.694	468.19
365.92	458.19
366.147	431.19
366.373	430.19
366.599	447.19
366.826	427.19
367.052	423.19
367.278	433.19
367.505	446.19
367.731	454.19
367.957	453.19
368.184	431.19
368.41	453.19
368.636	453.19
368.862	458.19
369.089	478.19
369.315	433.19
369.541	455.19
369.767	442.19
369.993	453.19
370.219	451.19
370.445	441.19
370.672	454.19
370.898	453.19
371.124	445.19
371.35	445.19
371.576	443.19
371.802	458.19
372.028	433.19
372.254	445.19
372.48	466.19
372.706	470.19
372.932	461.19
373.158	477.19
373.384	471.19
373.61	472.19
373.835	449.19
374.061	453.19
374.287	471.19
374.513	482.19
374.739	470.19
374.965	482.19
375.191	470.19
375.416	489.19
375.642	467.19
375.868	468.19
376.094	456.19
376.319	451.19
376.545	449.19
376.771	446.19
376.997	492.19
377.222	457.19
377.448	450.19
377.674	440.19
377.899	444.19
378.125	460.19
378.35	450.19
378.576	438.19
378.802	443.19
379.027	448.19
379.253	462.19
379.478	455.19
379.704	429.19
379.929	458.19
380.155	470.19
380.38	473.19
380.606	453.19
380.831	437.19
381.057	477.19
381.282	446.19
381.507	456.19
381.733	466.19
381.958	452.19
382.184	471.19
382.409	467.19
382.634	469.19
382.86	492.19
383.085	485.19
383.31	476.19
383.535	494.19
383.761	474.19
383.986	491.19
384.211	486.19
384.436	474.19
384.662	491.19
384.887	513.19
385.112	499.19
385.337	510.19
385.562	518.19
385.787	504.19
386.013	509.19
386.238	506.19
386.463	525.19
386.688	507.19
386.913	494.19
387.138	493.19
387.363	493.19
387.588	500.19
387.813	523.19
388.038	513.19
388.263	502.19
388.488	501.19
388.713	514.19
388.938	517.19
389.163	517.19
389.387	492.19
389.612	495.19
389.837	518.19
390.062	522.19
390.287	525.19
390.512	522.19
390.736	497.19
390.961	513.19
391.186	520.19
391.411	516.19
391.636	497.19
391.86	538.19
392.085	549.19
392.31	535.19
392.534	543.19
392.759	531.19
392.984	533.19
393.208	522.19
393.433	523.19
393.658	523.19
393.882	502.19
394.107	494.19
394.331	508.19
394.556	529.19
394.78	517.19
395.005	520.19
395.229	507.19
395.454	546.19
395.678	536.19
395.903	537.19
396.127	581.19
396.352	578.19
396.576	545.19
396.801	516.19
397.025	557.19
397.249	552.19
397.474	568.19
397.698	574.19
397.922	598.19
398.147	584.19
398.371	583.19
398.595	586.19
398.82	579.19
399.044	604.19
399.268	640.19
399.492	680.19
399.717	722.19
399.941	755.19
400.165	771.19
400.389	725.19
400.613	671.19
400.837	649.19
401.062	614.19
401.286	611.19
401.51	607.19
401.734	604.19
401.958	596.19
402.182	604.19
402.406	606.19
402.63	592.19
402.854	610.19
403.078	606.19
403.302	617.19
403.526	634.19
403.75	601.19
403.974	637.19
404.198	613.19
404.422	636.19
404.645	651.19
404.869	629.19
405.093	647.19
405.317	732.19
405.541	745.19
405.765	686.19
405.988	649.19
406.212	619.19
406.436	680.19
406.66	683.19
406.883	654.19
407.107	683.19
407.331	748.19
407.555	807.19
407.778	808.19
408.002	750.19
408.226	697.19
408.449	669.19
408.673	656.19
408.896	698.19
409.12	753.19
409.344	702.19
409.567	655.19
409.791	618.19
410.014	634.19
410.238	606.19
410.461	637.19
410.685	620.19
410.908	654.19
411.132	679.19
411.355	714.19
411.578	674.19
411.802	621.19
412.025	622.19
412.249	640.19
412.472	668.19
412.695	686.19
412.919	684.19
413.142	643.19
413.365	615.19
413.589	604.19
413.812	594.19
414.035	597.19
414.258	589.19
414.482	583.19
414.705	604.19
414.928	593.19
415.151	595.19
415.374	592.19
415.597	615.19
415.821	589.19
416.044	593.19
416.267	580.19
416.49	579.19
416.713	574.19
416.936	591.19
417.159	583.19
417.382	585.19
417.605	597.19
417.828	607.19
418.051	631.19
418.274	597.19
418.497	585.19
418.72	602.19
418.943	595.19
419.166	599.19
419.389	646.19
419.611	652.19
419.834	621.19
420.057	647.19
420.28	614.19
420.503	617.19
420.726	598.19
420.948	634.19
421.171	677.19
421.394	708.19
421.617	636.19
421.839	628.19
422.062	623.19
422.285	631.19
422.507	689.19
422.73	789.19
422.953	739.19
423.175	645.19
423.398	629.19
423.621	642.19
423.843	669.19
424.066	655.19
424.288	636.19
424.511	661.19
424.733	732.19
424.956	812.19
425.178	781.19
425.401	744.19
425.623	804.19
425.846	680.19
426.068	649.19
426.291	635.19
426.513	645.19
426.735	631.19
426.958	699.19
427.18	748.19
427.402	891.19
427.625	975.19
427.847	821.19
428.069	757.19
428.292	671.19
428.514	633.19
428.736	612.19
428.958	593.19
429.181	592.19
429.403	596.19
429.625	583.19
429.847	636.19
430.069	673.19
430.292	695.19
430.514	628.19
430.736	606.19
430.958	606.19
431.18	565.19
431.402	589.19
431.624	558.19
431.846	559.19
432.068	570.19
432.29	552.19
432.512	556.19
432.734	577.19
432.956	573.19
433.178	586.19
433.4	588.19
433.622	576.19
433.844	558.19
434.066	581.19
434.287	571.19
434.509	591.19
434.731	618.19
434.953	591.19
435.175	626.19
435.397	643.19
435.618	652.19
435.84	667.19
436.062	785.19
436.284	843.19
436.505	725.19
436.727	639.19
436.949	591.19
437.17	591.19
437.392	599.19
437.614	598.19
437.835	616.19
438.057	715.19
438.278	810.19
438.5	812.19
438.721	899.19
438.943	844.19
439.165	700.19
439.386	626.19
439.608	635.19
439.829	630.19
440.05	653.19
440.272	708.19
440.493	664.19
440.715	617.19
440.936	594.19
441.158	612.19
441.379	623.19
441.6	637.19
441.822	635.19
442.043	707.19
442.264	778.19
442.486	808.19
442.707	708.19
442.928	641.19
443.149	673.19
443.371	679.19
443.592	715.19
443.813	792.19
444.034	885.19
444.255	745.19
444.476	691.19
444.698	679.19
444.919	668.19
445.14	773.19
445.361	707.19
445.582	669.19
445.803	716.19
446.024	847.19
446.245	849.19
446.466	779.19
446.687	674.19
446.908	637.19
447.129	603.19
447.35	603.19
447.571	591.19
447.792	581.19
448.013	585.19
448.234	588.19
448.455	657.19
448.675	780.19
448.896	879.19
449.117	762.19
449.338	718.19
449.559	814.19
449.779	923.19
450	743.19
450.221	621.19
450.442	587.19
450.662	567.19
450.883	554.19
451.104	573.19
451.324	578.19
451.545	531.19
451.766	548.19
451.986	523.19
452.207	514.19
452.428	532.19
452.648	531.19
452.869	528.19
453.089	532.19
453.31	554.19
453.53	525.19
453.751	499.19
453.971	531.19
454.192	550.19
454.412	557.19
454.633	532.19
454.853	503.19
455.073	533.19
455.294	557.19
455.514	603.19
455.734	591.19
455.955	530.19
456.175	535.19
456.395	509.19
456.616	487.19
456.836	523.19
457.056	502.19
457.276	499.19
457.497	504.19
457.717	478.19
457.937	501.19
458.157	513.19
458.377	517.19
458.598	551.19
458.818	582.19
459.038	654.19
459.258	670.19
459.478	597.19
459.698	572.19
459.918	554.19
460.138	572.19
460.358	597.19
460.578	621.19
460.798	612.19
461.018	591.19
461.238	604.19
461.458	606.19
461.678	577.19
461.898	601.19
462.118	588.19
462.338	623.19
462.558	655.19
462.777	655.19
462.997	659.19
463.217	695.19
463.437	690.19
463.657	690.19
463.876	673.19
464.096	660.19
464.316	661.19
464.536	650.19
464.755	648.19
464.975	644.19
465.195	666.19
465.414	699.19
465.634	650.19
465.854	626.19
466.073	575.19
466.293	567.19
466.512	551.19
466.732	508.19
466.951	561.19
467.171	532.19
467.391	532.19
467.61	557.19
467.829	584.19
468.049	561.19
468.268	552.19
468.488	549.19
468.707	549.19
468.927	519.19
469.146	546.19
469.365	549.19
469.585	538.19
469.804	562.19
470.023	577.19
470.243	577.19
470.462	558.19
470.681	574.19
470.901	585.19
471.12	548.19
471.339	536.19
471.558	545.19
471.777	549.19
471.997	556.19
472.216	545.19
472.435	591.19
472.654	557.19
472.873	528.19
473.092	538.19
473.311	562.19
473.53	574.19
473.749	550.19
473.968	591.19
474.187	678.19
474.406	712.19
474.625	605.19
474.844	557.19
475.063	571.19
475.282	545.19
475.501	545.19
475.72	581.19
475.939	554.19
476.158	571.19
476.377	564.19
476.596	569.19
476.814	575.19
477.033	587.19
477.252	588.19
477.471	609.19
477.69	617.19
477.908	602.19
478.127	620.19
478.346	612.19
478.564	618.19
478.783	627.19
479.002	637.19
479.22	659.19
479.439	667.19
479.658	651.19
479.876	667.19
480.095	677.19
480.313	705.19
480.532	706.19
480.751	687.19
480.969	686.19
481.188	731.19
481.406	734.19
481.624	699.19
481.843	636.19
482.061	641.19
482.28	673.19
482.498	640.19
482.717	653.19
482.935	659.19
483.153	647.19
483.372	650.19
483.59	643.19
483.808	612.19
484.027	649.19
484.245	632.19
484.463	630.19
484.681	654.19
484.9	678.19
485.118	680.19
485.336	666.19
485.554	679.19
485.772	675.19
485.99	658.19
486.209	668.19
486.427	675.19
486.645	670.19
486.863	677.19
487.081	691.19
487.299	687.19
487.517	683.19
487.735	693.19
487.953	689.19
488.171	696.19
488.389	711.19
488.607	705.19
488.825	713.19
489.043	687.19
489.261	709.19
489.479	717.19
489.696	696.19
489.914	729.19
490.132	716.19
490.35	704.19
490.568	745.19
490.786	761.19
491.003	773.19
491.221	743.19
491.439	795.19
491.657	802.19
491.874	777.19
492.092	791.19
492.31	779.19
492.527	763.19
492.745	800.19
492.963	812.19
493.18	807.19
493.398	802.19
493.615	817.19
493.833	824.19
494.05	801.19
494.268	836.19
494.485	803.19
494.703	818.19
494.92	820.19
495.138	800.19
495.355	806.19
495.573	819.19
495.79	841.19
496.008	811.19
496.225	839.19
496.442	822.19
496.66	845.19
496.877	855.19
497.094	840.19
497.312	849.19
497.529	886.19
497.746	871.19
497.963	870.19
498.181	893.19
498.398	921.19
498.615	919.19
498.832	972.19
499.049	1010.19
499.267	1004.19
499.484	1070.19
499.701	1106.19
499.918	1143.19
500.135	1220.19
500.352	1305.19
500.569	1357.19
500.786	1331.19
501.003	1318.19
501.22	1261.19
501.437	1230.19
501.654	1145.19
