Data from 1974.PennyLincolnUp.Lamp.En5.5.200Scan.071719.P1.Changed Mount._HRD10591_15-53-23-857.txt Node
Date: Thu Jul 18 15:53:23 EDT 2019
User: cochatt
Spectrometer: HR+D1059
Trigger mode: 1
Integration Time (sec): 1.000000E-1
Scans to average: 1
Electric dark correction enabled: true
Nonlinearity correction enabled: false
Boxcar width: 0
XAxis mode: Wavelengths
Number of Pixels in Spectrum: 2048
>>>>>Begin Spectral Data<<<<<
223.165	-8.81
223.4	-8.81
223.635	-8.81
223.869	-24.81
224.104	-16.81
224.338	-23.81
224.573	-16.81
224.808	-11.81
225.042	-17.81
225.277	-7.81
225.511	4.19
225.746	9.19
225.98	3.19
226.215	12.19
226.449	11.19
226.683	19.19
226.918	36.19
227.152	33.19
227.387	29.19
227.621	41.19
227.856	38.19
228.09	45.19
228.324	35.19
228.559	59.19
228.793	70.19
229.027	97.19
229.262	102.19
229.496	118.19
229.73	126.19
229.964	150.19
230.199	126.19
230.433	115.19
230.667	113.19
230.901	116.19
231.136	120.19
231.37	110.19
231.604	123.19
231.838	129.19
232.072	121.19
232.306	94.19
232.541	117.19
232.775	105.19
233.009	129.19
233.243	124.19
233.477	112.19
233.711	109.19
233.945	121.19
234.179	126.19
234.413	141.19
234.647	130.19
234.881	124.19
235.115	117.19
235.349	121.19
235.583	113.19
235.817	119.19
236.051	135.19
236.285	141.19
236.519	129.19
236.753	141.19
236.987	139.19
237.221	193.19
237.455	241.19
237.689	184.19
237.922	162.19
238.156	142.19
238.39	138.19
238.624	137.19
238.858	134.19
239.091	113.19
239.325	128.19
239.559	125.19
239.793	147.19
240.027	159.19
240.26	142.19
240.494	155.19
240.728	169.19
240.961	157.19
241.195	149.19
241.429	133.19
241.662	130.19
241.896	135.19
242.13	132.19
242.363	139.19
242.597	155.19
242.83	140.19
243.064	136.19
243.298	155.19
243.531	143.19
243.765	151.19
243.998	133.19
244.232	150.19
244.465	155.19
244.699	143.19
244.932	153.19
245.166	149.19
245.399	166.19
245.633	162.19
245.866	147.19
246.099	154.19
246.333	149.19
246.566	153.19
246.8	151.19
247.033	157.19
247.266	182.19
247.5	179.19
247.733	165.19
247.966	185.19
248.2	185.19
248.433	163.19
248.666	189.19
248.899	174.19
249.133	218.19
249.366	195.19
249.599	195.19
249.832	194.19
250.066	200.19
250.299	198.19
250.532	197.19
250.765	209.19
250.998	232.19
251.231	232.19
251.465	223.19
251.698	207.19
251.931	210.19
252.164	224.19
252.397	196.19
252.63	206.19
252.863	225.19
253.096	237.19
253.329	244.19
253.562	236.19
253.795	227.19
254.028	211.19
254.261	216.19
254.494	230.19
254.727	261.19
254.96	299.19
255.193	295.19
255.426	253.19
255.659	243.19
255.892	243.19
256.124	254.19
256.357	233.19
256.59	227.19
256.823	211.19
257.056	205.19
257.289	228.19
257.521	213.19
257.754	223.19
257.987	209.19
258.22	221.19
258.452	220.19
258.685	210.19
258.918	220.19
259.151	207.19
259.383	226.19
259.616	249.19
259.849	228.19
260.081	237.19
260.314	267.19
260.547	284.19
260.779	263.19
261.012	249.19
261.244	244.19
261.477	244.19
261.71	234.19
261.942	233.19
262.175	243.19
262.407	245.19
262.64	239.19
262.872	214.19
263.105	230.19
263.337	252.19
263.57	222.19
263.802	235.19
264.035	228.19
264.267	230.19
264.499	229.19
264.732	227.19
264.964	235.19
265.197	236.19
265.429	226.19
265.661	235.19
265.894	204.19
266.126	222.19
266.358	218.19
266.591	246.19
266.823	250.19
267.055	250.19
267.287	225.19
267.52	232.19
267.752	232.19
267.984	223.19
268.216	233.19
268.448	242.19
268.681	236.19
268.913	261.19
269.145	278.19
269.377	295.19
269.609	308.19
269.841	297.19
270.073	290.19
270.306	319.19
270.538	324.19
270.77	316.19
271.002	318.19
271.234	305.19
271.466	317.19
271.698	319.19
271.93	326.19
272.162	341.19
272.394	314.19
272.626	308.19
272.858	310.19
273.09	287.19
273.322	309.19
273.553	291.19
273.785	286.19
274.017	285.19
274.249	285.19
274.481	293.19
274.713	278.19
274.945	296.19
275.176	291.19
275.408	277.19
275.64	273.19
275.872	301.19
276.104	277.19
276.335	261.19
276.567	288.19
276.799	313.19
277.031	310.19
277.262	335.19
277.494	344.19
277.726	333.19
277.957	311.19
278.189	302.19
278.421	290.19
278.652	305.19
278.884	289.19
279.115	290.19
279.347	306.19
279.579	283.19
279.81	275.19
280.042	290.19
280.273	279.19
280.505	282.19
280.736	305.19
280.968	289.19
281.199	274.19
281.431	296.19
281.662	310.19
281.894	281.19
282.125	289.19
282.356	301.19
282.588	306.19
282.819	311.19
283.051	306.19
283.282	289.19
283.513	303.19
283.745	307.19
283.976	315.19
284.207	305.19
284.439	321.19
284.67	313.19
284.901	316.19
285.132	321.19
285.364	310.19
285.595	311.19
285.826	332.19
286.057	277.19
286.288	308.19
286.52	301.19
286.751	308.19
286.982	318.19
287.213	310.19
287.444	301.19
287.675	302.19
287.906	328.19
288.138	339.19
288.369	327.19
288.6	321.19
288.831	331.19
289.062	339.19
289.293	334.19
289.524	324.19
289.755	322.19
289.986	326.19
290.217	329.19
290.448	326.19
290.679	309.19
290.91	324.19
291.141	333.19
291.371	323.19
291.602	323.19
291.833	316.19
292.064	318.19
292.295	326.19
292.526	321.19
292.757	322.19
292.987	320.19
293.218	324.19
293.449	314.19
293.68	308.19
293.91	318.19
294.141	305.19
294.372	307.19
294.603	322.19
294.833	320.19
295.064	325.19
295.295	331.19
295.525	333.19
295.756	325.19
295.987	312.19
296.217	344.19
296.448	346.19
296.679	323.19
296.909	322.19
297.14	308.19
297.37	346.19
297.601	338.19
297.831	335.19
298.062	317.19
298.292	338.19
298.523	338.19
298.753	328.19
298.984	345.19
299.214	340.19
299.445	353.19
299.675	334.19
299.905	349.19
300.136	353.19
300.366	341.19
300.597	341.19
300.827	339.19
301.057	355.19
301.288	360.19
301.518	357.19
301.748	353.19
301.979	345.19
302.209	369.19
302.439	347.19
302.669	346.19
302.9	348.19
303.13	353.19
303.36	358.19
303.59	354.19
303.82	368.19
304.051	354.19
304.281	353.19
304.511	351.19
304.741	336.19
304.971	351.19
305.201	349.19
305.431	362.19
305.661	356.19
305.891	342.19
306.121	360.19
306.352	385.19
306.582	375.19
306.812	357.19
307.042	380.19
307.272	374.19
307.502	357.19
307.731	350.19
307.961	360.19
308.191	359.19
308.421	382.19
308.651	371.19
308.881	382.19
309.111	360.19
309.341	354.19
309.571	364.19
309.8	374.19
310.03	380.19
310.26	407.19
310.49	398.19
310.72	407.19
310.949	405.19
311.179	422.19
311.409	398.19
311.639	389.19
311.868	397.19
312.098	397.19
312.328	396.19
312.557	424.19
312.787	424.19
313.017	424.19
313.246	397.19
313.476	400.19
313.706	391.19
313.935	403.19
314.165	409.19
314.394	412.19
314.624	421.19
314.853	403.19
315.083	411.19
315.312	394.19
315.542	399.19
315.771	397.19
316.001	409.19
316.23	371.19
316.46	390.19
316.689	390.19
316.919	407.19
317.148	412.19
317.377	406.19
317.607	422.19
317.836	421.19
318.065	409.19
318.295	405.19
318.524	396.19
318.753	403.19
318.983	406.19
319.212	406.19
319.441	376.19
319.67	427.19
319.9	407.19
320.129	413.19
320.358	398.19
320.587	398.19
320.816	424.19
321.046	425.19
321.275	409.19
321.504	409.19
321.733	423.19
321.962	438.19
322.191	451.19
322.42	444.19
322.649	461.19
322.878	472.19
323.108	458.19
323.337	472.19
323.566	481.19
323.795	518.19
324.024	547.19
324.253	637.19
324.482	862.19
324.71	1277.19
324.939	1894.19
325.168	1675.19
325.397	855.19
325.626	627.19
325.855	513.19
326.084	494.19
326.313	493.19
326.542	493.19
326.77	534.19
326.999	601.19
327.228	797.19
327.457	1172.19
327.686	1428.19
327.914	968.19
328.143	680.19
328.372	581.19
328.6	570.19
328.829	563.19
329.058	558.19
329.287	578.19
329.515	524.19
329.744	506.19
329.972	522.19
330.201	533.19
330.43	571.19
330.658	580.19
330.887	583.19
331.115	600.19
331.344	547.19
331.572	503.19
331.801	495.19
332.03	503.19
332.258	480.19
332.486	488.19
332.715	484.19
332.943	484.19
333.172	489.19
333.4	482.19
333.629	505.19
333.857	513.19
334.085	540.19
334.314	540.19
334.542	553.19
334.771	564.19
334.999	563.19
335.227	526.19
335.455	493.19
335.684	518.19
335.912	492.19
336.14	465.19
336.369	495.19
336.597	508.19
336.825	484.19
337.053	492.19
337.281	492.19
337.51	466.19
337.738	479.19
337.966	461.19
338.194	477.19
338.422	459.19
338.65	473.19
338.878	484.19
339.106	458.19
339.334	462.19
339.562	481.19
339.79	476.19
340.018	467.19
340.246	471.19
340.474	461.19
340.702	453.19
340.93	446.19
341.158	461.19
341.386	445.19
341.614	459.19
341.842	478.19
342.07	464.19
342.298	445.19
342.526	449.19
342.754	447.19
342.981	448.19
343.209	448.19
343.437	464.19
343.665	464.19
343.893	486.19
344.12	493.19
344.348	481.19
344.576	473.19
344.804	495.19
345.031	476.19
345.259	492.19
345.487	471.19
345.714	459.19
345.942	466.19
346.17	467.19
346.397	442.19
346.625	451.19
346.853	443.19
347.08	445.19
347.308	453.19
347.535	465.19
347.763	459.19
347.99	446.19
348.218	451.19
348.445	461.19
348.673	466.19
348.9	453.19
349.128	437.19
349.355	419.19
349.583	457.19
349.81	457.19
350.037	450.19
350.265	436.19
350.492	443.19
350.72	433.19
350.947	443.19
351.174	449.19
351.402	444.19
351.629	443.19
351.856	467.19
352.083	442.19
352.311	466.19
352.538	455.19
352.765	450.19
352.992	465.19
353.22	447.19
353.447	454.19
353.674	442.19
353.901	441.19
354.128	440.19
354.355	431.19
354.583	441.19
354.81	405.19
355.037	444.19
355.264	427.19
355.491	467.19
355.718	431.19
355.945	416.19
356.172	438.19
356.399	420.19
356.626	437.19
356.853	435.19
357.08	438.19
357.307	427.19
357.534	421.19
357.761	445.19
357.988	412.19
358.215	428.19
358.441	441.19
358.668	441.19
358.895	422.19
359.122	428.19
359.349	448.19
359.576	461.19
359.802	479.19
360.029	486.19
360.256	501.19
360.483	481.19
360.709	456.19
360.936	460.19
361.163	455.19
361.39	458.19
361.616	462.19
361.843	451.19
362.07	445.19
362.296	453.19
362.523	440.19
362.749	423.19
362.976	460.19
363.203	453.19
363.429	425.19
363.656	457.19
363.882	447.19
364.109	451.19
364.335	444.19
364.562	427.19
364.788	438.19
365.015	445.19
365.241	446.19
365.468	445.19
365.694	442.19
365.92	437.19
366.147	453.19
366.373	429.19
366.599	434.19
366.826	425.19
367.052	435.19
367.278	444.19
367.505	436.19
367.731	430.19
367.957	441.19
368.184	433.19
368.41	464.19
368.636	438.19
368.862	459.19
369.089	473.19
369.315	460.19
369.541	445.19
369.767	443.19
369.993	456.19
370.219	458.19
370.445	444.19
370.672	451.19
370.898	470.19
371.124	445.19
371.35	439.19
371.576	449.19
371.802	451.19
372.028	430.19
372.254	445.19
372.48	447.19
372.706	444.19
372.932	478.19
373.158	446.19
373.384	437.19
373.61	452.19
373.835	456.19
374.061	459.19
374.287	465.19
374.513	475.19
374.739	458.19
374.965	465.19
375.191	477.19
375.416	459.19
375.642	461.19
375.868	459.19
376.094	462.19
376.319	464.19
376.545	458.19
376.771	439.19
376.997	451.19
377.222	439.19
377.448	456.19
377.674	461.19
377.899	444.19
378.125	455.19
378.35	440.19
378.576	445.19
378.802	434.19
379.027	445.19
379.253	451.19
379.478	433.19
379.704	436.19
379.929	461.19
380.155	455.19
380.38	449.19
380.606	447.19
380.831	460.19
381.057	469.19
381.282	458.19
381.507	441.19
381.733	458.19
381.958	446.19
382.184	471.19
382.409	460.19
382.634	469.19
382.86	464.19
383.085	478.19
383.31	478.19
383.535	485.19
383.761	458.19
383.986	482.19
384.211	466.19
384.436	480.19
384.662	492.19
384.887	494.19
385.112	498.19
385.337	489.19
385.562	490.19
385.787	486.19
386.013	499.19
386.238	509.19
386.463	522.19
386.688	498.19
386.913	489.19
387.138	517.19
387.363	520.19
387.588	504.19
387.813	503.19
388.038	511.19
388.263	508.19
388.488	501.19
388.713	490.19
388.938	530.19
389.163	511.19
389.387	502.19
389.612	511.19
389.837	500.19
390.062	510.19
390.287	510.19
390.512	492.19
390.736	512.19
390.961	494.19
391.186	527.19
391.411	535.19
391.636	502.19
391.86	510.19
392.085	518.19
392.31	535.19
392.534	535.19
392.759	549.19
392.984	507.19
393.208	521.19
393.433	515.19
393.658	509.19
393.882	513.19
394.107	517.19
394.331	526.19
394.556	540.19
394.78	517.19
395.005	513.19
395.229	520.19
395.454	529.19
395.678	542.19
395.903	567.19
396.127	589.19
396.352	577.19
396.576	530.19
396.801	509.19
397.025	526.19
397.249	538.19
397.474	563.19
397.698	547.19
397.922	553.19
398.147	589.19
398.371	598.19
398.595	598.19
398.82	595.19
399.044	589.19
399.268	627.19
399.492	667.19
399.717	736.19
399.941	735.19
400.165	758.19
400.389	749.19
400.613	693.19
400.837	636.19
401.062	610.19
401.286	607.19
401.51	600.19
401.734	609.19
401.958	615.19
402.182	606.19
402.406	618.19
402.63	618.19
402.854	597.19
403.078	582.19
403.302	608.19
403.526	629.19
403.75	632.19
403.974	622.19
404.198	615.19
404.422	632.19
404.645	631.19
404.869	625.19
405.093	680.19
405.317	729.19
405.541	730.19
405.765	681.19
405.988	653.19
406.212	652.19
406.436	664.19
406.66	661.19
406.883	667.19
407.107	697.19
407.331	725.19
407.555	811.19
407.778	801.19
408.002	741.19
408.226	677.19
408.449	667.19
408.673	673.19
408.896	690.19
409.12	771.19
409.344	721.19
409.567	656.19
409.791	638.19
410.014	636.19
410.238	621.19
410.461	626.19
410.685	597.19
410.908	634.19
411.132	673.19
411.355	717.19
411.578	685.19
411.802	639.19
412.025	641.19
412.249	592.19
412.472	642.19
412.695	663.19
412.919	659.19
413.142	629.19
413.365	627.19
413.589	611.19
413.812	601.19
414.035	587.19
414.258	594.19
414.482	580.19
414.705	569.19
414.928	576.19
415.151	608.19
415.374	593.19
415.597	578.19
415.821	576.19
416.044	582.19
416.267	605.19
416.49	597.19
416.713	577.19
416.936	572.19
417.159	579.19
417.382	594.19
417.605	589.19
417.828	617.19
418.051	617.19
418.274	613.19
418.497	596.19
418.72	602.19
418.943	595.19
419.166	601.19
419.389	644.19
419.611	639.19
419.834	637.19
420.057	626.19
420.28	631.19
420.503	607.19
420.726	608.19
420.948	627.19
421.171	651.19
421.394	702.19
421.617	606.19
421.839	606.19
422.062	627.19
422.285	614.19
422.507	686.19
422.73	786.19
422.953	746.19
423.175	669.19
423.398	645.19
423.621	637.19
423.843	659.19
424.066	671.19
424.288	639.19
424.511	685.19
424.733	711.19
424.956	800.19
425.178	759.19
425.401	764.19
425.623	775.19
425.846	721.19
426.068	638.19
426.291	646.19
426.513	619.19
426.735	653.19
426.958	693.19
427.18	793.19
427.402	897.19
427.625	994.19
427.847	849.19
428.069	725.19
428.292	652.19
428.514	637.19
428.736	604.19
428.958	588.19
429.181	585.19
429.403	584.19
429.625	586.19
429.847	650.19
430.069	711.19
430.292	705.19
430.514	617.19
430.736	620.19
430.958	603.19
431.18	590.19
431.402	585.19
431.624	572.19
431.846	573.19
432.068	569.19
432.29	552.19
432.512	572.19
432.734	592.19
432.956	580.19
433.178	585.19
433.4	597.19
433.622	581.19
433.844	566.19
434.066	560.19
434.287	573.19
434.509	561.19
434.731	610.19
434.953	610.19
435.175	614.19
435.397	643.19
435.618	641.19
435.84	682.19
436.062	765.19
436.284	859.19
436.505	727.19
436.727	654.19
436.949	619.19
437.17	581.19
437.392	598.19
437.614	626.19
437.835	629.19
438.057	728.19
438.278	846.19
438.5	777.19
438.721	937.19
438.943	868.19
439.165	701.19
439.386	632.19
439.608	671.19
439.829	638.19
440.05	650.19
440.272	703.19
440.493	666.19
440.715	641.19
440.936	645.19
441.158	617.19
441.379	617.19
441.6	614.19
441.822	634.19
442.043	662.19
442.264	783.19
442.486	810.19
442.707	727.19
442.928	649.19
443.149	675.19
443.371	681.19
443.592	734.19
443.813	830.19
444.034	883.19
444.255	757.19
444.476	679.19
444.698	690.19
444.919	682.19
445.14	781.19
445.361	707.19
445.582	685.19
445.803	758.19
446.024	839.19
446.245	834.19
446.466	771.19
446.687	658.19
446.908	644.19
447.129	612.19
447.35	614.19
447.571	588.19
447.792	574.19
448.013	595.19
448.234	619.19
448.455	652.19
448.675	744.19
448.896	887.19
449.117	761.19
449.338	713.19
449.559	844.19
449.779	951.19
450	769.19
450.221	637.19
450.442	609.19
450.662	565.19
450.883	583.19
451.104	580.19
451.324	573.19
451.545	552.19
451.766	536.19
451.986	541.19
452.207	517.19
452.428	505.19
452.648	521.19
452.869	533.19
453.089	523.19
453.31	521.19
453.53	528.19
453.751	525.19
453.971	511.19
454.192	540.19
454.412	519.19
454.633	517.19
454.853	516.19
455.073	519.19
455.294	558.19
455.514	619.19
455.734	595.19
455.955	529.19
456.175	528.19
456.395	485.19
456.616	497.19
456.836	516.19
457.056	486.19
457.276	483.19
457.497	499.19
457.717	501.19
457.937	492.19
458.157	516.19
458.377	521.19
458.598	533.19
458.818	577.19
459.038	675.19
459.258	698.19
459.478	607.19
459.698	584.19
459.918	565.19
460.138	589.19
460.358	573.19
460.578	591.19
460.798	587.19
461.018	618.19
461.238	591.19
461.458	577.19
461.678	577.19
461.898	606.19
462.118	587.19
462.338	600.19
462.558	627.19
462.777	637.19
462.997	673.19
463.217	657.19
463.437	667.19
463.657	652.19
463.876	638.19
464.096	642.19
464.316	637.19
464.536	663.19
464.755	660.19
464.975	627.19
465.195	636.19
465.414	689.19
465.634	651.19
465.854	626.19
466.073	561.19
466.293	557.19
466.512	563.19
466.732	548.19
466.951	524.19
467.171	535.19
467.391	564.19
467.61	553.19
467.829	549.19
468.049	576.19
468.268	577.19
468.488	545.19
468.707	542.19
468.927	554.19
469.146	533.19
469.365	548.19
469.585	533.19
469.804	549.19
470.023	557.19
470.243	567.19
470.462	581.19
470.681	581.19
470.901	573.19
471.12	556.19
471.339	557.19
471.558	563.19
471.777	561.19
471.997	549.19
472.216	519.19
472.435	583.19
472.654	575.19
472.873	545.19
473.092	546.19
473.311	547.19
473.53	561.19
473.749	538.19
473.968	582.19
474.187	696.19
474.406	707.19
474.625	607.19
474.844	574.19
475.063	556.19
475.282	557.19
475.501	584.19
475.72	562.19
475.939	547.19
476.158	549.19
476.377	555.19
476.596	541.19
476.814	583.19
477.033	587.19
477.252	550.19
477.471	594.19
477.69	602.19
477.908	602.19
478.127	604.19
478.346	610.19
478.564	625.19
478.783	601.19
479.002	649.19
479.22	627.19
479.439	655.19
479.658	659.19
479.876	676.19
480.095	698.19
480.313	697.19
480.532	705.19
480.751	686.19
480.969	699.19
481.188	721.19
481.406	771.19
481.624	691.19
481.843	649.19
482.061	655.19
482.28	630.19
482.498	648.19
482.717	657.19
482.935	673.19
483.153	667.19
483.372	651.19
483.59	641.19
483.808	645.19
484.027	651.19
484.245	636.19
484.463	649.19
484.681	671.19
484.9	641.19
485.118	667.19
485.336	661.19
485.554	697.19
485.772	671.19
485.99	653.19
486.209	673.19
486.427	671.19
486.645	665.19
486.863	692.19
487.081	690.19
487.299	708.19
487.517	674.19
487.735	691.19
487.953	679.19
488.171	692.19
488.389	699.19
488.607	695.19
488.825	698.19
489.043	695.19
489.261	723.19
489.479	702.19
489.696	710.19
489.914	714.19
490.132	738.19
490.35	745.19
490.568	724.19
490.786	737.19
491.003	759.19
491.221	768.19
491.439	792.19
491.657	780.19
491.874	807.19
492.092	817.19
492.31	791.19
492.527	802.19
492.745	804.19
492.963	801.19
493.18	839.19
493.398	803.19
493.615	803.19
493.833	841.19
494.05	825.19
494.268	835.19
494.485	815.19
494.703	840.19
494.92	823.19
495.138	851.19
495.355	819.19
495.573	843.19
495.79	801.19
496.008	831.19
496.225	821.19
496.442	821.19
496.66	839.19
496.877	860.19
497.094	837.19
497.312	865.19
497.529	852.19
497.746	857.19
497.963	870.19
498.181	902.19
498.398	919.19
498.615	931.19
498.832	996.19
499.049	989.19
499.267	994.19
499.484	1069.19
499.701	1103.19
499.918	1159.19
500.135	1238.19
500.352	1293.19
500.569	1322.19
500.786	1311.19
501.003	1286.19
501.22	1241.19
501.437	1195.19
501.654	1127.19
