Data from 1974.PennyLincolnUp.Lamp.En5.5.200Scan.071719.P1.Changed Mount._HRD10591_15-51-12-855.txt Node
Date: Thu Jul 18 15:51:12 EDT 2019
User: cochatt
Spectrometer: HR+D1059
Trigger mode: 1
Integration Time (sec): 1.000000E-1
Scans to average: 1
Electric dark correction enabled: true
Nonlinearity correction enabled: false
Boxcar width: 0
XAxis mode: Wavelengths
Number of Pixels in Spectrum: 2048
>>>>>Begin Spectral Data<<<<<
223.165	-12.88
223.4	-12.88
223.635	-12.88
223.869	5.12
224.104	-20.88
224.338	-25.88
224.573	-7.88
224.808	-1.88
225.042	-6.88
225.277	0.12
225.511	-13.88
225.746	-10.88
225.98	2.12
226.215	3.12
226.449	12.12
226.683	18.12
226.918	31.12
227.152	29.12
227.387	41.12
227.621	38.12
227.856	40.12
228.09	45.12
228.324	51.12
228.559	61.12
228.793	68.12
229.027	74.12
229.262	98.12
229.496	88.12
229.73	116.12
229.964	136.12
230.199	114.12
230.433	106.12
230.667	115.12
230.901	104.12
231.136	101.12
231.37	128.12
231.604	120.12
231.838	111.12
232.072	125.12
232.306	115.12
232.541	121.12
232.775	104.12
233.009	120.12
233.243	124.12
233.477	124.12
233.711	130.12
233.945	123.12
234.179	112.12
234.413	117.12
234.647	97.12
234.881	105.12
235.115	109.12
235.349	108.12
235.583	101.12
235.817	114.12
236.051	128.12
236.285	137.12
236.519	124.12
236.753	134.12
236.987	129.12
237.221	156.12
237.455	192.12
237.689	154.12
237.922	122.12
238.156	124.12
238.39	122.12
238.624	130.12
238.858	133.12
239.091	120.12
239.325	124.12
239.559	123.12
239.793	125.12
240.027	136.12
240.26	124.12
240.494	155.12
240.728	160.12
240.961	130.12
241.195	151.12
241.429	149.12
241.662	135.12
241.896	126.12
242.13	127.12
242.363	121.12
242.597	136.12
242.83	145.12
243.064	138.12
243.298	139.12
243.531	136.12
243.765	122.12
243.998	137.12
244.232	153.12
244.465	139.12
244.699	138.12
244.932	128.12
245.166	140.12
245.399	134.12
245.633	142.12
245.866	152.12
246.099	147.12
246.333	149.12
246.566	145.12
246.8	156.12
247.033	159.12
247.266	157.12
247.5	150.12
247.733	155.12
247.966	176.12
248.2	181.12
248.433	174.12
248.666	167.12
248.899	189.12
249.133	192.12
249.366	193.12
249.599	180.12
249.832	171.12
250.066	171.12
250.299	181.12
250.532	179.12
250.765	184.12
250.998	199.12
251.231	225.12
251.465	200.12
251.698	197.12
251.931	186.12
252.164	189.12
252.397	188.12
252.63	197.12
252.863	182.12
253.096	204.12
253.329	213.12
253.562	216.12
253.795	211.12
254.028	197.12
254.261	190.12
254.494	210.12
254.727	221.12
254.96	241.12
255.193	243.12
255.426	228.12
255.659	206.12
255.892	209.12
256.124	220.12
256.357	219.12
256.59	216.12
256.823	183.12
257.056	205.12
257.289	194.12
257.521	195.12
257.754	210.12
257.987	205.12
258.22	194.12
258.452	192.12
258.685	216.12
258.918	217.12
259.151	212.12
259.383	202.12
259.616	201.12
259.849	194.12
260.081	224.12
260.314	222.12
260.547	240.12
260.779	235.12
261.012	225.12
261.244	219.12
261.477	211.12
261.71	210.12
261.942	216.12
262.175	205.12
262.407	205.12
262.64	198.12
262.872	195.12
263.105	224.12
263.337	217.12
263.57	197.12
263.802	196.12
264.035	197.12
264.267	218.12
264.499	208.12
264.732	198.12
264.964	182.12
265.197	205.12
265.429	213.12
265.661	196.12
265.894	206.12
266.126	212.12
266.358	203.12
266.591	212.12
266.823	212.12
267.055	220.12
267.287	225.12
267.52	201.12
267.752	214.12
267.984	237.12
268.216	234.12
268.448	241.12
268.681	209.12
268.913	234.12
269.145	244.12
269.377	250.12
269.609	253.12
269.841	237.12
270.073	266.12
270.306	272.12
270.538	287.12
270.77	291.12
271.002	266.12
271.234	253.12
271.466	282.12
271.698	273.12
271.93	268.12
272.162	295.12
272.394	288.12
272.626	279.12
272.858	268.12
273.09	236.12
273.322	250.12
273.553	228.12
273.785	252.12
274.017	254.12
274.249	254.12
274.481	242.12
274.713	258.12
274.945	261.12
275.176	249.12
275.408	259.12
275.64	260.12
275.872	246.12
276.104	258.12
276.335	243.12
276.567	252.12
276.799	252.12
277.031	269.12
277.262	292.12
277.494	280.12
277.726	298.12
277.957	267.12
278.189	246.12
278.421	229.12
278.652	252.12
278.884	272.12
279.115	262.12
279.347	251.12
279.579	229.12
279.81	244.12
280.042	255.12
280.273	268.12
280.505	251.12
280.736	262.12
280.968	235.12
281.199	240.12
281.431	271.12
281.662	258.12
281.894	264.12
282.125	277.12
282.356	270.12
282.588	272.12
282.819	259.12
283.051	265.12
283.282	242.12
283.513	266.12
283.745	271.12
283.976	266.12
284.207	282.12
284.439	274.12
284.67	296.12
284.901	268.12
285.132	268.12
285.364	272.12
285.595	265.12
285.826	269.12
286.057	266.12
286.288	274.12
286.52	270.12
286.751	256.12
286.982	276.12
287.213	267.12
287.444	279.12
287.675	282.12
287.906	286.12
288.138	276.12
288.369	281.12
288.6	292.12
288.831	282.12
289.062	288.12
289.293	295.12
289.524	292.12
289.755	283.12
289.986	288.12
290.217	288.12
290.448	302.12
290.679	289.12
290.91	274.12
291.141	283.12
291.371	269.12
291.602	264.12
291.833	280.12
292.064	258.12
292.295	274.12
292.526	275.12
292.757	294.12
292.987	300.12
293.218	285.12
293.449	267.12
293.68	285.12
293.91	276.12
294.141	281.12
294.372	301.12
294.603	283.12
294.833	293.12
295.064	296.12
295.295	276.12
295.525	275.12
295.756	289.12
295.987	280.12
296.217	312.12
296.448	307.12
296.679	280.12
296.909	278.12
297.14	300.12
297.37	305.12
297.601	299.12
297.831	311.12
298.062	298.12
298.292	288.12
298.523	313.12
298.753	288.12
298.984	274.12
299.214	294.12
299.445	289.12
299.675	294.12
299.905	312.12
300.136	295.12
300.366	313.12
300.597	303.12
300.827	314.12
301.057	309.12
301.288	315.12
301.518	318.12
301.748	312.12
301.979	317.12
302.209	309.12
302.439	310.12
302.669	323.12
302.9	316.12
303.13	323.12
303.36	318.12
303.59	324.12
303.82	309.12
304.051	326.12
304.281	325.12
304.511	315.12
304.741	308.12
304.971	325.12
305.201	319.12
305.431	328.12
305.661	297.12
305.891	318.12
306.121	324.12
306.352	328.12
306.582	310.12
306.812	320.12
307.042	327.12
307.272	322.12
307.502	308.12
307.731	324.12
307.961	325.12
308.191	314.12
308.421	323.12
308.651	313.12
308.881	330.12
309.111	325.12
309.341	329.12
309.571	330.12
309.8	333.12
310.03	332.12
310.26	327.12
310.49	352.12
310.72	359.12
310.949	340.12
311.179	356.12
311.409	366.12
311.639	345.12
311.868	361.12
312.098	347.12
312.328	338.12
312.557	372.12
312.787	374.12
313.017	346.12
313.246	370.12
313.476	350.12
313.706	356.12
313.935	347.12
314.165	363.12
314.394	366.12
314.624	361.12
314.853	367.12
315.083	360.12
315.312	374.12
315.542	358.12
315.771	332.12
316.001	359.12
316.23	335.12
316.46	361.12
316.689	348.12
316.919	338.12
317.148	357.12
317.377	339.12
317.607	368.12
317.836	334.12
318.065	353.12
318.295	339.12
318.524	374.12
318.753	358.12
318.983	344.12
319.212	356.12
319.441	361.12
319.67	357.12
319.9	346.12
320.129	352.12
320.358	358.12
320.587	353.12
320.816	357.12
321.046	369.12
321.275	368.12
321.504	365.12
321.733	372.12
321.962	366.12
322.191	363.12
322.42	381.12
322.649	395.12
322.878	393.12
323.108	396.12
323.337	406.12
323.566	428.12
323.795	417.12
324.024	432.12
324.253	493.12
324.482	663.12
324.71	970.12
324.939	1440.12
325.168	1243.12
325.397	666.12
325.626	482.12
325.855	446.12
326.084	421.12
326.313	415.12
326.542	399.12
326.77	432.12
326.999	500.12
327.228	609.12
327.457	885.12
327.686	1125.12
327.914	746.12
328.143	530.12
328.372	487.12
328.6	460.12
328.829	455.12
329.058	466.12
329.287	457.12
329.515	451.12
329.744	428.12
329.972	408.12
330.201	433.12
330.43	464.12
330.658	466.12
330.887	481.12
331.115	480.12
331.344	422.12
331.572	430.12
331.801	436.12
332.03	436.12
332.258	427.12
332.486	432.12
332.715	432.12
332.943	425.12
333.172	413.12
333.4	447.12
333.629	442.12
333.857	459.12
334.085	452.12
334.314	462.12
334.542	459.12
334.771	484.12
334.999	461.12
335.227	427.12
335.455	431.12
335.684	454.12
335.912	422.12
336.14	423.12
336.369	433.12
336.597	432.12
336.825	417.12
337.053	448.12
337.281	418.12
337.51	432.12
337.738	434.12
337.966	421.12
338.194	416.12
338.422	407.12
338.65	425.12
338.878	430.12
339.106	407.12
339.334	417.12
339.562	410.12
339.79	416.12
340.018	424.12
340.246	407.12
340.474	413.12
340.702	395.12
340.93	400.12
341.158	412.12
341.386	419.12
341.614	436.12
341.842	412.12
342.07	415.12
342.298	425.12
342.526	386.12
342.754	379.12
342.981	395.12
343.209	411.12
343.437	411.12
343.665	402.12
343.893	432.12
344.12	449.12
344.348	449.12
344.576	429.12
344.804	426.12
345.031	396.12
345.259	414.12
345.487	394.12
345.714	390.12
345.942	403.12
346.17	396.12
346.397	394.12
346.625	395.12
346.853	404.12
347.08	401.12
347.308	400.12
347.535	411.12
347.763	394.12
347.99	396.12
348.218	397.12
348.445	386.12
348.673	401.12
348.9	384.12
349.128	406.12
349.355	378.12
349.583	397.12
349.81	388.12
350.037	386.12
350.265	392.12
350.492	396.12
350.72	380.12
350.947	391.12
351.174	397.12
351.402	415.12
351.629	418.12
351.856	414.12
352.083	407.12
352.311	413.12
352.538	388.12
352.765	391.12
352.992	372.12
353.22	396.12
353.447	378.12
353.674	369.12
353.901	365.12
354.128	388.12
354.355	380.12
354.583	376.12
354.81	368.12
355.037	378.12
355.264	361.12
355.491	379.12
355.718	376.12
355.945	388.12
356.172	369.12
356.399	384.12
356.626	396.12
356.853	384.12
357.08	379.12
357.307	377.12
357.534	380.12
357.761	394.12
357.988	389.12
358.215	373.12
358.441	373.12
358.668	403.12
358.895	392.12
359.122	410.12
359.349	405.12
359.576	426.12
359.802	404.12
360.029	428.12
360.256	433.12
360.483	411.12
360.709	420.12
360.936	393.12
361.163	394.12
361.39	412.12
361.616	404.12
361.843	411.12
362.07	406.12
362.296	375.12
362.523	360.12
362.749	392.12
362.976	392.12
363.203	397.12
363.429	397.12
363.656	397.12
363.882	399.12
364.109	414.12
364.335	384.12
364.562	393.12
364.788	397.12
365.015	388.12
365.241	388.12
365.468	405.12
365.694	396.12
365.92	398.12
366.147	395.12
366.373	391.12
366.599	395.12
366.826	392.12
367.052	390.12
367.278	400.12
367.505	405.12
367.731	388.12
367.957	403.12
368.184	394.12
368.41	399.12
368.636	408.12
368.862	406.12
369.089	421.12
369.315	403.12
369.541	405.12
369.767	402.12
369.993	403.12
370.219	399.12
370.445	388.12
370.672	396.12
370.898	391.12
371.124	397.12
371.35	400.12
371.576	388.12
371.802	395.12
372.028	391.12
372.254	420.12
372.48	405.12
372.706	426.12
372.932	421.12
373.158	418.12
373.384	403.12
373.61	421.12
373.835	404.12
374.061	408.12
374.287	413.12
374.513	408.12
374.739	438.12
374.965	416.12
375.191	420.12
375.416	436.12
375.642	420.12
375.868	433.12
376.094	411.12
376.319	414.12
376.545	408.12
376.771	421.12
376.997	404.12
377.222	419.12
377.448	410.12
377.674	388.12
377.899	402.12
378.125	386.12
378.35	421.12
378.576	393.12
378.802	401.12
379.027	419.12
379.253	416.12
379.478	404.12
379.704	411.12
379.929	416.12
380.155	394.12
380.38	407.12
380.606	421.12
380.831	412.12
381.057	425.12
381.282	420.12
381.507	416.12
381.733	431.12
381.958	426.12
382.184	408.12
382.409	426.12
382.634	429.12
382.86	453.12
383.085	425.12
383.31	451.12
383.535	439.12
383.761	450.12
383.986	454.12
384.211	437.12
384.436	445.12
384.662	469.12
384.887	477.12
385.112	458.12
385.337	449.12
385.562	474.12
385.787	477.12
386.013	482.12
386.238	459.12
386.463	457.12
386.688	479.12
386.913	469.12
387.138	470.12
387.363	456.12
387.588	456.12
387.813	468.12
388.038	474.12
388.263	468.12
388.488	482.12
388.713	450.12
388.938	456.12
389.163	470.12
389.387	459.12
389.612	441.12
389.837	453.12
390.062	473.12
390.287	464.12
390.512	461.12
390.736	463.12
390.961	458.12
391.186	440.12
391.411	477.12
391.636	480.12
391.86	491.12
392.085	488.12
392.31	459.12
392.534	491.12
392.759	478.12
392.984	482.12
393.208	450.12
393.433	493.12
393.658	478.12
393.882	479.12
394.107	480.12
394.331	479.12
394.556	481.12
394.78	469.12
395.005	489.12
395.229	475.12
395.454	499.12
395.678	466.12
395.903	498.12
396.127	508.12
396.352	500.12
396.576	479.12
396.801	500.12
397.025	507.12
397.249	496.12
397.474	487.12
397.698	501.12
397.922	489.12
398.147	515.12
398.371	544.12
398.595	524.12
398.82	529.12
399.044	562.12
399.268	567.12
399.492	610.12
399.717	648.12
399.941	686.12
400.165	647.12
400.389	704.12
400.613	618.12
400.837	581.12
401.062	552.12
401.286	565.12
401.51	536.12
401.734	549.12
401.958	557.12
402.182	538.12
402.406	548.12
402.63	555.12
402.854	548.12
403.078	544.12
403.302	569.12
403.526	556.12
403.75	592.12
403.974	564.12
404.198	558.12
404.422	558.12
404.645	550.12
404.869	564.12
405.093	588.12
405.317	623.12
405.541	659.12
405.765	600.12
405.988	578.12
406.212	593.12
406.436	550.12
406.66	594.12
406.883	587.12
407.107	609.12
407.331	666.12
407.555	704.12
407.778	684.12
408.002	674.12
408.226	610.12
408.449	618.12
408.673	605.12
408.896	633.12
409.12	668.12
409.344	637.12
409.567	587.12
409.791	596.12
410.014	572.12
410.238	573.12
410.461	572.12
410.685	563.12
410.908	570.12
411.132	605.12
411.355	637.12
411.578	588.12
411.802	571.12
412.025	548.12
412.249	546.12
412.472	572.12
412.695	621.12
412.919	590.12
413.142	568.12
413.365	531.12
413.589	580.12
413.812	549.12
414.035	518.12
414.258	525.12
414.482	533.12
414.705	523.12
414.928	531.12
415.151	560.12
415.374	547.12
415.597	532.12
415.821	540.12
416.044	527.12
416.267	530.12
416.49	511.12
416.713	519.12
416.936	536.12
417.159	539.12
417.382	537.12
417.605	540.12
417.828	557.12
418.051	537.12
418.274	539.12
418.497	525.12
418.72	521.12
418.943	525.12
419.166	548.12
419.389	564.12
419.611	576.12
419.834	549.12
420.057	566.12
420.28	579.12
420.503	527.12
420.726	545.12
420.948	536.12
421.171	577.12
421.394	608.12
421.617	568.12
421.839	527.12
422.062	560.12
422.285	556.12
422.507	616.12
422.73	666.12
422.953	637.12
423.175	566.12
423.398	570.12
423.621	562.12
423.843	567.12
424.066	554.12
424.288	596.12
424.511	594.12
424.733	629.12
424.956	690.12
425.178	676.12
425.401	673.12
425.623	692.12
425.846	605.12
426.068	556.12
426.291	552.12
426.513	564.12
426.735	564.12
426.958	605.12
427.18	670.12
427.402	787.12
427.625	863.12
427.847	741.12
428.069	646.12
428.292	590.12
428.514	561.12
428.736	531.12
428.958	534.12
429.181	527.12
429.403	533.12
429.625	535.12
429.847	577.12
430.069	637.12
430.292	618.12
430.514	536.12
430.736	525.12
430.958	520.12
431.18	507.12
431.402	524.12
431.624	505.12
431.846	498.12
432.068	489.12
432.29	496.12
432.512	532.12
432.734	516.12
432.956	508.12
433.178	525.12
433.4	519.12
433.622	540.12
433.844	488.12
434.066	516.12
434.287	523.12
434.509	502.12
434.731	526.12
434.953	534.12
435.175	526.12
435.397	566.12
435.618	597.12
435.84	585.12
436.062	678.12
436.284	740.12
436.505	636.12
436.727	584.12
436.949	536.12
437.17	533.12
437.392	508.12
437.614	548.12
437.835	558.12
438.057	625.12
438.278	700.12
438.5	724.12
438.721	807.12
438.943	758.12
439.165	626.12
439.386	587.12
439.608	580.12
439.829	552.12
440.05	582.12
440.272	626.12
440.493	591.12
440.715	589.12
440.936	548.12
441.158	546.12
441.379	544.12
441.6	566.12
441.822	566.12
442.043	605.12
442.264	669.12
442.486	692.12
442.707	634.12
442.928	568.12
443.149	581.12
443.371	587.12
443.592	662.12
443.813	716.12
444.034	769.12
444.255	674.12
444.476	622.12
444.698	613.12
444.919	598.12
445.14	730.12
445.361	660.12
445.582	630.12
445.803	667.12
446.024	740.12
446.245	728.12
446.466	683.12
446.687	606.12
446.908	572.12
447.129	534.12
447.35	538.12
447.571	525.12
447.792	524.12
448.013	506.12
448.234	538.12
448.455	569.12
448.675	666.12
448.896	788.12
449.117	669.12
449.338	622.12
449.559	717.12
449.779	824.12
450	677.12
450.221	563.12
450.442	512.12
450.662	506.12
450.883	518.12
451.104	520.12
451.324	522.12
451.545	496.12
451.766	476.12
451.986	478.12
452.207	453.12
452.428	470.12
452.648	464.12
452.869	469.12
453.089	471.12
453.31	473.12
453.53	466.12
453.751	457.12
453.971	454.12
454.192	471.12
454.412	451.12
454.633	462.12
454.853	461.12
455.073	454.12
455.294	479.12
455.514	521.12
455.734	551.12
455.955	466.12
456.175	445.12
456.395	434.12
456.616	462.12
456.836	442.12
457.056	435.12
457.276	445.12
457.497	449.12
457.717	454.12
457.937	425.12
458.157	465.12
458.377	471.12
458.598	491.12
458.818	496.12
459.038	579.12
459.258	596.12
459.478	545.12
459.698	508.12
459.918	522.12
460.138	517.12
460.358	535.12
460.578	536.12
460.798	553.12
461.018	553.12
461.238	539.12
461.458	532.12
461.678	528.12
461.898	567.12
462.118	550.12
462.338	558.12
462.558	577.12
462.777	588.12
462.997	600.12
463.217	626.12
463.437	608.12
463.657	605.12
463.876	596.12
464.096	616.12
464.316	562.12
464.536	588.12
464.755	571.12
464.975	579.12
465.195	594.12
465.414	606.12
465.634	567.12
465.854	535.12
466.073	523.12
466.293	494.12
466.512	513.12
466.732	477.12
466.951	499.12
467.171	510.12
467.391	500.12
467.61	501.12
467.829	502.12
468.049	498.12
468.268	472.12
468.488	475.12
468.707	477.12
468.927	492.12
469.146	476.12
469.365	500.12
469.585	496.12
469.804	473.12
470.023	518.12
470.243	492.12
470.462	510.12
470.681	508.12
470.901	523.12
471.12	506.12
471.339	491.12
471.558	510.12
471.777	489.12
471.997	492.12
472.216	481.12
472.435	534.12
472.654	501.12
472.873	484.12
473.092	500.12
473.311	501.12
473.53	501.12
473.749	508.12
473.968	517.12
474.187	600.12
474.406	604.12
474.625	543.12
474.844	516.12
475.063	494.12
475.282	496.12
475.501	502.12
475.72	498.12
475.939	522.12
476.158	512.12
476.377	508.12
476.596	524.12
476.814	527.12
477.033	544.12
477.252	517.12
477.471	523.12
477.69	522.12
477.908	542.12
478.127	549.12
478.346	556.12
478.564	577.12
478.783	572.12
479.002	592.12
479.22	588.12
479.439	578.12
479.658	591.12
479.876	580.12
480.095	594.12
480.313	623.12
480.532	612.12
480.751	620.12
480.969	611.12
481.188	628.12
481.406	628.12
481.624	591.12
481.843	613.12
482.061	593.12
482.28	590.12
482.498	583.12
482.717	565.12
482.935	574.12
483.153	603.12
483.372	600.12
483.59	579.12
483.808	582.12
484.027	572.12
484.245	590.12
484.463	621.12
484.681	603.12
484.9	597.12
485.118	592.12
485.336	597.12
485.554	602.12
485.772	617.12
485.99	615.12
486.209	608.12
486.427	629.12
486.645	628.12
486.863	616.12
487.081	616.12
487.299	628.12
487.517	644.12
487.735	625.12
487.953	631.12
488.171	619.12
488.389	632.12
488.607	630.12
488.825	644.12
489.043	610.12
489.261	637.12
489.479	632.12
489.696	654.12
489.914	625.12
490.132	614.12
490.35	669.12
490.568	664.12
490.786	668.12
491.003	678.12
491.221	677.12
491.439	677.12
491.657	679.12
491.874	698.12
492.092	695.12
492.31	720.12
492.527	696.12
492.745	722.12
492.963	724.12
493.18	701.12
493.398	726.12
493.615	707.12
493.833	731.12
494.05	719.12
494.268	703.12
494.485	722.12
494.703	724.12
494.92	752.12
495.138	714.12
495.355	737.12
495.573	755.12
495.79	736.12
496.008	757.12
496.225	742.12
496.442	747.12
496.66	758.12
496.877	741.12
497.094	742.12
497.312	758.12
497.529	766.12
497.746	752.12
497.963	792.12
498.181	807.12
498.398	806.12
498.615	809.12
498.832	841.12
499.049	907.12
499.267	930.12
499.484	960.12
499.701	1003.12
499.918	1034.12
500.135	1122.12
500.352	1186.12
500.569	1201.12
500.786	1226.12
501.003	1178.12
501.22	1120.12
501.437	1063.12
501.654	1058.12
