Data from 1974.PennyLincolnUp.Lamp.En5.5.200Scan.071719.P1.Changed Mount._HRD10591_15-54-13-857.txt Node
Date: Thu Jul 18 15:54:13 EDT 2019
User: cochatt
Spectrometer: HR+D1059
Trigger mode: 1
Integration Time (sec): 1.000000E-1
Scans to average: 1
Electric dark correction enabled: true
Nonlinearity correction enabled: false
Boxcar width: 0
XAxis mode: Wavelengths
Number of Pixels in Spectrum: 2048
>>>>>Begin Spectral Data<<<<<
223.165	-13.81
223.4	-13.81
223.635	-13.81
223.869	-15.81
224.104	-25.81
224.338	-1.81
224.573	-12.81
224.808	-8.81
225.042	1.19
225.277	0.19
225.511	-6.81
225.746	-7.81
225.98	-3.81
226.215	24.19
226.449	19.19
226.683	16.19
226.918	10.19
227.152	26.19
227.387	29.19
227.621	46.19
227.856	19.19
228.09	44.19
228.324	45.19
228.559	41.19
228.793	73.19
229.027	100.19
229.262	102.19
229.496	119.19
229.73	128.19
229.964	127.19
230.199	147.19
230.433	115.19
230.667	122.19
230.901	123.19
231.136	127.19
231.37	122.19
231.604	122.19
231.838	120.19
232.072	128.19
232.306	103.19
232.541	120.19
232.775	106.19
233.009	114.19
233.243	120.19
233.477	122.19
233.711	127.19
233.945	137.19
234.179	119.19
234.413	123.19
234.647	124.19
234.881	118.19
235.115	119.19
235.349	119.19
235.583	126.19
235.817	117.19
236.051	120.19
236.285	129.19
236.519	126.19
236.753	131.19
236.987	137.19
237.221	194.19
237.455	249.19
237.689	181.19
237.922	154.19
238.156	152.19
238.39	133.19
238.624	120.19
238.858	134.19
239.091	145.19
239.325	149.19
239.559	137.19
239.793	135.19
240.027	143.19
240.26	135.19
240.494	162.19
240.728	159.19
240.961	177.19
241.195	155.19
241.429	146.19
241.662	143.19
241.896	136.19
242.13	135.19
242.363	129.19
242.597	149.19
242.83	148.19
243.064	134.19
243.298	163.19
243.531	141.19
243.765	158.19
243.998	150.19
244.232	140.19
244.465	150.19
244.699	152.19
244.932	154.19
245.166	154.19
245.399	162.19
245.633	149.19
245.866	160.19
246.099	151.19
246.333	159.19
246.566	156.19
246.8	170.19
247.033	163.19
247.266	171.19
247.5	160.19
247.733	188.19
247.966	199.19
248.2	195.19
248.433	180.19
248.666	182.19
248.899	181.19
249.133	208.19
249.366	237.19
249.599	222.19
249.832	186.19
250.066	195.19
250.299	196.19
250.532	201.19
250.765	216.19
250.998	215.19
251.231	242.19
251.465	226.19
251.698	219.19
251.931	227.19
252.164	212.19
252.397	198.19
252.63	203.19
252.863	225.19
253.096	228.19
253.329	243.19
253.562	241.19
253.795	234.19
254.028	238.19
254.261	247.19
254.494	247.19
254.727	280.19
254.96	290.19
255.193	283.19
255.426	261.19
255.659	246.19
255.892	251.19
256.124	246.19
256.357	249.19
256.59	233.19
256.823	233.19
257.056	231.19
257.289	238.19
257.521	222.19
257.754	233.19
257.987	225.19
258.22	205.19
258.452	228.19
258.685	219.19
258.918	227.19
259.151	231.19
259.383	248.19
259.616	236.19
259.849	255.19
260.081	253.19
260.314	282.19
260.547	296.19
260.779	266.19
261.012	246.19
261.244	250.19
261.477	249.19
261.71	234.19
261.942	252.19
262.175	245.19
262.407	258.19
262.64	233.19
262.872	243.19
263.105	229.19
263.337	223.19
263.57	225.19
263.802	230.19
264.035	216.19
264.267	216.19
264.499	239.19
264.732	230.19
264.964	235.19
265.197	258.19
265.429	240.19
265.661	227.19
265.894	228.19
266.126	232.19
266.358	244.19
266.591	254.19
266.823	246.19
267.055	245.19
267.287	250.19
267.52	235.19
267.752	248.19
267.984	243.19
268.216	241.19
268.448	260.19
268.681	273.19
268.913	265.19
269.145	287.19
269.377	293.19
269.609	305.19
269.841	291.19
270.073	294.19
270.306	322.19
270.538	355.19
270.77	353.19
271.002	338.19
271.234	324.19
271.466	328.19
271.698	344.19
271.93	355.19
272.162	331.19
272.394	344.19
272.626	343.19
272.858	331.19
273.09	307.19
273.322	295.19
273.553	275.19
273.785	302.19
274.017	288.19
274.249	287.19
274.481	265.19
274.713	290.19
274.945	276.19
275.176	289.19
275.408	289.19
275.64	269.19
275.872	298.19
276.104	277.19
276.335	299.19
276.567	283.19
276.799	313.19
277.031	336.19
277.262	347.19
277.494	334.19
277.726	311.19
277.957	315.19
278.189	296.19
278.421	298.19
278.652	292.19
278.884	290.19
279.115	280.19
279.347	303.19
279.579	293.19
279.81	276.19
280.042	293.19
280.273	306.19
280.505	322.19
280.736	307.19
280.968	294.19
281.199	302.19
281.431	272.19
281.662	283.19
281.894	296.19
282.125	308.19
282.356	295.19
282.588	328.19
282.819	328.19
283.051	303.19
283.282	314.19
283.513	299.19
283.745	290.19
283.976	307.19
284.207	321.19
284.439	331.19
284.67	318.19
284.901	314.19
285.132	310.19
285.364	304.19
285.595	299.19
285.826	312.19
286.057	314.19
286.288	320.19
286.52	308.19
286.751	304.19
286.982	318.19
287.213	321.19
287.444	312.19
287.675	317.19
287.906	316.19
288.138	331.19
288.369	316.19
288.6	341.19
288.831	313.19
289.062	313.19
289.293	319.19
289.524	341.19
289.755	328.19
289.986	324.19
290.217	331.19
290.448	325.19
290.679	320.19
290.91	325.19
291.141	307.19
291.371	319.19
291.602	318.19
291.833	331.19
292.064	327.19
292.295	335.19
292.526	311.19
292.757	329.19
292.987	330.19
293.218	318.19
293.449	324.19
293.68	342.19
293.91	338.19
294.141	310.19
294.372	310.19
294.603	324.19
294.833	348.19
295.064	322.19
295.295	320.19
295.525	340.19
295.756	337.19
295.987	330.19
296.217	355.19
296.448	366.19
296.679	336.19
296.909	333.19
297.14	338.19
297.37	359.19
297.601	340.19
297.831	346.19
298.062	339.19
298.292	322.19
298.523	341.19
298.753	352.19
298.984	353.19
299.214	329.19
299.445	324.19
299.675	334.19
299.905	326.19
300.136	342.19
300.366	359.19
300.597	332.19
300.827	358.19
301.057	357.19
301.288	365.19
301.518	357.19
301.748	347.19
301.979	371.19
302.209	366.19
302.439	367.19
302.669	361.19
302.9	374.19
303.13	370.19
303.36	355.19
303.59	355.19
303.82	357.19
304.051	394.19
304.281	374.19
304.511	372.19
304.741	360.19
304.971	374.19
305.201	384.19
305.431	376.19
305.661	367.19
305.891	370.19
306.121	334.19
306.352	362.19
306.582	355.19
306.812	345.19
307.042	352.19
307.272	376.19
307.502	370.19
307.731	363.19
307.961	359.19
308.191	365.19
308.421	352.19
308.651	353.19
308.881	371.19
309.111	376.19
309.341	361.19
309.571	392.19
309.8	368.19
310.03	378.19
310.26	393.19
310.49	405.19
310.72	392.19
310.949	400.19
311.179	426.19
311.409	405.19
311.639	419.19
311.868	402.19
312.098	411.19
312.328	404.19
312.557	416.19
312.787	434.19
313.017	438.19
313.246	410.19
313.476	379.19
313.706	417.19
313.935	423.19
314.165	402.19
314.394	435.19
314.624	430.19
314.853	414.19
315.083	414.19
315.312	409.19
315.542	389.19
315.771	406.19
316.001	418.19
316.23	407.19
316.46	400.19
316.689	395.19
316.919	411.19
317.148	421.19
317.377	442.19
317.607	434.19
317.836	403.19
318.065	408.19
318.295	413.19
318.524	408.19
318.753	413.19
318.983	413.19
319.212	433.19
319.441	423.19
319.67	434.19
319.9	422.19
320.129	426.19
320.358	421.19
320.587	426.19
320.816	428.19
321.046	450.19
321.275	454.19
321.504	441.19
321.733	443.19
321.962	423.19
322.191	435.19
322.42	457.19
322.649	472.19
322.878	469.19
323.108	496.19
323.337	514.19
323.566	513.19
323.795	527.19
324.024	577.19
324.253	705.19
324.482	908.19
324.71	1408.19
324.939	2094.19
325.168	1828.19
325.397	957.19
325.626	658.19
325.855	555.19
326.084	544.19
326.313	522.19
326.542	524.19
326.77	577.19
326.999	638.19
327.228	820.19
327.457	1283.19
327.686	1554.19
327.914	1082.19
328.143	710.19
328.372	630.19
328.6	594.19
328.829	569.19
329.058	598.19
329.287	596.19
329.515	584.19
329.744	558.19
329.972	522.19
330.201	548.19
330.43	584.19
330.658	628.19
330.887	644.19
331.115	605.19
331.344	553.19
331.572	538.19
331.801	527.19
332.03	544.19
332.258	527.19
332.486	516.19
332.715	461.19
332.943	464.19
333.172	523.19
333.4	521.19
333.629	525.19
333.857	545.19
334.085	537.19
334.314	550.19
334.542	582.19
334.771	607.19
334.999	547.19
335.227	544.19
335.455	518.19
335.684	529.19
335.912	510.19
336.14	483.19
336.369	491.19
336.597	516.19
336.825	486.19
337.053	506.19
337.281	489.19
337.51	480.19
337.738	494.19
337.966	486.19
338.194	490.19
338.422	498.19
338.65	487.19
338.878	487.19
339.106	476.19
339.334	482.19
339.562	484.19
339.79	483.19
340.018	476.19
340.246	478.19
340.474	486.19
340.702	485.19
340.93	475.19
341.158	465.19
341.386	477.19
341.614	468.19
341.842	469.19
342.07	466.19
342.298	461.19
342.526	448.19
342.754	461.19
342.981	476.19
343.209	459.19
343.437	470.19
343.665	459.19
343.893	510.19
344.12	502.19
344.348	485.19
344.576	479.19
344.804	481.19
345.031	505.19
345.259	498.19
345.487	484.19
345.714	498.19
345.942	478.19
346.17	464.19
346.397	455.19
346.625	467.19
346.853	460.19
347.08	446.19
347.308	463.19
347.535	467.19
347.763	474.19
347.99	436.19
348.218	464.19
348.445	480.19
348.673	475.19
348.9	438.19
349.128	474.19
349.355	446.19
349.583	455.19
349.81	459.19
350.037	444.19
350.265	465.19
350.492	463.19
350.72	474.19
350.947	460.19
351.174	466.19
351.402	470.19
351.629	476.19
351.856	460.19
352.083	478.19
352.311	460.19
352.538	460.19
352.765	456.19
352.992	472.19
353.22	464.19
353.447	468.19
353.674	462.19
353.901	436.19
354.128	420.19
354.355	435.19
354.583	414.19
354.81	425.19
355.037	459.19
355.264	418.19
355.491	458.19
355.718	427.19
355.945	411.19
356.172	451.19
356.399	433.19
356.626	432.19
356.853	423.19
357.08	424.19
357.307	440.19
357.534	443.19
357.761	432.19
357.988	433.19
358.215	438.19
358.441	431.19
358.668	424.19
358.895	462.19
359.122	425.19
359.349	470.19
359.576	475.19
359.802	494.19
360.029	518.19
360.256	527.19
360.483	508.19
360.709	465.19
360.936	466.19
361.163	463.19
361.39	467.19
361.616	471.19
361.843	481.19
362.07	468.19
362.296	465.19
362.523	449.19
362.749	465.19
362.976	455.19
363.203	452.19
363.429	444.19
363.656	455.19
363.882	443.19
364.109	432.19
364.335	449.19
364.562	455.19
364.788	452.19
365.015	432.19
365.241	451.19
365.468	444.19
365.694	449.19
365.92	457.19
366.147	459.19
366.373	455.19
366.599	479.19
366.826	448.19
367.052	446.19
367.278	447.19
367.505	453.19
367.731	447.19
367.957	447.19
368.184	444.19
368.41	469.19
368.636	471.19
368.862	478.19
369.089	462.19
369.315	455.19
369.541	444.19
369.767	470.19
369.993	457.19
370.219	464.19
370.445	446.19
370.672	464.19
370.898	471.19
371.124	458.19
371.35	457.19
371.576	478.19
371.802	452.19
372.028	452.19
372.254	456.19
372.48	473.19
372.706	455.19
372.932	480.19
373.158	456.19
373.384	464.19
373.61	467.19
373.835	455.19
374.061	467.19
374.287	457.19
374.513	455.19
374.739	485.19
374.965	463.19
375.191	476.19
375.416	476.19
375.642	467.19
375.868	485.19
376.094	478.19
376.319	471.19
376.545	456.19
376.771	463.19
376.997	463.19
377.222	441.19
377.448	450.19
377.674	461.19
377.899	436.19
378.125	459.19
378.35	466.19
378.576	469.19
378.802	463.19
379.027	474.19
379.253	467.19
379.478	474.19
379.704	458.19
379.929	460.19
380.155	447.19
380.38	456.19
380.606	456.19
380.831	428.19
381.057	456.19
381.282	466.19
381.507	481.19
381.733	469.19
381.958	470.19
382.184	461.19
382.409	478.19
382.634	457.19
382.86	488.19
383.085	472.19
383.31	471.19
383.535	491.19
383.761	490.19
383.986	488.19
384.211	479.19
384.436	503.19
384.662	506.19
384.887	496.19
385.112	500.19
385.337	507.19
385.562	495.19
385.787	537.19
386.013	516.19
386.238	540.19
386.463	507.19
386.688	511.19
386.913	500.19
387.138	496.19
387.363	512.19
387.588	530.19
387.813	509.19
388.038	485.19
388.263	507.19
388.488	511.19
388.713	491.19
388.938	504.19
389.163	522.19
389.387	512.19
389.612	511.19
389.837	488.19
390.062	522.19
390.287	528.19
390.512	524.19
390.736	491.19
390.961	515.19
391.186	504.19
391.411	521.19
391.636	529.19
391.86	515.19
392.085	545.19
392.31	535.19
392.534	531.19
392.759	534.19
392.984	540.19
393.208	532.19
393.433	503.19
393.658	508.19
393.882	523.19
394.107	507.19
394.331	523.19
394.556	524.19
394.78	539.19
395.005	521.19
395.229	545.19
395.454	535.19
395.678	551.19
395.903	559.19
396.127	582.19
396.352	605.19
396.576	565.19
396.801	556.19
397.025	549.19
397.249	514.19
397.474	531.19
397.698	563.19
397.922	548.19
398.147	587.19
398.371	593.19
398.595	586.19
398.82	593.19
399.044	613.19
399.268	628.19
399.492	688.19
399.717	731.19
399.941	747.19
400.165	780.19
400.389	754.19
400.613	683.19
400.837	646.19
401.062	647.19
401.286	595.19
401.51	625.19
401.734	623.19
401.958	624.19
402.182	587.19
402.406	592.19
402.63	635.19
402.854	608.19
403.078	607.19
403.302	617.19
403.526	633.19
403.75	639.19
403.974	614.19
404.198	633.19
404.422	638.19
404.645	639.19
404.869	640.19
405.093	696.19
405.317	720.19
405.541	766.19
405.765	704.19
405.988	660.19
406.212	658.19
406.436	650.19
406.66	699.19
406.883	679.19
407.107	706.19
407.331	766.19
407.555	816.19
407.778	839.19
408.002	749.19
408.226	722.19
408.449	699.19
408.673	687.19
408.896	731.19
409.12	781.19
409.344	740.19
409.567	671.19
409.791	643.19
410.014	630.19
410.238	638.19
410.461	615.19
410.685	620.19
410.908	648.19
411.132	690.19
411.355	696.19
411.578	680.19
411.802	647.19
412.025	644.19
412.249	647.19
412.472	679.19
412.695	702.19
412.919	664.19
413.142	635.19
413.365	630.19
413.589	587.19
413.812	604.19
414.035	604.19
414.258	603.19
414.482	592.19
414.705	596.19
414.928	588.19
415.151	600.19
415.374	598.19
415.597	592.19
415.821	577.19
416.044	596.19
416.267	596.19
416.49	597.19
416.713	585.19
416.936	585.19
417.159	580.19
417.382	583.19
417.605	601.19
417.828	606.19
418.051	628.19
418.274	612.19
418.497	612.19
418.72	617.19
418.943	619.19
419.166	620.19
419.389	668.19
419.611	636.19
419.834	632.19
420.057	620.19
420.28	626.19
420.503	610.19
420.726	620.19
420.948	639.19
421.171	675.19
421.394	680.19
421.617	646.19
421.839	620.19
422.062	623.19
422.285	614.19
422.507	706.19
422.73	753.19
422.953	750.19
423.175	660.19
423.398	643.19
423.621	650.19
423.843	681.19
424.066	688.19
424.288	656.19
424.511	694.19
424.733	729.19
424.956	833.19
425.178	783.19
425.401	793.19
425.623	816.19
425.846	708.19
426.068	673.19
426.291	659.19
426.513	666.19
426.735	668.19
426.958	714.19
427.18	779.19
427.402	933.19
427.625	1033.19
427.847	880.19
428.069	777.19
428.292	722.19
428.514	655.19
428.736	622.19
428.958	622.19
429.181	594.19
429.403	597.19
429.625	613.19
429.847	653.19
430.069	731.19
430.292	697.19
430.514	633.19
430.736	601.19
430.958	597.19
431.18	614.19
431.402	594.19
431.624	599.19
431.846	585.19
432.068	574.19
432.29	588.19
432.512	569.19
432.734	601.19
432.956	583.19
433.178	601.19
433.4	613.19
433.622	574.19
433.844	566.19
434.066	576.19
434.287	590.19
434.509	612.19
434.731	604.19
434.953	626.19
435.175	640.19
435.397	650.19
435.618	656.19
435.84	684.19
436.062	787.19
436.284	866.19
436.505	728.19
436.727	670.19
436.949	632.19
437.17	616.19
437.392	595.19
437.614	629.19
437.835	638.19
438.057	752.19
438.278	860.19
438.5	848.19
438.721	954.19
438.943	892.19
439.165	718.19
439.386	664.19
439.608	677.19
439.829	652.19
440.05	702.19
440.272	743.19
440.493	668.19
440.715	622.19
440.936	645.19
441.158	619.19
441.379	595.19
441.6	636.19
441.822	656.19
442.043	706.19
442.264	788.19
442.486	826.19
442.707	755.19
442.928	671.19
443.149	701.19
443.371	693.19
443.592	743.19
443.813	846.19
444.034	906.19
444.255	793.19
444.476	695.19
444.698	683.19
444.919	678.19
445.14	793.19
445.361	724.19
445.582	718.19
445.803	800.19
446.024	859.19
446.245	871.19
446.466	792.19
446.687	707.19
446.908	676.19
447.129	651.19
447.35	604.19
447.571	612.19
447.792	585.19
448.013	601.19
448.234	619.19
448.455	690.19
448.675	778.19
448.896	926.19
449.117	792.19
449.338	741.19
449.559	852.19
449.779	957.19
450	766.19
450.221	653.19
450.442	625.19
450.662	592.19
450.883	592.19
451.104	607.19
451.324	578.19
451.545	581.19
451.766	548.19
451.986	551.19
452.207	534.19
452.428	530.19
452.648	531.19
452.869	542.19
453.089	542.19
453.31	548.19
453.53	539.19
453.751	550.19
453.971	538.19
454.192	553.19
454.412	571.19
454.633	536.19
454.853	537.19
455.073	515.19
455.294	559.19
455.514	628.19
455.734	640.19
455.955	556.19
456.175	510.19
456.395	502.19
456.616	501.19
456.836	500.19
457.056	499.19
457.276	501.19
457.497	495.19
457.717	500.19
457.937	512.19
458.157	525.19
458.377	503.19
458.598	540.19
458.818	608.19
459.038	686.19
459.258	713.19
459.478	615.19
459.698	600.19
459.918	568.19
460.138	573.19
460.358	591.19
460.578	604.19
460.798	620.19
461.018	591.19
461.238	619.19
461.458	618.19
461.678	605.19
461.898	616.19
462.118	604.19
462.338	618.19
462.558	606.19
462.777	638.19
462.997	646.19
463.217	685.19
463.437	691.19
463.657	653.19
463.876	681.19
464.096	658.19
464.316	662.19
464.536	647.19
464.755	652.19
464.975	644.19
465.195	662.19
465.414	708.19
465.634	651.19
465.854	612.19
466.073	583.19
466.293	578.19
466.512	560.19
466.732	566.19
466.951	556.19
467.171	555.19
467.391	555.19
467.61	562.19
467.829	576.19
468.049	571.19
468.268	575.19
468.488	544.19
468.707	529.19
468.927	525.19
469.146	522.19
469.365	539.19
469.585	534.19
469.804	561.19
470.023	565.19
470.243	558.19
470.462	580.19
470.681	584.19
470.901	602.19
471.12	571.19
471.339	579.19
471.558	563.19
471.777	580.19
471.997	563.19
472.216	572.19
472.435	600.19
472.654	568.19
472.873	550.19
473.092	531.19
473.311	547.19
473.53	568.19
473.749	577.19
473.968	613.19
474.187	708.19
474.406	739.19
474.625	649.19
474.844	561.19
475.063	566.19
475.282	587.19
475.501	564.19
475.72	542.19
475.939	587.19
476.158	588.19
476.377	586.19
476.596	583.19
476.814	600.19
477.033	599.19
477.252	595.19
477.471	610.19
477.69	615.19
477.908	611.19
478.127	609.19
478.346	610.19
478.564	647.19
478.783	639.19
479.002	635.19
479.22	634.19
479.439	676.19
479.658	679.19
479.876	695.19
480.095	685.19
480.313	719.19
480.532	699.19
480.751	706.19
480.969	691.19
481.188	724.19
481.406	775.19
481.624	707.19
481.843	662.19
482.061	680.19
482.28	648.19
482.498	659.19
482.717	640.19
482.935	647.19
483.153	646.19
483.372	655.19
483.59	672.19
483.808	639.19
484.027	652.19
484.245	651.19
484.463	671.19
484.681	684.19
484.9	675.19
485.118	679.19
485.336	678.19
485.554	679.19
485.772	694.19
485.99	690.19
486.209	687.19
486.427	687.19
486.645	682.19
486.863	702.19
487.081	722.19
487.299	703.19
487.517	726.19
487.735	712.19
487.953	706.19
488.171	747.19
488.389	724.19
488.607	716.19
488.825	683.19
489.043	706.19
489.261	710.19
489.479	714.19
489.696	741.19
489.914	723.19
490.132	722.19
490.35	756.19
490.568	765.19
490.786	784.19
491.003	787.19
491.221	801.19
491.439	819.19
491.657	807.19
491.874	814.19
492.092	818.19
492.31	849.19
492.527	834.19
492.745	815.19
492.963	828.19
493.18	838.19
493.398	857.19
493.615	866.19
493.833	874.19
494.05	837.19
494.268	844.19
494.485	826.19
494.703	844.19
494.92	865.19
495.138	850.19
495.355	859.19
495.573	875.19
495.79	854.19
496.008	850.19
496.225	839.19
496.442	834.19
496.66	851.19
496.877	852.19
497.094	880.19
497.312	883.19
497.529	848.19
497.746	866.19
497.963	932.19
498.181	936.19
498.398	930.19
498.615	966.19
498.832	982.19
499.049	987.19
499.267	1029.19
499.484	1089.19
499.701	1123.19
499.918	1171.19
500.135	1228.19
500.352	1293.19
500.569	1345.19
500.786	1384.19
501.003	1320.19
501.22	1246.19
501.437	1220.19
501.654	1164.19
