Data from 1974.PennyLincolnUp.Lamp.En5.5.200Scan.071719.P1.Changed Mount._HRD10591_15-53-24-857.txt Node
Date: Thu Jul 18 15:53:24 EDT 2019
User: cochatt
Spectrometer: HR+D1059
Trigger mode: 1
Integration Time (sec): 1.000000E-1
Scans to average: 1
Electric dark correction enabled: true
Nonlinearity correction enabled: false
Boxcar width: 0
XAxis mode: Wavelengths
Number of Pixels in Spectrum: 2048
>>>>>Begin Spectral Data<<<<<
223.165	-16.31
223.4	-16.31
223.635	-16.31
223.869	-24.31
224.104	-31.31
224.338	-14.31
224.573	-11.31
224.808	-5.31
225.042	-5.31
225.277	-7.31
225.511	4.69
225.746	4.69
225.98	12.69
226.215	11.69
226.449	12.69
226.683	27.69
226.918	13.69
227.152	27.69
227.387	30.69
227.621	50.69
227.856	35.69
228.09	42.69
228.324	59.69
228.559	65.69
228.793	78.69
229.027	104.69
229.262	124.69
229.496	101.69
229.73	136.69
229.964	172.69
230.199	126.69
230.433	134.69
230.667	117.69
230.901	123.69
231.136	122.69
231.37	113.69
231.604	110.69
231.838	119.69
232.072	104.69
232.306	103.69
232.541	123.69
232.775	126.69
233.009	139.69
233.243	121.69
233.477	129.69
233.711	140.69
233.945	123.69
234.179	138.69
234.413	127.69
234.647	126.69
234.881	116.69
235.115	126.69
235.349	123.69
235.583	126.69
235.817	130.69
236.051	144.69
236.285	136.69
236.519	125.69
236.753	144.69
236.987	151.69
237.221	185.69
237.455	244.69
237.689	200.69
237.922	135.69
238.156	157.69
238.39	154.69
238.624	137.69
238.858	144.69
239.091	136.69
239.325	145.69
239.559	141.69
239.793	139.69
240.027	140.69
240.26	158.69
240.494	181.69
240.728	177.69
240.961	161.69
241.195	154.69
241.429	145.69
241.662	159.69
241.896	148.69
242.13	135.69
242.363	145.69
242.597	146.69
242.83	157.69
243.064	147.69
243.298	158.69
243.531	152.69
243.765	144.69
243.998	153.69
244.232	141.69
244.465	146.69
244.699	150.69
244.932	156.69
245.166	165.69
245.399	172.69
245.633	175.69
245.866	168.69
246.099	160.69
246.333	162.69
246.566	166.69
246.8	151.69
247.033	174.69
247.266	167.69
247.5	175.69
247.733	185.69
247.966	191.69
248.2	187.69
248.433	180.69
248.666	209.69
248.899	208.69
249.133	224.69
249.366	244.69
249.599	222.69
249.832	183.69
250.066	201.69
250.299	198.69
250.532	210.69
250.765	229.69
250.998	239.69
251.231	242.69
251.465	232.69
251.698	230.69
251.931	216.69
252.164	213.69
252.397	224.69
252.63	201.69
252.863	221.69
253.096	224.69
253.329	258.69
253.562	257.69
253.795	242.69
254.028	241.69
254.261	246.69
254.494	251.69
254.727	264.69
254.96	318.69
255.193	301.69
255.426	266.69
255.659	258.69
255.892	268.69
256.124	248.69
256.357	246.69
256.59	264.69
256.823	238.69
257.056	228.69
257.289	237.69
257.521	241.69
257.754	232.69
257.987	222.69
258.22	231.69
258.452	229.69
258.685	220.69
258.918	231.69
259.151	239.69
259.383	241.69
259.616	234.69
259.849	255.69
260.081	254.69
260.314	262.69
260.547	286.69
260.779	273.69
261.012	268.69
261.244	257.69
261.477	253.69
261.71	259.69
261.942	239.69
262.175	260.69
262.407	251.69
262.64	239.69
262.872	252.69
263.105	242.69
263.337	237.69
263.57	230.69
263.802	234.69
264.035	234.69
264.267	232.69
264.499	244.69
264.732	229.69
264.964	225.69
265.197	230.69
265.429	242.69
265.661	230.69
265.894	229.69
266.126	222.69
266.358	247.69
266.591	258.69
266.823	252.69
267.055	245.69
267.287	238.69
267.52	254.69
267.752	232.69
267.984	249.69
268.216	258.69
268.448	266.69
268.681	255.69
268.913	273.69
269.145	272.69
269.377	321.69
269.609	298.69
269.841	295.69
270.073	292.69
270.306	327.69
270.538	358.69
270.77	346.69
271.002	338.69
271.234	316.69
271.466	331.69
271.698	335.69
271.93	353.69
272.162	355.69
272.394	338.69
272.626	335.69
272.858	312.69
273.09	318.69
273.322	312.69
273.553	295.69
273.785	287.69
274.017	289.69
274.249	298.69
274.481	288.69
274.713	298.69
274.945	309.69
275.176	308.69
275.408	308.69
275.64	305.69
275.872	298.69
276.104	290.69
276.335	297.69
276.567	308.69
276.799	318.69
277.031	332.69
277.262	356.69
277.494	335.69
277.726	333.69
277.957	314.69
278.189	322.69
278.421	306.69
278.652	303.69
278.884	283.69
279.115	304.69
279.347	299.69
279.579	289.69
279.81	299.69
280.042	289.69
280.273	306.69
280.505	322.69
280.736	298.69
280.968	303.69
281.199	303.69
281.431	285.69
281.662	298.69
281.894	304.69
282.125	301.69
282.356	326.69
282.588	331.69
282.819	349.69
283.051	306.69
283.282	295.69
283.513	325.69
283.745	304.69
283.976	321.69
284.207	325.69
284.439	334.69
284.67	336.69
284.901	326.69
285.132	328.69
285.364	322.69
285.595	321.69
285.826	321.69
286.057	328.69
286.288	343.69
286.52	313.69
286.751	321.69
286.982	313.69
287.213	325.69
287.444	320.69
287.675	337.69
287.906	354.69
288.138	337.69
288.369	337.69
288.6	340.69
288.831	342.69
289.062	354.69
289.293	334.69
289.524	326.69
289.755	322.69
289.986	321.69
290.217	315.69
290.448	337.69
290.679	346.69
290.91	338.69
291.141	320.69
291.371	332.69
291.602	330.69
291.833	341.69
292.064	335.69
292.295	329.69
292.526	333.69
292.757	334.69
292.987	308.69
293.218	332.69
293.449	324.69
293.68	337.69
293.91	330.69
294.141	344.69
294.372	328.69
294.603	328.69
294.833	326.69
295.064	346.69
295.295	337.69
295.525	329.69
295.756	324.69
295.987	336.69
296.217	351.69
296.448	366.69
296.679	358.69
296.909	340.69
297.14	337.69
297.37	331.69
297.601	338.69
297.831	348.69
298.062	344.69
298.292	348.69
298.523	360.69
298.753	362.69
298.984	369.69
299.214	350.69
299.445	350.69
299.675	354.69
299.905	342.69
300.136	338.69
300.366	353.69
300.597	358.69
300.827	375.69
301.057	386.69
301.288	375.69
301.518	380.69
301.748	374.69
301.979	381.69
302.209	365.69
302.439	387.69
302.669	400.69
302.9	369.69
303.13	361.69
303.36	384.69
303.59	380.69
303.82	359.69
304.051	384.69
304.281	367.69
304.511	380.69
304.741	388.69
304.971	362.69
305.201	354.69
305.431	378.69
305.661	354.69
305.891	362.69
306.121	353.69
306.352	372.69
306.582	378.69
306.812	383.69
307.042	383.69
307.272	395.69
307.502	360.69
307.731	392.69
307.961	366.69
308.191	363.69
308.421	365.69
308.651	372.69
308.881	382.69
309.111	380.69
309.341	396.69
309.571	392.69
309.8	395.69
310.03	400.69
310.26	401.69
310.49	398.69
310.72	429.69
310.949	426.69
311.179	410.69
311.409	419.69
311.639	408.69
311.868	425.69
312.098	417.69
312.328	416.69
312.557	431.69
312.787	433.69
313.017	445.69
313.246	426.69
313.476	437.69
313.706	434.69
313.935	448.69
314.165	432.69
314.394	433.69
314.624	447.69
314.853	426.69
315.083	422.69
315.312	440.69
315.542	430.69
315.771	426.69
316.001	426.69
316.23	397.69
316.46	397.69
316.689	427.69
316.919	412.69
317.148	433.69
317.377	430.69
317.607	422.69
317.836	427.69
318.065	431.69
318.295	423.69
318.524	425.69
318.753	406.69
318.983	401.69
319.212	434.69
319.441	441.69
319.67	441.69
319.9	423.69
320.129	427.69
320.358	439.69
320.587	424.69
320.816	432.69
321.046	436.69
321.275	449.69
321.504	440.69
321.733	432.69
321.962	459.69
322.191	452.69
322.42	450.69
322.649	456.69
322.878	488.69
323.108	483.69
323.337	502.69
323.566	502.69
323.795	553.69
324.024	579.69
324.253	644.69
324.482	902.69
324.71	1340.69
324.939	1992.69
325.168	1736.69
325.397	912.69
325.626	670.69
325.855	551.69
326.084	552.69
326.313	536.69
326.542	551.69
326.77	565.69
326.999	621.69
327.228	830.69
327.457	1223.69
327.686	1556.69
327.914	1070.69
328.143	714.69
328.372	644.69
328.6	591.69
328.829	575.69
329.058	567.69
329.287	596.69
329.515	574.69
329.744	548.69
329.972	568.69
330.201	556.69
330.43	586.69
330.658	600.69
330.887	625.69
331.115	636.69
331.344	548.69
331.572	534.69
331.801	512.69
332.03	522.69
332.258	524.69
332.486	487.69
332.715	496.69
332.943	501.69
333.172	529.69
333.4	537.69
333.629	543.69
333.857	559.69
334.085	528.69
334.314	550.69
334.542	587.69
334.771	604.69
334.999	572.69
335.227	550.69
335.455	534.69
335.684	529.69
335.912	520.69
336.14	516.69
336.369	512.69
336.597	514.69
336.825	521.69
337.053	494.69
337.281	494.69
337.51	507.69
337.738	502.69
337.966	506.69
338.194	518.69
338.422	495.69
338.65	471.69
338.878	490.69
339.106	503.69
339.334	487.69
339.562	476.69
339.79	486.69
340.018	500.69
340.246	506.69
340.474	504.69
340.702	476.69
340.93	485.69
341.158	496.69
341.386	492.69
341.614	477.69
341.842	464.69
342.07	489.69
342.298	479.69
342.526	471.69
342.754	475.69
342.981	472.69
343.209	474.69
343.437	478.69
343.665	514.69
343.893	509.69
344.12	496.69
344.348	508.69
344.576	502.69
344.804	508.69
345.031	478.69
345.259	516.69
345.487	490.69
345.714	496.69
345.942	492.69
346.17	477.69
346.397	479.69
346.625	482.69
346.853	452.69
347.08	474.69
347.308	478.69
347.535	479.69
347.763	487.69
347.99	487.69
348.218	474.69
348.445	500.69
348.673	474.69
348.9	457.69
349.128	472.69
349.355	470.69
349.583	473.69
349.81	461.69
350.037	461.69
350.265	455.69
350.492	438.69
350.72	448.69
350.947	477.69
351.174	462.69
351.402	467.69
351.629	473.69
351.856	481.69
352.083	465.69
352.311	466.69
352.538	478.69
352.765	503.69
352.992	474.69
353.22	481.69
353.447	452.69
353.674	472.69
353.901	465.69
354.128	478.69
354.355	461.69
354.583	459.69
354.81	458.69
355.037	453.69
355.264	449.69
355.491	458.69
355.718	443.69
355.945	454.69
356.172	449.69
356.399	432.69
356.626	457.69
356.853	458.69
357.08	448.69
357.307	446.69
357.534	438.69
357.761	430.69
357.988	433.69
358.215	464.69
358.441	471.69
358.668	472.69
358.895	464.69
359.122	453.69
359.349	462.69
359.576	477.69
359.802	483.69
360.029	512.69
360.256	497.69
360.483	491.69
360.709	474.69
360.936	478.69
361.163	466.69
361.39	466.69
361.616	468.69
361.843	455.69
362.07	455.69
362.296	466.69
362.523	459.69
362.749	478.69
362.976	462.69
363.203	453.69
363.429	465.69
363.656	460.69
363.882	453.69
364.109	464.69
364.335	447.69
364.562	462.69
364.788	473.69
365.015	456.69
365.241	455.69
365.468	456.69
365.694	462.69
365.92	457.69
366.147	452.69
366.373	460.69
366.599	469.69
366.826	457.69
367.052	465.69
367.278	447.69
367.505	484.69
367.731	461.69
367.957	456.69
368.184	476.69
368.41	465.69
368.636	492.69
368.862	497.69
369.089	483.69
369.315	478.69
369.541	451.69
369.767	472.69
369.993	460.69
370.219	463.69
370.445	470.69
370.672	450.69
370.898	453.69
371.124	468.69
371.35	460.69
371.576	471.69
371.802	468.69
372.028	466.69
372.254	463.69
372.48	457.69
372.706	461.69
372.932	469.69
373.158	483.69
373.384	473.69
373.61	476.69
373.835	462.69
374.061	470.69
374.287	469.69
374.513	462.69
374.739	485.69
374.965	505.69
375.191	497.69
375.416	484.69
375.642	455.69
375.868	493.69
376.094	455.69
376.319	477.69
376.545	482.69
376.771	470.69
376.997	481.69
377.222	453.69
377.448	451.69
377.674	463.69
377.899	477.69
378.125	478.69
378.35	457.69
378.576	465.69
378.802	445.69
379.027	459.69
379.253	471.69
379.478	465.69
379.704	461.69
379.929	460.69
380.155	468.69
380.38	474.69
380.606	462.69
380.831	465.69
381.057	475.69
381.282	491.69
381.507	495.69
381.733	469.69
381.958	489.69
382.184	485.69
382.409	483.69
382.634	508.69
382.86	493.69
383.085	514.69
383.31	481.69
383.535	511.69
383.761	489.69
383.986	500.69
384.211	502.69
384.436	520.69
384.662	522.69
384.887	530.69
385.112	502.69
385.337	530.69
385.562	508.69
385.787	540.69
386.013	536.69
386.238	529.69
386.463	534.69
386.688	528.69
386.913	518.69
387.138	549.69
387.363	546.69
387.588	518.69
387.813	538.69
388.038	513.69
388.263	505.69
388.488	504.69
388.713	509.69
388.938	547.69
389.163	520.69
389.387	498.69
389.612	526.69
389.837	532.69
390.062	532.69
390.287	518.69
390.512	523.69
390.736	508.69
390.961	530.69
391.186	525.69
391.411	528.69
391.636	531.69
391.86	534.69
392.085	540.69
392.31	561.69
392.534	544.69
392.759	553.69
392.984	520.69
393.208	558.69
393.433	534.69
393.658	538.69
393.882	523.69
394.107	525.69
394.331	537.69
394.556	544.69
394.78	552.69
395.005	557.69
395.229	562.69
395.454	548.69
395.678	566.69
395.903	569.69
396.127	594.69
396.352	597.69
396.576	544.69
396.801	553.69
397.025	553.69
397.249	559.69
397.474	566.69
397.698	568.69
397.922	572.69
398.147	620.69
398.371	625.69
398.595	624.69
398.82	590.69
399.044	622.69
399.268	657.69
399.492	688.69
399.717	745.69
399.941	753.69
400.165	784.69
400.389	800.69
400.613	686.69
400.837	645.69
401.062	648.69
401.286	632.69
401.51	633.69
401.734	629.69
401.958	649.69
402.182	625.69
402.406	643.69
402.63	626.69
402.854	619.69
403.078	661.69
403.302	649.69
403.526	664.69
403.75	654.69
403.974	646.69
404.198	651.69
404.422	650.69
404.645	677.69
404.869	650.69
405.093	693.69
405.317	727.69
405.541	773.69
405.765	712.69
405.988	682.69
406.212	672.69
406.436	680.69
406.66	698.69
406.883	682.69
407.107	726.69
407.331	761.69
407.555	841.69
407.778	821.69
408.002	803.69
408.226	732.69
408.449	716.69
408.673	683.69
408.896	716.69
409.12	777.69
409.344	746.69
409.567	662.69
409.791	651.69
410.014	643.69
410.238	621.69
410.461	655.69
410.685	655.69
410.908	684.69
411.132	696.69
411.355	737.69
411.578	689.69
411.802	661.69
412.025	662.69
412.249	661.69
412.472	705.69
412.695	716.69
412.919	682.69
413.142	648.69
413.365	631.69
413.589	630.69
413.812	613.69
414.035	617.69
414.258	617.69
414.482	605.69
414.705	617.69
414.928	625.69
415.151	595.69
415.374	602.69
415.597	590.69
415.821	594.69
416.044	600.69
416.267	591.69
416.49	631.69
416.713	617.69
416.936	615.69
417.159	608.69
417.382	613.69
417.605	612.69
417.828	621.69
418.051	656.69
418.274	635.69
418.497	610.69
418.72	617.69
418.943	598.69
419.166	664.69
419.389	652.69
419.611	666.69
419.834	659.69
420.057	659.69
420.28	636.69
420.503	640.69
420.726	634.69
420.948	647.69
421.171	708.69
421.394	743.69
421.617	657.69
421.839	659.69
422.062	644.69
422.285	642.69
422.507	718.69
422.73	786.69
422.953	766.69
423.175	699.69
423.398	662.69
423.621	662.69
423.843	675.69
424.066	686.69
424.288	687.69
424.511	703.69
424.733	770.69
424.956	838.69
425.178	807.69
425.401	811.69
425.623	851.69
425.846	708.69
426.068	657.69
426.291	665.69
426.513	666.69
426.735	683.69
426.958	721.69
427.18	783.69
427.402	939.69
427.625	1034.69
427.847	911.69
428.069	795.69
428.292	700.69
428.514	657.69
428.736	635.69
428.958	622.69
429.181	632.69
429.403	612.69
429.625	622.69
429.847	661.69
430.069	714.69
430.292	716.69
430.514	643.69
430.736	623.69
430.958	592.69
431.18	593.69
431.402	584.69
431.624	610.69
431.846	591.69
432.068	588.69
432.29	588.69
432.512	582.69
432.734	624.69
432.956	606.69
433.178	606.69
433.4	613.69
433.622	593.69
433.844	599.69
434.066	586.69
434.287	575.69
434.509	612.69
434.731	608.69
434.953	609.69
435.175	661.69
435.397	678.69
435.618	679.69
435.84	687.69
436.062	822.69
436.284	871.69
436.505	761.69
436.727	676.69
436.949	653.69
437.17	644.69
437.392	618.69
437.614	601.69
437.835	641.69
438.057	752.69
438.278	856.69
438.5	862.69
438.721	905.69
438.943	910.69
439.165	735.69
439.386	658.69
439.608	659.69
439.829	642.69
440.05	685.69
440.272	741.69
440.493	702.69
440.715	656.69
440.936	644.69
441.158	641.69
441.379	625.69
441.6	622.69
441.822	650.69
442.043	707.69
442.264	812.69
442.486	837.69
442.707	705.69
442.928	691.69
443.149	697.69
443.371	725.69
443.592	732.69
443.813	868.69
444.034	903.69
444.255	812.69
444.476	719.69
444.698	717.69
444.919	718.69
445.14	781.69
445.361	741.69
445.582	692.69
445.803	769.69
446.024	890.69
446.245	898.69
446.466	815.69
446.687	701.69
446.908	681.69
447.129	625.69
447.35	644.69
447.571	626.69
447.792	603.69
448.013	640.69
448.234	636.69
448.455	693.69
448.675	804.69
448.896	944.69
449.117	792.69
449.338	754.69
449.559	857.69
449.779	962.69
450	784.69
450.221	671.69
450.442	630.69
450.662	601.69
450.883	607.69
451.104	607.69
451.324	581.69
451.545	564.69
451.766	575.69
451.986	552.69
452.207	537.69
452.428	557.69
452.648	536.69
452.869	559.69
453.089	551.69
453.31	568.69
453.53	548.69
453.751	568.69
453.971	534.69
454.192	557.69
454.412	559.69
454.633	524.69
454.853	544.69
455.073	565.69
455.294	576.69
455.514	647.69
455.734	633.69
455.955	541.69
456.175	549.69
456.395	506.69
456.616	526.69
456.836	516.69
457.056	517.69
457.276	517.69
457.497	508.69
457.717	520.69
457.937	504.69
458.157	526.69
458.377	526.69
458.598	564.69
458.818	628.69
459.038	654.69
459.258	734.69
459.478	636.69
459.698	591.69
459.918	582.69
460.138	613.69
460.358	601.69
460.578	619.69
460.798	598.69
461.018	648.69
461.238	613.69
461.458	609.69
461.678	584.69
461.898	623.69
462.118	615.69
462.338	648.69
462.558	644.69
462.777	643.69
462.997	704.69
463.217	696.69
463.437	717.69
463.657	670.69
463.876	662.69
464.096	677.69
464.316	648.69
464.536	649.69
464.755	653.69
464.975	653.69
465.195	695.69
465.414	709.69
465.634	656.69
465.854	596.69
466.073	609.69
466.293	567.69
466.512	587.69
466.732	558.69
466.951	564.69
467.171	584.69
467.391	558.69
467.61	555.69
467.829	579.69
468.049	578.69
468.268	555.69
468.488	550.69
468.707	549.69
468.927	555.69
469.146	552.69
469.365	547.69
469.585	548.69
469.804	557.69
470.023	568.69
470.243	568.69
470.462	590.69
470.681	613.69
470.901	611.69
471.12	566.69
471.339	564.69
471.558	567.69
471.777	567.69
471.997	567.69
472.216	562.69
472.435	600.69
472.654	609.69
472.873	560.69
473.092	575.69
473.311	563.69
473.53	575.69
473.749	620.69
473.968	628.69
474.187	723.69
474.406	708.69
474.625	615.69
474.844	562.69
475.063	594.69
475.282	577.69
475.501	557.69
475.72	600.69
475.939	585.69
476.158	587.69
476.377	587.69
476.596	597.69
476.814	575.69
477.033	568.69
477.252	615.69
477.471	590.69
477.69	611.69
477.908	610.69
478.127	609.69
478.346	657.69
478.564	642.69
478.783	661.69
479.002	668.69
479.22	668.69
479.439	687.69
479.658	670.69
479.876	671.69
480.095	708.69
480.313	751.69
480.532	731.69
480.751	704.69
480.969	731.69
481.188	753.69
481.406	750.69
481.624	708.69
481.843	716.69
482.061	665.69
482.28	665.69
482.498	655.69
482.717	666.69
482.935	664.69
483.153	656.69
483.372	676.69
483.59	664.69
483.808	695.69
484.027	665.69
484.245	681.69
484.463	688.69
484.681	688.69
484.9	693.69
485.118	694.69
485.336	710.69
485.554	684.69
485.772	687.69
485.99	705.69
486.209	684.69
486.427	712.69
486.645	708.69
486.863	724.69
487.081	706.69
487.299	736.69
487.517	703.69
487.735	710.69
487.953	712.69
488.171	724.69
488.389	735.69
488.607	731.69
488.825	719.69
489.043	710.69
489.261	742.69
489.479	762.69
489.696	742.69
489.914	749.69
490.132	748.69
490.35	742.69
490.568	792.69
490.786	801.69
491.003	789.69
491.221	790.69
491.439	806.69
491.657	845.69
491.874	812.69
492.092	844.69
492.31	855.69
492.527	828.69
492.745	830.69
492.963	884.69
493.18	860.69
493.398	850.69
493.615	842.69
493.833	880.69
494.05	868.69
494.268	880.69
494.485	842.69
494.703	865.69
494.92	889.69
495.138	826.69
495.355	870.69
495.573	840.69
495.79	876.69
496.008	854.69
496.225	862.69
496.442	853.69
496.66	869.69
496.877	873.69
497.094	864.69
497.312	882.69
497.529	888.69
497.746	893.69
497.963	881.69
498.181	933.69
498.398	953.69
498.615	993.69
498.832	991.69
499.049	1042.69
499.267	1071.69
499.484	1092.69
499.701	1166.69
499.918	1209.69
500.135	1292.69
500.352	1365.69
500.569	1374.69
500.786	1365.69
501.003	1321.69
501.22	1303.69
501.437	1245.69
