Data from 1974.PennyLincolnUp.Lamp.En5.5.200Scan.071719.P1.Changed Mount._HRD10591_15-54-03-857.txt Node
Date: Thu Jul 18 15:54:03 EDT 2019
User: cochatt
Spectrometer: HR+D1059
Trigger mode: 1
Integration Time (sec): 1.000000E-1
Scans to average: 1
Electric dark correction enabled: true
Nonlinearity correction enabled: false
Boxcar width: 0
XAxis mode: Wavelengths
Number of Pixels in Spectrum: 2048
>>>>>Begin Spectral Data<<<<<
223.165	-21.25
223.4	-21.25
223.635	-21.25
223.869	-17.25
224.104	-10.25
224.338	5.75
224.573	-15.25
224.808	-22.25
225.042	-10.25
225.277	0.75
225.511	-12.25
225.746	-15.25
225.98	8.75
226.215	15.75
226.449	21.75
226.683	19.75
226.918	27.75
227.152	23.75
227.387	33.75
227.621	39.75
227.856	55.75
228.09	43.75
228.324	50.75
228.559	62.75
228.793	66.75
229.027	107.75
229.262	122.75
229.496	125.75
229.73	143.75
229.964	151.75
230.199	155.75
230.433	114.75
230.667	134.75
230.901	112.75
231.136	121.75
231.37	119.75
231.604	128.75
231.838	124.75
232.072	124.75
232.306	123.75
232.541	120.75
232.775	101.75
233.009	119.75
233.243	129.75
233.477	138.75
233.711	120.75
233.945	126.75
234.179	133.75
234.413	124.75
234.647	131.75
234.881	127.75
235.115	114.75
235.349	116.75
235.583	105.75
235.817	110.75
236.051	144.75
236.285	142.75
236.519	140.75
236.753	137.75
236.987	138.75
237.221	188.75
237.455	240.75
237.689	203.75
237.922	139.75
238.156	141.75
238.39	141.75
238.624	133.75
238.858	134.75
239.091	145.75
239.325	125.75
239.559	143.75
239.793	137.75
240.027	151.75
240.26	151.75
240.494	165.75
240.728	158.75
240.961	156.75
241.195	155.75
241.429	152.75
241.662	140.75
241.896	133.75
242.13	135.75
242.363	142.75
242.597	150.75
242.83	144.75
243.064	150.75
243.298	159.75
243.531	147.75
243.765	158.75
243.998	151.75
244.232	158.75
244.465	152.75
244.699	154.75
244.932	148.75
245.166	155.75
245.399	160.75
245.633	175.75
245.866	176.75
246.099	140.75
246.333	174.75
246.566	185.75
246.8	184.75
247.033	160.75
247.266	140.75
247.5	181.75
247.733	188.75
247.966	194.75
248.2	181.75
248.433	178.75
248.666	175.75
248.899	195.75
249.133	218.75
249.366	219.75
249.599	213.75
249.832	207.75
250.066	187.75
250.299	189.75
250.532	202.75
250.765	209.75
250.998	245.75
251.231	223.75
251.465	236.75
251.698	222.75
251.931	209.75
252.164	205.75
252.397	219.75
252.63	197.75
252.863	223.75
253.096	215.75
253.329	236.75
253.562	248.75
253.795	220.75
254.028	232.75
254.261	230.75
254.494	245.75
254.727	271.75
254.96	293.75
255.193	274.75
255.426	257.75
255.659	242.75
255.892	246.75
256.124	219.75
256.357	260.75
256.59	238.75
256.823	227.75
257.056	218.75
257.289	228.75
257.521	230.75
257.754	227.75
257.987	218.75
258.22	233.75
258.452	224.75
258.685	231.75
258.918	215.75
259.151	234.75
259.383	224.75
259.616	217.75
259.849	242.75
260.081	259.75
260.314	257.75
260.547	262.75
260.779	269.75
261.012	269.75
261.244	238.75
261.477	235.75
261.71	239.75
261.942	238.75
262.175	241.75
262.407	242.75
262.64	237.75
262.872	230.75
263.105	226.75
263.337	216.75
263.57	237.75
263.802	229.75
264.035	214.75
264.267	219.75
264.499	252.75
264.732	229.75
264.964	248.75
265.197	239.75
265.429	243.75
265.661	219.75
265.894	234.75
266.126	249.75
266.358	233.75
266.591	261.75
266.823	257.75
267.055	236.75
267.287	235.75
267.52	233.75
267.752	237.75
267.984	239.75
268.216	265.75
268.448	252.75
268.681	248.75
268.913	259.75
269.145	275.75
269.377	304.75
269.609	272.75
269.841	286.75
270.073	287.75
270.306	320.75
270.538	306.75
270.77	333.75
271.002	325.75
271.234	309.75
271.466	310.75
271.698	318.75
271.93	329.75
272.162	321.75
272.394	327.75
272.626	317.75
272.858	287.75
273.09	298.75
273.322	294.75
273.553	297.75
273.785	289.75
274.017	281.75
274.249	255.75
274.481	274.75
274.713	279.75
274.945	285.75
275.176	265.75
275.408	296.75
275.64	289.75
275.872	267.75
276.104	303.75
276.335	291.75
276.567	283.75
276.799	299.75
277.031	314.75
277.262	334.75
277.494	331.75
277.726	331.75
277.957	304.75
278.189	309.75
278.421	302.75
278.652	294.75
278.884	302.75
279.115	302.75
279.347	294.75
279.579	307.75
279.81	300.75
280.042	285.75
280.273	297.75
280.505	297.75
280.736	300.75
280.968	299.75
281.199	287.75
281.431	296.75
281.662	297.75
281.894	279.75
282.125	315.75
282.356	295.75
282.588	324.75
282.819	319.75
283.051	304.75
283.282	303.75
283.513	293.75
283.745	311.75
283.976	313.75
284.207	324.75
284.439	317.75
284.67	318.75
284.901	310.75
285.132	325.75
285.364	286.75
285.595	302.75
285.826	297.75
286.057	300.75
286.288	306.75
286.52	298.75
286.751	321.75
286.982	314.75
287.213	297.75
287.444	317.75
287.675	334.75
287.906	328.75
288.138	322.75
288.369	336.75
288.6	333.75
288.831	333.75
289.062	326.75
289.293	319.75
289.524	313.75
289.755	338.75
289.986	329.75
290.217	314.75
290.448	310.75
290.679	331.75
290.91	309.75
291.141	315.75
291.371	328.75
291.602	339.75
291.833	313.75
292.064	330.75
292.295	328.75
292.526	324.75
292.757	333.75
292.987	315.75
293.218	332.75
293.449	311.75
293.68	318.75
293.91	322.75
294.141	322.75
294.372	324.75
294.603	315.75
294.833	322.75
295.064	321.75
295.295	314.75
295.525	330.75
295.756	323.75
295.987	361.75
296.217	360.75
296.448	362.75
296.679	329.75
296.909	329.75
297.14	341.75
297.37	330.75
297.601	359.75
297.831	347.75
298.062	341.75
298.292	334.75
298.523	356.75
298.753	354.75
298.984	327.75
299.214	321.75
299.445	339.75
299.675	346.75
299.905	371.75
300.136	343.75
300.366	313.75
300.597	322.75
300.827	351.75
301.057	362.75
301.288	353.75
301.518	357.75
301.748	334.75
301.979	361.75
302.209	389.75
302.439	361.75
302.669	367.75
302.9	371.75
303.13	378.75
303.36	349.75
303.59	385.75
303.82	362.75
304.051	369.75
304.281	369.75
304.511	360.75
304.741	366.75
304.971	366.75
305.201	347.75
305.431	369.75
305.661	356.75
305.891	366.75
306.121	346.75
306.352	375.75
306.582	364.75
306.812	353.75
307.042	377.75
307.272	377.75
307.502	351.75
307.731	381.75
307.961	359.75
308.191	365.75
308.421	342.75
308.651	367.75
308.881	355.75
309.111	377.75
309.341	373.75
309.571	381.75
309.8	374.75
310.03	392.75
310.26	403.75
310.49	395.75
310.72	400.75
310.949	405.75
311.179	421.75
311.409	395.75
311.639	393.75
311.868	407.75
312.098	398.75
312.328	408.75
312.557	438.75
312.787	442.75
313.017	424.75
313.246	411.75
313.476	398.75
313.706	411.75
313.935	424.75
314.165	408.75
314.394	442.75
314.624	425.75
314.853	389.75
315.083	413.75
315.312	404.75
315.542	415.75
315.771	413.75
316.001	409.75
316.23	413.75
316.46	406.75
316.689	422.75
316.919	423.75
317.148	434.75
317.377	428.75
317.607	421.75
317.836	405.75
318.065	413.75
318.295	408.75
318.524	403.75
318.753	392.75
318.983	402.75
319.212	394.75
319.441	404.75
319.67	430.75
319.9	417.75
320.129	407.75
320.358	413.75
320.587	417.75
320.816	436.75
321.046	453.75
321.275	430.75
321.504	411.75
321.733	436.75
321.962	430.75
322.191	427.75
322.42	449.75
322.649	476.75
322.878	479.75
323.108	461.75
323.337	489.75
323.566	497.75
323.795	536.75
324.024	559.75
324.253	622.75
324.482	886.75
324.71	1269.75
324.939	1937.75
325.168	1706.75
325.397	877.75
325.626	649.75
325.855	532.75
326.084	511.75
326.313	489.75
326.542	504.75
326.77	547.75
326.999	623.75
327.228	810.75
327.457	1191.75
327.686	1463.75
327.914	1033.75
328.143	680.75
328.372	601.75
328.6	571.75
328.829	546.75
329.058	582.75
329.287	581.75
329.515	557.75
329.744	524.75
329.972	541.75
330.201	531.75
330.43	567.75
330.658	613.75
330.887	601.75
331.115	573.75
331.344	534.75
331.572	508.75
331.801	495.75
332.03	517.75
332.258	491.75
332.486	488.75
332.715	477.75
332.943	493.75
333.172	507.75
333.4	478.75
333.629	507.75
333.857	527.75
334.085	542.75
334.314	551.75
334.542	556.75
334.771	552.75
334.999	567.75
335.227	523.75
335.455	513.75
335.684	504.75
335.912	510.75
336.14	514.75
336.369	495.75
336.597	504.75
336.825	509.75
337.053	506.75
337.281	480.75
337.51	474.75
337.738	491.75
337.966	485.75
338.194	473.75
338.422	506.75
338.65	477.75
338.878	488.75
339.106	486.75
339.334	486.75
339.562	487.75
339.79	483.75
340.018	498.75
340.246	470.75
340.474	483.75
340.702	472.75
340.93	457.75
341.158	443.75
341.386	485.75
341.614	466.75
341.842	485.75
342.07	478.75
342.298	476.75
342.526	443.75
342.754	458.75
342.981	450.75
343.209	449.75
343.437	453.75
343.665	475.75
343.893	484.75
344.12	521.75
344.348	503.75
344.576	502.75
344.804	492.75
345.031	460.75
345.259	510.75
345.487	475.75
345.714	449.75
345.942	485.75
346.17	491.75
346.397	451.75
346.625	456.75
346.853	450.75
347.08	461.75
347.308	465.75
347.535	464.75
347.763	460.75
347.99	461.75
348.218	457.75
348.445	481.75
348.673	438.75
348.9	454.75
349.128	457.75
349.355	471.75
349.583	426.75
349.81	448.75
350.037	466.75
350.265	458.75
350.492	465.75
350.72	438.75
350.947	449.75
351.174	463.75
351.402	474.75
351.629	481.75
351.856	451.75
352.083	449.75
352.311	472.75
352.538	469.75
352.765	470.75
352.992	453.75
353.22	453.75
353.447	465.75
353.674	470.75
353.901	472.75
354.128	438.75
354.355	433.75
354.583	427.75
354.81	446.75
355.037	453.75
355.264	449.75
355.491	432.75
355.718	436.75
355.945	421.75
356.172	422.75
356.399	440.75
356.626	451.75
356.853	439.75
357.08	446.75
357.307	434.75
357.534	439.75
357.761	437.75
357.988	443.75
358.215	437.75
358.441	415.75
358.668	453.75
358.895	454.75
359.122	435.75
359.349	460.75
359.576	443.75
359.802	473.75
360.029	485.75
360.256	494.75
360.483	491.75
360.709	467.75
360.936	453.75
361.163	461.75
361.39	461.75
361.616	446.75
361.843	459.75
362.07	455.75
362.296	447.75
362.523	459.75
362.749	466.75
362.976	438.75
363.203	460.75
363.429	443.75
363.656	433.75
363.882	451.75
364.109	458.75
364.335	437.75
364.562	459.75
364.788	424.75
365.015	439.75
365.241	448.75
365.468	458.75
365.694	457.75
365.92	455.75
366.147	447.75
366.373	459.75
366.599	460.75
366.826	450.75
367.052	462.75
367.278	438.75
367.505	448.75
367.731	463.75
367.957	441.75
368.184	449.75
368.41	434.75
368.636	434.75
368.862	457.75
369.089	427.75
369.315	443.75
369.541	455.75
369.767	470.75
369.993	441.75
370.219	462.75
370.445	463.75
370.672	443.75
370.898	459.75
371.124	439.75
371.35	460.75
371.576	449.75
371.802	441.75
372.028	472.75
372.254	437.75
372.48	459.75
372.706	448.75
372.932	463.75
373.158	449.75
373.384	466.75
373.61	474.75
373.835	470.75
374.061	464.75
374.287	465.75
374.513	461.75
374.739	464.75
374.965	474.75
375.191	461.75
375.416	473.75
375.642	462.75
375.868	455.75
376.094	481.75
376.319	476.75
376.545	456.75
376.771	437.75
376.997	454.75
377.222	464.75
377.448	480.75
377.674	450.75
377.899	453.75
378.125	467.75
378.35	440.75
378.576	450.75
378.802	455.75
379.027	455.75
379.253	456.75
379.478	445.75
379.704	446.75
379.929	455.75
380.155	467.75
380.38	462.75
380.606	460.75
380.831	454.75
381.057	474.75
381.282	464.75
381.507	456.75
381.733	458.75
381.958	459.75
382.184	443.75
382.409	447.75
382.634	467.75
382.86	451.75
383.085	474.75
383.31	459.75
383.535	492.75
383.761	470.75
383.986	459.75
384.211	468.75
384.436	489.75
384.662	487.75
384.887	506.75
385.112	505.75
385.337	494.75
385.562	488.75
385.787	501.75
386.013	515.75
386.238	513.75
386.463	525.75
386.688	534.75
386.913	529.75
387.138	512.75
387.363	518.75
387.588	511.75
387.813	513.75
388.038	503.75
388.263	496.75
388.488	506.75
388.713	493.75
388.938	495.75
389.163	515.75
389.387	521.75
389.612	483.75
389.837	507.75
390.062	476.75
390.287	505.75
390.512	538.75
390.736	509.75
390.961	502.75
391.186	527.75
391.411	510.75
391.636	520.75
391.86	507.75
392.085	510.75
392.31	545.75
392.534	554.75
392.759	525.75
392.984	542.75
393.208	529.75
393.433	517.75
393.658	528.75
393.882	522.75
394.107	489.75
394.331	538.75
394.556	521.75
394.78	508.75
395.005	547.75
395.229	550.75
395.454	541.75
395.678	518.75
395.903	543.75
396.127	540.75
396.352	582.75
396.576	551.75
396.801	517.75
397.025	539.75
397.249	547.75
397.474	554.75
397.698	557.75
397.922	573.75
398.147	571.75
398.371	582.75
398.595	566.75
398.82	590.75
399.044	609.75
399.268	642.75
399.492	671.75
399.717	731.75
399.941	737.75
400.165	774.75
400.389	721.75
400.613	688.75
400.837	637.75
401.062	626.75
401.286	619.75
401.51	620.75
401.734	607.75
401.958	615.75
402.182	611.75
402.406	602.75
402.63	605.75
402.854	618.75
403.078	637.75
403.302	622.75
403.526	632.75
403.75	622.75
403.974	624.75
404.198	630.75
404.422	656.75
404.645	623.75
404.869	627.75
405.093	677.75
405.317	711.75
405.541	756.75
405.765	683.75
405.988	657.75
406.212	672.75
406.436	646.75
406.66	689.75
406.883	657.75
407.107	698.75
407.331	743.75
407.555	818.75
407.778	825.75
408.002	753.75
408.226	694.75
408.449	693.75
408.673	705.75
408.896	713.75
409.12	761.75
409.344	728.75
409.567	676.75
409.791	647.75
410.014	621.75
410.238	609.75
410.461	634.75
410.685	635.75
410.908	655.75
411.132	668.75
411.355	697.75
411.578	693.75
411.802	620.75
412.025	615.75
412.249	632.75
412.472	661.75
412.695	701.75
412.919	678.75
413.142	629.75
413.365	615.75
413.589	604.75
413.812	579.75
414.035	577.75
414.258	601.75
414.482	593.75
414.705	600.75
414.928	612.75
415.151	579.75
415.374	586.75
415.597	579.75
415.821	558.75
416.044	581.75
416.267	599.75
416.49	585.75
416.713	586.75
416.936	583.75
417.159	592.75
417.382	596.75
417.605	606.75
417.828	603.75
418.051	603.75
418.274	595.75
418.497	592.75
418.72	583.75
418.943	599.75
419.166	618.75
419.389	649.75
419.611	626.75
419.834	633.75
420.057	641.75
420.28	613.75
420.503	641.75
420.726	637.75
420.948	636.75
421.171	683.75
421.394	708.75
421.617	615.75
421.839	622.75
422.062	621.75
422.285	637.75
422.507	701.75
422.73	760.75
422.953	733.75
423.175	679.75
423.398	624.75
423.621	625.75
423.843	686.75
424.066	674.75
424.288	654.75
424.511	686.75
424.733	746.75
424.956	837.75
425.178	786.75
425.401	776.75
425.623	800.75
425.846	716.75
426.068	642.75
426.291	655.75
426.513	631.75
426.735	643.75
426.958	703.75
427.18	782.75
427.402	927.75
427.625	988.75
427.847	890.75
428.069	752.75
428.292	701.75
428.514	643.75
428.736	617.75
428.958	616.75
429.181	618.75
429.403	581.75
429.625	604.75
429.847	640.75
430.069	726.75
430.292	704.75
430.514	624.75
430.736	599.75
430.958	593.75
431.18	589.75
431.402	588.75
431.624	575.75
431.846	583.75
432.068	569.75
432.29	575.75
432.512	568.75
432.734	597.75
432.956	570.75
433.178	590.75
433.4	608.75
433.622	602.75
433.844	577.75
434.066	582.75
434.287	571.75
434.509	572.75
434.731	606.75
434.953	626.75
435.175	632.75
435.397	644.75
435.618	636.75
435.84	682.75
436.062	781.75
436.284	879.75
436.505	707.75
436.727	649.75
436.949	611.75
437.17	601.75
437.392	590.75
437.614	595.75
437.835	640.75
438.057	710.75
438.278	835.75
438.5	849.75
438.721	935.75
438.943	900.75
439.165	711.75
439.386	658.75
439.608	657.75
439.829	652.75
440.05	671.75
440.272	707.75
440.493	665.75
440.715	625.75
440.936	603.75
441.158	624.75
441.379	615.75
441.6	661.75
441.822	658.75
442.043	697.75
442.264	786.75
442.486	796.75
442.707	715.75
442.928	679.75
443.149	686.75
443.371	684.75
443.592	747.75
443.813	817.75
444.034	880.75
444.255	754.75
444.476	693.75
444.698	695.75
444.919	678.75
445.14	779.75
445.361	743.75
445.582	689.75
445.803	777.75
446.024	864.75
446.245	859.75
446.466	786.75
446.687	657.75
446.908	665.75
447.129	624.75
447.35	600.75
447.571	599.75
447.792	581.75
448.013	588.75
448.234	613.75
448.455	671.75
448.675	801.75
448.896	898.75
449.117	786.75
449.338	742.75
449.559	844.75
449.779	945.75
450	779.75
450.221	629.75
450.442	595.75
450.662	579.75
450.883	571.75
451.104	598.75
451.324	571.75
451.545	566.75
451.766	549.75
451.986	546.75
452.207	509.75
452.428	521.75
452.648	554.75
452.869	509.75
453.089	511.75
453.31	544.75
453.53	539.75
453.751	540.75
453.971	536.75
454.192	528.75
454.412	541.75
454.633	531.75
454.853	526.75
455.073	523.75
455.294	539.75
455.514	627.75
455.734	588.75
455.955	498.75
456.175	519.75
456.395	479.75
456.616	525.75
456.836	511.75
457.056	497.75
457.276	499.75
457.497	488.75
457.717	490.75
457.937	509.75
458.157	525.75
458.377	523.75
458.598	551.75
458.818	573.75
459.038	666.75
459.258	693.75
459.478	611.75
459.698	581.75
459.918	581.75
460.138	558.75
460.358	599.75
460.578	580.75
460.798	604.75
461.018	601.75
461.238	584.75
461.458	593.75
461.678	599.75
461.898	620.75
462.118	609.75
462.338	607.75
462.558	649.75
462.777	638.75
462.997	655.75
463.217	694.75
463.437	687.75
463.657	659.75
463.876	662.75
464.096	633.75
464.316	616.75
464.536	631.75
464.755	651.75
464.975	633.75
465.195	654.75
465.414	699.75
465.634	645.75
465.854	593.75
466.073	615.75
466.293	594.75
466.512	550.75
466.732	550.75
466.951	558.75
467.171	553.75
467.391	553.75
467.61	568.75
467.829	572.75
468.049	553.75
468.268	562.75
468.488	570.75
468.707	531.75
468.927	537.75
469.146	535.75
469.365	547.75
469.585	525.75
469.804	557.75
470.023	573.75
470.243	569.75
470.462	575.75
470.681	571.75
470.901	574.75
471.12	550.75
471.339	558.75
471.558	568.75
471.777	573.75
471.997	554.75
472.216	554.75
472.435	581.75
472.654	587.75
472.873	574.75
473.092	563.75
473.311	535.75
473.53	543.75
473.749	551.75
473.968	588.75
474.187	713.75
474.406	709.75
474.625	622.75
474.844	577.75
475.063	567.75
475.282	547.75
475.501	561.75
475.72	582.75
475.939	564.75
476.158	561.75
476.377	578.75
476.596	592.75
476.814	568.75
477.033	606.75
477.252	566.75
477.471	594.75
477.69	586.75
477.908	604.75
478.127	614.75
478.346	623.75
478.564	630.75
478.783	634.75
479.002	634.75
479.22	651.75
479.439	660.75
479.658	649.75
479.876	637.75
480.095	669.75
480.313	721.75
480.532	692.75
480.751	717.75
480.969	710.75
481.188	741.75
481.406	737.75
481.624	700.75
481.843	674.75
482.061	645.75
482.28	650.75
482.498	657.75
482.717	636.75
482.935	629.75
483.153	649.75
483.372	619.75
483.59	630.75
483.808	633.75
484.027	674.75
484.245	657.75
484.463	625.75
484.681	664.75
484.9	663.75
485.118	638.75
485.336	655.75
485.554	662.75
485.772	687.75
485.99	661.75
486.209	669.75
486.427	669.75
486.645	702.75
486.863	685.75
487.081	687.75
487.299	693.75
487.517	729.75
487.735	699.75
487.953	696.75
488.171	706.75
488.389	693.75
488.607	683.75
488.825	711.75
489.043	701.75
489.261	723.75
489.479	725.75
489.696	728.75
489.914	728.75
490.132	705.75
490.35	743.75
490.568	725.75
490.786	755.75
491.003	750.75
491.221	759.75
491.439	775.75
491.657	801.75
491.874	781.75
492.092	787.75
492.31	786.75
492.527	833.75
492.745	785.75
492.963	800.75
493.18	807.75
493.398	827.75
493.615	818.75
493.833	816.75
494.05	844.75
494.268	843.75
494.485	834.75
494.703	813.75
494.92	860.75
495.138	830.75
495.355	827.75
495.573	836.75
495.79	810.75
496.008	839.75
496.225	841.75
496.442	827.75
496.66	806.75
496.877	855.75
497.094	826.75
497.312	854.75
497.529	843.75
497.746	896.75
497.963	897.75
498.181	904.75
498.398	903.75
498.615	937.75
498.832	965.75
499.049	1015.75
499.267	1019.75
499.484	1098.75
499.701	1112.75
499.918	1145.75
500.135	1228.75
500.352	1305.75
500.569	1343.75
500.786	1323.75
501.003	1289.75
501.22	1241.75
501.437	1198.75
