Data from 1974.PennyLincolnUp.Lamp.En5.5.200Scan.071719.P1.Changed Mount._HRD10591_15-52-05-857.txt Node
Date: Thu Jul 18 15:52:05 EDT 2019
User: cochatt
Spectrometer: HR+D1059
Trigger mode: 1
Integration Time (sec): 1.000000E-1
Scans to average: 1
Electric dark correction enabled: true
Nonlinearity correction enabled: false
Boxcar width: 0
XAxis mode: Wavelengths
Number of Pixels in Spectrum: 2048
>>>>>Begin Spectral Data<<<<<
223.165	-8.75
223.4	-8.75
223.635	-8.75
223.869	-4.75
224.104	-21.75
224.338	-12.75
224.573	-14.75
224.808	-8.75
225.042	-4.75
225.277	-18.75
225.511	-6.75
225.746	3.25
225.98	-11.75
226.215	6.25
226.449	19.25
226.683	25.25
226.918	26.25
227.152	33.25
227.387	26.25
227.621	35.25
227.856	41.25
228.09	42.25
228.324	43.25
228.559	51.25
228.793	65.25
229.027	92.25
229.262	95.25
229.496	100.25
229.73	128.25
229.964	146.25
230.199	132.25
230.433	114.25
230.667	91.25
230.901	123.25
231.136	109.25
231.37	114.25
231.604	96.25
231.838	124.25
232.072	100.25
232.306	111.25
232.541	112.25
232.775	119.25
233.009	121.25
233.243	119.25
233.477	117.25
233.711	137.25
233.945	118.25
234.179	119.25
234.413	114.25
234.647	121.25
234.881	116.25
235.115	116.25
235.349	120.25
235.583	125.25
235.817	121.25
236.051	128.25
236.285	138.25
236.519	136.25
236.753	115.25
236.987	130.25
237.221	176.25
237.455	215.25
237.689	191.25
237.922	129.25
238.156	146.25
238.39	142.25
238.624	131.25
238.858	117.25
239.091	132.25
239.325	139.25
239.559	136.25
239.793	129.25
240.027	148.25
240.26	140.25
240.494	160.25
240.728	159.25
240.961	146.25
241.195	146.25
241.429	139.25
241.662	147.25
241.896	137.25
242.13	126.25
242.363	144.25
242.597	120.25
242.83	140.25
243.064	156.25
243.298	144.25
243.531	156.25
243.765	136.25
243.998	151.25
244.232	142.25
244.465	144.25
244.699	159.25
244.932	150.25
245.166	153.25
245.399	155.25
245.633	146.25
245.866	154.25
246.099	140.25
246.333	150.25
246.566	156.25
246.8	153.25
247.033	162.25
247.266	141.25
247.5	141.25
247.733	177.25
247.966	181.25
248.2	179.25
248.433	181.25
248.666	173.25
248.899	195.25
249.133	203.25
249.366	213.25
249.599	209.25
249.832	186.25
250.066	202.25
250.299	210.25
250.532	216.25
250.765	208.25
250.998	227.25
251.231	228.25
251.465	213.25
251.698	221.25
251.931	193.25
252.164	193.25
252.397	216.25
252.63	200.25
252.863	197.25
253.096	231.25
253.329	237.25
253.562	227.25
253.795	226.25
254.028	223.25
254.261	231.25
254.494	237.25
254.727	250.25
254.96	279.25
255.193	251.25
255.426	226.25
255.659	236.25
255.892	238.25
256.124	247.25
256.357	222.25
256.59	224.25
256.823	228.25
257.056	213.25
257.289	226.25
257.521	224.25
257.754	218.25
257.987	206.25
258.22	224.25
258.452	221.25
258.685	207.25
258.918	220.25
259.151	212.25
259.383	224.25
259.616	231.25
259.849	234.25
260.081	232.25
260.314	242.25
260.547	258.25
260.779	252.25
261.012	239.25
261.244	236.25
261.477	240.25
261.71	226.25
261.942	216.25
262.175	226.25
262.407	233.25
262.64	214.25
262.872	226.25
263.105	239.25
263.337	231.25
263.57	207.25
263.802	216.25
264.035	218.25
264.267	224.25
264.499	220.25
264.732	225.25
264.964	251.25
265.197	226.25
265.429	210.25
265.661	230.25
265.894	216.25
266.126	236.25
266.358	227.25
266.591	225.25
266.823	226.25
267.055	237.25
267.287	226.25
267.52	223.25
267.752	239.25
267.984	211.25
268.216	242.25
268.448	236.25
268.681	255.25
268.913	247.25
269.145	269.25
269.377	282.25
269.609	295.25
269.841	277.25
270.073	281.25
270.306	284.25
270.538	312.25
270.77	315.25
271.002	288.25
271.234	308.25
271.466	299.25
271.698	313.25
271.93	315.25
272.162	322.25
272.394	327.25
272.626	298.25
272.858	307.25
273.09	273.25
273.322	269.25
273.553	275.25
273.785	271.25
274.017	265.25
274.249	273.25
274.481	269.25
274.713	297.25
274.945	280.25
275.176	270.25
275.408	277.25
275.64	286.25
275.872	283.25
276.104	257.25
276.335	279.25
276.567	284.25
276.799	291.25
277.031	319.25
277.262	322.25
277.494	313.25
277.726	299.25
277.957	285.25
278.189	291.25
278.421	280.25
278.652	275.25
278.884	283.25
279.115	287.25
279.347	276.25
279.579	279.25
279.81	263.25
280.042	283.25
280.273	281.25
280.505	289.25
280.736	290.25
280.968	297.25
281.199	300.25
281.431	273.25
281.662	284.25
281.894	285.25
282.125	279.25
282.356	296.25
282.588	291.25
282.819	297.25
283.051	289.25
283.282	285.25
283.513	280.25
283.745	291.25
283.976	304.25
284.207	303.25
284.439	298.25
284.67	281.25
284.901	303.25
285.132	281.25
285.364	283.25
285.595	293.25
285.826	293.25
286.057	287.25
286.288	313.25
286.52	303.25
286.751	309.25
286.982	292.25
287.213	313.25
287.444	312.25
287.675	309.25
287.906	300.25
288.138	313.25
288.369	313.25
288.6	330.25
288.831	311.25
289.062	322.25
289.293	319.25
289.524	294.25
289.755	313.25
289.986	319.25
290.217	303.25
290.448	297.25
290.679	304.25
290.91	303.25
291.141	299.25
291.371	307.25
291.602	296.25
291.833	307.25
292.064	316.25
292.295	345.25
292.526	318.25
292.757	319.25
292.987	298.25
293.218	300.25
293.449	305.25
293.68	320.25
293.91	304.25
294.141	306.25
294.372	313.25
294.603	312.25
294.833	301.25
295.064	322.25
295.295	306.25
295.525	321.25
295.756	317.25
295.987	324.25
296.217	333.25
296.448	356.25
296.679	319.25
296.909	324.25
297.14	312.25
297.37	315.25
297.601	322.25
297.831	319.25
298.062	324.25
298.292	327.25
298.523	329.25
298.753	316.25
298.984	333.25
299.214	336.25
299.445	335.25
299.675	345.25
299.905	321.25
300.136	337.25
300.366	336.25
300.597	324.25
300.827	319.25
301.057	353.25
301.288	360.25
301.518	370.25
301.748	336.25
301.979	364.25
302.209	357.25
302.439	367.25
302.669	369.25
302.9	361.25
303.13	343.25
303.36	343.25
303.59	359.25
303.82	367.25
304.051	361.25
304.281	342.25
304.511	345.25
304.741	355.25
304.971	356.25
305.201	364.25
305.431	358.25
305.661	348.25
305.891	369.25
306.121	357.25
306.352	351.25
306.582	333.25
306.812	354.25
307.042	353.25
307.272	331.25
307.502	359.25
307.731	375.25
307.961	359.25
308.191	370.25
308.421	344.25
308.651	355.25
308.881	369.25
309.111	377.25
309.341	359.25
309.571	371.25
309.8	377.25
310.03	380.25
310.26	378.25
310.49	374.25
310.72	387.25
310.949	395.25
311.179	392.25
311.409	386.25
311.639	407.25
311.868	384.25
312.098	388.25
312.328	401.25
312.557	397.25
312.787	393.25
313.017	422.25
313.246	401.25
313.476	387.25
313.706	379.25
313.935	391.25
314.165	395.25
314.394	394.25
314.624	428.25
314.853	388.25
315.083	402.25
315.312	406.25
315.542	389.25
315.771	373.25
316.001	392.25
316.23	397.25
316.46	376.25
316.689	389.25
316.919	379.25
317.148	384.25
317.377	405.25
317.607	398.25
317.836	403.25
318.065	385.25
318.295	396.25
318.524	407.25
318.753	397.25
318.983	393.25
319.212	402.25
319.441	385.25
319.67	413.25
319.9	410.25
320.129	385.25
320.358	391.25
320.587	383.25
320.816	410.25
321.046	410.25
321.275	418.25
321.504	401.25
321.733	411.25
321.962	391.25
322.191	409.25
322.42	437.25
322.649	453.25
322.878	459.25
323.108	450.25
323.337	451.25
323.566	446.25
323.795	496.25
324.024	513.25
324.253	593.25
324.482	771.25
324.71	1191.25
324.939	1720.25
325.168	1498.25
325.397	811.25
325.626	602.25
325.855	504.25
326.084	492.25
326.313	511.25
326.542	495.25
326.77	531.25
326.999	557.25
327.228	722.25
327.457	1078.25
327.686	1322.25
327.914	907.25
328.143	635.25
328.372	544.25
328.6	541.25
328.829	513.25
329.058	537.25
329.287	553.25
329.515	511.25
329.744	508.25
329.972	500.25
330.201	491.25
330.43	533.25
330.658	544.25
330.887	564.25
331.115	553.25
331.344	501.25
331.572	507.25
331.801	510.25
332.03	488.25
332.258	475.25
332.486	475.25
332.715	473.25
332.943	468.25
333.172	478.25
333.4	487.25
333.629	485.25
333.857	513.25
334.085	520.25
334.314	537.25
334.542	569.25
334.771	559.25
334.999	505.25
335.227	495.25
335.455	492.25
335.684	500.25
335.912	488.25
336.14	488.25
336.369	464.25
336.597	481.25
336.825	468.25
337.053	473.25
337.281	475.25
337.51	463.25
337.738	475.25
337.966	461.25
338.194	473.25
338.422	476.25
338.65	465.25
338.878	461.25
339.106	471.25
339.334	454.25
339.562	451.25
339.79	455.25
340.018	459.25
340.246	474.25
340.474	451.25
340.702	474.25
340.93	452.25
341.158	462.25
341.386	439.25
341.614	466.25
341.842	457.25
342.07	459.25
342.298	445.25
342.526	448.25
342.754	425.25
342.981	436.25
343.209	439.25
343.437	455.25
343.665	456.25
343.893	463.25
344.12	500.25
344.348	474.25
344.576	481.25
344.804	476.25
345.031	489.25
345.259	486.25
345.487	473.25
345.714	449.25
345.942	443.25
346.17	448.25
346.397	441.25
346.625	436.25
346.853	438.25
347.08	447.25
347.308	443.25
347.535	482.25
347.763	490.25
347.99	457.25
348.218	440.25
348.445	452.25
348.673	457.25
348.9	444.25
349.128	435.25
349.355	415.25
349.583	422.25
349.81	427.25
350.037	416.25
350.265	440.25
350.492	422.25
350.72	440.25
350.947	441.25
351.174	438.25
351.402	449.25
351.629	451.25
351.856	458.25
352.083	445.25
352.311	435.25
352.538	443.25
352.765	463.25
352.992	457.25
353.22	431.25
353.447	428.25
353.674	437.25
353.901	420.25
354.128	437.25
354.355	439.25
354.583	432.25
354.81	423.25
355.037	435.25
355.264	426.25
355.491	411.25
355.718	431.25
355.945	429.25
356.172	424.25
356.399	423.25
356.626	425.25
356.853	432.25
357.08	417.25
357.307	400.25
357.534	405.25
357.761	439.25
357.988	422.25
358.215	415.25
358.441	416.25
358.668	415.25
358.895	422.25
359.122	421.25
359.349	458.25
359.576	438.25
359.802	477.25
360.029	467.25
360.256	473.25
360.483	470.25
360.709	443.25
360.936	454.25
361.163	443.25
361.39	442.25
361.616	451.25
361.843	462.25
362.07	429.25
362.296	431.25
362.523	451.25
362.749	444.25
362.976	449.25
363.203	444.25
363.429	432.25
363.656	441.25
363.882	449.25
364.109	451.25
364.335	433.25
364.562	429.25
364.788	436.25
365.015	421.25
365.241	427.25
365.468	435.25
365.694	444.25
365.92	446.25
366.147	444.25
366.373	447.25
366.599	425.25
366.826	434.25
367.052	424.25
367.278	436.25
367.505	450.25
367.731	447.25
367.957	455.25
368.184	429.25
368.41	446.25
368.636	441.25
368.862	461.25
369.089	453.25
369.315	442.25
369.541	457.25
369.767	436.25
369.993	451.25
370.219	438.25
370.445	453.25
370.672	432.25
370.898	453.25
371.124	444.25
371.35	447.25
371.576	429.25
371.802	427.25
372.028	429.25
372.254	439.25
372.48	455.25
372.706	450.25
372.932	454.25
373.158	451.25
373.384	446.25
373.61	459.25
373.835	453.25
374.061	459.25
374.287	467.25
374.513	452.25
374.739	471.25
374.965	480.25
375.191	472.25
375.416	470.25
375.642	466.25
375.868	440.25
376.094	466.25
376.319	458.25
376.545	444.25
376.771	421.25
376.997	427.25
377.222	451.25
377.448	441.25
377.674	444.25
377.899	436.25
378.125	441.25
378.35	443.25
378.576	459.25
378.802	451.25
379.027	468.25
379.253	441.25
379.478	465.25
379.704	451.25
379.929	468.25
380.155	453.25
380.38	450.25
380.606	441.25
380.831	445.25
381.057	428.25
381.282	440.25
381.507	463.25
381.733	452.25
381.958	463.25
382.184	466.25
382.409	454.25
382.634	459.25
382.86	468.25
383.085	455.25
383.31	484.25
383.535	479.25
383.761	462.25
383.986	468.25
384.211	478.25
384.436	481.25
384.662	484.25
384.887	462.25
385.112	491.25
385.337	486.25
385.562	492.25
385.787	492.25
386.013	512.25
386.238	505.25
386.463	519.25
386.688	501.25
386.913	491.25
387.138	497.25
387.363	500.25
387.588	497.25
387.813	497.25
388.038	498.25
388.263	521.25
388.488	505.25
388.713	505.25
388.938	507.25
389.163	529.25
389.387	519.25
389.612	492.25
389.837	510.25
390.062	514.25
390.287	496.25
390.512	487.25
390.736	512.25
390.961	517.25
391.186	519.25
391.411	521.25
391.636	497.25
391.86	539.25
392.085	533.25
392.31	536.25
392.534	513.25
392.759	520.25
392.984	513.25
393.208	514.25
393.433	522.25
393.658	490.25
393.882	490.25
394.107	521.25
394.331	522.25
394.556	524.25
394.78	515.25
395.005	525.25
395.229	518.25
395.454	529.25
395.678	515.25
395.903	541.25
396.127	560.25
396.352	560.25
396.576	538.25
396.801	532.25
397.025	537.25
397.249	555.25
397.474	548.25
397.698	545.25
397.922	555.25
398.147	552.25
398.371	582.25
398.595	532.25
398.82	588.25
399.044	629.25
399.268	635.25
399.492	662.25
399.717	688.25
399.941	708.25
400.165	737.25
400.389	727.25
400.613	666.25
400.837	613.25
401.062	615.25
401.286	589.25
401.51	609.25
401.734	598.25
401.958	585.25
402.182	592.25
402.406	592.25
402.63	581.25
402.854	607.25
403.078	601.25
403.302	572.25
403.526	620.25
403.75	622.25
403.974	607.25
404.198	631.25
404.422	615.25
404.645	630.25
404.869	636.25
405.093	636.25
405.317	697.25
405.541	747.25
405.765	667.25
405.988	642.25
406.212	654.25
406.436	671.25
406.66	683.25
406.883	659.25
407.107	691.25
407.331	725.25
407.555	808.25
407.778	806.25
408.002	734.25
408.226	684.25
408.449	685.25
408.673	675.25
408.896	697.25
409.12	741.25
409.344	696.25
409.567	630.25
409.791	632.25
410.014	623.25
410.238	619.25
410.461	627.25
410.685	626.25
410.908	606.25
411.132	673.25
411.355	695.25
411.578	657.25
411.802	618.25
412.025	607.25
412.249	607.25
412.472	643.25
412.695	689.25
412.919	661.25
413.142	619.25
413.365	618.25
413.589	607.25
413.812	595.25
414.035	586.25
414.258	593.25
414.482	584.25
414.705	566.25
414.928	598.25
415.151	574.25
415.374	576.25
415.597	557.25
415.821	578.25
416.044	598.25
416.267	586.25
416.49	590.25
416.713	590.25
416.936	583.25
417.159	569.25
417.382	575.25
417.605	578.25
417.828	600.25
418.051	588.25
418.274	593.25
418.497	594.25
418.72	581.25
418.943	592.25
419.166	612.25
419.389	604.25
419.611	619.25
419.834	619.25
420.057	618.25
420.28	614.25
420.503	583.25
420.726	587.25
420.948	602.25
421.171	656.25
421.394	681.25
421.617	631.25
421.839	591.25
422.062	605.25
422.285	617.25
422.507	693.25
422.73	771.25
422.953	691.25
423.175	647.25
423.398	614.25
423.621	636.25
423.843	657.25
424.066	647.25
424.288	619.25
424.511	647.25
424.733	715.25
424.956	787.25
425.178	793.25
425.401	795.25
425.623	803.25
425.846	690.25
426.068	641.25
426.291	633.25
426.513	626.25
426.735	623.25
426.958	676.25
427.18	740.25
427.402	881.25
427.625	967.25
427.847	841.25
428.069	738.25
428.292	657.25
428.514	639.25
428.736	607.25
428.958	577.25
429.181	590.25
429.403	548.25
429.625	596.25
429.847	628.25
430.069	685.25
430.292	667.25
430.514	609.25
430.736	585.25
430.958	571.25
431.18	567.25
431.402	573.25
431.624	538.25
431.846	555.25
432.068	547.25
432.29	555.25
432.512	567.25
432.734	566.25
432.956	568.25
433.178	576.25
433.4	585.25
433.622	581.25
433.844	575.25
434.066	551.25
434.287	543.25
434.509	579.25
434.731	584.25
434.953	574.25
435.175	607.25
435.397	614.25
435.618	647.25
435.84	651.25
436.062	757.25
436.284	831.25
436.505	714.25
436.727	618.25
436.949	606.25
437.17	556.25
437.392	580.25
437.614	599.25
437.835	619.25
438.057	717.25
438.278	804.25
438.5	827.25
438.721	900.25
438.943	851.25
439.165	701.25
439.386	623.25
439.608	631.25
439.829	641.25
440.05	646.25
440.272	682.25
440.493	629.25
440.715	621.25
440.936	602.25
441.158	580.25
441.379	607.25
441.6	625.25
441.822	639.25
442.043	661.25
442.264	749.25
442.486	813.25
442.707	687.25
442.928	663.25
443.149	649.25
443.371	658.25
443.592	705.25
443.813	801.25
444.034	882.25
444.255	727.25
444.476	682.25
444.698	690.25
444.919	677.25
445.14	801.25
445.361	737.25
445.582	700.25
445.803	730.25
446.024	825.25
446.245	837.25
446.466	739.25
446.687	685.25
446.908	635.25
447.129	618.25
447.35	596.25
447.571	586.25
447.792	596.25
448.013	587.25
448.234	587.25
448.455	615.25
448.675	769.25
448.896	864.25
449.117	752.25
449.338	661.25
449.559	795.25
449.779	907.25
450	721.25
450.221	635.25
450.442	590.25
450.662	561.25
450.883	547.25
451.104	590.25
451.324	553.25
451.545	561.25
451.766	537.25
451.986	516.25
452.207	523.25
452.428	485.25
452.648	514.25
452.869	509.25
453.089	533.25
453.31	532.25
453.53	529.25
453.751	512.25
453.971	502.25
454.192	527.25
454.412	531.25
454.633	520.25
454.853	493.25
455.073	501.25
455.294	525.25
455.514	602.25
455.734	595.25
455.955	520.25
456.175	495.25
456.395	489.25
456.616	491.25
456.836	484.25
457.056	492.25
457.276	469.25
457.497	486.25
457.717	493.25
457.937	506.25
458.157	507.25
458.377	508.25
458.598	525.25
458.818	589.25
459.038	632.25
459.258	674.25
459.478	584.25
459.698	557.25
459.918	569.25
460.138	567.25
460.358	576.25
460.578	595.25
460.798	581.25
461.018	582.25
461.238	589.25
461.458	601.25
461.678	557.25
461.898	603.25
462.118	600.25
462.338	602.25
462.558	615.25
462.777	643.25
462.997	649.25
463.217	668.25
463.437	659.25
463.657	668.25
463.876	644.25
464.096	640.25
464.316	636.25
464.536	644.25
464.755	625.25
464.975	609.25
465.195	633.25
465.414	685.25
465.634	637.25
465.854	590.25
466.073	573.25
466.293	551.25
466.512	569.25
466.732	539.25
466.951	531.25
467.171	509.25
467.391	540.25
467.61	559.25
467.829	542.25
468.049	551.25
468.268	539.25
468.488	540.25
468.707	524.25
468.927	532.25
469.146	523.25
469.365	530.25
469.585	517.25
469.804	526.25
470.023	567.25
470.243	545.25
470.462	573.25
470.681	530.25
470.901	542.25
471.12	527.25
471.339	566.25
471.558	557.25
471.777	559.25
471.997	562.25
472.216	552.25
472.435	555.25
472.654	565.25
472.873	544.25
473.092	522.25
473.311	525.25
473.53	524.25
473.749	536.25
473.968	571.25
474.187	682.25
474.406	698.25
474.625	605.25
474.844	569.25
475.063	548.25
475.282	548.25
475.501	570.25
475.72	567.25
475.939	549.25
476.158	574.25
476.377	570.25
476.596	567.25
476.814	571.25
477.033	596.25
477.252	553.25
477.471	563.25
477.69	594.25
477.908	577.25
478.127	607.25
478.346	632.25
478.564	621.25
478.783	618.25
479.002	628.25
479.22	644.25
479.439	635.25
479.658	665.25
479.876	680.25
480.095	647.25
480.313	685.25
480.532	714.25
480.751	706.25
480.969	676.25
481.188	721.25
481.406	739.25
481.624	679.25
481.843	650.25
482.061	672.25
482.28	656.25
482.498	640.25
482.717	632.25
482.935	665.25
483.153	628.25
483.372	628.25
483.59	628.25
483.808	629.25
484.027	625.25
484.245	660.25
484.463	652.25
484.681	670.25
484.9	648.25
485.118	646.25
485.336	649.25
485.554	679.25
485.772	663.25
485.99	650.25
486.209	679.25
486.427	672.25
486.645	659.25
486.863	688.25
487.081	656.25
487.299	669.25
487.517	684.25
487.735	677.25
487.953	681.25
488.171	707.25
488.389	698.25
488.607	683.25
488.825	677.25
489.043	677.25
489.261	690.25
489.479	674.25
489.696	716.25
489.914	705.25
490.132	715.25
490.35	727.25
490.568	715.25
490.786	736.25
491.003	725.25
491.221	739.25
491.439	774.25
491.657	781.25
491.874	770.25
492.092	771.25
492.31	818.25
492.527	775.25
492.745	785.25
492.963	794.25
493.18	774.25
493.398	795.25
493.615	822.25
493.833	802.25
494.05	811.25
494.268	797.25
494.485	832.25
494.703	824.25
494.92	816.25
495.138	816.25
495.355	832.25
495.573	804.25
495.79	824.25
496.008	815.25
496.225	819.25
496.442	811.25
496.66	831.25
496.877	818.25
497.094	840.25
497.312	820.25
497.529	857.25
497.746	864.25
497.963	868.25
498.181	902.25
498.398	906.25
498.615	931.25
498.832	950.25
499.049	972.25
499.267	995.25
499.484	1057.25
499.701	1127.25
499.918	1156.25
500.135	1207.25
500.352	1298.25
500.569	1322.25
500.786	1313.25
501.003	1289.25
501.22	1225.25
501.437	1188.25
501.654	1111.25
