Data from 1974.PennyLincolnUp.Lamp.En5.5.200Scan.071719.P1.Changed Mount._HRD10591_15-52-04-857.txt Node
Date: Thu Jul 18 15:52:04 EDT 2019
User: cochatt
Spectrometer: HR+D1059
Trigger mode: 1
Integration Time (sec): 1.000000E-1
Scans to average: 1
Electric dark correction enabled: true
Nonlinearity correction enabled: false
Boxcar width: 0
XAxis mode: Wavelengths
Number of Pixels in Spectrum: 2048
>>>>>Begin Spectral Data<<<<<
223.165	-17.31
223.4	-17.31
223.635	-17.31
223.869	-24.31
224.104	-10.31
224.338	-9.31
224.573	-20.31
224.808	-20.31
225.042	-5.31
225.277	-5.31
225.511	3.69
225.746	11.69
225.98	12.69
226.215	15.69
226.449	21.69
226.683	17.69
226.918	15.69
227.152	13.69
227.387	34.69
227.621	45.69
227.856	42.69
228.09	33.69
228.324	39.69
228.559	45.69
228.793	59.69
229.027	97.69
229.262	94.69
229.496	117.69
229.73	123.69
229.964	144.69
230.199	131.69
230.433	125.69
230.667	119.69
230.901	113.69
231.136	101.69
231.37	103.69
231.604	124.69
231.838	129.69
232.072	113.69
232.306	118.69
232.541	126.69
232.775	129.69
233.009	114.69
233.243	120.69
233.477	127.69
233.711	127.69
233.945	117.69
234.179	123.69
234.413	128.69
234.647	128.69
234.881	122.69
235.115	120.69
235.349	109.69
235.583	123.69
235.817	113.69
236.051	130.69
236.285	123.69
236.519	132.69
236.753	118.69
236.987	134.69
237.221	187.69
237.455	223.69
237.689	183.69
237.922	131.69
238.156	138.69
238.39	131.69
238.624	135.69
238.858	132.69
239.091	142.69
239.325	120.69
239.559	133.69
239.793	125.69
240.027	140.69
240.26	139.69
240.494	158.69
240.728	139.69
240.961	147.69
241.195	161.69
241.429	151.69
241.662	153.69
241.896	131.69
242.13	130.69
242.363	135.69
242.597	142.69
242.83	146.69
243.064	139.69
243.298	133.69
243.531	152.69
243.765	144.69
243.998	142.69
244.232	149.69
244.465	143.69
244.699	129.69
244.932	153.69
245.166	157.69
245.399	153.69
245.633	172.69
245.866	153.69
246.099	154.69
246.333	156.69
246.566	167.69
246.8	159.69
247.033	166.69
247.266	163.69
247.5	172.69
247.733	182.69
247.966	193.69
248.2	174.69
248.433	179.69
248.666	175.69
248.899	187.69
249.133	210.69
249.366	208.69
249.599	197.69
249.832	181.69
250.066	188.69
250.299	184.69
250.532	196.69
250.765	209.69
250.998	225.69
251.231	236.69
251.465	239.69
251.698	216.69
251.931	214.69
252.164	206.69
252.397	204.69
252.63	202.69
252.863	190.69
253.096	226.69
253.329	225.69
253.562	235.69
253.795	222.69
254.028	224.69
254.261	227.69
254.494	220.69
254.727	234.69
254.96	278.69
255.193	261.69
255.426	244.69
255.659	221.69
255.892	213.69
256.124	231.69
256.357	245.69
256.59	250.69
256.823	228.69
257.056	228.69
257.289	210.69
257.521	232.69
257.754	245.69
257.987	201.69
258.22	220.69
258.452	206.69
258.685	218.69
258.918	215.69
259.151	217.69
259.383	245.69
259.616	236.69
259.849	236.69
260.081	247.69
260.314	254.69
260.547	252.69
260.779	263.69
261.012	245.69
261.244	234.69
261.477	232.69
261.71	210.69
261.942	234.69
262.175	244.69
262.407	235.69
262.64	229.69
262.872	219.69
263.105	218.69
263.337	215.69
263.57	228.69
263.802	212.69
264.035	214.69
264.267	219.69
264.499	229.69
264.732	233.69
264.964	227.69
265.197	228.69
265.429	218.69
265.661	222.69
265.894	223.69
266.126	230.69
266.358	227.69
266.591	228.69
266.823	221.69
267.055	245.69
267.287	215.69
267.52	238.69
267.752	223.69
267.984	230.69
268.216	242.69
268.448	262.69
268.681	243.69
268.913	261.69
269.145	278.69
269.377	281.69
269.609	273.69
269.841	283.69
270.073	274.69
270.306	318.69
270.538	324.69
270.77	333.69
271.002	315.69
271.234	308.69
271.466	291.69
271.698	315.69
271.93	315.69
272.162	320.69
272.394	303.69
272.626	300.69
272.858	317.69
273.09	278.69
273.322	278.69
273.553	268.69
273.785	283.69
274.017	269.69
274.249	284.69
274.481	274.69
274.713	258.69
274.945	275.69
275.176	268.69
275.408	277.69
275.64	275.69
275.872	277.69
276.104	266.69
276.335	276.69
276.567	301.69
276.799	299.69
277.031	312.69
277.262	328.69
277.494	323.69
277.726	307.69
277.957	299.69
278.189	277.69
278.421	299.69
278.652	284.69
278.884	271.69
279.115	267.69
279.347	272.69
279.579	281.69
279.81	286.69
280.042	290.69
280.273	287.69
280.505	296.69
280.736	282.69
280.968	271.69
281.199	274.69
281.431	282.69
281.662	309.69
281.894	285.69
282.125	296.69
282.356	293.69
282.588	309.69
282.819	326.69
283.051	282.69
283.282	283.69
283.513	301.69
283.745	308.69
283.976	292.69
284.207	290.69
284.439	286.69
284.67	289.69
284.901	323.69
285.132	300.69
285.364	276.69
285.595	305.69
285.826	307.69
286.057	303.69
286.288	296.69
286.52	302.69
286.751	307.69
286.982	309.69
287.213	311.69
287.444	292.69
287.675	294.69
287.906	312.69
288.138	328.69
288.369	335.69
288.6	316.69
288.831	337.69
289.062	307.69
289.293	318.69
289.524	307.69
289.755	305.69
289.986	325.69
290.217	310.69
290.448	319.69
290.679	315.69
290.91	326.69
291.141	313.69
291.371	319.69
291.602	290.69
291.833	286.69
292.064	314.69
292.295	311.69
292.526	316.69
292.757	322.69
292.987	312.69
293.218	318.69
293.449	310.69
293.68	332.69
293.91	319.69
294.141	320.69
294.372	323.69
294.603	330.69
294.833	323.69
295.064	317.69
295.295	321.69
295.525	327.69
295.756	330.69
295.987	331.69
296.217	346.69
296.448	328.69
296.679	315.69
296.909	318.69
297.14	332.69
297.37	323.69
297.601	336.69
297.831	343.69
298.062	315.69
298.292	325.69
298.523	342.69
298.753	338.69
298.984	325.69
299.214	318.69
299.445	330.69
299.675	334.69
299.905	314.69
300.136	339.69
300.366	342.69
300.597	352.69
300.827	359.69
301.057	351.69
301.288	349.69
301.518	370.69
301.748	351.69
301.979	341.69
302.209	334.69
302.439	356.69
302.669	347.69
302.9	356.69
303.13	348.69
303.36	369.69
303.59	350.69
303.82	373.69
304.051	374.69
304.281	357.69
304.511	347.69
304.741	371.69
304.971	348.69
305.201	354.69
305.431	356.69
305.661	366.69
305.891	359.69
306.121	336.69
306.352	367.69
306.582	370.69
306.812	361.69
307.042	367.69
307.272	339.69
307.502	346.69
307.731	360.69
307.961	348.69
308.191	349.69
308.421	353.69
308.651	364.69
308.881	361.69
309.111	351.69
309.341	374.69
309.571	379.69
309.8	376.69
310.03	387.69
310.26	383.69
310.49	376.69
310.72	393.69
310.949	397.69
311.179	395.69
311.409	405.69
311.639	387.69
311.868	386.69
312.098	381.69
312.328	419.69
312.557	408.69
312.787	423.69
313.017	414.69
313.246	408.69
313.476	403.69
313.706	380.69
313.935	393.69
314.165	412.69
314.394	409.69
314.624	418.69
314.853	404.69
315.083	390.69
315.312	395.69
315.542	398.69
315.771	377.69
316.001	396.69
316.23	376.69
316.46	391.69
316.689	391.69
316.919	404.69
317.148	409.69
317.377	412.69
317.607	415.69
317.836	381.69
318.065	368.69
318.295	390.69
318.524	396.69
318.753	387.69
318.983	383.69
319.212	376.69
319.441	404.69
319.67	425.69
319.9	401.69
320.129	382.69
320.358	403.69
320.587	418.69
320.816	381.69
321.046	409.69
321.275	402.69
321.504	411.69
321.733	409.69
321.962	402.69
322.191	405.69
322.42	426.69
322.649	443.69
322.878	446.69
323.108	451.69
323.337	451.69
323.566	506.69
323.795	499.69
324.024	523.69
324.253	589.69
324.482	796.69
324.71	1204.69
324.939	1758.69
325.168	1510.69
325.397	834.69
325.626	569.69
325.855	500.69
326.084	482.69
326.313	471.69
326.542	474.69
326.77	514.69
326.999	558.69
327.228	775.69
327.457	1125.69
327.686	1367.69
327.914	911.69
328.143	649.69
328.372	577.69
328.6	524.69
328.829	515.69
329.058	510.69
329.287	571.69
329.515	518.69
329.744	493.69
329.972	496.69
330.201	505.69
330.43	561.69
330.658	548.69
330.887	550.69
331.115	556.69
331.344	531.69
331.572	473.69
331.801	484.69
332.03	506.69
332.258	513.69
332.486	471.69
332.715	471.69
332.943	488.69
333.172	501.69
333.4	499.69
333.629	511.69
333.857	519.69
334.085	511.69
334.314	538.69
334.542	553.69
334.771	579.69
334.999	545.69
335.227	513.69
335.455	507.69
335.684	488.69
335.912	474.69
336.14	490.69
336.369	498.69
336.597	478.69
336.825	484.69
337.053	482.69
337.281	479.69
337.51	475.69
337.738	472.69
337.966	473.69
338.194	457.69
338.422	463.69
338.65	463.69
338.878	473.69
339.106	469.69
339.334	458.69
339.562	449.69
339.79	466.69
340.018	477.69
340.246	478.69
340.474	467.69
340.702	462.69
340.93	462.69
341.158	467.69
341.386	472.69
341.614	465.69
341.842	464.69
342.07	459.69
342.298	453.69
342.526	468.69
342.754	460.69
342.981	445.69
343.209	452.69
343.437	461.69
343.665	463.69
343.893	462.69
344.12	497.69
344.348	488.69
344.576	486.69
344.804	496.69
345.031	488.69
345.259	461.69
345.487	504.69
345.714	473.69
345.942	456.69
346.17	443.69
346.397	466.69
346.625	441.69
346.853	447.69
347.08	434.69
347.308	429.69
347.535	433.69
347.763	422.69
347.99	449.69
348.218	462.69
348.445	458.69
348.673	451.69
348.9	450.69
349.128	437.69
349.355	422.69
349.583	429.69
349.81	429.69
350.037	453.69
350.265	440.69
350.492	437.69
350.72	435.69
350.947	441.69
351.174	451.69
351.402	455.69
351.629	444.69
351.856	438.69
352.083	456.69
352.311	462.69
352.538	435.69
352.765	466.69
352.992	461.69
353.22	452.69
353.447	421.69
353.674	435.69
353.901	437.69
354.128	436.69
354.355	419.69
354.583	401.69
354.81	426.69
355.037	421.69
355.264	426.69
355.491	406.69
355.718	423.69
355.945	418.69
356.172	421.69
356.399	422.69
356.626	436.69
356.853	413.69
357.08	399.69
357.307	413.69
357.534	438.69
357.761	475.69
357.988	442.69
358.215	429.69
358.441	426.69
358.668	396.69
358.895	429.69
359.122	436.69
359.349	419.69
359.576	455.69
359.802	455.69
360.029	464.69
360.256	500.69
360.483	480.69
360.709	447.69
360.936	439.69
361.163	438.69
361.39	444.69
361.616	452.69
361.843	439.69
362.07	446.69
362.296	445.69
362.523	435.69
362.749	437.69
362.976	439.69
363.203	442.69
363.429	435.69
363.656	455.69
363.882	437.69
364.109	439.69
364.335	428.69
364.562	440.69
364.788	445.69
365.015	436.69
365.241	435.69
365.468	451.69
365.694	440.69
365.92	439.69
366.147	440.69
366.373	446.69
366.599	429.69
366.826	415.69
367.052	428.69
367.278	436.69
367.505	446.69
367.731	426.69
367.957	439.69
368.184	438.69
368.41	425.69
368.636	435.69
368.862	455.69
369.089	452.69
369.315	429.69
369.541	445.69
369.767	429.69
369.993	441.69
370.219	429.69
370.445	441.69
370.672	440.69
370.898	458.69
371.124	465.69
371.35	441.69
371.576	424.69
371.802	452.69
372.028	451.69
372.254	437.69
372.48	459.69
372.706	469.69
372.932	451.69
373.158	462.69
373.384	469.69
373.61	441.69
373.835	446.69
374.061	437.69
374.287	449.69
374.513	447.69
374.739	463.69
374.965	468.69
375.191	460.69
375.416	453.69
375.642	457.69
375.868	468.69
376.094	478.69
376.319	441.69
376.545	457.69
376.771	439.69
376.997	449.69
377.222	441.69
377.448	451.69
377.674	438.69
377.899	450.69
378.125	451.69
378.35	448.69
378.576	457.69
378.802	452.69
379.027	433.69
379.253	437.69
379.478	435.69
379.704	457.69
379.929	446.69
380.155	465.69
380.38	443.69
380.606	462.69
380.831	465.69
381.057	460.69
381.282	434.69
381.507	459.69
381.733	435.69
381.958	450.69
382.184	454.69
382.409	473.69
382.634	461.69
382.86	471.69
383.085	481.69
383.31	477.69
383.535	472.69
383.761	467.69
383.986	461.69
384.211	454.69
384.436	476.69
384.662	491.69
384.887	495.69
385.112	471.69
385.337	492.69
385.562	494.69
385.787	513.69
386.013	503.69
386.238	519.69
386.463	501.69
386.688	518.69
386.913	498.69
387.138	498.69
387.363	498.69
387.588	506.69
387.813	518.69
388.038	509.69
388.263	511.69
388.488	501.69
388.713	513.69
388.938	510.69
389.163	524.69
389.387	500.69
389.612	488.69
389.837	479.69
390.062	484.69
390.287	501.69
390.512	502.69
390.736	519.69
390.961	505.69
391.186	497.69
391.411	542.69
391.636	539.69
391.86	535.69
392.085	519.69
392.31	518.69
392.534	529.69
392.759	507.69
392.984	508.69
393.208	511.69
393.433	523.69
393.658	525.69
393.882	540.69
394.107	520.69
394.331	525.69
394.556	491.69
394.78	528.69
395.005	511.69
395.229	523.69
395.454	552.69
395.678	539.69
395.903	551.69
396.127	553.69
396.352	582.69
396.576	543.69
396.801	527.69
397.025	503.69
397.249	523.69
397.474	534.69
397.698	563.69
397.922	577.69
398.147	571.69
398.371	578.69
398.595	586.69
398.82	600.69
399.044	609.69
399.268	636.69
399.492	655.69
399.717	719.69
399.941	722.69
400.165	723.69
400.389	728.69
400.613	673.69
400.837	637.69
401.062	611.69
401.286	609.69
401.51	582.69
401.734	573.69
401.958	589.69
402.182	574.69
402.406	582.69
402.63	594.69
402.854	585.69
403.078	591.69
403.302	621.69
403.526	613.69
403.75	649.69
403.974	627.69
404.198	618.69
404.422	625.69
404.645	635.69
404.869	621.69
405.093	652.69
405.317	675.69
405.541	732.69
405.765	663.69
405.988	635.69
406.212	638.69
406.436	664.69
406.66	657.69
406.883	648.69
407.107	687.69
407.331	742.69
407.555	804.69
407.778	781.69
408.002	732.69
408.226	694.69
408.449	670.69
408.673	663.69
408.896	713.69
409.12	745.69
409.344	700.69
409.567	639.69
409.791	639.69
410.014	620.69
410.238	620.69
410.461	613.69
410.685	626.69
410.908	665.69
411.132	682.69
411.355	706.69
411.578	670.69
411.802	632.69
412.025	618.69
412.249	622.69
412.472	625.69
412.695	664.69
412.919	669.69
413.142	606.69
413.365	603.69
413.589	610.69
413.812	593.69
414.035	588.69
414.258	598.69
414.482	603.69
414.705	586.69
414.928	577.69
415.151	586.69
415.374	574.69
415.597	567.69
415.821	585.69
416.044	598.69
416.267	573.69
416.49	576.69
416.713	578.69
416.936	574.69
417.159	589.69
417.382	598.69
417.605	587.69
417.828	605.69
418.051	626.69
418.274	612.69
418.497	564.69
418.72	591.69
418.943	584.69
419.166	625.69
419.389	639.69
419.611	645.69
419.834	601.69
420.057	643.69
420.28	631.69
420.503	602.69
420.726	618.69
420.948	621.69
421.171	668.69
421.394	699.69
421.617	632.69
421.839	587.69
422.062	593.69
422.285	613.69
422.507	675.69
422.73	764.69
422.953	739.69
423.175	654.69
423.398	621.69
423.621	645.69
423.843	647.69
424.066	660.69
424.288	656.69
424.511	670.69
424.733	727.69
424.956	791.69
425.178	751.69
425.401	758.69
425.623	804.69
425.846	680.69
426.068	662.69
426.291	636.69
426.513	626.69
426.735	615.69
426.958	657.69
427.18	762.69
427.402	874.69
427.625	956.69
427.847	827.69
428.069	746.69
428.292	677.69
428.514	631.69
428.736	623.69
428.958	599.69
429.181	604.69
429.403	577.69
429.625	575.69
429.847	608.69
430.069	687.69
430.292	688.69
430.514	621.69
430.736	598.69
430.958	574.69
431.18	580.69
431.402	551.69
431.624	564.69
431.846	548.69
432.068	566.69
432.29	548.69
432.512	566.69
432.734	585.69
432.956	556.69
433.178	599.69
433.4	573.69
433.622	592.69
433.844	579.69
434.066	568.69
434.287	549.69
434.509	572.69
434.731	571.69
434.953	613.69
435.175	621.69
435.397	643.69
435.618	665.69
435.84	669.69
436.062	765.69
436.284	824.69
436.505	693.69
436.727	632.69
436.949	598.69
437.17	598.69
437.392	570.69
437.614	599.69
437.835	634.69
438.057	730.69
438.278	809.69
438.5	827.69
438.721	896.69
438.943	863.69
439.165	702.69
439.386	633.69
439.608	621.69
439.829	602.69
440.05	651.69
440.272	679.69
440.493	671.69
440.715	614.69
440.936	615.69
441.158	598.69
441.379	583.69
441.6	627.69
441.822	641.69
442.043	673.69
442.264	735.69
442.486	808.69
442.707	680.69
442.928	661.69
443.149	647.69
443.371	666.69
443.592	724.69
443.813	799.69
444.034	884.69
444.255	759.69
444.476	665.69
444.698	657.69
444.919	687.69
445.14	810.69
445.361	739.69
445.582	658.69
445.803	722.69
446.024	828.69
446.245	858.69
446.466	758.69
446.687	681.69
446.908	641.69
447.129	613.69
447.35	610.69
447.571	577.69
447.792	569.69
448.013	565.69
448.234	587.69
448.455	641.69
448.675	747.69
448.896	890.69
449.117	751.69
449.338	701.69
449.559	830.69
449.779	931.69
450	720.69
450.221	627.69
450.442	591.69
450.662	575.69
450.883	572.69
451.104	568.69
451.324	566.69
451.545	533.69
451.766	542.69
451.986	539.69
452.207	517.69
452.428	515.69
452.648	509.69
452.869	502.69
453.089	515.69
453.31	550.69
453.53	545.69
453.751	516.69
453.971	520.69
454.192	535.69
454.412	513.69
454.633	507.69
454.853	518.69
455.073	497.69
455.294	550.69
455.514	603.69
455.734	581.69
455.955	523.69
456.175	473.69
456.395	511.69
456.616	497.69
456.836	481.69
457.056	488.69
457.276	485.69
457.497	519.69
457.717	500.69
457.937	482.69
458.157	509.69
458.377	529.69
458.598	524.69
458.818	591.69
459.038	655.69
459.258	661.69
459.478	595.69
459.698	565.69
459.918	557.69
460.138	578.69
460.358	582.69
460.578	589.69
460.798	568.69
461.018	594.69
461.238	595.69
461.458	588.69
461.678	576.69
461.898	605.69
462.118	586.69
462.338	593.69
462.558	602.69
462.777	625.69
462.997	663.69
463.217	689.69
463.437	683.69
463.657	645.69
463.876	615.69
464.096	626.69
464.316	633.69
464.536	648.69
464.755	620.69
464.975	621.69
465.195	651.69
465.414	667.69
465.634	615.69
465.854	600.69
466.073	572.69
466.293	566.69
466.512	539.69
466.732	539.69
466.951	550.69
467.171	519.69
467.391	540.69
467.61	545.69
467.829	548.69
468.049	534.69
468.268	562.69
468.488	545.69
468.707	521.69
468.927	544.69
469.146	517.69
469.365	517.69
469.585	530.69
469.804	525.69
470.023	561.69
470.243	552.69
470.462	569.69
470.681	582.69
470.901	552.69
471.12	567.69
471.339	536.69
471.558	530.69
471.777	561.69
471.997	549.69
472.216	541.69
472.435	564.69
472.654	571.69
472.873	550.69
473.092	546.69
473.311	523.69
473.53	566.69
473.749	544.69
473.968	591.69
474.187	678.69
474.406	712.69
474.625	575.69
474.844	545.69
475.063	559.69
475.282	530.69
475.501	536.69
475.72	583.69
475.939	561.69
476.158	573.69
476.377	557.69
476.596	559.69
476.814	576.69
477.033	558.69
477.252	583.69
477.471	568.69
477.69	607.69
477.908	597.69
478.127	630.69
478.346	606.69
478.564	636.69
478.783	623.69
479.002	646.69
479.22	642.69
479.439	627.69
479.658	642.69
479.876	652.69
480.095	663.69
480.313	699.69
480.532	678.69
480.751	672.69
480.969	697.69
481.188	723.69
481.406	737.69
481.624	702.69
481.843	649.69
482.061	639.69
482.28	660.69
482.498	647.69
482.717	633.69
482.935	638.69
483.153	619.69
483.372	643.69
483.59	612.69
483.808	648.69
484.027	603.69
484.245	637.69
484.463	648.69
484.681	636.69
484.9	641.69
485.118	652.69
485.336	655.69
485.554	655.69
485.772	679.69
485.99	638.69
486.209	653.69
486.427	651.69
486.645	665.69
486.863	693.69
487.081	676.69
487.299	653.69
487.517	698.69
487.735	689.69
487.953	714.69
488.171	710.69
488.389	667.69
488.607	683.69
488.825	677.69
489.043	681.69
489.261	681.69
489.479	707.69
489.696	691.69
489.914	713.69
490.132	727.69
490.35	709.69
490.568	711.69
490.786	707.69
491.003	731.69
491.221	783.69
491.439	747.69
491.657	759.69
491.874	805.69
492.092	802.69
492.31	798.69
492.527	787.69
492.745	805.69
492.963	791.69
493.18	808.69
493.398	800.69
493.615	796.69
493.833	805.69
494.05	799.69
494.268	821.69
494.485	812.69
494.703	805.69
494.92	792.69
495.138	822.69
495.355	813.69
495.573	837.69
495.79	812.69
496.008	824.69
496.225	822.69
496.442	838.69
496.66	835.69
496.877	833.69
497.094	836.69
497.312	833.69
497.529	842.69
497.746	881.69
497.963	859.69
498.181	896.69
498.398	905.69
498.615	940.69
498.832	957.69
499.049	961.69
499.267	1029.69
499.484	1058.69
499.701	1099.69
499.918	1167.69
500.135	1191.69
500.352	1292.69
500.569	1313.69
500.786	1330.69
501.003	1270.69
501.22	1262.69
501.437	1167.69
501.654	1096.69
