Data from 1974.PennyLincolnUp.Lamp.En5.5.200Scan.071719.P1.Changed Mount._HRD10591_15-52-42-856.txt Node
Date: Thu Jul 18 15:52:42 EDT 2019
User: cochatt
Spectrometer: HR+D1059
Trigger mode: 1
Integration Time (sec): 1.000000E-1
Scans to average: 1
Electric dark correction enabled: true
Nonlinearity correction enabled: false
Boxcar width: 0
XAxis mode: Wavelengths
Number of Pixels in Spectrum: 2048
>>>>>Begin Spectral Data<<<<<
223.165	-19.25
223.4	-19.25
223.635	-19.25
223.869	-24.25
224.104	-13.25
224.338	-19.25
224.573	-15.25
224.808	-16.25
225.042	-0.25
225.277	-10.25
225.511	-2.25
225.746	5.75
225.98	7.75
226.215	18.75
226.449	10.75
226.683	10.75
226.918	35.75
227.152	30.75
227.387	18.75
227.621	30.75
227.856	28.75
228.09	49.75
228.324	49.75
228.559	56.75
228.793	71.75
229.027	114.75
229.262	95.75
229.496	121.75
229.73	124.75
229.964	154.75
230.199	145.75
230.433	121.75
230.667	125.75
230.901	116.75
231.136	105.75
231.37	115.75
231.604	104.75
231.838	104.75
232.072	102.75
232.306	107.75
232.541	113.75
232.775	106.75
233.009	113.75
233.243	118.75
233.477	106.75
233.711	107.75
233.945	123.75
234.179	137.75
234.413	125.75
234.647	122.75
234.881	119.75
235.115	127.75
235.349	135.75
235.583	119.75
235.817	129.75
236.051	135.75
236.285	120.75
236.519	142.75
236.753	122.75
236.987	135.75
237.221	183.75
237.455	254.75
237.689	187.75
237.922	144.75
238.156	145.75
238.39	146.75
238.624	124.75
238.858	122.75
239.091	125.75
239.325	122.75
239.559	121.75
239.793	140.75
240.027	128.75
240.26	151.75
240.494	163.75
240.728	144.75
240.961	156.75
241.195	157.75
241.429	165.75
241.662	147.75
241.896	146.75
242.13	126.75
242.363	147.75
242.597	151.75
242.83	148.75
243.064	167.75
243.298	145.75
243.531	151.75
243.765	135.75
243.998	147.75
244.232	148.75
244.465	158.75
244.699	160.75
244.932	167.75
245.166	162.75
245.399	174.75
245.633	153.75
245.866	153.75
246.099	156.75
246.333	158.75
246.566	163.75
246.8	150.75
247.033	156.75
247.266	169.75
247.5	165.75
247.733	185.75
247.966	181.75
248.2	178.75
248.433	188.75
248.666	188.75
248.899	192.75
249.133	211.75
249.366	210.75
249.599	211.75
249.832	180.75
250.066	199.75
250.299	188.75
250.532	196.75
250.765	204.75
250.998	230.75
251.231	235.75
251.465	222.75
251.698	197.75
251.931	213.75
252.164	191.75
252.397	229.75
252.63	213.75
252.863	222.75
253.096	217.75
253.329	221.75
253.562	234.75
253.795	224.75
254.028	221.75
254.261	241.75
254.494	235.75
254.727	284.75
254.96	288.75
255.193	265.75
255.426	261.75
255.659	236.75
255.892	243.75
256.124	242.75
256.357	237.75
256.59	228.75
256.823	220.75
257.056	221.75
257.289	222.75
257.521	221.75
257.754	205.75
257.987	220.75
258.22	233.75
258.452	226.75
258.685	221.75
258.918	222.75
259.151	216.75
259.383	245.75
259.616	235.75
259.849	232.75
260.081	252.75
260.314	274.75
260.547	267.75
260.779	270.75
261.012	243.75
261.244	253.75
261.477	231.75
261.71	235.75
261.942	230.75
262.175	249.75
262.407	248.75
262.64	222.75
262.872	229.75
263.105	213.75
263.337	203.75
263.57	221.75
263.802	226.75
264.035	232.75
264.267	224.75
264.499	211.75
264.732	233.75
264.964	229.75
265.197	238.75
265.429	233.75
265.661	237.75
265.894	226.75
266.126	233.75
266.358	246.75
266.591	241.75
266.823	251.75
267.055	234.75
267.287	241.75
267.52	226.75
267.752	265.75
267.984	243.75
268.216	237.75
268.448	253.75
268.681	259.75
268.913	266.75
269.145	283.75
269.377	274.75
269.609	281.75
269.841	275.75
270.073	297.75
270.306	313.75
270.538	311.75
270.77	316.75
271.002	300.75
271.234	299.75
271.466	311.75
271.698	329.75
271.93	336.75
272.162	340.75
272.394	324.75
272.626	312.75
272.858	306.75
273.09	294.75
273.322	283.75
273.553	294.75
273.785	278.75
274.017	280.75
274.249	278.75
274.481	286.75
274.713	286.75
274.945	279.75
275.176	267.75
275.408	278.75
275.64	274.75
275.872	284.75
276.104	288.75
276.335	293.75
276.567	281.75
276.799	302.75
277.031	334.75
277.262	339.75
277.494	352.75
277.726	348.75
277.957	298.75
278.189	316.75
278.421	313.75
278.652	296.75
278.884	302.75
279.115	287.75
279.347	271.75
279.579	285.75
279.81	276.75
280.042	290.75
280.273	274.75
280.505	284.75
280.736	295.75
280.968	300.75
281.199	295.75
281.431	293.75
281.662	281.75
281.894	290.75
282.125	305.75
282.356	305.75
282.588	313.75
282.819	342.75
283.051	309.75
283.282	306.75
283.513	305.75
283.745	285.75
283.976	292.75
284.207	309.75
284.439	319.75
284.67	302.75
284.901	299.75
285.132	302.75
285.364	307.75
285.595	325.75
285.826	298.75
286.057	309.75
286.288	316.75
286.52	314.75
286.751	306.75
286.982	316.75
287.213	305.75
287.444	300.75
287.675	315.75
287.906	310.75
288.138	329.75
288.369	338.75
288.6	345.75
288.831	310.75
289.062	323.75
289.293	321.75
289.524	313.75
289.755	321.75
289.986	309.75
290.217	306.75
290.448	322.75
290.679	307.75
290.91	301.75
291.141	311.75
291.371	330.75
291.602	333.75
291.833	329.75
292.064	324.75
292.295	305.75
292.526	321.75
292.757	338.75
292.987	307.75
293.218	323.75
293.449	334.75
293.68	330.75
293.91	310.75
294.141	321.75
294.372	311.75
294.603	331.75
294.833	301.75
295.064	309.75
295.295	328.75
295.525	319.75
295.756	324.75
295.987	334.75
296.217	328.75
296.448	341.75
296.679	343.75
296.909	325.75
297.14	324.75
297.37	347.75
297.601	326.75
297.831	317.75
298.062	332.75
298.292	331.75
298.523	350.75
298.753	331.75
298.984	337.75
299.214	360.75
299.445	355.75
299.675	338.75
299.905	327.75
300.136	339.75
300.366	354.75
300.597	369.75
300.827	352.75
301.057	363.75
301.288	352.75
301.518	355.75
301.748	357.75
301.979	352.75
302.209	357.75
302.439	357.75
302.669	362.75
302.9	358.75
303.13	363.75
303.36	368.75
303.59	373.75
303.82	357.75
304.051	385.75
304.281	353.75
304.511	349.75
304.741	365.75
304.971	381.75
305.201	349.75
305.431	375.75
305.661	361.75
305.891	367.75
306.121	374.75
306.352	353.75
306.582	342.75
306.812	344.75
307.042	376.75
307.272	367.75
307.502	355.75
307.731	362.75
307.961	363.75
308.191	338.75
308.421	364.75
308.651	365.75
308.881	367.75
309.111	370.75
309.341	377.75
309.571	374.75
309.8	368.75
310.03	382.75
310.26	377.75
310.49	377.75
310.72	404.75
310.949	421.75
311.179	403.75
311.409	399.75
311.639	390.75
311.868	401.75
312.098	386.75
312.328	399.75
312.557	411.75
312.787	418.75
313.017	416.75
313.246	407.75
313.476	387.75
313.706	401.75
313.935	394.75
314.165	408.75
314.394	433.75
314.624	417.75
314.853	403.75
315.083	408.75
315.312	392.75
315.542	424.75
315.771	402.75
316.001	409.75
316.23	407.75
316.46	404.75
316.689	410.75
316.919	411.75
317.148	416.75
317.377	417.75
317.607	400.75
317.836	412.75
318.065	409.75
318.295	400.75
318.524	407.75
318.753	405.75
318.983	393.75
319.212	417.75
319.441	411.75
319.67	433.75
319.9	405.75
320.129	416.75
320.358	415.75
320.587	403.75
320.816	402.75
321.046	400.75
321.275	421.75
321.504	409.75
321.733	421.75
321.962	430.75
322.191	437.75
322.42	427.75
322.649	460.75
322.878	461.75
323.108	460.75
323.337	458.75
323.566	484.75
323.795	513.75
324.024	537.75
324.253	628.75
324.482	831.75
324.71	1229.75
324.939	1885.75
325.168	1608.75
325.397	854.75
325.626	585.75
325.855	528.75
326.084	502.75
326.313	499.75
326.542	481.75
326.77	528.75
326.999	619.75
327.228	785.75
327.457	1140.75
327.686	1405.75
327.914	973.75
328.143	661.75
328.372	575.75
328.6	564.75
328.829	520.75
329.058	565.75
329.287	564.75
329.515	540.75
329.744	513.75
329.972	517.75
330.201	505.75
330.43	567.75
330.658	568.75
330.887	561.75
331.115	582.75
331.344	531.75
331.572	499.75
331.801	523.75
332.03	510.75
332.258	483.75
332.486	483.75
332.715	474.75
332.943	487.75
333.172	504.75
333.4	507.75
333.629	533.75
333.857	532.75
334.085	518.75
334.314	545.75
334.542	555.75
334.771	568.75
334.999	542.75
335.227	486.75
335.455	487.75
335.684	501.75
335.912	500.75
336.14	493.75
336.369	495.75
336.597	517.75
336.825	505.75
337.053	504.75
337.281	481.75
337.51	491.75
337.738	477.75
337.966	475.75
338.194	491.75
338.422	473.75
338.65	466.75
338.878	486.75
339.106	472.75
339.334	454.75
339.562	456.75
339.79	443.75
340.018	458.75
340.246	468.75
340.474	472.75
340.702	472.75
340.93	448.75
341.158	454.75
341.386	464.75
341.614	465.75
341.842	446.75
342.07	462.75
342.298	459.75
342.526	457.75
342.754	474.75
342.981	466.75
343.209	469.75
343.437	458.75
343.665	463.75
343.893	497.75
344.12	476.75
344.348	477.75
344.576	467.75
344.804	446.75
345.031	472.75
345.259	476.75
345.487	480.75
345.714	477.75
345.942	453.75
346.17	483.75
346.397	444.75
346.625	442.75
346.853	449.75
347.08	453.75
347.308	445.75
347.535	446.75
347.763	459.75
347.99	470.75
348.218	445.75
348.445	454.75
348.673	440.75
348.9	465.75
349.128	455.75
349.355	438.75
349.583	438.75
349.81	439.75
350.037	443.75
350.265	434.75
350.492	439.75
350.72	444.75
350.947	429.75
351.174	453.75
351.402	447.75
351.629	453.75
351.856	443.75
352.083	452.75
352.311	482.75
352.538	460.75
352.765	480.75
352.992	481.75
353.22	449.75
353.447	437.75
353.674	444.75
353.901	445.75
354.128	438.75
354.355	430.75
354.583	443.75
354.81	433.75
355.037	445.75
355.264	425.75
355.491	420.75
355.718	442.75
355.945	439.75
356.172	436.75
356.399	433.75
356.626	436.75
356.853	441.75
357.08	436.75
357.307	430.75
357.534	409.75
357.761	449.75
357.988	439.75
358.215	417.75
358.441	451.75
358.668	453.75
358.895	428.75
359.122	450.75
359.349	420.75
359.576	452.75
359.802	481.75
360.029	492.75
360.256	498.75
360.483	486.75
360.709	458.75
360.936	465.75
361.163	466.75
361.39	465.75
361.616	466.75
361.843	465.75
362.07	442.75
362.296	469.75
362.523	470.75
362.749	447.75
362.976	455.75
363.203	428.75
363.429	445.75
363.656	440.75
363.882	450.75
364.109	431.75
364.335	443.75
364.562	446.75
364.788	445.75
365.015	429.75
365.241	439.75
365.468	441.75
365.694	439.75
365.92	454.75
366.147	460.75
366.373	446.75
366.599	453.75
366.826	456.75
367.052	458.75
367.278	449.75
367.505	458.75
367.731	462.75
367.957	444.75
368.184	447.75
368.41	462.75
368.636	436.75
368.862	467.75
369.089	445.75
369.315	443.75
369.541	439.75
369.767	444.75
369.993	471.75
370.219	445.75
370.445	469.75
370.672	433.75
370.898	454.75
371.124	428.75
371.35	413.75
371.576	437.75
371.802	460.75
372.028	451.75
372.254	459.75
372.48	446.75
372.706	456.75
372.932	455.75
373.158	464.75
373.384	451.75
373.61	443.75
373.835	462.75
374.061	450.75
374.287	454.75
374.513	466.75
374.739	465.75
374.965	473.75
375.191	473.75
375.416	475.75
375.642	445.75
375.868	483.75
376.094	449.75
376.319	466.75
376.545	439.75
376.771	453.75
376.997	437.75
377.222	443.75
377.448	450.75
377.674	448.75
377.899	478.75
378.125	443.75
378.35	457.75
378.576	433.75
378.802	453.75
379.027	453.75
379.253	445.75
379.478	453.75
379.704	442.75
379.929	448.75
380.155	450.75
380.38	462.75
380.606	473.75
380.831	477.75
381.057	447.75
381.282	458.75
381.507	455.75
381.733	451.75
381.958	461.75
382.184	433.75
382.409	466.75
382.634	455.75
382.86	435.75
383.085	476.75
383.31	477.75
383.535	478.75
383.761	467.75
383.986	490.75
384.211	470.75
384.436	497.75
384.662	497.75
384.887	478.75
385.112	502.75
385.337	482.75
385.562	517.75
385.787	498.75
386.013	513.75
386.238	512.75
386.463	520.75
386.688	513.75
386.913	506.75
387.138	512.75
387.363	504.75
387.588	483.75
387.813	511.75
388.038	529.75
388.263	511.75
388.488	519.75
388.713	508.75
388.938	504.75
389.163	503.75
389.387	507.75
389.612	513.75
389.837	528.75
390.062	499.75
390.287	529.75
390.512	497.75
390.736	505.75
390.961	507.75
391.186	511.75
391.411	530.75
391.636	553.75
391.86	542.75
392.085	524.75
392.31	533.75
392.534	531.75
392.759	520.75
392.984	525.75
393.208	502.75
393.433	527.75
393.658	515.75
393.882	533.75
394.107	529.75
394.331	537.75
394.556	530.75
394.78	541.75
395.005	521.75
395.229	525.75
395.454	518.75
395.678	559.75
395.903	566.75
396.127	565.75
396.352	553.75
396.576	531.75
396.801	531.75
397.025	549.75
397.249	550.75
397.474	542.75
397.698	563.75
397.922	546.75
398.147	557.75
398.371	595.75
398.595	590.75
398.82	586.75
399.044	613.75
399.268	635.75
399.492	667.75
399.717	721.75
399.941	728.75
400.165	773.75
400.389	717.75
400.613	675.75
400.837	636.75
401.062	621.75
401.286	615.75
401.51	577.75
401.734	593.75
401.958	616.75
402.182	609.75
402.406	613.75
402.63	612.75
402.854	593.75
403.078	605.75
403.302	607.75
403.526	641.75
403.75	635.75
403.974	616.75
404.198	639.75
404.422	641.75
404.645	629.75
404.869	628.75
405.093	693.75
405.317	737.75
405.541	711.75
405.765	681.75
405.988	648.75
406.212	645.75
406.436	675.75
406.66	665.75
406.883	677.75
407.107	693.75
407.331	754.75
407.555	805.75
407.778	805.75
408.002	738.75
408.226	698.75
408.449	700.75
408.673	667.75
408.896	711.75
409.12	745.75
409.344	713.75
409.567	639.75
409.791	636.75
410.014	617.75
410.238	612.75
410.461	618.75
410.685	604.75
410.908	635.75
411.132	675.75
411.355	701.75
411.578	666.75
411.802	642.75
412.025	633.75
412.249	635.75
412.472	667.75
412.695	690.75
412.919	653.75
413.142	622.75
413.365	617.75
413.589	612.75
413.812	598.75
414.035	588.75
414.258	613.75
414.482	613.75
414.705	586.75
414.928	593.75
415.151	583.75
415.374	596.75
415.597	589.75
415.821	584.75
416.044	563.75
416.267	602.75
416.49	598.75
416.713	574.75
416.936	567.75
417.159	610.75
417.382	587.75
417.605	613.75
417.828	587.75
418.051	621.75
418.274	609.75
418.497	607.75
418.72	587.75
418.943	587.75
419.166	621.75
419.389	659.75
419.611	661.75
419.834	628.75
420.057	643.75
420.28	626.75
420.503	613.75
420.726	597.75
420.948	617.75
421.171	693.75
421.394	681.75
421.617	652.75
421.839	609.75
422.062	614.75
422.285	628.75
422.507	696.75
422.73	737.75
422.953	725.75
423.175	663.75
423.398	631.75
423.621	619.75
423.843	645.75
424.066	668.75
424.288	644.75
424.511	665.75
424.733	724.75
424.956	809.75
425.178	806.75
425.401	762.75
425.623	798.75
425.846	690.75
426.068	649.75
426.291	649.75
426.513	658.75
426.735	663.75
426.958	654.75
427.18	767.75
427.402	921.75
427.625	983.75
427.847	858.75
428.069	745.75
428.292	674.75
428.514	629.75
428.736	636.75
428.958	614.75
429.181	607.75
429.403	581.75
429.625	584.75
429.847	636.75
430.069	693.75
430.292	684.75
430.514	608.75
430.736	595.75
430.958	579.75
431.18	568.75
431.402	586.75
431.624	566.75
431.846	555.75
432.068	554.75
432.29	570.75
432.512	577.75
432.734	562.75
432.956	572.75
433.178	577.75
433.4	589.75
433.622	596.75
433.844	578.75
434.066	573.75
434.287	578.75
434.509	580.75
434.731	572.75
434.953	594.75
435.175	616.75
435.397	651.75
435.618	643.75
435.84	671.75
436.062	773.75
436.284	853.75
436.505	733.75
436.727	643.75
436.949	614.75
437.17	605.75
437.392	577.75
437.614	619.75
437.835	642.75
438.057	696.75
438.278	829.75
438.5	839.75
438.721	919.75
438.943	879.75
439.165	707.75
439.386	648.75
439.608	644.75
439.829	645.75
440.05	659.75
440.272	723.75
440.493	649.75
440.715	662.75
440.936	623.75
441.158	602.75
441.379	617.75
441.6	619.75
441.822	641.75
442.043	695.75
442.264	783.75
442.486	821.75
442.707	710.75
442.928	665.75
443.149	651.75
443.371	693.75
443.592	747.75
443.813	837.75
444.034	891.75
444.255	747.75
444.476	698.75
444.698	683.75
444.919	664.75
445.14	778.75
445.361	707.75
445.582	686.75
445.803	726.75
446.024	862.75
446.245	850.75
446.466	778.75
446.687	693.75
446.908	645.75
447.129	611.75
447.35	588.75
447.571	596.75
447.792	600.75
448.013	585.75
448.234	615.75
448.455	643.75
448.675	791.75
448.896	886.75
449.117	790.75
449.338	703.75
449.559	823.75
449.779	936.75
450	728.75
450.221	627.75
450.442	606.75
450.662	567.75
450.883	553.75
451.104	570.75
451.324	576.75
451.545	571.75
451.766	544.75
451.986	533.75
452.207	526.75
452.428	522.75
452.648	534.75
452.869	543.75
453.089	562.75
453.31	569.75
453.53	539.75
453.751	528.75
453.971	525.75
454.192	541.75
454.412	508.75
454.633	517.75
454.853	534.75
455.073	511.75
455.294	537.75
455.514	609.75
455.734	601.75
455.955	557.75
456.175	517.75
456.395	515.75
456.616	509.75
456.836	485.75
457.056	494.75
457.276	475.75
457.497	497.75
457.717	500.75
457.937	499.75
458.157	515.75
458.377	493.75
458.598	522.75
458.818	597.75
459.038	659.75
459.258	687.75
459.478	617.75
459.698	576.75
459.918	579.75
460.138	568.75
460.358	578.75
460.578	603.75
460.798	585.75
461.018	625.75
461.238	602.75
461.458	588.75
461.678	594.75
461.898	597.75
462.118	579.75
462.338	611.75
462.558	609.75
462.777	633.75
462.997	660.75
463.217	690.75
463.437	663.75
463.657	655.75
463.876	649.75
464.096	653.75
464.316	619.75
464.536	639.75
464.755	648.75
464.975	628.75
465.195	651.75
465.414	731.75
465.634	644.75
465.854	582.75
466.073	592.75
466.293	555.75
466.512	568.75
466.732	565.75
466.951	547.75
467.171	536.75
467.391	571.75
467.61	565.75
467.829	574.75
468.049	565.75
468.268	552.75
468.488	535.75
468.707	523.75
468.927	550.75
469.146	531.75
469.365	547.75
469.585	544.75
469.804	550.75
470.023	566.75
470.243	554.75
470.462	579.75
470.681	591.75
470.901	584.75
471.12	577.75
471.339	555.75
471.558	555.75
471.777	584.75
471.997	545.75
472.216	550.75
472.435	582.75
472.654	563.75
472.873	567.75
473.092	539.75
473.311	541.75
473.53	560.75
473.749	582.75
473.968	595.75
474.187	687.75
474.406	692.75
474.625	589.75
474.844	577.75
475.063	564.75
475.282	558.75
475.501	571.75
475.72	587.75
475.939	565.75
476.158	555.75
476.377	587.75
476.596	551.75
476.814	582.75
477.033	582.75
477.252	586.75
477.471	615.75
477.69	567.75
477.908	603.75
478.127	608.75
478.346	617.75
478.564	618.75
478.783	619.75
479.002	642.75
479.22	639.75
479.439	639.75
479.658	672.75
479.876	652.75
480.095	655.75
480.313	719.75
480.532	715.75
480.751	695.75
480.969	673.75
481.188	709.75
481.406	735.75
481.624	702.75
481.843	687.75
482.061	668.75
482.28	646.75
482.498	639.75
482.717	615.75
482.935	666.75
483.153	662.75
483.372	656.75
483.59	669.75
483.808	627.75
484.027	649.75
484.245	676.75
484.463	659.75
484.681	670.75
484.9	671.75
485.118	669.75
485.336	648.75
485.554	669.75
485.772	675.75
485.99	650.75
486.209	695.75
486.427	681.75
486.645	710.75
486.863	721.75
487.081	697.75
487.299	693.75
487.517	698.75
487.735	691.75
487.953	710.75
488.171	701.75
488.389	683.75
488.607	686.75
488.825	715.75
489.043	689.75
489.261	702.75
489.479	701.75
489.696	720.75
489.914	725.75
490.132	733.75
490.35	732.75
490.568	730.75
490.786	746.75
491.003	755.75
491.221	775.75
491.439	787.75
491.657	802.75
491.874	830.75
492.092	790.75
492.31	779.75
492.527	783.75
492.745	819.75
492.963	798.75
493.18	797.75
493.398	799.75
493.615	828.75
493.833	809.75
494.05	817.75
494.268	840.75
494.485	826.75
494.703	829.75
494.92	830.75
495.138	821.75
495.355	832.75
495.573	825.75
495.79	813.75
496.008	814.75
496.225	849.75
496.442	846.75
496.66	841.75
496.877	841.75
497.094	806.75
497.312	847.75
497.529	844.75
497.746	880.75
497.963	872.75
498.181	909.75
498.398	901.75
498.615	959.75
498.832	959.75
499.049	975.75
499.267	1010.75
499.484	1059.75
499.701	1126.75
499.918	1189.75
500.135	1218.75
500.352	1330.75
500.569	1346.75
500.786	1338.75
501.003	1290.75
501.22	1235.75
501.437	1205.75
501.654	1116.75
