Data from 1974.PennyLincolnUp.Lamp.En5.5.200Scan.071719.P1.Changed Mount._HRD10591_15-52-43-857.txt Node
Date: Thu Jul 18 15:52:43 EDT 2019
User: cochatt
Spectrometer: HR+D1059
Trigger mode: 1
Integration Time (sec): 1.000000E-1
Scans to average: 1
Electric dark correction enabled: true
Nonlinearity correction enabled: false
Boxcar width: 0
XAxis mode: Wavelengths
Number of Pixels in Spectrum: 2048
>>>>>Begin Spectral Data<<<<<
223.165	-8.94
223.4	-8.94
223.635	-8.94
223.869	-25.94
224.104	-23.94
224.338	-16.94
224.573	-9.94
224.808	-21.94
225.042	-1.94
225.277	2.06
225.511	1.06
225.746	4.06
225.98	18.06
226.215	8.06
226.449	3.06
226.683	16.06
226.918	28.06
227.152	29.06
227.387	33.06
227.621	41.06
227.856	48.06
228.09	46.06
228.324	56.06
228.559	63.06
228.793	68.06
229.027	97.06
229.262	107.06
229.496	122.06
229.73	132.06
229.964	153.06
230.199	146.06
230.433	107.06
230.667	121.06
230.901	119.06
231.136	116.06
231.37	119.06
231.604	125.06
231.838	125.06
232.072	121.06
232.306	109.06
232.541	125.06
232.775	124.06
233.009	108.06
233.243	101.06
233.477	116.06
233.711	114.06
233.945	109.06
234.179	135.06
234.413	106.06
234.647	128.06
234.881	137.06
235.115	108.06
235.349	126.06
235.583	124.06
235.817	122.06
236.051	128.06
236.285	136.06
236.519	136.06
236.753	145.06
236.987	161.06
237.221	194.06
237.455	238.06
237.689	181.06
237.922	131.06
238.156	140.06
238.39	139.06
238.624	133.06
238.858	134.06
239.091	136.06
239.325	136.06
239.559	131.06
239.793	134.06
240.027	143.06
240.26	143.06
240.494	153.06
240.728	156.06
240.961	178.06
241.195	168.06
241.429	149.06
241.662	150.06
241.896	139.06
242.13	151.06
242.363	136.06
242.597	133.06
242.83	133.06
243.064	140.06
243.298	144.06
243.531	146.06
243.765	155.06
243.998	148.06
244.232	140.06
244.465	153.06
244.699	148.06
244.932	180.06
245.166	150.06
245.399	165.06
245.633	152.06
245.866	152.06
246.099	149.06
246.333	143.06
246.566	174.06
246.8	154.06
247.033	165.06
247.266	161.06
247.5	171.06
247.733	168.06
247.966	175.06
248.2	187.06
248.433	192.06
248.666	194.06
248.899	185.06
249.133	202.06
249.366	210.06
249.599	202.06
249.832	196.06
250.066	195.06
250.299	188.06
250.532	202.06
250.765	207.06
250.998	233.06
251.231	231.06
251.465	229.06
251.698	225.06
251.931	204.06
252.164	202.06
252.397	206.06
252.63	226.06
252.863	213.06
253.096	208.06
253.329	216.06
253.562	241.06
253.795	215.06
254.028	228.06
254.261	218.06
254.494	249.06
254.727	276.06
254.96	290.06
255.193	277.06
255.426	242.06
255.659	258.06
255.892	262.06
256.124	262.06
256.357	244.06
256.59	243.06
256.823	234.06
257.056	226.06
257.289	220.06
257.521	232.06
257.754	237.06
257.987	218.06
258.22	232.06
258.452	224.06
258.685	211.06
258.918	229.06
259.151	218.06
259.383	227.06
259.616	240.06
259.849	248.06
260.081	243.06
260.314	287.06
260.547	267.06
260.779	276.06
261.012	265.06
261.244	242.06
261.477	252.06
261.71	229.06
261.942	241.06
262.175	256.06
262.407	248.06
262.64	235.06
262.872	239.06
263.105	221.06
263.337	218.06
263.57	229.06
263.802	218.06
264.035	229.06
264.267	234.06
264.499	206.06
264.732	241.06
264.964	238.06
265.197	230.06
265.429	224.06
265.661	234.06
265.894	222.06
266.126	232.06
266.358	233.06
266.591	231.06
266.823	247.06
267.055	248.06
267.287	230.06
267.52	228.06
267.752	245.06
267.984	242.06
268.216	249.06
268.448	271.06
268.681	263.06
268.913	270.06
269.145	286.06
269.377	309.06
269.609	293.06
269.841	285.06
270.073	279.06
270.306	296.06
270.538	315.06
270.77	335.06
271.002	321.06
271.234	301.06
271.466	312.06
271.698	330.06
271.93	340.06
272.162	343.06
272.394	342.06
272.626	310.06
272.858	317.06
273.09	296.06
273.322	306.06
273.553	293.06
273.785	275.06
274.017	266.06
274.249	291.06
274.481	277.06
274.713	285.06
274.945	299.06
275.176	285.06
275.408	288.06
275.64	267.06
275.872	288.06
276.104	283.06
276.335	298.06
276.567	314.06
276.799	300.06
277.031	314.06
277.262	318.06
277.494	333.06
277.726	323.06
277.957	317.06
278.189	302.06
278.421	295.06
278.652	278.06
278.884	298.06
279.115	300.06
279.347	299.06
279.579	299.06
279.81	287.06
280.042	300.06
280.273	282.06
280.505	298.06
280.736	302.06
280.968	274.06
281.199	290.06
281.431	288.06
281.662	306.06
281.894	294.06
282.125	284.06
282.356	300.06
282.588	314.06
282.819	330.06
283.051	303.06
283.282	297.06
283.513	315.06
283.745	310.06
283.976	293.06
284.207	334.06
284.439	308.06
284.67	314.06
284.901	326.06
285.132	316.06
285.364	304.06
285.595	298.06
285.826	312.06
286.057	309.06
286.288	317.06
286.52	314.06
286.751	317.06
286.982	309.06
287.213	312.06
287.444	328.06
287.675	316.06
287.906	332.06
288.138	334.06
288.369	319.06
288.6	325.06
288.831	325.06
289.062	332.06
289.293	328.06
289.524	312.06
289.755	319.06
289.986	306.06
290.217	326.06
290.448	331.06
290.679	317.06
290.91	324.06
291.141	310.06
291.371	321.06
291.602	334.06
291.833	341.06
292.064	311.06
292.295	332.06
292.526	330.06
292.757	327.06
292.987	315.06
293.218	320.06
293.449	301.06
293.68	328.06
293.91	314.06
294.141	328.06
294.372	318.06
294.603	333.06
294.833	325.06
295.064	333.06
295.295	319.06
295.525	326.06
295.756	342.06
295.987	338.06
296.217	373.06
296.448	326.06
296.679	331.06
296.909	350.06
297.14	331.06
297.37	341.06
297.601	346.06
297.831	334.06
298.062	363.06
298.292	317.06
298.523	352.06
298.753	339.06
298.984	319.06
299.214	346.06
299.445	346.06
299.675	347.06
299.905	340.06
300.136	341.06
300.366	349.06
300.597	361.06
300.827	368.06
301.057	357.06
301.288	365.06
301.518	371.06
301.748	361.06
301.979	355.06
302.209	360.06
302.439	359.06
302.669	357.06
302.9	354.06
303.13	366.06
303.36	369.06
303.59	356.06
303.82	359.06
304.051	365.06
304.281	364.06
304.511	342.06
304.741	335.06
304.971	354.06
305.201	369.06
305.431	349.06
305.661	354.06
305.891	344.06
306.121	361.06
306.352	364.06
306.582	368.06
306.812	375.06
307.042	373.06
307.272	366.06
307.502	388.06
307.731	377.06
307.961	373.06
308.191	349.06
308.421	384.06
308.651	352.06
308.881	366.06
309.111	361.06
309.341	365.06
309.571	380.06
309.8	408.06
310.03	397.06
310.26	372.06
310.49	403.06
310.72	410.06
310.949	404.06
311.179	416.06
311.409	405.06
311.639	385.06
311.868	401.06
312.098	409.06
312.328	416.06
312.557	412.06
312.787	429.06
313.017	427.06
313.246	398.06
313.476	402.06
313.706	406.06
313.935	410.06
314.165	405.06
314.394	427.06
314.624	417.06
314.853	382.06
315.083	404.06
315.312	401.06
315.542	400.06
315.771	392.06
316.001	405.06
316.23	397.06
316.46	410.06
316.689	407.06
316.919	408.06
317.148	416.06
317.377	409.06
317.607	428.06
317.836	415.06
318.065	419.06
318.295	406.06
318.524	408.06
318.753	405.06
318.983	421.06
319.212	395.06
319.441	402.06
319.67	416.06
319.9	408.06
320.129	434.06
320.358	412.06
320.587	422.06
320.816	416.06
321.046	436.06
321.275	424.06
321.504	423.06
321.733	410.06
321.962	430.06
322.191	444.06
322.42	449.06
322.649	470.06
322.878	473.06
323.108	467.06
323.337	458.06
323.566	492.06
323.795	505.06
324.024	556.06
324.253	655.06
324.482	856.06
324.71	1237.06
324.939	1866.06
325.168	1660.06
325.397	866.06
325.626	615.06
325.855	539.06
326.084	508.06
326.313	483.06
326.542	516.06
326.77	534.06
326.999	615.06
327.228	790.06
327.457	1152.06
327.686	1432.06
327.914	974.06
328.143	668.06
328.372	620.06
328.6	577.06
328.829	556.06
329.058	562.06
329.287	571.06
329.515	541.06
329.744	545.06
329.972	522.06
330.201	539.06
330.43	553.06
330.658	594.06
330.887	584.06
331.115	560.06
331.344	542.06
331.572	501.06
331.801	521.06
332.03	529.06
332.258	502.06
332.486	485.06
332.715	494.06
332.943	492.06
333.172	474.06
333.4	501.06
333.629	525.06
333.857	534.06
334.085	514.06
334.314	562.06
334.542	577.06
334.771	565.06
334.999	538.06
335.227	518.06
335.455	489.06
335.684	500.06
335.912	518.06
336.14	484.06
336.369	498.06
336.597	507.06
336.825	502.06
337.053	497.06
337.281	479.06
337.51	480.06
337.738	506.06
337.966	488.06
338.194	475.06
338.422	487.06
338.65	490.06
338.878	478.06
339.106	475.06
339.334	470.06
339.562	487.06
339.79	491.06
340.018	489.06
340.246	471.06
340.474	479.06
340.702	465.06
340.93	470.06
341.158	463.06
341.386	469.06
341.614	460.06
341.842	477.06
342.07	463.06
342.298	465.06
342.526	454.06
342.754	454.06
342.981	450.06
343.209	461.06
343.437	475.06
343.665	463.06
343.893	473.06
344.12	505.06
344.348	487.06
344.576	490.06
344.804	474.06
345.031	472.06
345.259	484.06
345.487	468.06
345.714	469.06
345.942	473.06
346.17	465.06
346.397	426.06
346.625	454.06
346.853	454.06
347.08	442.06
347.308	458.06
347.535	469.06
347.763	451.06
347.99	455.06
348.218	457.06
348.445	488.06
348.673	462.06
348.9	457.06
349.128	449.06
349.355	444.06
349.583	462.06
349.81	461.06
350.037	425.06
350.265	444.06
350.492	441.06
350.72	452.06
350.947	466.06
351.174	459.06
351.402	461.06
351.629	455.06
351.856	477.06
352.083	468.06
352.311	458.06
352.538	457.06
352.765	475.06
352.992	461.06
353.22	457.06
353.447	470.06
353.674	421.06
353.901	449.06
354.128	442.06
354.355	444.06
354.583	438.06
354.81	442.06
355.037	444.06
355.264	426.06
355.491	444.06
355.718	418.06
355.945	463.06
356.172	451.06
356.399	453.06
356.626	423.06
356.853	436.06
357.08	436.06
357.307	440.06
357.534	438.06
357.761	444.06
357.988	445.06
358.215	445.06
358.441	425.06
358.668	422.06
358.895	434.06
359.122	453.06
359.349	449.06
359.576	435.06
359.802	453.06
360.029	480.06
360.256	505.06
360.483	478.06
360.709	462.06
360.936	461.06
361.163	458.06
361.39	455.06
361.616	462.06
361.843	428.06
362.07	465.06
362.296	454.06
362.523	466.06
362.749	459.06
362.976	462.06
363.203	461.06
363.429	453.06
363.656	458.06
363.882	445.06
364.109	450.06
364.335	448.06
364.562	421.06
364.788	437.06
365.015	444.06
365.241	446.06
365.468	442.06
365.694	449.06
365.92	450.06
366.147	441.06
366.373	444.06
366.599	438.06
366.826	445.06
367.052	430.06
367.278	452.06
367.505	418.06
367.731	451.06
367.957	453.06
368.184	444.06
368.41	458.06
368.636	470.06
368.862	482.06
369.089	465.06
369.315	460.06
369.541	458.06
369.767	439.06
369.993	452.06
370.219	453.06
370.445	443.06
370.672	461.06
370.898	465.06
371.124	462.06
371.35	464.06
371.576	452.06
371.802	441.06
372.028	452.06
372.254	462.06
372.48	457.06
372.706	462.06
372.932	473.06
373.158	470.06
373.384	465.06
373.61	467.06
373.835	473.06
374.061	474.06
374.287	460.06
374.513	467.06
374.739	459.06
374.965	486.06
375.191	468.06
375.416	480.06
375.642	478.06
375.868	436.06
376.094	475.06
376.319	460.06
376.545	433.06
376.771	460.06
376.997	453.06
377.222	467.06
377.448	481.06
377.674	451.06
377.899	468.06
378.125	442.06
378.35	460.06
378.576	468.06
378.802	463.06
379.027	469.06
379.253	470.06
379.478	441.06
379.704	473.06
379.929	447.06
380.155	452.06
380.38	472.06
380.606	462.06
380.831	447.06
381.057	453.06
381.282	460.06
381.507	460.06
381.733	459.06
381.958	463.06
382.184	466.06
382.409	486.06
382.634	473.06
382.86	485.06
383.085	459.06
383.31	473.06
383.535	475.06
383.761	454.06
383.986	488.06
384.211	499.06
384.436	500.06
384.662	512.06
384.887	505.06
385.112	502.06
385.337	499.06
385.562	498.06
385.787	503.06
386.013	513.06
386.238	515.06
386.463	525.06
386.688	514.06
386.913	521.06
387.138	515.06
387.363	525.06
387.588	482.06
387.813	498.06
388.038	528.06
388.263	505.06
388.488	513.06
388.713	537.06
388.938	515.06
389.163	537.06
389.387	548.06
389.612	540.06
389.837	510.06
390.062	507.06
390.287	517.06
390.512	510.06
390.736	526.06
390.961	510.06
391.186	516.06
391.411	526.06
391.636	525.06
391.86	532.06
392.085	534.06
392.31	530.06
392.534	543.06
392.759	531.06
392.984	548.06
393.208	527.06
393.433	520.06
393.658	518.06
393.882	513.06
394.107	503.06
394.331	514.06
394.556	524.06
394.78	540.06
395.005	535.06
395.229	524.06
395.454	527.06
395.678	514.06
395.903	556.06
396.127	572.06
396.352	558.06
396.576	561.06
396.801	532.06
397.025	545.06
397.249	534.06
397.474	567.06
397.698	558.06
397.922	574.06
398.147	590.06
398.371	613.06
398.595	595.06
398.82	608.06
399.044	622.06
399.268	637.06
399.492	690.06
399.717	735.06
399.941	746.06
400.165	761.06
400.389	757.06
400.613	691.06
400.837	657.06
401.062	604.06
401.286	612.06
401.51	598.06
401.734	615.06
401.958	609.06
402.182	593.06
402.406	615.06
402.63	619.06
402.854	597.06
403.078	616.06
403.302	613.06
403.526	625.06
403.75	635.06
403.974	645.06
404.198	633.06
404.422	645.06
404.645	644.06
404.869	643.06
405.093	682.06
405.317	726.06
405.541	745.06
405.765	698.06
405.988	663.06
406.212	650.06
406.436	692.06
406.66	700.06
406.883	676.06
407.107	704.06
407.331	736.06
407.555	824.06
407.778	821.06
408.002	725.06
408.226	716.06
408.449	698.06
408.673	673.06
408.896	716.06
409.12	747.06
409.344	732.06
409.567	659.06
409.791	643.06
410.014	638.06
410.238	629.06
410.461	620.06
410.685	619.06
410.908	662.06
411.132	670.06
411.355	684.06
411.578	673.06
411.802	636.06
412.025	630.06
412.249	612.06
412.472	662.06
412.695	683.06
412.919	688.06
413.142	629.06
413.365	618.06
413.589	600.06
413.812	622.06
414.035	588.06
414.258	601.06
414.482	613.06
414.705	596.06
414.928	562.06
415.151	599.06
415.374	592.06
415.597	589.06
415.821	577.06
416.044	588.06
416.267	597.06
416.49	578.06
416.713	566.06
416.936	590.06
417.159	580.06
417.382	587.06
417.605	585.06
417.828	604.06
418.051	626.06
418.274	593.06
418.497	593.06
418.72	609.06
418.943	603.06
419.166	631.06
419.389	662.06
419.611	655.06
419.834	630.06
420.057	616.06
420.28	632.06
420.503	606.06
420.726	624.06
420.948	619.06
421.171	650.06
421.394	662.06
421.617	617.06
421.839	608.06
422.062	631.06
422.285	634.06
422.507	694.06
422.73	764.06
422.953	758.06
423.175	653.06
423.398	640.06
423.621	634.06
423.843	672.06
424.066	674.06
424.288	655.06
424.511	689.06
424.733	728.06
424.956	802.06
425.178	776.06
425.401	782.06
425.623	780.06
425.846	689.06
426.068	661.06
426.291	649.06
426.513	644.06
426.735	645.06
426.958	705.06
427.18	774.06
427.402	908.06
427.625	984.06
427.847	840.06
428.069	763.06
428.292	681.06
428.514	631.06
428.736	638.06
428.958	641.06
429.181	598.06
429.403	610.06
429.625	629.06
429.847	656.06
430.069	683.06
430.292	721.06
430.514	629.06
430.736	606.06
430.958	603.06
431.18	585.06
431.402	551.06
431.624	569.06
431.846	578.06
432.068	585.06
432.29	580.06
432.512	565.06
432.734	597.06
432.956	576.06
433.178	600.06
433.4	602.06
433.622	568.06
433.844	579.06
434.066	583.06
434.287	590.06
434.509	592.06
434.731	587.06
434.953	612.06
435.175	612.06
435.397	644.06
435.618	650.06
435.84	675.06
436.062	779.06
436.284	857.06
436.505	720.06
436.727	659.06
436.949	627.06
437.17	585.06
437.392	581.06
437.614	595.06
437.835	646.06
438.057	716.06
438.278	814.06
438.5	845.06
438.721	905.06
438.943	886.06
439.165	694.06
439.386	669.06
439.608	650.06
439.829	653.06
440.05	665.06
440.272	682.06
440.493	660.06
440.715	640.06
440.936	619.06
441.158	632.06
441.379	613.06
441.6	634.06
441.822	652.06
442.043	674.06
442.264	761.06
442.486	822.06
442.707	716.06
442.928	658.06
443.149	664.06
443.371	684.06
443.592	725.06
443.813	822.06
444.034	902.06
444.255	760.06
444.476	686.06
444.698	684.06
444.919	698.06
445.14	786.06
445.361	726.06
445.582	702.06
445.803	762.06
446.024	837.06
446.245	824.06
446.466	764.06
446.687	678.06
446.908	654.06
447.129	624.06
447.35	601.06
447.571	603.06
447.792	583.06
448.013	595.06
448.234	590.06
448.455	663.06
448.675	756.06
448.896	943.06
449.117	772.06
449.338	727.06
449.559	824.06
449.779	937.06
450	776.06
450.221	671.06
450.442	594.06
450.662	595.06
450.883	582.06
451.104	550.06
451.324	569.06
451.545	556.06
451.766	568.06
451.986	532.06
452.207	523.06
452.428	551.06
452.648	529.06
452.869	518.06
453.089	541.06
453.31	563.06
453.53	519.06
453.751	537.06
453.971	531.06
454.192	529.06
454.412	529.06
454.633	509.06
454.853	544.06
455.073	514.06
455.294	553.06
455.514	635.06
455.734	599.06
455.955	530.06
456.175	529.06
456.395	494.06
456.616	475.06
456.836	522.06
457.056	494.06
457.276	491.06
457.497	502.06
457.717	510.06
457.937	501.06
458.157	515.06
458.377	529.06
458.598	546.06
458.818	592.06
459.038	658.06
459.258	715.06
459.478	606.06
459.698	564.06
459.918	560.06
460.138	576.06
460.358	592.06
460.578	596.06
460.798	590.06
461.018	609.06
461.238	587.06
461.458	588.06
461.678	591.06
461.898	610.06
462.118	616.06
462.338	624.06
462.558	629.06
462.777	640.06
462.997	676.06
463.217	683.06
463.437	683.06
463.657	688.06
463.876	665.06
464.096	640.06
464.316	670.06
464.536	666.06
464.755	645.06
464.975	626.06
465.195	663.06
465.414	711.06
465.634	643.06
465.854	608.06
466.073	577.06
466.293	583.06
466.512	593.06
466.732	568.06
466.951	564.06
467.171	552.06
467.391	572.06
467.61	544.06
467.829	564.06
468.049	562.06
468.268	546.06
468.488	555.06
468.707	537.06
468.927	546.06
469.146	522.06
469.365	548.06
469.585	527.06
469.804	567.06
470.023	556.06
470.243	558.06
470.462	556.06
470.681	583.06
470.901	569.06
471.12	564.06
471.339	558.06
471.558	563.06
471.777	568.06
471.997	539.06
472.216	555.06
472.435	563.06
472.654	562.06
472.873	563.06
473.092	573.06
473.311	535.06
473.53	561.06
473.749	573.06
473.968	612.06
474.187	703.06
474.406	716.06
474.625	610.06
474.844	561.06
475.063	569.06
475.282	549.06
475.501	552.06
475.72	570.06
475.939	562.06
476.158	568.06
476.377	579.06
476.596	592.06
476.814	575.06
477.033	586.06
477.252	588.06
477.471	605.06
477.69	592.06
477.908	598.06
478.127	617.06
478.346	595.06
478.564	635.06
478.783	604.06
479.002	644.06
479.22	640.06
479.439	660.06
479.658	652.06
479.876	668.06
480.095	676.06
480.313	693.06
480.532	696.06
480.751	703.06
480.969	698.06
481.188	722.06
481.406	766.06
481.624	708.06
481.843	670.06
482.061	661.06
482.28	654.06
482.498	635.06
482.717	634.06
482.935	639.06
483.153	645.06
483.372	650.06
483.59	642.06
483.808	646.06
484.027	649.06
484.245	643.06
484.463	649.06
484.681	668.06
484.9	674.06
485.118	665.06
485.336	678.06
485.554	677.06
485.772	675.06
485.99	660.06
486.209	688.06
486.427	667.06
486.645	679.06
486.863	702.06
487.081	709.06
487.299	693.06
487.517	739.06
487.735	696.06
487.953	702.06
488.171	719.06
488.389	684.06
488.607	665.06
488.825	696.06
489.043	723.06
489.261	719.06
489.479	700.06
489.696	701.06
489.914	736.06
490.132	740.06
490.35	758.06
490.568	744.06
490.786	772.06
491.003	770.06
491.221	782.06
491.439	780.06
491.657	817.06
491.874	824.06
492.092	792.06
492.31	822.06
492.527	797.06
492.745	832.06
492.963	796.06
493.18	832.06
493.398	837.06
493.615	828.06
493.833	839.06
494.05	832.06
494.268	846.06
494.485	850.06
494.703	827.06
494.92	831.06
495.138	850.06
495.355	833.06
495.573	854.06
495.79	848.06
496.008	854.06
496.225	844.06
496.442	827.06
496.66	846.06
496.877	836.06
497.094	848.06
497.312	848.06
497.529	881.06
497.746	892.06
497.963	871.06
498.181	936.06
498.398	926.06
498.615	971.06
498.832	978.06
499.049	1005.06
499.267	1008.06
499.484	1068.06
499.701	1136.06
499.918	1170.06
500.135	1245.06
500.352	1305.06
500.569	1338.06
500.786	1332.06
501.003	1323.06
501.22	1230.06
501.437	1206.06
501.654	1137.06
