Data from 1974.PennyLincolnUp.Lamp.En5.5.200Scan.071719.P1.Changed Mount._HRD10591_15-52-07-856.txt Node
Date: Thu Jul 18 15:52:07 EDT 2019
User: cochatt
Spectrometer: HR+D1059
Trigger mode: 1
Integration Time (sec): 1.000000E-1
Scans to average: 1
Electric dark correction enabled: true
Nonlinearity correction enabled: false
Boxcar width: 0
XAxis mode: Wavelengths
Number of Pixels in Spectrum: 2048
>>>>>Begin Spectral Data<<<<<
223.165	-13.94
223.4	-13.94
223.635	-13.94
223.869	-10.94
224.104	-17.94
224.338	-9.94
224.573	-17.94
224.808	0.06
225.042	-17.94
225.277	2.06
225.511	-13.94
225.746	2.06
225.98	20.06
226.215	9.06
226.449	11.06
226.683	18.06
226.918	14.06
227.152	26.06
227.387	42.06
227.621	50.06
227.856	52.06
228.09	45.06
228.324	49.06
228.559	48.06
228.793	65.06
229.027	102.06
229.262	112.06
229.496	104.06
229.73	123.06
229.964	156.06
230.199	123.06
230.433	127.06
230.667	124.06
230.901	129.06
231.136	118.06
231.37	121.06
231.604	120.06
231.838	120.06
232.072	107.06
232.306	116.06
232.541	117.06
232.775	130.06
233.009	113.06
233.243	120.06
233.477	126.06
233.711	132.06
233.945	114.06
234.179	101.06
234.413	114.06
234.647	124.06
234.881	124.06
235.115	132.06
235.349	137.06
235.583	131.06
235.817	120.06
236.051	130.06
236.285	131.06
236.519	135.06
236.753	134.06
236.987	142.06
237.221	174.06
237.455	253.06
237.689	182.06
237.922	146.06
238.156	139.06
238.39	146.06
238.624	140.06
238.858	123.06
239.091	131.06
239.325	138.06
239.559	131.06
239.793	140.06
240.027	135.06
240.26	142.06
240.494	172.06
240.728	166.06
240.961	155.06
241.195	163.06
241.429	139.06
241.662	148.06
241.896	147.06
242.13	154.06
242.363	136.06
242.597	151.06
242.83	148.06
243.064	142.06
243.298	137.06
243.531	134.06
243.765	146.06
243.998	159.06
244.232	159.06
244.465	131.06
244.699	144.06
244.932	146.06
245.166	155.06
245.399	152.06
245.633	158.06
245.866	164.06
246.099	163.06
246.333	168.06
246.566	147.06
246.8	169.06
247.033	166.06
247.266	171.06
247.5	170.06
247.733	172.06
247.966	185.06
248.2	173.06
248.433	191.06
248.666	188.06
248.899	193.06
249.133	195.06
249.366	208.06
249.599	209.06
249.832	198.06
250.066	187.06
250.299	193.06
250.532	198.06
250.765	218.06
250.998	220.06
251.231	243.06
251.465	230.06
251.698	213.06
251.931	209.06
252.164	216.06
252.397	206.06
252.63	211.06
252.863	207.06
253.096	220.06
253.329	234.06
253.562	229.06
253.795	222.06
254.028	228.06
254.261	223.06
254.494	239.06
254.727	256.06
254.96	262.06
255.193	302.06
255.426	249.06
255.659	244.06
255.892	256.06
256.124	248.06
256.357	244.06
256.59	245.06
256.823	233.06
257.056	217.06
257.289	208.06
257.521	215.06
257.754	227.06
257.987	215.06
258.22	231.06
258.452	227.06
258.685	205.06
258.918	211.06
259.151	219.06
259.383	224.06
259.616	226.06
259.849	235.06
260.081	229.06
260.314	270.06
260.547	254.06
260.779	240.06
261.012	253.06
261.244	246.06
261.477	235.06
261.71	224.06
261.942	222.06
262.175	233.06
262.407	243.06
262.64	231.06
262.872	215.06
263.105	205.06
263.337	214.06
263.57	234.06
263.802	209.06
264.035	202.06
264.267	202.06
264.499	230.06
264.732	230.06
264.964	214.06
265.197	228.06
265.429	236.06
265.661	222.06
265.894	230.06
266.126	236.06
266.358	207.06
266.591	236.06
266.823	253.06
267.055	232.06
267.287	239.06
267.52	237.06
267.752	259.06
267.984	244.06
268.216	232.06
268.448	249.06
268.681	252.06
268.913	252.06
269.145	266.06
269.377	267.06
269.609	288.06
269.841	288.06
270.073	289.06
270.306	291.06
270.538	318.06
270.77	319.06
271.002	302.06
271.234	310.06
271.466	297.06
271.698	305.06
271.93	315.06
272.162	318.06
272.394	316.06
272.626	314.06
272.858	302.06
273.09	282.06
273.322	285.06
273.553	272.06
273.785	275.06
274.017	277.06
274.249	280.06
274.481	285.06
274.713	271.06
274.945	282.06
275.176	297.06
275.408	280.06
275.64	259.06
275.872	288.06
276.104	282.06
276.335	266.06
276.567	297.06
276.799	284.06
277.031	324.06
277.262	319.06
277.494	310.06
277.726	294.06
277.957	306.06
278.189	279.06
278.421	290.06
278.652	288.06
278.884	292.06
279.115	280.06
279.347	282.06
279.579	273.06
279.81	285.06
280.042	285.06
280.273	274.06
280.505	275.06
280.736	287.06
280.968	290.06
281.199	291.06
281.431	270.06
281.662	291.06
281.894	283.06
282.125	295.06
282.356	301.06
282.588	309.06
282.819	314.06
283.051	299.06
283.282	288.06
283.513	296.06
283.745	281.06
283.976	296.06
284.207	315.06
284.439	305.06
284.67	310.06
284.901	283.06
285.132	312.06
285.364	287.06
285.595	296.06
285.826	310.06
286.057	291.06
286.288	291.06
286.52	313.06
286.751	296.06
286.982	289.06
287.213	313.06
287.444	297.06
287.675	299.06
287.906	327.06
288.138	330.06
288.369	312.06
288.6	314.06
288.831	314.06
289.062	316.06
289.293	328.06
289.524	292.06
289.755	318.06
289.986	301.06
290.217	321.06
290.448	302.06
290.679	317.06
290.91	323.06
291.141	303.06
291.371	310.06
291.602	329.06
291.833	318.06
292.064	311.06
292.295	312.06
292.526	315.06
292.757	332.06
292.987	329.06
293.218	300.06
293.449	315.06
293.68	308.06
293.91	307.06
294.141	306.06
294.372	297.06
294.603	305.06
294.833	323.06
295.064	304.06
295.295	300.06
295.525	331.06
295.756	331.06
295.987	324.06
296.217	322.06
296.448	340.06
296.679	323.06
296.909	320.06
297.14	334.06
297.37	309.06
297.601	325.06
297.831	340.06
298.062	322.06
298.292	331.06
298.523	317.06
298.753	323.06
298.984	331.06
299.214	335.06
299.445	304.06
299.675	334.06
299.905	346.06
300.136	326.06
300.366	347.06
300.597	326.06
300.827	322.06
301.057	340.06
301.288	366.06
301.518	339.06
301.748	352.06
301.979	340.06
302.209	344.06
302.439	362.06
302.669	359.06
302.9	341.06
303.13	344.06
303.36	335.06
303.59	360.06
303.82	371.06
304.051	354.06
304.281	355.06
304.511	364.06
304.741	353.06
304.971	355.06
305.201	354.06
305.431	353.06
305.661	347.06
305.891	338.06
306.121	349.06
306.352	357.06
306.582	349.06
306.812	361.06
307.042	352.06
307.272	361.06
307.502	340.06
307.731	342.06
307.961	357.06
308.191	342.06
308.421	339.06
308.651	371.06
308.881	367.06
309.111	366.06
309.341	369.06
309.571	376.06
309.8	378.06
310.03	379.06
310.26	378.06
310.49	382.06
310.72	374.06
310.949	395.06
311.179	416.06
311.409	386.06
311.639	409.06
311.868	397.06
312.098	391.06
312.328	412.06
312.557	386.06
312.787	393.06
313.017	420.06
313.246	396.06
313.476	388.06
313.706	381.06
313.935	398.06
314.165	413.06
314.394	385.06
314.624	400.06
314.853	406.06
315.083	401.06
315.312	400.06
315.542	394.06
315.771	399.06
316.001	381.06
316.23	369.06
316.46	388.06
316.689	410.06
316.919	406.06
317.148	402.06
317.377	404.06
317.607	403.06
317.836	396.06
318.065	391.06
318.295	380.06
318.524	391.06
318.753	385.06
318.983	402.06
319.212	378.06
319.441	399.06
319.67	392.06
319.9	402.06
320.129	393.06
320.358	398.06
320.587	407.06
320.816	420.06
321.046	403.06
321.275	392.06
321.504	402.06
321.733	423.06
321.962	417.06
322.191	419.06
322.42	443.06
322.649	463.06
322.878	428.06
323.108	448.06
323.337	475.06
323.566	464.06
323.795	499.06
324.024	527.06
324.253	573.06
324.482	803.06
324.71	1159.06
324.939	1735.06
325.168	1522.06
325.397	809.06
325.626	590.06
325.855	492.06
326.084	466.06
326.313	471.06
326.542	487.06
326.77	499.06
326.999	583.06
327.228	739.06
327.457	1075.06
327.686	1318.06
327.914	916.06
328.143	624.06
328.372	559.06
328.6	546.06
328.829	522.06
329.058	525.06
329.287	536.06
329.515	523.06
329.744	495.06
329.972	480.06
330.201	522.06
330.43	551.06
330.658	559.06
330.887	573.06
331.115	528.06
331.344	517.06
331.572	502.06
331.801	498.06
332.03	476.06
332.258	495.06
332.486	466.06
332.715	478.06
332.943	464.06
333.172	492.06
333.4	474.06
333.629	497.06
333.857	505.06
334.085	496.06
334.314	512.06
334.542	527.06
334.771	558.06
334.999	520.06
335.227	509.06
335.455	494.06
335.684	499.06
335.912	476.06
336.14	491.06
336.369	467.06
336.597	487.06
336.825	466.06
337.053	454.06
337.281	467.06
337.51	468.06
337.738	460.06
337.966	453.06
338.194	461.06
338.422	460.06
338.65	479.06
338.878	451.06
339.106	443.06
339.334	454.06
339.562	467.06
339.79	463.06
340.018	447.06
340.246	447.06
340.474	455.06
340.702	453.06
340.93	456.06
341.158	459.06
341.386	452.06
341.614	447.06
341.842	429.06
342.07	448.06
342.298	454.06
342.526	443.06
342.754	430.06
342.981	431.06
343.209	461.06
343.437	436.06
343.665	444.06
343.893	470.06
344.12	467.06
344.348	476.06
344.576	473.06
344.804	457.06
345.031	484.06
345.259	448.06
345.487	462.06
345.714	434.06
345.942	446.06
346.17	446.06
346.397	448.06
346.625	432.06
346.853	444.06
347.08	433.06
347.308	412.06
347.535	438.06
347.763	457.06
347.99	442.06
348.218	430.06
348.445	449.06
348.673	430.06
348.9	444.06
349.128	452.06
349.355	441.06
349.583	432.06
349.81	438.06
350.037	433.06
350.265	423.06
350.492	426.06
350.72	429.06
350.947	444.06
351.174	458.06
351.402	436.06
351.629	433.06
351.856	452.06
352.083	431.06
352.311	446.06
352.538	464.06
352.765	444.06
352.992	432.06
353.22	426.06
353.447	442.06
353.674	428.06
353.901	446.06
354.128	458.06
354.355	427.06
354.583	420.06
354.81	422.06
355.037	438.06
355.264	423.06
355.491	411.06
355.718	430.06
355.945	403.06
356.172	435.06
356.399	419.06
356.626	384.06
356.853	423.06
357.08	420.06
357.307	431.06
357.534	406.06
357.761	424.06
357.988	434.06
358.215	405.06
358.441	432.06
358.668	431.06
358.895	433.06
359.122	435.06
359.349	427.06
359.576	452.06
359.802	456.06
360.029	463.06
360.256	481.06
360.483	455.06
360.709	416.06
360.936	428.06
361.163	451.06
361.39	443.06
361.616	435.06
361.843	446.06
362.07	439.06
362.296	444.06
362.523	467.06
362.749	452.06
362.976	445.06
363.203	429.06
363.429	439.06
363.656	423.06
363.882	408.06
364.109	432.06
364.335	430.06
364.562	417.06
364.788	421.06
365.015	442.06
365.241	426.06
365.468	427.06
365.694	437.06
365.92	447.06
366.147	427.06
366.373	450.06
366.599	443.06
366.826	432.06
367.052	433.06
367.278	434.06
367.505	439.06
367.731	431.06
367.957	433.06
368.184	443.06
368.41	440.06
368.636	458.06
368.862	429.06
369.089	423.06
369.315	438.06
369.541	426.06
369.767	417.06
369.993	431.06
370.219	418.06
370.445	451.06
370.672	428.06
370.898	440.06
371.124	433.06
371.35	436.06
371.576	456.06
371.802	443.06
372.028	427.06
372.254	442.06
372.48	447.06
372.706	443.06
372.932	446.06
373.158	451.06
373.384	446.06
373.61	457.06
373.835	444.06
374.061	441.06
374.287	466.06
374.513	455.06
374.739	440.06
374.965	465.06
375.191	465.06
375.416	453.06
375.642	449.06
375.868	463.06
376.094	443.06
376.319	453.06
376.545	440.06
376.771	445.06
376.997	433.06
377.222	447.06
377.448	434.06
377.674	440.06
377.899	446.06
378.125	442.06
378.35	436.06
378.576	449.06
378.802	435.06
379.027	451.06
379.253	435.06
379.478	426.06
379.704	435.06
379.929	422.06
380.155	440.06
380.38	473.06
380.606	446.06
380.831	441.06
381.057	446.06
381.282	430.06
381.507	442.06
381.733	434.06
381.958	429.06
382.184	467.06
382.409	469.06
382.634	458.06
382.86	464.06
383.085	456.06
383.31	469.06
383.535	479.06
383.761	470.06
383.986	480.06
384.211	465.06
384.436	475.06
384.662	486.06
384.887	500.06
385.112	492.06
385.337	478.06
385.562	493.06
385.787	481.06
386.013	486.06
386.238	498.06
386.463	499.06
386.688	501.06
386.913	491.06
387.138	495.06
387.363	495.06
387.588	514.06
387.813	498.06
388.038	492.06
388.263	489.06
388.488	494.06
388.713	480.06
388.938	507.06
389.163	483.06
389.387	491.06
389.612	496.06
389.837	513.06
390.062	495.06
390.287	472.06
390.512	500.06
390.736	495.06
390.961	512.06
391.186	484.06
391.411	502.06
391.636	500.06
391.86	512.06
392.085	550.06
392.31	533.06
392.534	544.06
392.759	537.06
392.984	504.06
393.208	496.06
393.433	503.06
393.658	492.06
393.882	500.06
394.107	503.06
394.331	508.06
394.556	494.06
394.78	480.06
395.005	496.06
395.229	523.06
395.454	510.06
395.678	518.06
395.903	506.06
396.127	564.06
396.352	552.06
396.576	521.06
396.801	510.06
397.025	531.06
397.249	522.06
397.474	533.06
397.698	540.06
397.922	556.06
398.147	566.06
398.371	570.06
398.595	532.06
398.82	588.06
399.044	585.06
399.268	624.06
399.492	653.06
399.717	690.06
399.941	692.06
400.165	738.06
400.389	719.06
400.613	644.06
400.837	617.06
401.062	590.06
401.286	597.06
401.51	583.06
401.734	577.06
401.958	576.06
402.182	601.06
402.406	590.06
402.63	584.06
402.854	587.06
403.078	590.06
403.302	603.06
403.526	591.06
403.75	614.06
403.974	607.06
404.198	625.06
404.422	614.06
404.645	619.06
404.869	613.06
405.093	654.06
405.317	679.06
405.541	706.06
405.765	653.06
405.988	637.06
406.212	646.06
406.436	653.06
406.66	668.06
406.883	634.06
407.107	638.06
407.331	731.06
407.555	773.06
407.778	808.06
408.002	733.06
408.226	677.06
408.449	679.06
408.673	654.06
408.896	661.06
409.12	723.06
409.344	703.06
409.567	645.06
409.791	626.06
410.014	598.06
410.238	607.06
410.461	625.06
410.685	632.06
410.908	606.06
411.132	662.06
411.355	703.06
411.578	655.06
411.802	650.06
412.025	609.06
412.249	596.06
412.472	609.06
412.695	670.06
412.919	668.06
413.142	593.06
413.365	598.06
413.589	586.06
413.812	570.06
414.035	551.06
414.258	572.06
414.482	604.06
414.705	599.06
414.928	570.06
415.151	575.06
415.374	570.06
415.597	586.06
415.821	576.06
416.044	587.06
416.267	584.06
416.49	576.06
416.713	571.06
416.936	560.06
417.159	546.06
417.382	557.06
417.605	562.06
417.828	551.06
418.051	581.06
418.274	581.06
418.497	567.06
418.72	599.06
418.943	580.06
419.166	606.06
419.389	609.06
419.611	614.06
419.834	603.06
420.057	603.06
420.28	603.06
420.503	593.06
420.726	599.06
420.948	625.06
421.171	629.06
421.394	684.06
421.617	607.06
421.839	594.06
422.062	596.06
422.285	602.06
422.507	665.06
422.73	751.06
422.953	710.06
423.175	672.06
423.398	620.06
423.621	634.06
423.843	654.06
424.066	646.06
424.288	643.06
424.511	640.06
424.733	682.06
424.956	776.06
425.178	758.06
425.401	733.06
425.623	764.06
425.846	657.06
426.068	625.06
426.291	598.06
426.513	617.06
426.735	619.06
426.958	658.06
427.18	719.06
427.402	858.06
427.625	918.06
427.847	814.06
428.069	720.06
428.292	650.06
428.514	605.06
428.736	592.06
428.958	601.06
429.181	571.06
429.403	559.06
429.625	563.06
429.847	617.06
430.069	682.06
430.292	660.06
430.514	585.06
430.736	578.06
430.958	578.06
431.18	559.06
431.402	538.06
431.624	538.06
431.846	554.06
432.068	541.06
432.29	578.06
432.512	548.06
432.734	563.06
432.956	570.06
433.178	582.06
433.4	572.06
433.622	551.06
433.844	531.06
434.066	553.06
434.287	556.06
434.509	560.06
434.731	588.06
434.953	589.06
435.175	596.06
435.397	620.06
435.618	618.06
435.84	643.06
436.062	752.06
436.284	786.06
436.505	713.06
436.727	620.06
436.949	572.06
437.17	576.06
437.392	553.06
437.614	578.06
437.835	611.06
438.057	698.06
438.278	802.06
438.5	798.06
438.721	902.06
438.943	854.06
439.165	657.06
439.386	634.06
439.608	630.06
439.829	622.06
440.05	628.06
440.272	690.06
440.493	622.06
440.715	583.06
440.936	590.06
441.158	582.06
441.379	570.06
441.6	583.06
441.822	604.06
442.043	633.06
442.264	739.06
442.486	776.06
442.707	687.06
442.928	631.06
443.149	670.06
443.371	658.06
443.592	677.06
443.813	798.06
444.034	861.06
444.255	724.06
444.476	682.06
444.698	656.06
444.919	663.06
445.14	777.06
445.361	686.06
445.582	664.06
445.803	727.06
446.024	839.06
446.245	833.06
446.466	732.06
446.687	645.06
446.908	616.06
447.129	603.06
447.35	576.06
447.571	579.06
447.792	564.06
448.013	586.06
448.234	584.06
448.455	646.06
448.675	746.06
448.896	835.06
449.117	718.06
449.338	702.06
449.559	786.06
449.779	894.06
450	743.06
450.221	634.06
450.442	572.06
450.662	564.06
450.883	561.06
451.104	556.06
451.324	549.06
451.545	526.06
451.766	543.06
451.986	528.06
452.207	508.06
452.428	538.06
452.648	502.06
452.869	492.06
453.089	532.06
453.31	532.06
453.53	518.06
453.751	506.06
453.971	516.06
454.192	518.06
454.412	502.06
454.633	523.06
454.853	497.06
455.073	502.06
455.294	526.06
455.514	585.06
455.734	562.06
455.955	508.06
456.175	486.06
456.395	479.06
456.616	484.06
456.836	487.06
457.056	468.06
457.276	466.06
457.497	480.06
457.717	495.06
457.937	508.06
458.157	494.06
458.377	495.06
458.598	524.06
458.818	567.06
459.038	626.06
459.258	650.06
459.478	573.06
459.698	556.06
459.918	561.06
460.138	554.06
460.358	567.06
460.578	573.06
460.798	591.06
461.018	576.06
461.238	590.06
461.458	576.06
461.678	572.06
461.898	584.06
462.118	620.06
462.338	584.06
462.558	602.06
462.777	596.06
462.997	624.06
463.217	669.06
463.437	652.06
463.657	613.06
463.876	617.06
464.096	633.06
464.316	627.06
464.536	621.06
464.755	637.06
464.975	605.06
465.195	620.06
465.414	687.06
465.634	611.06
465.854	557.06
466.073	570.06
466.293	568.06
466.512	540.06
466.732	543.06
466.951	517.06
467.171	524.06
467.391	570.06
467.61	534.06
467.829	542.06
468.049	551.06
468.268	529.06
468.488	518.06
468.707	498.06
468.927	524.06
469.146	497.06
469.365	486.06
469.585	507.06
469.804	543.06
470.023	527.06
470.243	528.06
470.462	553.06
470.681	558.06
470.901	558.06
471.12	539.06
471.339	545.06
471.558	555.06
471.777	551.06
471.997	531.06
472.216	549.06
472.435	552.06
472.654	529.06
472.873	524.06
473.092	524.06
473.311	532.06
473.53	530.06
473.749	541.06
473.968	562.06
474.187	668.06
474.406	680.06
474.625	587.06
474.844	555.06
475.063	540.06
475.282	522.06
475.501	554.06
475.72	539.06
475.939	558.06
476.158	542.06
476.377	553.06
476.596	542.06
476.814	567.06
477.033	564.06
477.252	567.06
477.471	566.06
477.69	561.06
477.908	593.06
478.127	577.06
478.346	601.06
478.564	612.06
478.783	623.06
479.002	600.06
479.22	601.06
479.439	621.06
479.658	636.06
479.876	641.06
480.095	642.06
480.313	685.06
480.532	673.06
480.751	660.06
480.969	670.06
481.188	687.06
481.406	732.06
481.624	670.06
481.843	650.06
482.061	634.06
482.28	630.06
482.498	611.06
482.717	610.06
482.935	631.06
483.153	635.06
483.372	626.06
483.59	623.06
483.808	614.06
484.027	602.06
484.245	607.06
484.463	630.06
484.681	645.06
484.9	647.06
485.118	617.06
485.336	656.06
485.554	651.06
485.772	651.06
485.99	655.06
486.209	665.06
486.427	650.06
486.645	657.06
486.863	681.06
487.081	676.06
487.299	681.06
487.517	680.06
487.735	656.06
487.953	685.06
488.171	665.06
488.389	648.06
488.607	666.06
488.825	671.06
489.043	663.06
489.261	683.06
489.479	721.06
489.696	715.06
489.914	701.06
490.132	685.06
490.35	684.06
490.568	725.06
490.786	712.06
491.003	708.06
491.221	719.06
491.439	732.06
491.657	752.06
491.874	749.06
492.092	763.06
492.31	788.06
492.527	807.06
492.745	787.06
492.963	791.06
493.18	805.06
493.398	799.06
493.615	798.06
493.833	780.06
494.05	787.06
494.268	796.06
494.485	798.06
494.703	797.06
494.92	817.06
495.138	799.06
495.355	786.06
495.573	768.06
495.79	788.06
496.008	806.06
496.225	799.06
496.442	776.06
496.66	808.06
496.877	801.06
497.094	818.06
497.312	851.06
497.529	816.06
497.746	834.06
497.963	839.06
498.181	875.06
498.398	883.06
498.615	1432.06
498.832	952.06
499.049	957.06
499.267	965.06
499.484	1017.06
499.701	1085.06
499.918	1122.06
500.135	1178.06
500.352	1271.06
500.569	1262.06
500.786	1296.06
501.003	1271.06
501.22	1235.06
501.437	1144.06
501.654	1085.06
