Data from 1974.PennyLincolnUp.Lamp.En5.5.200Scan.071719.P1.Changed Mount._HRD10591_15-53-12-857.txt Node
Date: Thu Jul 18 15:53:12 EDT 2019
User: cochatt
Spectrometer: HR+D1059
Trigger mode: 1
Integration Time (sec): 1.000000E-1
Scans to average: 1
Electric dark correction enabled: true
Nonlinearity correction enabled: false
Boxcar width: 0
XAxis mode: Wavelengths
Number of Pixels in Spectrum: 2048
>>>>>Begin Spectral Data<<<<<
223.165	-4.69
223.4	-4.69
223.635	-4.69
223.869	-17.69
224.104	-22.69
224.338	-30.69
224.573	-6.69
224.808	-5.69
225.042	-6.69
225.277	-10.69
225.511	-10.69
225.746	10.31
225.98	5.31
226.215	14.31
226.449	11.31
226.683	18.31
226.918	30.31
227.152	26.31
227.387	27.31
227.621	32.31
227.856	30.31
228.09	45.31
228.324	54.31
228.559	58.31
228.793	67.31
229.027	91.31
229.262	100.31
229.496	108.31
229.73	151.31
229.964	159.31
230.199	141.31
230.433	117.31
230.667	109.31
230.901	117.31
231.136	114.31
231.37	122.31
231.604	120.31
231.838	117.31
232.072	117.31
232.306	115.31
232.541	121.31
232.775	115.31
233.009	128.31
233.243	118.31
233.477	128.31
233.711	115.31
233.945	114.31
234.179	124.31
234.413	130.31
234.647	121.31
234.881	124.31
235.115	115.31
235.349	129.31
235.583	133.31
235.817	127.31
236.051	125.31
236.285	114.31
236.519	139.31
236.753	133.31
236.987	140.31
237.221	182.31
237.455	237.31
237.689	210.31
237.922	152.31
238.156	154.31
238.39	152.31
238.624	130.31
238.858	135.31
239.091	132.31
239.325	140.31
239.559	134.31
239.793	142.31
240.027	152.31
240.26	157.31
240.494	158.31
240.728	159.31
240.961	157.31
241.195	150.31
241.429	139.31
241.662	145.31
241.896	146.31
242.13	162.31
242.363	139.31
242.597	138.31
242.83	135.31
243.064	139.31
243.298	144.31
243.531	148.31
243.765	148.31
243.998	166.31
244.232	166.31
244.465	138.31
244.699	157.31
244.932	149.31
245.166	143.31
245.399	155.31
245.633	159.31
245.866	148.31
246.099	163.31
246.333	177.31
246.566	167.31
246.8	179.31
247.033	169.31
247.266	156.31
247.5	174.31
247.733	186.31
247.966	198.31
248.2	181.31
248.433	187.31
248.666	179.31
248.899	201.31
249.133	213.31
249.366	221.31
249.599	228.31
249.832	191.31
250.066	185.31
250.299	195.31
250.532	210.31
250.765	228.31
250.998	241.31
251.231	239.31
251.465	246.31
251.698	224.31
251.931	214.31
252.164	213.31
252.397	215.31
252.63	212.31
252.863	222.31
253.096	233.31
253.329	240.31
253.562	246.31
253.795	215.31
254.028	220.31
254.261	233.31
254.494	243.31
254.727	276.31
254.96	293.31
255.193	284.31
255.426	268.31
255.659	234.31
255.892	243.31
256.124	234.31
256.357	258.31
256.59	242.31
256.823	233.31
257.056	229.31
257.289	221.31
257.521	228.31
257.754	230.31
257.987	215.31
258.22	225.31
258.452	234.31
258.685	231.31
258.918	219.31
259.151	217.31
259.383	235.31
259.616	258.31
259.849	236.31
260.081	263.31
260.314	266.31
260.547	258.31
260.779	273.31
261.012	265.31
261.244	242.31
261.477	255.31
261.71	249.31
261.942	255.31
262.175	238.31
262.407	232.31
262.64	227.31
262.872	231.31
263.105	210.31
263.337	222.31
263.57	230.31
263.802	241.31
264.035	227.31
264.267	240.31
264.499	235.31
264.732	236.31
264.964	226.31
265.197	239.31
265.429	231.31
265.661	222.31
265.894	219.31
266.126	227.31
266.358	231.31
266.591	232.31
266.823	250.31
267.055	242.31
267.287	243.31
267.52	234.31
267.752	255.31
267.984	237.31
268.216	259.31
268.448	252.31
268.681	246.31
268.913	264.31
269.145	266.31
269.377	295.31
269.609	300.31
269.841	283.31
270.073	281.31
270.306	297.31
270.538	345.31
270.77	355.31
271.002	331.31
271.234	327.31
271.466	316.31
271.698	324.31
271.93	327.31
272.162	336.31
272.394	341.31
272.626	328.31
272.858	287.31
273.09	281.31
273.322	310.31
273.553	277.31
273.785	275.31
274.017	270.31
274.249	293.31
274.481	287.31
274.713	283.31
274.945	299.31
275.176	289.31
275.408	294.31
275.64	278.31
275.872	288.31
276.104	289.31
276.335	292.31
276.567	296.31
276.799	295.31
277.031	316.31
277.262	321.31
277.494	351.31
277.726	327.31
277.957	312.31
278.189	294.31
278.421	296.31
278.652	286.31
278.884	272.31
279.115	305.31
279.347	297.31
279.579	289.31
279.81	281.31
280.042	288.31
280.273	303.31
280.505	291.31
280.736	298.31
280.968	282.31
281.199	282.31
281.431	310.31
281.662	305.31
281.894	295.31
282.125	298.31
282.356	314.31
282.588	315.31
282.819	353.31
283.051	306.31
283.282	296.31
283.513	314.31
283.745	325.31
283.976	303.31
284.207	306.31
284.439	329.31
284.67	346.31
284.901	298.31
285.132	312.31
285.364	318.31
285.595	298.31
285.826	302.31
286.057	293.31
286.288	302.31
286.52	314.31
286.751	312.31
286.982	314.31
287.213	328.31
287.444	313.31
287.675	323.31
287.906	317.31
288.138	305.31
288.369	332.31
288.6	344.31
288.831	325.31
289.062	329.31
289.293	305.31
289.524	330.31
289.755	318.31
289.986	322.31
290.217	321.31
290.448	336.31
290.679	331.31
290.91	337.31
291.141	328.31
291.371	316.31
291.602	298.31
291.833	330.31
292.064	335.31
292.295	321.31
292.526	329.31
292.757	311.31
292.987	301.31
293.218	320.31
293.449	330.31
293.68	327.31
293.91	335.31
294.141	341.31
294.372	336.31
294.603	313.31
294.833	322.31
295.064	325.31
295.295	330.31
295.525	320.31
295.756	334.31
295.987	352.31
296.217	336.31
296.448	350.31
296.679	339.31
296.909	316.31
297.14	341.31
297.37	349.31
297.601	326.31
297.831	339.31
298.062	354.31
298.292	331.31
298.523	326.31
298.753	350.31
298.984	324.31
299.214	350.31
299.445	360.31
299.675	337.31
299.905	347.31
300.136	370.31
300.366	353.31
300.597	341.31
300.827	363.31
301.057	354.31
301.288	353.31
301.518	371.31
301.748	365.31
301.979	373.31
302.209	372.31
302.439	358.31
302.669	353.31
302.9	348.31
303.13	364.31
303.36	382.31
303.59	359.31
303.82	370.31
304.051	367.31
304.281	379.31
304.511	373.31
304.741	338.31
304.971	348.31
305.201	375.31
305.431	345.31
305.661	377.31
305.891	363.31
306.121	370.31
306.352	369.31
306.582	369.31
306.812	361.31
307.042	342.31
307.272	374.31
307.502	358.31
307.731	361.31
307.961	355.31
308.191	365.31
308.421	374.31
308.651	375.31
308.881	373.31
309.111	387.31
309.341	367.31
309.571	367.31
309.8	386.31
310.03	385.31
310.26	389.31
310.49	407.31
310.72	416.31
310.949	410.31
311.179	416.31
311.409	405.31
311.639	405.31
311.868	392.31
312.098	391.31
312.328	396.31
312.557	422.31
312.787	433.31
313.017	440.31
313.246	424.31
313.476	398.31
313.706	395.31
313.935	401.31
314.165	397.31
314.394	425.31
314.624	443.31
314.853	424.31
315.083	416.31
315.312	414.31
315.542	425.31
315.771	416.31
316.001	387.31
316.23	402.31
316.46	405.31
316.689	395.31
316.919	424.31
317.148	420.31
317.377	412.31
317.607	394.31
317.836	441.31
318.065	426.31
318.295	413.31
318.524	406.31
318.753	403.31
318.983	415.31
319.212	406.31
319.441	419.31
319.67	423.31
319.9	405.31
320.129	414.31
320.358	421.31
320.587	423.31
320.816	414.31
321.046	428.31
321.275	433.31
321.504	432.31
321.733	445.31
321.962	431.31
322.191	437.31
322.42	462.31
322.649	470.31
322.878	469.31
323.108	463.31
323.337	476.31
323.566	511.31
323.795	524.31
324.024	571.31
324.253	627.31
324.482	883.31
324.71	1362.31
324.939	1995.31
325.168	1736.31
325.397	906.31
325.626	647.31
325.855	563.31
326.084	535.31
326.313	528.31
326.542	523.31
326.77	560.31
326.999	657.31
327.228	815.31
327.457	1222.31
327.686	1515.31
327.914	1045.31
328.143	693.31
328.372	621.31
328.6	585.31
328.829	541.31
329.058	566.31
329.287	600.31
329.515	567.31
329.744	512.31
329.972	533.31
330.201	559.31
330.43	566.31
330.658	601.31
330.887	625.31
331.115	609.31
331.344	542.31
331.572	519.31
331.801	534.31
332.03	494.31
332.258	502.31
332.486	478.31
332.715	487.31
332.943	514.31
333.172	494.31
333.4	514.31
333.629	516.31
333.857	539.31
334.085	535.31
334.314	551.31
334.542	582.31
334.771	587.31
334.999	577.31
335.227	522.31
335.455	523.31
335.684	498.31
335.912	506.31
336.14	531.31
336.369	502.31
336.597	527.31
336.825	491.31
337.053	514.31
337.281	509.31
337.51	489.31
337.738	486.31
337.966	469.31
338.194	513.31
338.422	483.31
338.65	478.31
338.878	484.31
339.106	475.31
339.334	470.31
339.562	494.31
339.79	468.31
340.018	470.31
340.246	493.31
340.474	473.31
340.702	482.31
340.93	488.31
341.158	485.31
341.386	477.31
341.614	477.31
341.842	466.31
342.07	473.31
342.298	485.31
342.526	460.31
342.754	484.31
342.981	481.31
343.209	473.31
343.437	455.31
343.665	500.31
343.893	489.31
344.12	506.31
344.348	503.31
344.576	489.31
344.804	483.31
345.031	492.31
345.259	510.31
345.487	493.31
345.714	459.31
345.942	464.31
346.17	461.31
346.397	459.31
346.625	458.31
346.853	429.31
347.08	462.31
347.308	455.31
347.535	449.31
347.763	459.31
347.99	470.31
348.218	454.31
348.445	456.31
348.673	486.31
348.9	452.31
349.128	458.31
349.355	452.31
349.583	446.31
349.81	464.31
350.037	435.31
350.265	443.31
350.492	460.31
350.72	457.31
350.947	453.31
351.174	466.31
351.402	467.31
351.629	460.31
351.856	478.31
352.083	479.31
352.311	458.31
352.538	468.31
352.765	478.31
352.992	473.31
353.22	450.31
353.447	437.31
353.674	451.31
353.901	434.31
354.128	434.31
354.355	430.31
354.583	438.31
354.81	425.31
355.037	454.31
355.264	436.31
355.491	426.31
355.718	427.31
355.945	461.31
356.172	441.31
356.399	438.31
356.626	445.31
356.853	443.31
357.08	443.31
357.307	446.31
357.534	431.31
357.761	449.31
357.988	434.31
358.215	446.31
358.441	453.31
358.668	419.31
358.895	436.31
359.122	442.31
359.349	460.31
359.576	462.31
359.802	476.31
360.029	492.31
360.256	499.31
360.483	486.31
360.709	489.31
360.936	475.31
361.163	466.31
361.39	455.31
361.616	458.31
361.843	461.31
362.07	456.31
362.296	480.31
362.523	450.31
362.749	447.31
362.976	448.31
363.203	457.31
363.429	453.31
363.656	443.31
363.882	445.31
364.109	456.31
364.335	460.31
364.562	454.31
364.788	447.31
365.015	444.31
365.241	427.31
365.468	462.31
365.694	459.31
365.92	460.31
366.147	454.31
366.373	435.31
366.599	451.31
366.826	438.31
367.052	461.31
367.278	435.31
367.505	447.31
367.731	455.31
367.957	427.31
368.184	443.31
368.41	469.31
368.636	464.31
368.862	466.31
369.089	469.31
369.315	441.31
369.541	447.31
369.767	434.31
369.993	437.31
370.219	449.31
370.445	453.31
370.672	447.31
370.898	450.31
371.124	445.31
371.35	428.31
371.576	451.31
371.802	452.31
372.028	462.31
372.254	467.31
372.48	460.31
372.706	453.31
372.932	458.31
373.158	467.31
373.384	469.31
373.61	470.31
373.835	497.31
374.061	477.31
374.287	463.31
374.513	472.31
374.739	467.31
374.965	469.31
375.191	468.31
375.416	501.31
375.642	450.31
375.868	470.31
376.094	473.31
376.319	452.31
376.545	462.31
376.771	461.31
376.997	449.31
377.222	458.31
377.448	442.31
377.674	429.31
377.899	465.31
378.125	428.31
378.35	469.31
378.576	454.31
378.802	447.31
379.027	471.31
379.253	475.31
379.478	454.31
379.704	453.31
379.929	466.31
380.155	478.31
380.38	477.31
380.606	475.31
380.831	447.31
381.057	463.31
381.282	465.31
381.507	451.31
381.733	467.31
381.958	483.31
382.184	466.31
382.409	475.31
382.634	479.31
382.86	471.31
383.085	483.31
383.31	479.31
383.535	475.31
383.761	486.31
383.986	484.31
384.211	473.31
384.436	502.31
384.662	499.31
384.887	478.31
385.112	491.31
385.337	509.31
385.562	513.31
385.787	487.31
386.013	521.31
386.238	522.31
386.463	525.31
386.688	504.31
386.913	510.31
387.138	504.31
387.363	503.31
387.588	534.31
387.813	530.31
388.038	527.31
388.263	521.31
388.488	519.31
388.713	512.31
388.938	499.31
389.163	524.31
389.387	532.31
389.612	505.31
389.837	499.31
390.062	536.31
390.287	523.31
390.512	503.31
390.736	561.31
390.961	513.31
391.186	520.31
391.411	530.31
391.636	519.31
391.86	530.31
392.085	532.31
392.31	527.31
392.534	538.31
392.759	533.31
392.984	531.31
393.208	521.31
393.433	531.31
393.658	518.31
393.882	517.31
394.107	521.31
394.331	534.31
394.556	505.31
394.78	543.31
395.005	528.31
395.229	521.31
395.454	526.31
395.678	551.31
395.903	561.31
396.127	583.31
396.352	586.31
396.576	545.31
396.801	547.31
397.025	533.31
397.249	554.31
397.474	542.31
397.698	564.31
397.922	561.31
398.147	584.31
398.371	597.31
398.595	606.31
398.82	597.31
399.044	611.31
399.268	650.31
399.492	682.31
399.717	707.31
399.941	751.31
400.165	757.31
400.389	746.31
400.613	672.31
400.837	667.31
401.062	620.31
401.286	607.31
401.51	601.31
401.734	601.31
401.958	630.31
402.182	592.31
402.406	640.31
402.63	637.31
402.854	627.31
403.078	636.31
403.302	629.31
403.526	649.31
403.75	653.31
403.974	638.31
404.198	651.31
404.422	661.31
404.645	656.31
404.869	630.31
405.093	669.31
405.317	724.31
405.541	746.31
405.765	670.31
405.988	668.31
406.212	681.31
406.436	679.31
406.66	689.31
406.883	703.31
407.107	719.31
407.331	741.31
407.555	810.31
407.778	810.31
408.002	722.31
408.226	717.31
408.449	705.31
408.673	713.31
408.896	725.31
409.12	756.31
409.344	734.31
409.567	666.31
409.791	662.31
410.014	662.31
410.238	637.31
410.461	619.31
410.685	625.31
410.908	642.31
411.132	685.31
411.355	718.31
411.578	701.31
411.802	652.31
412.025	620.31
412.249	641.31
412.472	655.31
412.695	719.31
412.919	668.31
413.142	639.31
413.365	610.31
413.589	613.31
413.812	625.31
414.035	614.31
414.258	571.31
414.482	597.31
414.705	602.31
414.928	609.31
415.151	577.31
415.374	578.31
415.597	584.31
415.821	599.31
416.044	592.31
416.267	588.31
416.49	595.31
416.713	589.31
416.936	611.31
417.159	606.31
417.382	597.31
417.605	582.31
417.828	593.31
418.051	616.31
418.274	604.31
418.497	598.31
418.72	603.31
418.943	598.31
419.166	619.31
419.389	640.31
419.611	659.31
419.834	643.31
420.057	633.31
420.28	647.31
420.503	613.31
420.726	632.31
420.948	629.31
421.171	677.31
421.394	706.31
421.617	650.31
421.839	615.31
422.062	613.31
422.285	649.31
422.507	702.31
422.73	756.31
422.953	738.31
423.175	675.31
423.398	662.31
423.621	654.31
423.843	652.31
424.066	666.31
424.288	666.31
424.511	684.31
424.733	741.31
424.956	830.31
425.178	787.31
425.401	806.31
425.623	809.31
425.846	697.31
426.068	656.31
426.291	651.31
426.513	637.31
426.735	663.31
426.958	681.31
427.18	773.31
427.402	920.31
427.625	1011.31
427.847	876.31
428.069	774.31
428.292	709.31
428.514	656.31
428.736	591.31
428.958	637.31
429.181	596.31
429.403	593.31
429.625	604.31
429.847	632.31
430.069	719.31
430.292	724.31
430.514	628.31
430.736	615.31
430.958	603.31
431.18	602.31
431.402	587.31
431.624	575.31
431.846	574.31
432.068	556.31
432.29	555.31
432.512	591.31
432.734	577.31
432.956	574.31
433.178	590.31
433.4	599.31
433.622	586.31
433.844	604.31
434.066	573.31
434.287	590.31
434.509	562.31
434.731	608.31
434.953	605.31
435.175	620.31
435.397	659.31
435.618	637.31
435.84	684.31
436.062	791.31
436.284	851.31
436.505	731.31
436.727	666.31
436.949	638.31
437.17	616.31
437.392	617.31
437.614	610.31
437.835	651.31
438.057	751.31
438.278	826.31
438.5	842.31
438.721	917.31
438.943	893.31
439.165	709.31
439.386	668.31
439.608	637.31
439.829	633.31
440.05	649.31
440.272	704.31
440.493	677.31
440.715	635.31
440.936	631.31
441.158	645.31
441.379	621.31
441.6	651.31
441.822	645.31
442.043	704.31
442.264	797.31
442.486	808.31
442.707	704.31
442.928	667.31
443.149	676.31
443.371	683.31
443.592	757.31
443.813	855.31
444.034	902.31
444.255	769.31
444.476	694.31
444.698	701.31
444.919	691.31
445.14	771.31
445.361	715.31
445.582	687.31
445.803	757.31
446.024	871.31
446.245	878.31
446.466	787.31
446.687	699.31
446.908	637.31
447.129	634.31
447.35	597.31
447.571	605.31
447.792	592.31
448.013	605.31
448.234	627.31
448.455	641.31
448.675	778.31
448.896	907.31
449.117	779.31
449.338	722.31
449.559	824.31
449.779	935.31
450	753.31
450.221	654.31
450.442	581.31
450.662	567.31
450.883	606.31
451.104	607.31
451.324	564.31
451.545	568.31
451.766	565.31
451.986	558.31
452.207	541.31
452.428	535.31
452.648	499.31
452.869	535.31
453.089	552.31
453.31	579.31
453.53	520.31
453.751	545.31
453.971	554.31
454.192	538.31
454.412	548.31
454.633	547.31
454.853	549.31
455.073	535.31
455.294	569.31
455.514	637.31
455.734	606.31
455.955	543.31
456.175	508.31
456.395	499.31
456.616	498.31
456.836	510.31
457.056	518.31
457.276	485.31
457.497	509.31
457.717	501.31
457.937	516.31
458.157	514.31
458.377	522.31
458.598	555.31
458.818	569.31
459.038	675.31
459.258	715.31
459.478	631.31
459.698	586.31
459.918	588.31
460.138	584.31
460.358	607.31
460.578	610.31
460.798	618.31
461.018	619.31
461.238	613.31
461.458	611.31
461.678	620.31
461.898	603.31
462.118	609.31
462.338	612.31
462.558	612.31
462.777	653.31
462.997	662.31
463.217	681.31
463.437	683.31
463.657	671.31
463.876	661.31
464.096	655.31
464.316	640.31
464.536	626.31
464.755	665.31
464.975	651.31
465.195	677.31
465.414	707.31
465.634	638.31
465.854	631.31
466.073	601.31
466.293	576.31
466.512	573.31
466.732	558.31
466.951	537.31
467.171	557.31
467.391	567.31
467.61	573.31
467.829	578.31
468.049	566.31
468.268	573.31
468.488	527.31
468.707	525.31
468.927	553.31
469.146	531.31
469.365	530.31
469.585	545.31
469.804	555.31
470.023	567.31
470.243	573.31
470.462	595.31
470.681	578.31
470.901	571.31
471.12	540.31
471.339	542.31
471.558	558.31
471.777	566.31
471.997	575.31
472.216	582.31
472.435	599.31
472.654	563.31
472.873	542.31
473.092	558.31
473.311	556.31
473.53	535.31
473.749	548.31
473.968	592.31
474.187	732.31
474.406	737.31
474.625	604.31
474.844	571.31
475.063	553.31
475.282	562.31
475.501	558.31
475.72	575.31
475.939	615.31
476.158	581.31
476.377	582.31
476.596	581.31
476.814	607.31
477.033	564.31
477.252	601.31
477.471	590.31
477.69	584.31
477.908	622.31
478.127	607.31
478.346	606.31
478.564	650.31
478.783	650.31
479.002	646.31
479.22	648.31
479.439	653.31
479.658	675.31
479.876	679.31
480.095	690.31
480.313	689.31
480.532	692.31
480.751	719.31
480.969	711.31
481.188	746.31
481.406	781.31
481.624	709.31
481.843	690.31
482.061	670.31
482.28	667.31
482.498	661.31
482.717	658.31
482.935	650.31
483.153	640.31
483.372	653.31
483.59	653.31
483.808	662.31
484.027	675.31
484.245	658.31
484.463	677.31
484.681	662.31
484.9	685.31
485.118	680.31
485.336	650.31
485.554	696.31
485.772	667.31
485.99	656.31
486.209	670.31
486.427	687.31
486.645	677.31
486.863	727.31
487.081	717.31
487.299	701.31
487.517	694.31
487.735	702.31
487.953	709.31
488.171	679.31
488.389	723.31
488.607	721.31
488.825	699.31
489.043	700.31
489.261	710.31
489.479	718.31
489.696	739.31
489.914	731.31
490.132	717.31
490.35	740.31
490.568	743.31
490.786	752.31
491.003	761.31
491.221	760.31
491.439	765.31
491.657	787.31
491.874	807.31
492.092	807.31
492.31	829.31
492.527	832.31
492.745	810.31
492.963	814.31
493.18	803.31
493.398	837.31
493.615	819.31
493.833	819.31
494.05	837.31
494.268	853.31
494.485	836.31
494.703	822.31
494.92	847.31
495.138	823.31
495.355	827.31
495.573	833.31
495.79	833.31
496.008	839.31
496.225	856.31
496.442	870.31
496.66	853.31
496.877	861.31
497.094	872.31
497.312	857.31
497.529	874.31
497.746	900.31
497.963	905.31
498.181	915.31
498.398	958.31
498.615	941.31
498.832	987.31
499.049	1019.31
499.267	1050.31
499.484	1057.31
499.701	1134.31
499.918	1193.31
500.135	1220.31
500.352	1294.31
500.569	1347.31
500.786	1333.31
501.003	1346.31
501.22	1261.31
501.437	1199.31
501.654	1162.31
