Data from 1974.PennyLincolnUp.Lamp.En5.5.200Scan.071719.P1.Changed Mount._HRD10591_15-54-25-857.txt Node
Date: Thu Jul 18 15:54:25 EDT 2019
User: cochatt
Spectrometer: HR+D1059
Trigger mode: 1
Integration Time (sec): 1.000000E-1
Scans to average: 1
Electric dark correction enabled: true
Nonlinearity correction enabled: false
Boxcar width: 0
XAxis mode: Wavelengths
Number of Pixels in Spectrum: 2048
>>>>>Begin Spectral Data<<<<<
223.165	-11.75
223.4	-11.75
223.635	-11.75
223.869	-5.75
224.104	-13.75
224.338	-23.75
224.573	-19.75
224.808	-18.75
225.042	-2.75
225.277	4.25
225.511	-4.75
225.746	4.25
225.98	10.25
226.215	3.25
226.449	17.25
226.683	20.25
226.918	18.25
227.152	23.25
227.387	31.25
227.621	39.25
227.856	34.25
228.09	42.25
228.324	39.25
228.559	52.25
228.793	68.25
229.027	94.25
229.262	107.25
229.496	108.25
229.73	127.25
229.964	165.25
230.199	135.25
230.433	125.25
230.667	102.25
230.901	115.25
231.136	106.25
231.37	100.25
231.604	121.25
231.838	120.25
232.072	117.25
232.306	114.25
232.541	118.25
232.775	121.25
233.009	115.25
233.243	126.25
233.477	138.25
233.711	130.25
233.945	126.25
234.179	135.25
234.413	125.25
234.647	122.25
234.881	115.25
235.115	118.25
235.349	119.25
235.583	137.25
235.817	131.25
236.051	142.25
236.285	133.25
236.519	136.25
236.753	147.25
236.987	156.25
237.221	197.25
237.455	244.25
237.689	199.25
237.922	138.25
238.156	142.25
238.39	143.25
238.624	121.25
238.858	133.25
239.091	137.25
239.325	152.25
239.559	137.25
239.793	131.25
240.027	150.25
240.26	155.25
240.494	185.25
240.728	163.25
240.961	164.25
241.195	158.25
241.429	143.25
241.662	137.25
241.896	149.25
242.13	151.25
242.363	149.25
242.597	154.25
242.83	158.25
243.064	147.25
243.298	155.25
243.531	153.25
243.765	148.25
243.998	155.25
244.232	166.25
244.465	169.25
244.699	174.25
244.932	161.25
245.166	178.25
245.399	168.25
245.633	167.25
245.866	169.25
246.099	161.25
246.333	161.25
246.566	165.25
246.8	168.25
247.033	163.25
247.266	175.25
247.5	180.25
247.733	177.25
247.966	181.25
248.2	173.25
248.433	194.25
248.666	188.25
248.899	193.25
249.133	209.25
249.366	202.25
249.599	225.25
249.832	200.25
250.066	199.25
250.299	205.25
250.532	216.25
250.765	225.25
250.998	238.25
251.231	235.25
251.465	221.25
251.698	222.25
251.931	225.25
252.164	218.25
252.397	235.25
252.63	224.25
252.863	219.25
253.096	229.25
253.329	252.25
253.562	253.25
253.795	220.25
254.028	234.25
254.261	242.25
254.494	245.25
254.727	275.25
254.96	299.25
255.193	294.25
255.426	279.25
255.659	266.25
255.892	253.25
256.124	265.25
256.357	265.25
256.59	256.25
256.823	244.25
257.056	231.25
257.289	248.25
257.521	227.25
257.754	243.25
257.987	230.25
258.22	257.25
258.452	219.25
258.685	233.25
258.918	237.25
259.151	236.25
259.383	245.25
259.616	248.25
259.849	250.25
260.081	262.25
260.314	260.25
260.547	279.25
260.779	260.25
261.012	257.25
261.244	263.25
261.477	267.25
261.71	230.25
261.942	252.25
262.175	257.25
262.407	254.25
262.64	238.25
262.872	244.25
263.105	243.25
263.337	241.25
263.57	227.25
263.802	236.25
264.035	248.25
264.267	248.25
264.499	243.25
264.732	219.25
264.964	247.25
265.197	241.25
265.429	249.25
265.661	236.25
265.894	234.25
266.126	252.25
266.358	251.25
266.591	255.25
266.823	244.25
267.055	253.25
267.287	254.25
267.52	256.25
267.752	259.25
267.984	268.25
268.216	248.25
268.448	253.25
268.681	274.25
268.913	259.25
269.145	294.25
269.377	296.25
269.609	310.25
269.841	288.25
270.073	314.25
270.306	310.25
270.538	336.25
270.77	346.25
271.002	330.25
271.234	323.25
271.466	332.25
271.698	329.25
271.93	357.25
272.162	354.25
272.394	341.25
272.626	323.25
272.858	325.25
273.09	317.25
273.322	299.25
273.553	295.25
273.785	303.25
274.017	306.25
274.249	298.25
274.481	284.25
274.713	294.25
274.945	307.25
275.176	317.25
275.408	294.25
275.64	300.25
275.872	316.25
276.104	299.25
276.335	307.25
276.567	298.25
276.799	303.25
277.031	333.25
277.262	345.25
277.494	343.25
277.726	335.25
277.957	316.25
278.189	314.25
278.421	299.25
278.652	299.25
278.884	310.25
279.115	300.25
279.347	302.25
279.579	272.25
279.81	292.25
280.042	307.25
280.273	292.25
280.505	321.25
280.736	293.25
280.968	306.25
281.199	302.25
281.431	307.25
281.662	290.25
281.894	307.25
282.125	302.25
282.356	327.25
282.588	325.25
282.819	351.25
283.051	314.25
283.282	301.25
283.513	314.25
283.745	321.25
283.976	329.25
284.207	319.25
284.439	311.25
284.67	325.25
284.901	330.25
285.132	317.25
285.364	310.25
285.595	304.25
285.826	331.25
286.057	332.25
286.288	331.25
286.52	314.25
286.751	331.25
286.982	327.25
287.213	335.25
287.444	327.25
287.675	331.25
287.906	353.25
288.138	351.25
288.369	342.25
288.6	343.25
288.831	333.25
289.062	330.25
289.293	335.25
289.524	340.25
289.755	345.25
289.986	330.25
290.217	336.25
290.448	311.25
290.679	322.25
290.91	329.25
291.141	318.25
291.371	334.25
291.602	336.25
291.833	330.25
292.064	321.25
292.295	320.25
292.526	329.25
292.757	337.25
292.987	322.25
293.218	331.25
293.449	324.25
293.68	335.25
293.91	339.25
294.141	333.25
294.372	317.25
294.603	334.25
294.833	331.25
295.064	338.25
295.295	344.25
295.525	346.25
295.756	362.25
295.987	357.25
296.217	372.25
296.448	356.25
296.679	351.25
296.909	339.25
297.14	337.25
297.37	365.25
297.601	350.25
297.831	350.25
298.062	328.25
298.292	348.25
298.523	344.25
298.753	356.25
298.984	348.25
299.214	350.25
299.445	355.25
299.675	350.25
299.905	356.25
300.136	357.25
300.366	362.25
300.597	362.25
300.827	357.25
301.057	380.25
301.288	375.25
301.518	378.25
301.748	372.25
301.979	369.25
302.209	383.25
302.439	371.25
302.669	370.25
302.9	366.25
303.13	379.25
303.36	387.25
303.59	385.25
303.82	380.25
304.051	390.25
304.281	366.25
304.511	366.25
304.741	366.25
304.971	380.25
305.201	387.25
305.431	366.25
305.661	373.25
305.891	381.25
306.121	375.25
306.352	355.25
306.582	381.25
306.812	355.25
307.042	379.25
307.272	378.25
307.502	381.25
307.731	383.25
307.961	380.25
308.191	373.25
308.421	387.25
308.651	375.25
308.881	383.25
309.111	402.25
309.341	373.25
309.571	405.25
309.8	424.25
310.03	384.25
310.26	399.25
310.49	408.25
310.72	433.25
310.949	435.25
311.179	428.25
311.409	430.25
311.639	449.25
311.868	404.25
312.098	427.25
312.328	422.25
312.557	448.25
312.787	439.25
313.017	433.25
313.246	446.25
313.476	415.25
313.706	442.25
313.935	443.25
314.165	436.25
314.394	445.25
314.624	431.25
314.853	417.25
315.083	420.25
315.312	419.25
315.542	415.25
315.771	426.25
316.001	413.25
316.23	431.25
316.46	425.25
316.689	436.25
316.919	421.25
317.148	422.25
317.377	435.25
317.607	426.25
317.836	429.25
318.065	430.25
318.295	419.25
318.524	435.25
318.753	426.25
318.983	429.25
319.212	435.25
319.441	431.25
319.67	422.25
319.9	429.25
320.129	421.25
320.358	417.25
320.587	433.25
320.816	438.25
321.046	442.25
321.275	457.25
321.504	437.25
321.733	443.25
321.962	458.25
322.191	439.25
322.42	467.25
322.649	474.25
322.878	503.25
323.108	478.25
323.337	493.25
323.566	501.25
323.795	542.25
324.024	580.25
324.253	700.25
324.482	897.25
324.71	1415.25
324.939	2139.25
325.168	1861.25
325.397	933.25
325.626	653.25
325.855	588.25
326.084	539.25
326.313	533.25
326.542	534.25
326.77	580.25
326.999	638.25
327.228	829.25
327.457	1290.25
327.686	1608.25
327.914	1046.25
328.143	719.25
328.372	639.25
328.6	613.25
328.829	596.25
329.058	581.25
329.287	607.25
329.515	588.25
329.744	545.25
329.972	528.25
330.201	579.25
330.43	567.25
330.658	596.25
330.887	628.25
331.115	645.25
331.344	563.25
331.572	545.25
331.801	539.25
332.03	529.25
332.258	525.25
332.486	522.25
332.715	529.25
332.943	557.25
333.172	524.25
333.4	517.25
333.629	541.25
333.857	555.25
334.085	563.25
334.314	586.25
334.542	595.25
334.771	592.25
334.999	598.25
335.227	534.25
335.455	535.25
335.684	519.25
335.912	503.25
336.14	511.25
336.369	514.25
336.597	531.25
336.825	518.25
337.053	503.25
337.281	513.25
337.51	512.25
337.738	505.25
337.966	499.25
338.194	525.25
338.422	525.25
338.65	507.25
338.878	486.25
339.106	479.25
339.334	510.25
339.562	499.25
339.79	474.25
340.018	477.25
340.246	485.25
340.474	487.25
340.702	475.25
340.93	468.25
341.158	485.25
341.386	466.25
341.614	469.25
341.842	476.25
342.07	489.25
342.298	489.25
342.526	482.25
342.754	478.25
342.981	465.25
343.209	465.25
343.437	476.25
343.665	490.25
343.893	504.25
344.12	527.25
344.348	526.25
344.576	538.25
344.804	530.25
345.031	523.25
345.259	518.25
345.487	474.25
345.714	489.25
345.942	476.25
346.17	488.25
346.397	473.25
346.625	467.25
346.853	484.25
347.08	479.25
347.308	470.25
347.535	491.25
347.763	464.25
347.99	466.25
348.218	488.25
348.445	478.25
348.673	478.25
348.9	468.25
349.128	476.25
349.355	475.25
349.583	453.25
349.81	469.25
350.037	458.25
350.265	453.25
350.492	454.25
350.72	469.25
350.947	487.25
351.174	507.25
351.402	462.25
351.629	471.25
351.856	493.25
352.083	479.25
352.311	480.25
352.538	489.25
352.765	485.25
352.992	473.25
353.22	452.25
353.447	477.25
353.674	452.25
353.901	450.25
354.128	436.25
354.355	436.25
354.583	449.25
354.81	432.25
355.037	459.25
355.264	467.25
355.491	454.25
355.718	424.25
355.945	470.25
356.172	442.25
356.399	437.25
356.626	438.25
356.853	439.25
357.08	447.25
357.307	461.25
357.534	441.25
357.761	449.25
357.988	439.25
358.215	452.25
358.441	434.25
358.668	459.25
358.895	451.25
359.122	483.25
359.349	468.25
359.576	469.25
359.802	505.25
360.029	491.25
360.256	519.25
360.483	511.25
360.709	480.25
360.936	490.25
361.163	504.25
361.39	481.25
361.616	495.25
361.843	452.25
362.07	473.25
362.296	491.25
362.523	472.25
362.749	472.25
362.976	471.25
363.203	459.25
363.429	451.25
363.656	482.25
363.882	471.25
364.109	473.25
364.335	477.25
364.562	446.25
364.788	460.25
365.015	468.25
365.241	452.25
365.468	459.25
365.694	461.25
365.92	472.25
366.147	466.25
366.373	463.25
366.599	468.25
366.826	446.25
367.052	433.25
367.278	453.25
367.505	479.25
367.731	458.25
367.957	473.25
368.184	462.25
368.41	463.25
368.636	487.25
368.862	485.25
369.089	487.25
369.315	464.25
369.541	469.25
369.767	483.25
369.993	453.25
370.219	451.25
370.445	476.25
370.672	472.25
370.898	469.25
371.124	479.25
371.35	497.25
371.576	481.25
371.802	473.25
372.028	469.25
372.254	463.25
372.48	497.25
372.706	476.25
372.932	478.25
373.158	481.25
373.384	471.25
373.61	470.25
373.835	457.25
374.061	468.25
374.287	474.25
374.513	476.25
374.739	501.25
374.965	511.25
375.191	499.25
375.416	505.25
375.642	484.25
375.868	463.25
376.094	490.25
376.319	486.25
376.545	463.25
376.771	479.25
376.997	464.25
377.222	485.25
377.448	485.25
377.674	478.25
377.899	472.25
378.125	457.25
378.35	449.25
378.576	452.25
378.802	478.25
379.027	478.25
379.253	464.25
379.478	474.25
379.704	463.25
379.929	491.25
380.155	474.25
380.38	461.25
380.606	465.25
380.831	465.25
381.057	487.25
381.282	463.25
381.507	492.25
381.733	486.25
381.958	482.25
382.184	486.25
382.409	505.25
382.634	492.25
382.86	487.25
383.085	462.25
383.31	491.25
383.535	500.25
383.761	501.25
383.986	501.25
384.211	506.25
384.436	499.25
384.662	511.25
384.887	522.25
385.112	493.25
385.337	517.25
385.562	517.25
385.787	514.25
386.013	535.25
386.238	535.25
386.463	529.25
386.688	550.25
386.913	499.25
387.138	511.25
387.363	510.25
387.588	522.25
387.813	531.25
388.038	538.25
388.263	538.25
388.488	539.25
388.713	552.25
388.938	533.25
389.163	531.25
389.387	513.25
389.612	527.25
389.837	543.25
390.062	543.25
390.287	515.25
390.512	534.25
390.736	517.25
390.961	521.25
391.186	563.25
391.411	535.25
391.636	545.25
391.86	563.25
392.085	534.25
392.31	546.25
392.534	548.25
392.759	528.25
392.984	558.25
393.208	554.25
393.433	554.25
393.658	530.25
393.882	534.25
394.107	534.25
394.331	524.25
394.556	523.25
394.78	547.25
395.005	556.25
395.229	534.25
395.454	562.25
395.678	566.25
395.903	573.25
396.127	573.25
396.352	590.25
396.576	563.25
396.801	547.25
397.025	554.25
397.249	576.25
397.474	594.25
397.698	582.25
397.922	575.25
398.147	597.25
398.371	614.25
398.595	609.25
398.82	633.25
399.044	645.25
399.268	666.25
399.492	682.25
399.717	737.25
399.941	793.25
400.165	802.25
400.389	788.25
400.613	693.25
400.837	668.25
401.062	655.25
401.286	647.25
401.51	632.25
401.734	619.25
401.958	613.25
402.182	626.25
402.406	619.25
402.63	643.25
402.854	655.25
403.078	655.25
403.302	657.25
403.526	648.25
403.75	659.25
403.974	676.25
404.198	666.25
404.422	644.25
404.645	673.25
404.869	668.25
405.093	698.25
405.317	723.25
405.541	782.25
405.765	721.25
405.988	696.25
406.212	702.25
406.436	693.25
406.66	722.25
406.883	693.25
407.107	739.25
407.331	779.25
407.555	868.25
407.778	846.25
408.002	788.25
408.226	748.25
408.449	727.25
408.673	730.25
408.896	727.25
409.12	770.25
409.344	748.25
409.567	709.25
409.791	653.25
410.014	669.25
410.238	638.25
410.461	640.25
410.685	643.25
410.908	663.25
411.132	680.25
411.355	745.25
411.578	727.25
411.802	655.25
412.025	669.25
412.249	657.25
412.472	684.25
412.695	717.25
412.919	693.25
413.142	652.25
413.365	601.25
413.589	633.25
413.812	618.25
414.035	608.25
414.258	612.25
414.482	624.25
414.705	618.25
414.928	605.25
415.151	605.25
415.374	614.25
415.597	616.25
415.821	612.25
416.044	645.25
416.267	579.25
416.49	621.25
416.713	583.25
416.936	618.25
417.159	604.25
417.382	628.25
417.605	623.25
417.828	631.25
418.051	645.25
418.274	633.25
418.497	599.25
418.72	613.25
418.943	617.25
419.166	667.25
419.389	695.25
419.611	671.25
419.834	674.25
420.057	667.25
420.28	675.25
420.503	651.25
420.726	647.25
420.948	656.25
421.171	701.25
421.394	734.25
421.617	652.25
421.839	638.25
422.062	645.25
422.285	649.25
422.507	706.25
422.73	807.25
422.953	764.25
423.175	679.25
423.398	683.25
423.621	679.25
423.843	695.25
424.066	693.25
424.288	694.25
424.511	699.25
424.733	763.25
424.956	857.25
425.178	828.25
425.401	823.25
425.623	817.25
425.846	729.25
426.068	656.25
426.291	662.25
426.513	682.25
426.735	680.25
426.958	692.25
427.18	823.25
427.402	945.25
427.625	1043.25
427.847	901.25
428.069	799.25
428.292	709.25
428.514	687.25
428.736	635.25
428.958	632.25
429.181	623.25
429.403	625.25
429.625	639.25
429.847	652.25
430.069	737.25
430.292	746.25
430.514	630.25
430.736	613.25
430.958	625.25
431.18	599.25
431.402	599.25
431.624	577.25
431.846	591.25
432.068	582.25
432.29	589.25
432.512	579.25
432.734	606.25
432.956	605.25
433.178	618.25
433.4	621.25
433.622	596.25
433.844	603.25
434.066	575.25
434.287	592.25
434.509	611.25
434.731	607.25
434.953	642.25
435.175	677.25
435.397	687.25
435.618	681.25
435.84	683.25
436.062	829.25
436.284	887.25
436.505	765.25
436.727	705.25
436.949	645.25
437.17	650.25
437.392	649.25
437.614	622.25
437.835	667.25
438.057	797.25
438.278	904.25
438.5	873.25
438.721	970.25
438.943	933.25
439.165	741.25
439.386	685.25
439.608	684.25
439.829	685.25
440.05	710.25
440.272	746.25
440.493	739.25
440.715	660.25
440.936	649.25
441.158	626.25
441.379	637.25
441.6	649.25
441.822	666.25
442.043	720.25
442.264	817.25
442.486	863.25
442.707	744.25
442.928	686.25
443.149	672.25
443.371	696.25
443.592	759.25
443.813	866.25
444.034	946.25
444.255	798.25
444.476	735.25
444.698	717.25
444.919	718.25
445.14	785.25
445.361	756.25
445.582	758.25
445.803	776.25
446.024	916.25
446.245	885.25
446.466	853.25
446.687	737.25
446.908	687.25
447.129	635.25
447.35	634.25
447.571	633.25
447.792	617.25
448.013	615.25
448.234	616.25
448.455	670.25
448.675	810.25
448.896	941.25
449.117	809.25
449.338	737.25
449.559	875.25
449.779	985.25
450	801.25
450.221	672.25
450.442	595.25
450.662	602.25
450.883	612.25
451.104	627.25
451.324	620.25
451.545	583.25
451.766	571.25
451.986	596.25
452.207	564.25
452.428	541.25
452.648	546.25
452.869	544.25
453.089	546.25
453.31	566.25
453.53	555.25
453.751	542.25
453.971	555.25
454.192	577.25
454.412	568.25
454.633	572.25
454.853	542.25
455.073	539.25
455.294	588.25
455.514	647.25
455.734	632.25
455.955	567.25
456.175	538.25
456.395	503.25
456.616	511.25
456.836	525.25
457.056	502.25
457.276	494.25
457.497	539.25
457.717	513.25
457.937	537.25
458.157	546.25
458.377	532.25
458.598	583.25
458.818	608.25
459.038	685.25
459.258	716.25
459.478	649.25
459.698	625.25
459.918	623.25
460.138	579.25
460.358	605.25
460.578	585.25
460.798	623.25
461.018	602.25
461.238	638.25
461.458	638.25
461.678	625.25
461.898	630.25
462.118	613.25
462.338	633.25
462.558	659.25
462.777	674.25
462.997	681.25
463.217	700.25
463.437	719.25
463.657	697.25
463.876	657.25
464.096	669.25
464.316	653.25
464.536	663.25
464.755	675.25
464.975	673.25
465.195	715.25
465.414	735.25
465.634	666.25
465.854	627.25
466.073	616.25
466.293	584.25
466.512	606.25
466.732	588.25
466.951	585.25
467.171	575.25
467.391	557.25
467.61	588.25
467.829	583.25
468.049	618.25
468.268	577.25
468.488	554.25
468.707	565.25
468.927	547.25
469.146	545.25
469.365	574.25
469.585	543.25
469.804	571.25
470.023	583.25
470.243	587.25
470.462	610.25
470.681	594.25
470.901	590.25
471.12	554.25
471.339	579.25
471.558	553.25
471.777	594.25
471.997	591.25
472.216	577.25
472.435	598.25
472.654	589.25
472.873	585.25
473.092	573.25
473.311	567.25
473.53	601.25
473.749	577.25
473.968	609.25
474.187	737.25
474.406	757.25
474.625	640.25
474.844	596.25
475.063	590.25
475.282	598.25
475.501	578.25
475.72	578.25
475.939	588.25
476.158	617.25
476.377	593.25
476.596	611.25
476.814	594.25
477.033	607.25
477.252	613.25
477.471	598.25
477.69	626.25
477.908	606.25
478.127	639.25
478.346	646.25
478.564	629.25
478.783	677.25
479.002	668.25
479.22	663.25
479.439	662.25
479.658	704.25
479.876	696.25
480.095	709.25
480.313	727.25
480.532	744.25
480.751	699.25
480.969	740.25
481.188	780.25
481.406	767.25
481.624	735.25
481.843	699.25
482.061	673.25
482.28	684.25
482.498	674.25
482.717	647.25
482.935	654.25
483.153	674.25
483.372	672.25
483.59	679.25
483.808	678.25
484.027	673.25
484.245	689.25
484.463	689.25
484.681	671.25
484.9	685.25
485.118	706.25
485.336	711.25
485.554	696.25
485.772	701.25
485.99	716.25
486.209	713.25
486.427	717.25
486.645	717.25
486.863	711.25
487.081	712.25
487.299	734.25
487.517	718.25
487.735	721.25
487.953	739.25
488.171	734.25
488.389	716.25
488.607	741.25
488.825	713.25
489.043	730.25
489.261	729.25
489.479	743.25
489.696	755.25
489.914	759.25
490.132	745.25
490.35	771.25
490.568	774.25
490.786	745.25
491.003	793.25
491.221	800.25
491.439	820.25
491.657	837.25
491.874	844.25
492.092	844.25
492.31	856.25
492.527	847.25
492.745	827.25
492.963	838.25
493.18	875.25
493.398	881.25
493.615	901.25
493.833	873.25
494.05	866.25
494.268	897.25
494.485	866.25
494.703	873.25
494.92	858.25
495.138	874.25
495.355	903.25
495.573	851.25
495.79	866.25
496.008	886.25
496.225	891.25
496.442	879.25
496.66	860.25
496.877	858.25
497.094	884.25
497.312	917.25
497.529	891.25
497.746	911.25
497.963	921.25
498.181	941.25
498.398	990.25
498.615	1014.25
498.832	990.25
499.049	1035.25
499.267	1077.25
499.484	1111.25
499.701	1182.25
499.918	1247.25
500.135	1307.25
500.352	1353.25
500.569	1397.25
500.786	1401.25
501.003	1352.25
501.22	1309.25
501.437	1241.25
501.654	1196.25
