Data from 1974.PennyLincolnUp.Lamp.En5.5.200Scan.071719.P1.Changed Mount._HRD10591_15-51-11-855.txt Node
Date: Thu Jul 18 15:51:11 EDT 2019
User: cochatt
Spectrometer: HR+D1059
Trigger mode: 1
Integration Time (sec): 1.000000E-1
Scans to average: 1
Electric dark correction enabled: true
Nonlinearity correction enabled: false
Boxcar width: 0
XAxis mode: Wavelengths
Number of Pixels in Spectrum: 2048
>>>>>Begin Spectral Data<<<<<
223.165	-24.31
223.4	-24.31
223.635	-24.31
223.869	-35.31
224.104	-25.31
224.338	-13.31
224.573	3.69
224.808	-21.31
225.042	-5.31
225.277	3.69
225.511	-8.31
225.746	8.69
225.98	9.69
226.215	3.69
226.449	27.69
226.683	19.69
226.918	28.69
227.152	27.69
227.387	41.69
227.621	30.69
227.856	50.69
228.09	43.69
228.324	53.69
228.559	70.69
228.793	60.69
229.027	82.69
229.262	81.69
229.496	109.69
229.73	117.69
229.964	144.69
230.199	111.69
230.433	117.69
230.667	100.69
230.901	122.69
231.136	125.69
231.37	117.69
231.604	105.69
231.838	115.69
232.072	111.69
232.306	91.69
232.541	119.69
232.775	114.69
233.009	107.69
233.243	107.69
233.477	103.69
233.711	116.69
233.945	119.69
234.179	107.69
234.413	119.69
234.647	132.69
234.881	116.69
235.115	120.69
235.349	109.69
235.583	124.69
235.817	116.69
236.051	119.69
236.285	114.69
236.519	119.69
236.753	112.69
236.987	119.69
237.221	162.69
237.455	200.69
237.689	150.69
237.922	122.69
238.156	129.69
238.39	135.69
238.624	129.69
238.858	135.69
239.091	134.69
239.325	130.69
239.559	131.69
239.793	124.69
240.027	138.69
240.26	130.69
240.494	135.69
240.728	138.69
240.961	150.69
241.195	131.69
241.429	133.69
241.662	141.69
241.896	121.69
242.13	130.69
242.363	124.69
242.597	149.69
242.83	122.69
243.064	125.69
243.298	131.69
243.531	123.69
243.765	122.69
243.998	149.69
244.232	142.69
244.465	149.69
244.699	151.69
244.932	126.69
245.166	133.69
245.399	157.69
245.633	151.69
245.866	145.69
246.099	161.69
246.333	136.69
246.566	142.69
246.8	151.69
247.033	149.69
247.266	126.69
247.5	149.69
247.733	150.69
247.966	157.69
248.2	171.69
248.433	178.69
248.666	162.69
248.899	167.69
249.133	182.69
249.366	190.69
249.599	183.69
249.832	163.69
250.066	162.69
250.299	148.69
250.532	179.69
250.765	184.69
250.998	184.69
251.231	184.69
251.465	197.69
251.698	167.69
251.931	174.69
252.164	180.69
252.397	193.69
252.63	195.69
252.863	196.69
253.096	200.69
253.329	187.69
253.562	200.69
253.795	193.69
254.028	205.69
254.261	194.69
254.494	199.69
254.727	220.69
254.96	229.69
255.193	251.69
255.426	199.69
255.659	201.69
255.892	203.69
256.124	202.69
256.357	185.69
256.59	207.69
256.823	189.69
257.056	195.69
257.289	185.69
257.521	188.69
257.754	188.69
257.987	182.69
258.22	189.69
258.452	180.69
258.685	179.69
258.918	198.69
259.151	197.69
259.383	199.69
259.616	196.69
259.849	207.69
260.081	218.69
260.314	220.69
260.547	226.69
260.779	228.69
261.012	219.69
261.244	201.69
261.477	219.69
261.71	213.69
261.942	211.69
262.175	195.69
262.407	199.69
262.64	202.69
262.872	206.69
263.105	184.69
263.337	203.69
263.57	216.69
263.802	210.69
264.035	196.69
264.267	206.69
264.499	198.69
264.732	209.69
264.964	215.69
265.197	210.69
265.429	192.69
265.661	204.69
265.894	205.69
266.126	210.69
266.358	213.69
266.591	204.69
266.823	206.69
267.055	210.69
267.287	208.69
267.52	195.69
267.752	207.69
267.984	207.69
268.216	216.69
268.448	205.69
268.681	206.69
268.913	231.69
269.145	248.69
269.377	244.69
269.609	234.69
269.841	243.69
270.073	251.69
270.306	241.69
270.538	269.69
270.77	272.69
271.002	259.69
271.234	242.69
271.466	259.69
271.698	264.69
271.93	280.69
272.162	276.69
272.394	284.69
272.626	264.69
272.858	259.69
273.09	251.69
273.322	256.69
273.553	248.69
273.785	230.69
274.017	226.69
274.249	227.69
274.481	236.69
274.713	241.69
274.945	248.69
275.176	249.69
275.408	238.69
275.64	249.69
275.872	252.69
276.104	253.69
276.335	239.69
276.567	233.69
276.799	246.69
277.031	265.69
277.262	267.69
277.494	276.69
277.726	277.69
277.957	263.69
278.189	249.69
278.421	271.69
278.652	241.69
278.884	244.69
279.115	269.69
279.347	255.69
279.579	261.69
279.81	241.69
280.042	251.69
280.273	270.69
280.505	252.69
280.736	266.69
280.968	251.69
281.199	252.69
281.431	260.69
281.662	244.69
281.894	241.69
282.125	247.69
282.356	274.69
282.588	261.69
282.819	281.69
283.051	275.69
283.282	260.69
283.513	264.69
283.745	242.69
283.976	262.69
284.207	245.69
284.439	270.69
284.67	261.69
284.901	260.69
285.132	279.69
285.364	250.69
285.595	257.69
285.826	263.69
286.057	256.69
286.288	266.69
286.52	258.69
286.751	264.69
286.982	262.69
287.213	250.69
287.444	284.69
287.675	280.69
287.906	287.69
288.138	286.69
288.369	272.69
288.6	276.69
288.831	289.69
289.062	266.69
289.293	267.69
289.524	263.69
289.755	268.69
289.986	286.69
290.217	281.69
290.448	270.69
290.679	282.69
290.91	255.69
291.141	264.69
291.371	275.69
291.602	277.69
291.833	280.69
292.064	281.69
292.295	265.69
292.526	276.69
292.757	278.69
292.987	250.69
293.218	297.69
293.449	272.69
293.68	279.69
293.91	289.69
294.141	278.69
294.372	283.69
294.603	260.69
294.833	278.69
295.064	284.69
295.295	287.69
295.525	271.69
295.756	291.69
295.987	294.69
296.217	297.69
296.448	305.69
296.679	297.69
296.909	283.69
297.14	266.69
297.37	297.69
297.601	281.69
297.831	266.69
298.062	271.69
298.292	287.69
298.523	298.69
298.753	298.69
298.984	294.69
299.214	281.69
299.445	295.69
299.675	292.69
299.905	278.69
300.136	299.69
300.366	281.69
300.597	294.69
300.827	299.69
301.057	308.69
301.288	319.69
301.518	305.69
301.748	303.69
301.979	300.69
302.209	295.69
302.439	297.69
302.669	308.69
302.9	317.69
303.13	317.69
303.36	308.69
303.59	313.69
303.82	309.69
304.051	320.69
304.281	313.69
304.511	295.69
304.741	317.69
304.971	324.69
305.201	314.69
305.431	311.69
305.661	305.69
305.891	310.69
306.121	301.69
306.352	315.69
306.582	323.69
306.812	290.69
307.042	322.69
307.272	322.69
307.502	302.69
307.731	304.69
307.961	306.69
308.191	310.69
308.421	297.69
308.651	312.69
308.881	309.69
309.111	330.69
309.341	295.69
309.571	323.69
309.8	325.69
310.03	309.69
310.26	334.69
310.49	320.69
310.72	326.69
310.949	338.69
311.179	350.69
311.409	340.69
311.639	331.69
311.868	342.69
312.098	344.69
312.328	335.69
312.557	348.69
312.787	347.69
313.017	340.69
313.246	339.69
313.476	325.69
313.706	328.69
313.935	323.69
314.165	338.69
314.394	340.69
314.624	338.69
314.853	343.69
315.083	344.69
315.312	349.69
315.542	337.69
315.771	348.69
316.001	346.69
316.23	338.69
316.46	338.69
316.689	332.69
316.919	338.69
317.148	340.69
317.377	340.69
317.607	333.69
317.836	347.69
318.065	324.69
318.295	332.69
318.524	356.69
318.753	347.69
318.983	357.69
319.212	338.69
319.441	337.69
319.67	365.69
319.9	350.69
320.129	332.69
320.358	340.69
320.587	334.69
320.816	363.69
321.046	378.69
321.275	350.69
321.504	345.69
321.733	368.69
321.962	346.69
322.191	357.69
322.42	347.69
322.649	365.69
322.878	375.69
323.108	387.69
323.337	375.69
323.566	401.69
323.795	401.69
324.024	438.69
324.253	505.69
324.482	615.69
324.71	915.69
324.939	1355.69
325.168	1176.69
325.397	608.69
325.626	460.69
325.855	407.69
326.084	388.69
326.313	380.69
326.542	397.69
326.77	415.69
326.999	475.69
327.228	602.69
327.457	852.69
327.686	1060.69
327.914	719.69
328.143	518.69
328.372	449.69
328.6	449.69
328.829	414.69
329.058	429.69
329.287	432.69
329.515	426.69
329.744	406.69
329.972	411.69
330.201	413.69
330.43	446.69
330.658	435.69
330.887	461.69
331.115	456.69
331.344	428.69
331.572	422.69
331.801	418.69
332.03	431.69
332.258	413.69
332.486	406.69
332.715	403.69
332.943	400.69
333.172	426.69
333.4	413.69
333.629	435.69
333.857	408.69
334.085	447.69
334.314	433.69
334.542	476.69
334.771	477.69
334.999	455.69
335.227	422.69
335.455	427.69
335.684	412.69
335.912	408.69
336.14	415.69
336.369	421.69
336.597	422.69
336.825	416.69
337.053	421.69
337.281	391.69
337.51	415.69
337.738	431.69
337.966	421.69
338.194	390.69
338.422	397.69
338.65	404.69
338.878	405.69
339.106	400.69
339.334	403.69
339.562	413.69
339.79	387.69
340.018	382.69
340.246	383.69
340.474	405.69
340.702	380.69
340.93	415.69
341.158	380.69
341.386	400.69
341.614	384.69
341.842	372.69
342.07	400.69
342.298	390.69
342.526	383.69
342.754	385.69
342.981	378.69
343.209	385.69
343.437	399.69
343.665	398.69
343.893	420.69
344.12	425.69
344.348	423.69
344.576	413.69
344.804	415.69
345.031	405.69
345.259	425.69
345.487	384.69
345.714	406.69
345.942	407.69
346.17	404.69
346.397	376.69
346.625	382.69
346.853	363.69
347.08	367.69
347.308	356.69
347.535	390.69
347.763	393.69
347.99	395.69
348.218	382.69
348.445	375.69
348.673	387.69
348.9	380.69
349.128	396.69
349.355	374.69
349.583	355.69
349.81	375.69
350.037	375.69
350.265	367.69
350.492	367.69
350.72	373.69
350.947	369.69
351.174	379.69
351.402	381.69
351.629	385.69
351.856	381.69
352.083	408.69
352.311	386.69
352.538	364.69
352.765	375.69
352.992	381.69
353.22	365.69
353.447	377.69
353.674	395.69
353.901	374.69
354.128	381.69
354.355	379.69
354.583	374.69
354.81	357.69
355.037	383.69
355.264	391.69
355.491	379.69
355.718	368.69
355.945	385.69
356.172	360.69
356.399	393.69
356.626	379.69
356.853	376.69
357.08	373.69
357.307	375.69
357.534	369.69
357.761	378.69
357.988	366.69
358.215	348.69
358.441	378.69
358.668	359.69
358.895	401.69
359.122	377.69
359.349	386.69
359.576	377.69
359.802	386.69
360.029	427.69
360.256	417.69
360.483	418.69
360.709	413.69
360.936	405.69
361.163	380.69
361.39	378.69
361.616	399.69
361.843	380.69
362.07	387.69
362.296	378.69
362.523	383.69
362.749	384.69
362.976	373.69
363.203	398.69
363.429	395.69
363.656	385.69
363.882	373.69
364.109	381.69
364.335	380.69
364.562	376.69
364.788	379.69
365.015	401.69
365.241	387.69
365.468	393.69
365.694	395.69
365.92	403.69
366.147	381.69
366.373	386.69
366.599	382.69
366.826	404.69
367.052	371.69
367.278	398.69
367.505	402.69
367.731	381.69
367.957	381.69
368.184	372.69
368.41	407.69
368.636	399.69
368.862	394.69
369.089	386.69
369.315	378.69
369.541	379.69
369.767	376.69
369.993	380.69
370.219	387.69
370.445	393.69
370.672	391.69
370.898	389.69
371.124	366.69
371.35	387.69
371.576	381.69
371.802	382.69
372.028	391.69
372.254	390.69
372.48	393.69
372.706	397.69
372.932	420.69
373.158	386.69
373.384	396.69
373.61	395.69
373.835	400.69
374.061	387.69
374.287	383.69
374.513	396.69
374.739	408.69
374.965	417.69
375.191	386.69
375.416	427.69
375.642	389.69
375.868	427.69
376.094	413.69
376.319	417.69
376.545	406.69
376.771	406.69
376.997	411.69
377.222	393.69
377.448	389.69
377.674	404.69
377.899	407.69
378.125	382.69
378.35	398.69
378.576	390.69
378.802	389.69
379.027	388.69
379.253	417.69
379.478	403.69
379.704	395.69
379.929	406.69
380.155	401.69
380.38	408.69
380.606	416.69
380.831	399.69
381.057	402.69
381.282	395.69
381.507	421.69
381.733	421.69
381.958	403.69
382.184	425.69
382.409	402.69
382.634	412.69
382.86	408.69
383.085	418.69
383.31	419.69
383.535	419.69
383.761	442.69
383.986	429.69
384.211	446.69
384.436	434.69
384.662	423.69
384.887	468.69
385.112	443.69
385.337	463.69
385.562	453.69
385.787	458.69
386.013	464.69
386.238	478.69
386.463	470.69
386.688	444.69
386.913	470.69
387.138	453.69
387.363	442.69
387.588	458.69
387.813	447.69
388.038	472.69
388.263	457.69
388.488	453.69
388.713	453.69
388.938	450.69
389.163	450.69
389.387	463.69
389.612	427.69
389.837	434.69
390.062	428.69
390.287	441.69
390.512	450.69
390.736	453.69
390.961	446.69
391.186	439.69
391.411	443.69
391.636	462.69
391.86	466.69
392.085	475.69
392.31	473.69
392.534	478.69
392.759	473.69
392.984	482.69
393.208	462.69
393.433	507.69
393.658	476.69
393.882	458.69
394.107	471.69
394.331	460.69
394.556	440.69
394.78	443.69
395.005	448.69
395.229	449.69
395.454	461.69
395.678	438.69
395.903	469.69
396.127	485.69
396.352	504.69
396.576	473.69
396.801	479.69
397.025	471.69
397.249	469.69
397.474	474.69
397.698	486.69
397.922	506.69
398.147	515.69
398.371	512.69
398.595	476.69
398.82	517.69
399.044	540.69
399.268	561.69
399.492	588.69
399.717	612.69
399.941	633.69
400.165	644.69
400.389	649.69
400.613	565.69
400.837	534.69
401.062	549.69
401.286	542.69
401.51	524.69
401.734	524.69
401.958	537.69
402.182	540.69
402.406	537.69
402.63	547.69
402.854	537.69
403.078	536.69
403.302	539.69
403.526	540.69
403.75	547.69
403.974	547.69
404.198	557.69
404.422	544.69
404.645	542.69
404.869	558.69
405.093	585.69
405.317	598.69
405.541	610.69
405.765	556.69
405.988	561.69
406.212	551.69
406.436	561.69
406.66	571.69
406.883	563.69
407.107	599.69
407.331	654.69
407.555	677.69
407.778	703.69
408.002	650.69
408.226	612.69
408.449	611.69
408.673	601.69
408.896	602.69
409.12	651.69
409.344	598.69
409.567	558.69
409.791	575.69
410.014	563.69
410.238	552.69
410.461	543.69
410.685	549.69
410.908	563.69
411.132	591.69
411.355	617.69
411.578	582.69
411.802	535.69
412.025	538.69
412.249	546.69
412.472	575.69
412.695	582.69
412.919	569.69
413.142	539.69
413.365	516.69
413.589	512.69
413.812	515.69
414.035	516.69
414.258	513.69
414.482	506.69
414.705	531.69
414.928	518.69
415.151	515.69
415.374	534.69
415.597	515.69
415.821	530.69
416.044	514.69
416.267	520.69
416.49	509.69
416.713	519.69
416.936	521.69
417.159	518.69
417.382	522.69
417.605	518.69
417.828	531.69
418.051	552.69
418.274	522.69
418.497	511.69
418.72	516.69
418.943	501.69
419.166	550.69
419.389	557.69
419.611	536.69
419.834	568.69
420.057	533.69
420.28	533.69
420.503	518.69
420.726	517.69
420.948	527.69
421.171	563.69
421.394	604.69
421.617	529.69
421.839	517.69
422.062	521.69
422.285	549.69
422.507	577.69
422.73	653.69
422.953	619.69
423.175	574.69
423.398	543.69
423.621	537.69
423.843	562.69
424.066	583.69
424.288	572.69
424.511	579.69
424.733	622.69
424.956	681.69
425.178	661.69
425.401	665.69
425.623	667.69
425.846	581.69
426.068	561.69
426.291	538.69
426.513	513.69
426.735	551.69
426.958	582.69
427.18	644.69
427.402	773.69
427.625	841.69
427.847	701.69
428.069	638.69
428.292	594.69
428.514	529.69
428.736	537.69
428.958	499.69
429.181	502.69
429.403	483.69
429.625	499.69
429.847	546.69
430.069	597.69
430.292	594.69
430.514	519.69
430.736	521.69
430.958	505.69
431.18	507.69
431.402	492.69
431.624	491.69
431.846	498.69
432.068	484.69
432.29	513.69
432.512	492.69
432.734	516.69
432.956	514.69
433.178	491.69
433.4	511.69
433.622	493.69
433.844	476.69
434.066	514.69
434.287	477.69
434.509	505.69
434.731	521.69
434.953	525.69
435.175	561.69
435.397	566.69
435.618	546.69
435.84	581.69
436.062	659.69
436.284	703.69
436.505	591.69
436.727	535.69
436.949	519.69
437.17	514.69
437.392	513.69
437.614	522.69
437.835	543.69
438.057	622.69
438.278	700.69
438.5	695.69
438.721	771.69
438.943	744.69
439.165	581.69
439.386	545.69
439.608	546.69
439.829	557.69
440.05	550.69
440.272	586.69
440.493	566.69
440.715	530.69
440.936	512.69
441.158	528.69
441.379	526.69
441.6	534.69
441.822	542.69
442.043	595.69
442.264	665.69
442.486	679.69
442.707	589.69
442.928	582.69
443.149	559.69
443.371	580.69
443.592	633.69
443.813	699.69
444.034	740.69
444.255	657.69
444.476	591.69
444.698	589.69
444.919	594.69
445.14	706.69
445.361	640.69
445.582	592.69
445.803	635.69
446.024	709.69
446.245	717.69
446.466	637.69
446.687	580.69
446.908	551.69
447.129	518.69
447.35	531.69
447.571	511.69
447.792	500.69
448.013	491.69
448.234	524.69
448.455	530.69
448.675	652.69
448.896	753.69
449.117	649.69
449.338	616.69
449.559	713.69
449.779	810.69
450	642.69
450.221	547.69
450.442	518.69
450.662	498.69
450.883	484.69
451.104	484.69
451.324	484.69
451.545	477.69
451.766	474.69
451.986	454.69
452.207	454.69
452.428	452.69
452.648	441.69
452.869	457.69
453.089	437.69
453.31	466.69
453.53	463.69
453.751	437.69
453.971	424.69
454.192	423.69
454.412	458.69
454.633	449.69
454.853	452.69
455.073	450.69
455.294	459.69
455.514	508.69
455.734	518.69
455.955	465.69
456.175	425.69
456.395	413.69
456.616	442.69
456.836	425.69
457.056	425.69
457.276	436.69
457.497	428.69
457.717	443.69
457.937	423.69
458.157	434.69
458.377	434.69
458.598	453.69
458.818	466.69
459.038	531.69
459.258	566.69
459.478	520.69
459.698	501.69
459.918	478.69
460.138	515.69
460.358	531.69
460.578	528.69
460.798	530.69
461.018	515.69
461.238	518.69
461.458	500.69
461.678	499.69
461.898	524.69
462.118	511.69
462.338	543.69
462.558	566.69
462.777	557.69
462.997	588.69
463.217	596.69
463.437	607.69
463.657	599.69
463.876	589.69
464.096	571.69
464.316	548.69
464.536	587.69
464.755	568.69
464.975	567.69
465.195	583.69
465.414	586.69
465.634	536.69
465.854	525.69
466.073	503.69
466.293	487.69
466.512	462.69
466.732	465.69
466.951	462.69
467.171	468.69
467.391	490.69
467.61	478.69
467.829	474.69
468.049	474.69
468.268	486.69
468.488	469.69
468.707	473.69
468.927	508.69
469.146	477.69
469.365	465.69
469.585	470.69
469.804	501.69
470.023	471.69
470.243	481.69
470.462	496.69
470.681	498.69
470.901	484.69
471.12	497.69
471.339	484.69
471.558	490.69
471.777	482.69
471.997	487.69
472.216	472.69
472.435	489.69
472.654	488.69
472.873	492.69
473.092	468.69
473.311	475.69
473.53	490.69
473.749	490.69
473.968	512.69
474.187	583.69
474.406	599.69
474.625	529.69
474.844	505.69
475.063	477.69
475.282	468.69
475.501	483.69
475.72	492.69
475.939	501.69
476.158	482.69
476.377	494.69
476.596	485.69
476.814	507.69
477.033	519.69
477.252	518.69
477.471	522.69
477.69	513.69
477.908	520.69
478.127	542.69
478.346	545.69
478.564	575.69
478.783	554.69
479.002	554.69
479.22	567.69
479.439	569.69
479.658	580.69
479.876	606.69
480.095	584.69
480.313	604.69
480.532	616.69
480.751	596.69
480.969	585.69
481.188	609.69
481.406	602.69
481.624	585.69
481.843	572.69
482.061	558.69
482.28	586.69
482.498	577.69
482.717	585.69
482.935	567.69
483.153	553.69
483.372	550.69
483.59	555.69
483.808	600.69
484.027	571.69
484.245	570.69
484.463	571.69
484.681	594.69
484.9	584.69
485.118	570.69
485.336	589.69
485.554	588.69
485.772	590.69
485.99	581.69
486.209	598.69
486.427	596.69
486.645	605.69
486.863	622.69
487.081	606.69
487.299	600.69
487.517	598.69
487.735	613.69
487.953	617.69
488.171	606.69
488.389	614.69
488.607	625.69
488.825	595.69
489.043	611.69
489.261	622.69
489.479	610.69
489.696	613.69
489.914	621.69
490.132	633.69
490.35	643.69
490.568	630.69
490.786	640.69
491.003	644.69
491.221	687.69
491.439	680.69
491.657	688.69
491.874	655.69
492.092	690.69
492.31	696.69
492.527	692.69
492.745	666.69
492.963	700.69
493.18	676.69
493.398	710.69
493.615	709.69
493.833	699.69
494.05	699.69
494.268	722.69
494.485	699.69
494.703	710.69
494.92	693.69
495.138	713.69
495.355	714.69
495.573	714.69
495.79	717.69
496.008	700.69
496.225	729.69
496.442	711.69
496.66	735.69
496.877	731.69
497.094	726.69
497.312	712.69
497.529	724.69
497.746	745.69
497.963	761.69
498.181	763.69
498.398	788.69
498.615	817.69
498.832	845.69
499.049	865.69
499.267	888.69
499.484	923.69
499.701	969.69
499.918	1042.69
500.135	1075.69
500.352	1156.69
500.569	1181.69
500.786	1155.69
501.003	1150.69
501.22	1100.69
501.437	1037.69
501.654	1004.69
