Data from 1974.PennyLincolnUp.Lamp.En5.5.200Scan.071719.P1.Changed Mount._HRD10591_15-53-47-857.txt Node
Date: Thu Jul 18 15:53:47 EDT 2019
User: cochatt
Spectrometer: HR+D1059
Trigger mode: 1
Integration Time (sec): 1.000000E-1
Scans to average: 1
Electric dark correction enabled: true
Nonlinearity correction enabled: false
Boxcar width: 0
XAxis mode: Wavelengths
Number of Pixels in Spectrum: 2048
>>>>>Begin Spectral Data<<<<<
223.165	-13.62
223.4	-13.62
223.635	-13.62
223.869	-14.62
224.104	-19.62
224.338	-19.62
224.573	-6.62
224.808	-16.62
225.042	-18.62
225.277	-12.62
225.511	-11.62
225.746	10.38
225.98	6.38
226.215	8.38
226.449	10.38
226.683	26.38
226.918	31.38
227.152	40.38
227.387	39.38
227.621	29.38
227.856	42.38
228.09	58.38
228.324	43.38
228.559	62.38
228.793	70.38
229.027	120.38
229.262	95.38
229.496	131.38
229.73	133.38
229.964	151.38
230.199	131.38
230.433	126.38
230.667	135.38
230.901	121.38
231.136	115.38
231.37	125.38
231.604	120.38
231.838	111.38
232.072	130.38
232.306	132.38
232.541	109.38
232.775	111.38
233.009	125.38
233.243	135.38
233.477	121.38
233.711	126.38
233.945	114.38
234.179	125.38
234.413	123.38
234.647	124.38
234.881	125.38
235.115	132.38
235.349	140.38
235.583	117.38
235.817	142.38
236.051	140.38
236.285	128.38
236.519	137.38
236.753	123.38
236.987	144.38
237.221	189.38
237.455	234.38
237.689	200.38
237.922	136.38
238.156	136.38
238.39	128.38
238.624	138.38
238.858	120.38
239.091	120.38
239.325	132.38
239.559	132.38
239.793	130.38
240.027	143.38
240.26	160.38
240.494	161.38
240.728	168.38
240.961	156.38
241.195	152.38
241.429	147.38
241.662	151.38
241.896	138.38
242.13	144.38
242.363	132.38
242.597	156.38
242.83	155.38
243.064	133.38
243.298	142.38
243.531	163.38
243.765	164.38
243.998	167.38
244.232	152.38
244.465	150.38
244.699	164.38
244.932	167.38
245.166	149.38
245.399	180.38
245.633	164.38
245.866	157.38
246.099	148.38
246.333	150.38
246.566	168.38
246.8	159.38
247.033	178.38
247.266	181.38
247.5	183.38
247.733	187.38
247.966	193.38
248.2	187.38
248.433	178.38
248.666	191.38
248.899	214.38
249.133	207.38
249.366	227.38
249.599	204.38
249.832	188.38
250.066	188.38
250.299	190.38
250.532	202.38
250.765	215.38
250.998	235.38
251.231	243.38
251.465	242.38
251.698	222.38
251.931	200.38
252.164	214.38
252.397	201.38
252.63	221.38
252.863	228.38
253.096	230.38
253.329	243.38
253.562	230.38
253.795	228.38
254.028	239.38
254.261	243.38
254.494	250.38
254.727	271.38
254.96	299.38
255.193	292.38
255.426	249.38
255.659	264.38
255.892	244.38
256.124	264.38
256.357	246.38
256.59	240.38
256.823	227.38
257.056	245.38
257.289	223.38
257.521	236.38
257.754	221.38
257.987	224.38
258.22	229.38
258.452	237.38
258.685	218.38
258.918	211.38
259.151	242.38
259.383	247.38
259.616	238.38
259.849	240.38
260.081	265.38
260.314	264.38
260.547	270.38
260.779	272.38
261.012	261.38
261.244	243.38
261.477	246.38
261.71	232.38
261.942	227.38
262.175	253.38
262.407	236.38
262.64	244.38
262.872	245.38
263.105	237.38
263.337	238.38
263.57	233.38
263.802	238.38
264.035	238.38
264.267	233.38
264.499	246.38
264.732	247.38
264.964	238.38
265.197	244.38
265.429	236.38
265.661	233.38
265.894	258.38
266.126	246.38
266.358	228.38
266.591	238.38
266.823	248.38
267.055	236.38
267.287	248.38
267.52	257.38
267.752	266.38
267.984	262.38
268.216	258.38
268.448	264.38
268.681	272.38
268.913	271.38
269.145	291.38
269.377	291.38
269.609	289.38
269.841	295.38
270.073	312.38
270.306	303.38
270.538	337.38
270.77	339.38
271.002	328.38
271.234	317.38
271.466	315.38
271.698	328.38
271.93	328.38
272.162	352.38
272.394	355.38
272.626	332.38
272.858	313.38
273.09	316.38
273.322	294.38
273.553	291.38
273.785	294.38
274.017	277.38
274.249	291.38
274.481	272.38
274.713	303.38
274.945	298.38
275.176	286.38
275.408	288.38
275.64	286.38
275.872	284.38
276.104	303.38
276.335	299.38
276.567	310.38
276.799	325.38
277.031	319.38
277.262	349.38
277.494	350.38
277.726	323.38
277.957	314.38
278.189	303.38
278.421	303.38
278.652	309.38
278.884	310.38
279.115	316.38
279.347	285.38
279.579	290.38
279.81	278.38
280.042	305.38
280.273	319.38
280.505	294.38
280.736	289.38
280.968	286.38
281.199	308.38
281.431	306.38
281.662	309.38
281.894	307.38
282.125	311.38
282.356	313.38
282.588	334.38
282.819	321.38
283.051	314.38
283.282	298.38
283.513	304.38
283.745	291.38
283.976	290.38
284.207	312.38
284.439	328.38
284.67	315.38
284.901	316.38
285.132	316.38
285.364	307.38
285.595	297.38
285.826	292.38
286.057	317.38
286.288	322.38
286.52	315.38
286.751	296.38
286.982	304.38
287.213	310.38
287.444	312.38
287.675	326.38
287.906	334.38
288.138	341.38
288.369	342.38
288.6	339.38
288.831	336.38
289.062	335.38
289.293	322.38
289.524	330.38
289.755	322.38
289.986	335.38
290.217	321.38
290.448	334.38
290.679	330.38
290.91	322.38
291.141	335.38
291.371	328.38
291.602	334.38
291.833	336.38
292.064	344.38
292.295	329.38
292.526	348.38
292.757	330.38
292.987	321.38
293.218	328.38
293.449	350.38
293.68	333.38
293.91	327.38
294.141	309.38
294.372	321.38
294.603	323.38
294.833	323.38
295.064	326.38
295.295	326.38
295.525	334.38
295.756	355.38
295.987	355.38
296.217	347.38
296.448	372.38
296.679	350.38
296.909	338.38
297.14	344.38
297.37	332.38
297.601	342.38
297.831	337.38
298.062	319.38
298.292	347.38
298.523	362.38
298.753	330.38
298.984	358.38
299.214	329.38
299.445	359.38
299.675	349.38
299.905	356.38
300.136	357.38
300.366	343.38
300.597	363.38
300.827	362.38
301.057	374.38
301.288	366.38
301.518	355.38
301.748	352.38
301.979	361.38
302.209	361.38
302.439	377.38
302.669	382.38
302.9	374.38
303.13	356.38
303.36	360.38
303.59	377.38
303.82	367.38
304.051	367.38
304.281	379.38
304.511	372.38
304.741	359.38
304.971	379.38
305.201	391.38
305.431	372.38
305.661	366.38
305.891	385.38
306.121	359.38
306.352	366.38
306.582	373.38
306.812	371.38
307.042	377.38
307.272	380.38
307.502	366.38
307.731	370.38
307.961	366.38
308.191	360.38
308.421	366.38
308.651	353.38
308.881	374.38
309.111	382.38
309.341	375.38
309.571	394.38
309.8	396.38
310.03	389.38
310.26	405.38
310.49	392.38
310.72	410.38
310.949	435.38
311.179	414.38
311.409	420.38
311.639	401.38
311.868	419.38
312.098	406.38
312.328	416.38
312.557	433.38
312.787	418.38
313.017	436.38
313.246	402.38
313.476	408.38
313.706	402.38
313.935	419.38
314.165	448.38
314.394	425.38
314.624	424.38
314.853	419.38
315.083	422.38
315.312	413.38
315.542	407.38
315.771	415.38
316.001	399.38
316.23	405.38
316.46	422.38
316.689	402.38
316.919	434.38
317.148	431.38
317.377	413.38
317.607	407.38
317.836	396.38
318.065	425.38
318.295	412.38
318.524	406.38
318.753	387.38
318.983	417.38
319.212	405.38
319.441	398.38
319.67	432.38
319.9	400.38
320.129	439.38
320.358	405.38
320.587	428.38
320.816	415.38
321.046	445.38
321.275	435.38
321.504	439.38
321.733	431.38
321.962	437.38
322.191	441.38
322.42	466.38
322.649	463.38
322.878	462.38
323.108	479.38
323.337	491.38
323.566	522.38
323.795	537.38
324.024	585.38
324.253	654.38
324.482	929.38
324.71	1330.38
324.939	2026.38
325.168	1748.38
325.397	942.38
325.626	650.38
325.855	561.38
326.084	532.38
326.313	492.38
326.542	518.38
326.77	543.38
326.999	630.38
327.228	830.38
327.457	1237.38
327.686	1542.38
327.914	1054.38
328.143	694.38
328.372	606.38
328.6	587.38
328.829	565.38
329.058	588.38
329.287	604.38
329.515	569.38
329.744	538.38
329.972	548.38
330.201	541.38
330.43	556.38
330.658	597.38
330.887	616.38
331.115	620.38
331.344	538.38
331.572	544.38
331.801	526.38
332.03	522.38
332.258	515.38
332.486	483.38
332.715	504.38
332.943	518.38
333.172	510.38
333.4	549.38
333.629	546.38
333.857	520.38
334.085	542.38
334.314	551.38
334.542	605.38
334.771	594.38
334.999	571.38
335.227	545.38
335.455	514.38
335.684	516.38
335.912	519.38
336.14	499.38
336.369	519.38
336.597	499.38
336.825	509.38
337.053	507.38
337.281	493.38
337.51	490.38
337.738	503.38
337.966	518.38
338.194	493.38
338.422	500.38
338.65	477.38
338.878	487.38
339.106	479.38
339.334	484.38
339.562	468.38
339.79	495.38
340.018	491.38
340.246	473.38
340.474	496.38
340.702	469.38
340.93	498.38
341.158	498.38
341.386	460.38
341.614	493.38
341.842	485.38
342.07	466.38
342.298	463.38
342.526	453.38
342.754	474.38
342.981	455.38
343.209	472.38
343.437	475.38
343.665	498.38
343.893	494.38
344.12	501.38
344.348	492.38
344.576	484.38
344.804	516.38
345.031	499.38
345.259	510.38
345.487	493.38
345.714	474.38
345.942	467.38
346.17	470.38
346.397	451.38
346.625	468.38
346.853	465.38
347.08	448.38
347.308	457.38
347.535	464.38
347.763	492.38
347.99	476.38
348.218	454.38
348.445	490.38
348.673	477.38
348.9	471.38
349.128	459.38
349.355	432.38
349.583	446.38
349.81	452.38
350.037	449.38
350.265	469.38
350.492	440.38
350.72	439.38
350.947	444.38
351.174	493.38
351.402	456.38
351.629	449.38
351.856	474.38
352.083	470.38
352.311	459.38
352.538	464.38
352.765	490.38
352.992	485.38
353.22	443.38
353.447	454.38
353.674	447.38
353.901	455.38
354.128	450.38
354.355	465.38
354.583	438.38
354.81	436.38
355.037	461.38
355.264	442.38
355.491	441.38
355.718	453.38
355.945	448.38
356.172	431.38
356.399	416.38
356.626	428.38
356.853	432.38
357.08	435.38
357.307	440.38
357.534	446.38
357.761	458.38
357.988	452.38
358.215	440.38
358.441	422.38
358.668	423.38
358.895	435.38
359.122	445.38
359.349	457.38
359.576	483.38
359.802	490.38
360.029	511.38
360.256	504.38
360.483	487.38
360.709	474.38
360.936	442.38
361.163	453.38
361.39	459.38
361.616	465.38
361.843	449.38
362.07	469.38
362.296	471.38
362.523	454.38
362.749	455.38
362.976	445.38
363.203	458.38
363.429	433.38
363.656	454.38
363.882	463.38
364.109	446.38
364.335	469.38
364.562	460.38
364.788	453.38
365.015	479.38
365.241	443.38
365.468	467.38
365.694	462.38
365.92	456.38
366.147	479.38
366.373	459.38
366.599	452.38
366.826	437.38
367.052	453.38
367.278	447.38
367.505	446.38
367.731	434.38
367.957	447.38
368.184	466.38
368.41	463.38
368.636	474.38
368.862	478.38
369.089	444.38
369.315	429.38
369.541	456.38
369.767	474.38
369.993	448.38
370.219	458.38
370.445	470.38
370.672	453.38
370.898	468.38
371.124	456.38
371.35	470.38
371.576	469.38
371.802	451.38
372.028	472.38
372.254	456.38
372.48	451.38
372.706	477.38
372.932	468.38
373.158	458.38
373.384	478.38
373.61	450.38
373.835	460.38
374.061	454.38
374.287	495.38
374.513	474.38
374.739	495.38
374.965	459.38
375.191	480.38
375.416	489.38
375.642	448.38
375.868	461.38
376.094	468.38
376.319	472.38
376.545	466.38
376.771	472.38
376.997	448.38
377.222	450.38
377.448	459.38
377.674	471.38
377.899	462.38
378.125	420.38
378.35	450.38
378.576	445.38
378.802	452.38
379.027	470.38
379.253	466.38
379.478	463.38
379.704	465.38
379.929	451.38
380.155	447.38
380.38	485.38
380.606	465.38
380.831	474.38
381.057	450.38
381.282	454.38
381.507	470.38
381.733	480.38
381.958	471.38
382.184	444.38
382.409	478.38
382.634	468.38
382.86	490.38
383.085	498.38
383.31	489.38
383.535	485.38
383.761	484.38
383.986	500.38
384.211	506.38
384.436	514.38
384.662	487.38
384.887	518.38
385.112	528.38
385.337	517.38
385.562	519.38
385.787	513.38
386.013	507.38
386.238	516.38
386.463	511.38
386.688	517.38
386.913	520.38
387.138	504.38
387.363	501.38
387.588	532.38
387.813	521.38
388.038	511.38
388.263	503.38
388.488	512.38
388.713	541.38
388.938	501.38
389.163	526.38
389.387	515.38
389.612	528.38
389.837	532.38
390.062	528.38
390.287	542.38
390.512	522.38
390.736	531.38
390.961	532.38
391.186	528.38
391.411	518.38
391.636	529.38
391.86	545.38
392.085	541.38
392.31	526.38
392.534	545.38
392.759	543.38
392.984	536.38
393.208	523.38
393.433	537.38
393.658	537.38
393.882	551.38
394.107	524.38
394.331	553.38
394.556	519.38
394.78	534.38
395.005	545.38
395.229	547.38
395.454	565.38
395.678	533.38
395.903	558.38
396.127	598.38
396.352	576.38
396.576	548.38
396.801	552.38
397.025	564.38
397.249	570.38
397.474	542.38
397.698	554.38
397.922	578.38
398.147	604.38
398.371	596.38
398.595	574.38
398.82	580.38
399.044	626.38
399.268	644.38
399.492	679.38
399.717	720.38
399.941	760.38
400.165	780.38
400.389	764.38
400.613	687.38
400.837	642.38
401.062	631.38
401.286	619.38
401.51	630.38
401.734	598.38
401.958	623.38
402.182	633.38
402.406	608.38
402.63	623.38
402.854	629.38
403.078	644.38
403.302	626.38
403.526	637.38
403.75	640.38
403.974	652.38
404.198	656.38
404.422	643.38
404.645	648.38
404.869	653.38
405.093	675.38
405.317	701.38
405.541	770.38
405.765	708.38
405.988	696.38
406.212	654.38
406.436	657.38
406.66	690.38
406.883	697.38
407.107	702.38
407.331	776.38
407.555	841.38
407.778	840.38
408.002	749.38
408.226	716.38
408.449	694.38
408.673	713.38
408.896	722.38
409.12	776.38
409.344	715.38
409.567	674.38
409.791	661.38
410.014	646.38
410.238	637.38
410.461	673.38
410.685	642.38
410.908	666.38
411.132	700.38
411.355	703.38
411.578	678.38
411.802	646.38
412.025	650.38
412.249	653.38
412.472	667.38
412.695	707.38
412.919	690.38
413.142	670.38
413.365	654.38
413.589	608.38
413.812	585.38
414.035	626.38
414.258	606.38
414.482	598.38
414.705	606.38
414.928	592.38
415.151	609.38
415.374	592.38
415.597	586.38
415.821	573.38
416.044	598.38
416.267	611.38
416.49	616.38
416.713	602.38
416.936	579.38
417.159	612.38
417.382	602.38
417.605	626.38
417.828	611.38
418.051	617.38
418.274	638.38
418.497	602.38
418.72	607.38
418.943	608.38
419.166	639.38
419.389	646.38
419.611	638.38
419.834	637.38
420.057	606.38
420.28	631.38
420.503	634.38
420.726	642.38
420.948	628.38
421.171	660.38
421.394	726.38
421.617	668.38
421.839	627.38
422.062	623.38
422.285	636.38
422.507	723.38
422.73	771.38
422.953	734.38
423.175	674.38
423.398	652.38
423.621	661.38
423.843	692.38
424.066	695.38
424.288	687.38
424.511	690.38
424.733	747.38
424.956	821.38
425.178	794.38
425.401	770.38
425.623	800.38
425.846	698.38
426.068	667.38
426.291	662.38
426.513	653.38
426.735	648.38
426.958	695.38
427.18	787.38
427.402	962.38
427.625	1006.38
427.847	884.38
428.069	772.38
428.292	696.38
428.514	652.38
428.736	611.38
428.958	620.38
429.181	623.38
429.403	583.38
429.625	612.38
429.847	634.38
430.069	730.38
430.292	713.38
430.514	644.38
430.736	629.38
430.958	588.38
431.18	588.38
431.402	590.38
431.624	583.38
431.846	578.38
432.068	578.38
432.29	592.38
432.512	589.38
432.734	597.38
432.956	589.38
433.178	590.38
433.4	591.38
433.622	600.38
433.844	589.38
434.066	578.38
434.287	589.38
434.509	585.38
434.731	606.38
434.953	633.38
435.175	641.38
435.397	666.38
435.618	669.38
435.84	681.38
436.062	814.38
436.284	853.38
436.505	740.38
436.727	660.38
436.949	636.38
437.17	607.38
437.392	595.38
437.614	630.38
437.835	675.38
438.057	768.38
438.278	846.38
438.5	837.38
438.721	898.38
438.943	916.38
439.165	725.38
439.386	664.38
439.608	677.38
439.829	671.38
440.05	671.38
440.272	731.38
440.493	686.38
440.715	661.38
440.936	637.38
441.158	614.38
441.379	630.38
441.6	667.38
441.822	682.38
442.043	683.38
442.264	792.38
442.486	818.38
442.707	727.38
442.928	703.38
443.149	712.38
443.371	686.38
443.592	752.38
443.813	823.38
444.034	923.38
444.255	798.38
444.476	690.38
444.698	678.38
444.919	695.38
445.14	793.38
445.361	726.38
445.582	711.38
445.803	785.38
446.024	884.38
446.245	862.38
446.466	836.38
446.687	712.38
446.908	663.38
447.129	626.38
447.35	585.38
447.571	610.38
447.792	616.38
448.013	599.38
448.234	639.38
448.455	671.38
448.675	807.38
448.896	916.38
449.117	794.38
449.338	732.38
449.559	873.38
449.779	963.38
450	786.38
450.221	656.38
450.442	604.38
450.662	606.38
450.883	595.38
451.104	578.38
451.324	572.38
451.545	564.38
451.766	543.38
451.986	545.38
452.207	530.38
452.428	538.38
452.648	563.38
452.869	536.38
453.089	549.38
453.31	560.38
453.53	552.38
453.751	536.38
453.971	555.38
454.192	546.38
454.412	551.38
454.633	557.38
454.853	527.38
455.073	524.38
455.294	558.38
455.514	644.38
455.734	633.38
455.955	547.38
456.175	515.38
456.395	527.38
456.616	509.38
456.836	517.38
457.056	510.38
457.276	478.38
457.497	519.38
457.717	520.38
457.937	536.38
458.157	534.38
458.377	517.38
458.598	578.38
458.818	614.38
459.038	661.38
459.258	716.38
459.478	631.38
459.698	591.38
459.918	598.38
460.138	575.38
460.358	598.38
460.578	600.38
460.798	607.38
461.018	610.38
461.238	594.38
461.458	597.38
461.678	608.38
461.898	616.38
462.118	628.38
462.338	617.38
462.558	673.38
462.777	648.38
462.997	642.38
463.217	711.38
463.437	706.38
463.657	678.38
463.876	635.38
464.096	664.38
464.316	626.38
464.536	642.38
464.755	662.38
464.975	630.38
465.195	670.38
465.414	696.38
465.634	643.38
465.854	610.38
466.073	599.38
466.293	571.38
466.512	552.38
466.732	558.38
466.951	562.38
467.171	582.38
467.391	571.38
467.61	572.38
467.829	573.38
468.049	567.38
468.268	557.38
468.488	587.38
468.707	538.38
468.927	542.38
469.146	549.38
469.365	537.38
469.585	554.38
469.804	564.38
470.023	571.38
470.243	580.38
470.462	579.38
470.681	562.38
470.901	564.38
471.12	566.38
471.339	586.38
471.558	586.38
471.777	576.38
471.997	565.38
472.216	558.38
472.435	601.38
472.654	585.38
472.873	579.38
473.092	554.38
473.311	536.38
473.53	571.38
473.749	582.38
473.968	618.38
474.187	706.38
474.406	741.38
474.625	625.38
474.844	610.38
475.063	574.38
475.282	572.38
475.501	571.38
475.72	579.38
475.939	579.38
476.158	582.38
476.377	608.38
476.596	542.38
476.814	604.38
477.033	602.38
477.252	621.38
477.471	608.38
477.69	624.38
477.908	632.38
478.127	632.38
478.346	639.38
478.564	636.38
478.783	620.38
479.002	652.38
479.22	660.38
479.439	666.38
479.658	667.38
479.876	698.38
480.095	688.38
480.313	733.38
480.532	700.38
480.751	698.38
480.969	700.38
481.188	733.38
481.406	773.38
481.624	719.38
481.843	661.38
482.061	661.38
482.28	684.38
482.498	647.38
482.717	672.38
482.935	650.38
483.153	702.38
483.372	682.38
483.59	660.38
483.808	683.38
484.027	659.38
484.245	672.38
484.463	653.38
484.681	659.38
484.9	683.38
485.118	692.38
485.336	698.38
485.554	692.38
485.772	698.38
485.99	660.38
486.209	674.38
486.427	712.38
486.645	710.38
486.863	723.38
487.081	701.38
487.299	702.38
487.517	702.38
487.735	718.38
487.953	712.38
488.171	712.38
488.389	730.38
488.607	714.38
488.825	710.38
489.043	699.38
489.261	732.38
489.479	723.38
489.696	741.38
489.914	711.38
490.132	718.38
490.35	764.38
490.568	726.38
490.786	745.38
491.003	755.38
491.221	792.38
491.439	794.38
491.657	809.38
491.874	821.38
492.092	818.38
492.31	806.38
492.527	823.38
492.745	814.38
492.963	844.38
493.18	861.38
493.398	846.38
493.615	867.38
493.833	817.38
494.05	864.38
494.268	842.38
494.485	831.38
494.703	855.38
494.92	841.38
495.138	859.38
495.355	842.38
495.573	854.38
495.79	869.38
496.008	886.38
496.225	853.38
496.442	852.38
496.66	869.38
496.877	841.38
497.094	896.38
497.312	906.38
497.529	906.38
497.746	904.38
497.963	922.38
498.181	946.38
498.398	957.38
498.615	973.38
498.832	979.38
499.049	1027.38
499.267	1076.38
499.484	1090.38
499.701	1132.38
499.918	1179.38
500.135	1275.38
500.352	1364.38
500.569	1366.38
500.786	1358.38
501.003	1308.38
501.22	1257.38
501.437	1242.38
