Data from 1974.PennyLincolnUp.Lamp.En5.5.200Scan.071719.P1.Changed Mount._HRD10591_15-52-56-856.txt Node
Date: Thu Jul 18 15:52:56 EDT 2019
User: cochatt
Spectrometer: HR+D1059
Trigger mode: 1
Integration Time (sec): 1.000000E-1
Scans to average: 1
Electric dark correction enabled: true
Nonlinearity correction enabled: false
Boxcar width: 0
XAxis mode: Wavelengths
Number of Pixels in Spectrum: 2048
>>>>>Begin Spectral Data<<<<<
223.165	-25.62
223.4	-25.62
223.635	-25.62
223.869	-16.62
224.104	-11.62
224.338	-16.62
224.573	-13.62
224.808	-0.62
225.042	-8.62
225.277	1.38
225.511	-10.62
225.746	2.38
225.98	-4.62
226.215	15.38
226.449	16.38
226.683	18.38
226.918	27.38
227.152	27.38
227.387	21.38
227.621	38.38
227.856	42.38
228.09	57.38
228.324	49.38
228.559	67.38
228.793	71.38
229.027	90.38
229.262	125.38
229.496	107.38
229.73	135.38
229.964	160.38
230.199	121.38
230.433	128.38
230.667	118.38
230.901	129.38
231.136	104.38
231.37	106.38
231.604	106.38
231.838	115.38
232.072	122.38
232.306	122.38
232.541	130.38
232.775	98.38
233.009	117.38
233.243	108.38
233.477	121.38
233.711	113.38
233.945	120.38
234.179	115.38
234.413	125.38
234.647	132.38
234.881	125.38
235.115	123.38
235.349	109.38
235.583	110.38
235.817	120.38
236.051	136.38
236.285	139.38
236.519	127.38
236.753	143.38
236.987	142.38
237.221	182.38
237.455	235.38
237.689	185.38
237.922	150.38
238.156	136.38
238.39	147.38
238.624	132.38
238.858	128.38
239.091	139.38
239.325	114.38
239.559	123.38
239.793	133.38
240.027	136.38
240.26	142.38
240.494	162.38
240.728	151.38
240.961	171.38
241.195	138.38
241.429	147.38
241.662	135.38
241.896	145.38
242.13	142.38
242.363	147.38
242.597	140.38
242.83	125.38
243.064	162.38
243.298	153.38
243.531	143.38
243.765	141.38
243.998	136.38
244.232	151.38
244.465	147.38
244.699	157.38
244.932	154.38
245.166	149.38
245.399	139.38
245.633	152.38
245.866	153.38
246.099	142.38
246.333	140.38
246.566	156.38
246.8	166.38
247.033	162.38
247.266	156.38
247.5	191.38
247.733	174.38
247.966	175.38
248.2	178.38
248.433	187.38
248.666	178.38
248.899	181.38
249.133	185.38
249.366	215.38
249.599	205.38
249.832	191.38
250.066	188.38
250.299	197.38
250.532	193.38
250.765	198.38
250.998	235.38
251.231	249.38
251.465	249.38
251.698	219.38
251.931	215.38
252.164	211.38
252.397	208.38
252.63	218.38
252.863	217.38
253.096	204.38
253.329	236.38
253.562	246.38
253.795	216.38
254.028	226.38
254.261	224.38
254.494	232.38
254.727	270.38
254.96	287.38
255.193	282.38
255.426	256.38
255.659	247.38
255.892	245.38
256.124	238.38
256.357	235.38
256.59	238.38
256.823	227.38
257.056	214.38
257.289	210.38
257.521	229.38
257.754	211.38
257.987	233.38
258.22	211.38
258.452	213.38
258.685	209.38
258.918	209.38
259.151	217.38
259.383	218.38
259.616	225.38
259.849	233.38
260.081	246.38
260.314	259.38
260.547	273.38
260.779	257.38
261.012	212.38
261.244	228.38
261.477	247.38
261.71	228.38
261.942	222.38
262.175	238.38
262.407	222.38
262.64	225.38
262.872	226.38
263.105	224.38
263.337	222.38
263.57	225.38
263.802	250.38
264.035	229.38
264.267	229.38
264.499	227.38
264.732	212.38
264.964	219.38
265.197	225.38
265.429	228.38
265.661	210.38
265.894	227.38
266.126	247.38
266.358	237.38
266.591	238.38
266.823	235.38
267.055	232.38
267.287	227.38
267.52	251.38
267.752	228.38
267.984	234.38
268.216	253.38
268.448	259.38
268.681	261.38
268.913	256.38
269.145	270.38
269.377	301.38
269.609	299.38
269.841	272.38
270.073	276.38
270.306	297.38
270.538	316.38
270.77	316.38
271.002	314.38
271.234	314.38
271.466	326.38
271.698	315.38
271.93	328.38
272.162	323.38
272.394	331.38
272.626	299.38
272.858	283.38
273.09	297.38
273.322	294.38
273.553	285.38
273.785	294.38
274.017	289.38
274.249	278.38
274.481	281.38
274.713	284.38
274.945	289.38
275.176	273.38
275.408	264.38
275.64	269.38
275.872	277.38
276.104	269.38
276.335	285.38
276.567	302.38
276.799	294.38
277.031	328.38
277.262	330.38
277.494	341.38
277.726	305.38
277.957	306.38
278.189	296.38
278.421	294.38
278.652	293.38
278.884	297.38
279.115	300.38
279.347	291.38
279.579	286.38
279.81	282.38
280.042	286.38
280.273	294.38
280.505	291.38
280.736	292.38
280.968	293.38
281.199	299.38
281.431	285.38
281.662	287.38
281.894	291.38
282.125	301.38
282.356	279.38
282.588	328.38
282.819	309.38
283.051	313.38
283.282	296.38
283.513	297.38
283.745	320.38
283.976	291.38
284.207	283.38
284.439	302.38
284.67	293.38
284.901	286.38
285.132	300.38
285.364	296.38
285.595	304.38
285.826	284.38
286.057	302.38
286.288	322.38
286.52	296.38
286.751	294.38
286.982	294.38
287.213	313.38
287.444	323.38
287.675	307.38
287.906	323.38
288.138	332.38
288.369	340.38
288.6	339.38
288.831	333.38
289.062	321.38
289.293	325.38
289.524	314.38
289.755	316.38
289.986	323.38
290.217	315.38
290.448	316.38
290.679	321.38
290.91	307.38
291.141	318.38
291.371	323.38
291.602	316.38
291.833	321.38
292.064	334.38
292.295	321.38
292.526	323.38
292.757	298.38
292.987	317.38
293.218	313.38
293.449	323.38
293.68	309.38
293.91	325.38
294.141	314.38
294.372	294.38
294.603	330.38
294.833	315.38
295.064	315.38
295.295	303.38
295.525	317.38
295.756	321.38
295.987	332.38
296.217	346.38
296.448	340.38
296.679	311.38
296.909	329.38
297.14	333.38
297.37	343.38
297.601	328.38
297.831	324.38
298.062	321.38
298.292	333.38
298.523	326.38
298.753	319.38
298.984	340.38
299.214	343.38
299.445	328.38
299.675	326.38
299.905	348.38
300.136	338.38
300.366	334.38
300.597	346.38
300.827	314.38
301.057	359.38
301.288	362.38
301.518	351.38
301.748	352.38
301.979	357.38
302.209	365.38
302.439	342.38
302.669	345.38
302.9	354.38
303.13	355.38
303.36	348.38
303.59	353.38
303.82	354.38
304.051	381.38
304.281	360.38
304.511	339.38
304.741	352.38
304.971	345.38
305.201	351.38
305.431	343.38
305.661	354.38
305.891	333.38
306.121	354.38
306.352	377.38
306.582	363.38
306.812	332.38
307.042	348.38
307.272	352.38
307.502	346.38
307.731	363.38
307.961	351.38
308.191	374.38
308.421	339.38
308.651	357.38
308.881	366.38
309.111	356.38
309.341	362.38
309.571	365.38
309.8	377.38
310.03	370.38
310.26	382.38
310.49	360.38
310.72	405.38
310.949	395.38
311.179	429.38
311.409	398.38
311.639	399.38
311.868	387.38
312.098	390.38
312.328	399.38
312.557	406.38
312.787	410.38
313.017	418.38
313.246	419.38
313.476	375.38
313.706	391.38
313.935	391.38
314.165	404.38
314.394	421.38
314.624	419.38
314.853	406.38
315.083	421.38
315.312	425.38
315.542	426.38
315.771	416.38
316.001	392.38
316.23	381.38
316.46	396.38
316.689	399.38
316.919	409.38
317.148	407.38
317.377	402.38
317.607	376.38
317.836	407.38
318.065	405.38
318.295	406.38
318.524	407.38
318.753	380.38
318.983	400.38
319.212	427.38
319.441	398.38
319.67	425.38
319.9	414.38
320.129	403.38
320.358	388.38
320.587	396.38
320.816	409.38
321.046	436.38
321.275	403.38
321.504	429.38
321.733	399.38
321.962	405.38
322.191	414.38
322.42	461.38
322.649	453.38
322.878	437.38
323.108	437.38
323.337	473.38
323.566	490.38
323.795	514.38
324.024	520.38
324.253	595.38
324.482	809.38
324.71	1245.38
324.939	1793.38
325.168	1619.38
325.397	840.38
325.626	595.38
325.855	521.38
326.084	481.38
326.313	483.38
326.542	487.38
326.77	536.38
326.999	583.38
327.228	740.38
327.457	1110.38
327.686	1415.38
327.914	963.38
328.143	634.38
328.372	577.38
328.6	556.38
328.829	527.38
329.058	553.38
329.287	546.38
329.515	541.38
329.744	503.38
329.972	482.38
330.201	523.38
330.43	549.38
330.658	569.38
330.887	582.38
331.115	579.38
331.344	522.38
331.572	504.38
331.801	494.38
332.03	519.38
332.258	494.38
332.486	476.38
332.715	487.38
332.943	484.38
333.172	494.38
333.4	511.38
333.629	497.38
333.857	532.38
334.085	537.38
334.314	551.38
334.542	563.38
334.771	574.38
334.999	516.38
335.227	510.38
335.455	515.38
335.684	480.38
335.912	515.38
336.14	486.38
336.369	452.38
336.597	484.38
336.825	489.38
337.053	477.38
337.281	488.38
337.51	471.38
337.738	458.38
337.966	457.38
338.194	490.38
338.422	470.38
338.65	473.38
338.878	477.38
339.106	469.38
339.334	457.38
339.562	459.38
339.79	448.38
340.018	453.38
340.246	477.38
340.474	467.38
340.702	461.38
340.93	463.38
341.158	451.38
341.386	461.38
341.614	457.38
341.842	460.38
342.07	469.38
342.298	442.38
342.526	433.38
342.754	437.38
342.981	471.38
343.209	463.38
343.437	463.38
343.665	484.38
343.893	475.38
344.12	498.38
344.348	498.38
344.576	478.38
344.804	495.38
345.031	509.38
345.259	495.38
345.487	472.38
345.714	474.38
345.942	462.38
346.17	446.38
346.397	463.38
346.625	466.38
346.853	435.38
347.08	443.38
347.308	447.38
347.535	446.38
347.763	462.38
347.99	431.38
348.218	467.38
348.445	459.38
348.673	461.38
348.9	435.38
349.128	439.38
349.355	448.38
349.583	454.38
349.81	435.38
350.037	455.38
350.265	410.38
350.492	427.38
350.72	458.38
350.947	437.38
351.174	448.38
351.402	457.38
351.629	467.38
351.856	459.38
352.083	464.38
352.311	471.38
352.538	452.38
352.765	467.38
352.992	467.38
353.22	487.38
353.447	434.38
353.674	423.38
353.901	451.38
354.128	438.38
354.355	430.38
354.583	444.38
354.81	441.38
355.037	421.38
355.264	442.38
355.491	430.38
355.718	424.38
355.945	427.38
356.172	418.38
356.399	429.38
356.626	412.38
356.853	416.38
357.08	425.38
357.307	429.38
357.534	445.38
357.761	436.38
357.988	442.38
358.215	444.38
358.441	425.38
358.668	423.38
358.895	426.38
359.122	451.38
359.349	435.38
359.576	453.38
359.802	462.38
360.029	483.38
360.256	484.38
360.483	476.38
360.709	467.38
360.936	456.38
361.163	454.38
361.39	469.38
361.616	454.38
361.843	442.38
362.07	457.38
362.296	457.38
362.523	471.38
362.749	463.38
362.976	454.38
363.203	448.38
363.429	440.38
363.656	452.38
363.882	458.38
364.109	458.38
364.335	436.38
364.562	435.38
364.788	446.38
365.015	451.38
365.241	445.38
365.468	453.38
365.694	458.38
365.92	445.38
366.147	437.38
366.373	446.38
366.599	451.38
366.826	425.38
367.052	445.38
367.278	421.38
367.505	448.38
367.731	433.38
367.957	436.38
368.184	435.38
368.41	443.38
368.636	460.38
368.862	457.38
369.089	445.38
369.315	461.38
369.541	423.38
369.767	429.38
369.993	453.38
370.219	469.38
370.445	422.38
370.672	446.38
370.898	435.38
371.124	451.38
371.35	440.38
371.576	465.38
371.802	447.38
372.028	441.38
372.254	443.38
372.48	455.38
372.706	449.38
372.932	445.38
373.158	450.38
373.384	454.38
373.61	467.38
373.835	469.38
374.061	425.38
374.287	467.38
374.513	446.38
374.739	470.38
374.965	457.38
375.191	483.38
375.416	481.38
375.642	446.38
375.868	444.38
376.094	444.38
376.319	445.38
376.545	438.38
376.771	452.38
376.997	448.38
377.222	459.38
377.448	438.38
377.674	463.38
377.899	449.38
378.125	434.38
378.35	436.38
378.576	462.38
378.802	444.38
379.027	439.38
379.253	459.38
379.478	452.38
379.704	446.38
379.929	451.38
380.155	434.38
380.38	461.38
380.606	461.38
380.831	433.38
381.057	443.38
381.282	442.38
381.507	458.38
381.733	460.38
381.958	475.38
382.184	469.38
382.409	475.38
382.634	471.38
382.86	463.38
383.085	464.38
383.31	491.38
383.535	457.38
383.761	484.38
383.986	484.38
384.211	473.38
384.436	477.38
384.662	491.38
384.887	497.38
385.112	491.38
385.337	499.38
385.562	485.38
385.787	511.38
386.013	533.38
386.238	536.38
386.463	497.38
386.688	491.38
386.913	488.38
387.138	494.38
387.363	511.38
387.588	497.38
387.813	506.38
388.038	521.38
388.263	502.38
388.488	523.38
388.713	503.38
388.938	522.38
389.163	517.38
389.387	499.38
389.612	513.38
389.837	498.38
390.062	509.38
390.287	521.38
390.512	501.38
390.736	523.38
390.961	526.38
391.186	526.38
391.411	509.38
391.636	532.38
391.86	499.38
392.085	536.38
392.31	550.38
392.534	521.38
392.759	548.38
392.984	523.38
393.208	523.38
393.433	529.38
393.658	537.38
393.882	528.38
394.107	525.38
394.331	520.38
394.556	520.38
394.78	521.38
395.005	514.38
395.229	492.38
395.454	557.38
395.678	533.38
395.903	522.38
396.127	556.38
396.352	551.38
396.576	529.38
396.801	535.38
397.025	530.38
397.249	525.38
397.474	561.38
397.698	553.38
397.922	572.38
398.147	566.38
398.371	581.38
398.595	570.38
398.82	588.38
399.044	625.38
399.268	635.38
399.492	646.38
399.717	699.38
399.941	723.38
400.165	748.38
400.389	739.38
400.613	643.38
400.837	631.38
401.062	599.38
401.286	584.38
401.51	573.38
401.734	573.38
401.958	592.38
402.182	588.38
402.406	616.38
402.63	605.38
402.854	601.38
403.078	600.38
403.302	632.38
403.526	629.38
403.75	637.38
403.974	617.38
404.198	623.38
404.422	624.38
404.645	635.38
404.869	634.38
405.093	666.38
405.317	703.38
405.541	751.38
405.765	672.38
405.988	638.38
406.212	653.38
406.436	678.38
406.66	679.38
406.883	639.38
407.107	687.38
407.331	749.38
407.555	789.38
407.778	783.38
408.002	746.38
408.226	693.38
408.449	685.38
408.673	677.38
408.896	697.38
409.12	725.38
409.344	691.38
409.567	626.38
409.791	640.38
410.014	626.38
410.238	630.38
410.461	643.38
410.685	602.38
410.908	624.38
411.132	636.38
411.355	693.38
411.578	684.38
411.802	647.38
412.025	622.38
412.249	630.38
412.472	667.38
412.695	696.38
412.919	653.38
413.142	612.38
413.365	605.38
413.589	584.38
413.812	596.38
414.035	588.38
414.258	595.38
414.482	591.38
414.705	583.38
414.928	562.38
415.151	602.38
415.374	603.38
415.597	597.38
415.821	581.38
416.044	575.38
416.267	588.38
416.49	575.38
416.713	603.38
416.936	567.38
417.159	570.38
417.382	575.38
417.605	590.38
417.828	604.38
418.051	611.38
418.274	604.38
418.497	573.38
418.72	595.38
418.943	567.38
419.166	626.38
419.389	649.38
419.611	659.38
419.834	627.38
420.057	611.38
420.28	596.38
420.503	598.38
420.726	598.38
420.948	622.38
421.171	680.38
421.394	689.38
421.617	647.38
421.839	610.38
422.062	596.38
422.285	613.38
422.507	663.38
422.73	771.38
422.953	737.38
423.175	648.38
423.398	629.38
423.621	639.38
423.843	636.38
424.066	645.38
424.288	651.38
424.511	654.38
424.733	701.38
424.956	803.38
425.178	763.38
425.401	745.38
425.623	804.38
425.846	656.38
426.068	624.38
426.291	634.38
426.513	648.38
426.735	659.38
426.958	686.38
427.18	741.38
427.402	911.38
427.625	957.38
427.847	852.38
428.069	745.38
428.292	683.38
428.514	627.38
428.736	607.38
428.958	597.38
429.181	577.38
429.403	565.38
429.625	597.38
429.847	605.38
430.069	681.38
430.292	703.38
430.514	625.38
430.736	606.38
430.958	582.38
431.18	592.38
431.402	559.38
431.624	552.38
431.846	595.38
432.068	565.38
432.29	573.38
432.512	555.38
432.734	586.38
432.956	551.38
433.178	578.38
433.4	575.38
433.622	573.38
433.844	554.38
434.066	574.38
434.287	592.38
434.509	579.38
434.731	590.38
434.953	589.38
435.175	609.38
435.397	637.38
435.618	634.38
435.84	678.38
436.062	787.38
436.284	827.38
436.505	709.38
436.727	656.38
436.949	609.38
437.17	611.38
437.392	596.38
437.614	599.38
437.835	627.38
438.057	684.38
438.278	803.38
438.5	821.38
438.721	926.38
438.943	855.38
439.165	700.38
439.386	660.38
439.608	653.38
439.829	618.38
440.05	659.38
440.272	683.38
440.493	673.38
440.715	625.38
440.936	597.38
441.158	603.38
441.379	586.38
441.6	602.38
441.822	661.38
442.043	676.38
442.264	745.38
442.486	806.38
442.707	712.38
442.928	647.38
443.149	635.38
443.371	682.38
443.592	722.38
443.813	829.38
444.034	883.38
444.255	749.38
444.476	699.38
444.698	672.38
444.919	675.38
445.14	757.38
445.361	717.38
445.582	696.38
445.803	723.38
446.024	843.38
446.245	825.38
446.466	764.38
446.687	666.38
446.908	637.38
447.129	608.38
447.35	595.38
447.571	579.38
447.792	604.38
448.013	578.38
448.234	611.38
448.455	636.38
448.675	764.38
448.896	892.38
449.117	725.38
449.338	725.38
449.559	809.38
449.779	929.38
450	741.38
450.221	610.38
450.442	586.38
450.662	584.38
450.883	551.38
451.104	558.38
451.324	559.38
451.545	550.38
451.766	547.38
451.986	538.38
452.207	519.38
452.428	544.38
452.648	503.38
452.869	509.38
453.089	526.38
453.31	562.38
453.53	513.38
453.751	518.38
453.971	542.38
454.192	526.38
454.412	511.38
454.633	510.38
454.853	510.38
455.073	507.38
455.294	546.38
455.514	594.38
455.734	586.38
455.955	513.38
456.175	513.38
456.395	502.38
456.616	487.38
456.836	501.38
457.056	485.38
457.276	488.38
457.497	530.38
457.717	490.38
457.937	501.38
458.157	511.38
458.377	500.38
458.598	545.38
458.818	591.38
459.038	644.38
459.258	677.38
459.478	601.38
459.698	552.38
459.918	577.38
460.138	555.38
460.358	609.38
460.578	598.38
460.798	580.38
461.018	601.38
461.238	596.38
461.458	606.38
461.678	610.38
461.898	577.38
462.118	576.38
462.338	586.38
462.558	619.38
462.777	645.38
462.997	628.38
463.217	677.38
463.437	646.38
463.657	662.38
463.876	661.38
464.096	639.38
464.316	622.38
464.536	616.38
464.755	625.38
464.975	635.38
465.195	638.38
465.414	694.38
465.634	639.38
465.854	601.38
466.073	581.38
466.293	566.38
466.512	543.38
466.732	517.38
466.951	541.38
467.171	538.38
467.391	568.38
467.61	558.38
467.829	555.38
468.049	555.38
468.268	534.38
468.488	545.38
468.707	525.38
468.927	525.38
469.146	541.38
469.365	533.38
469.585	535.38
469.804	533.38
470.023	557.38
470.243	538.38
470.462	566.38
470.681	574.38
470.901	562.38
471.12	565.38
471.339	542.38
471.558	561.38
471.777	567.38
471.997	557.38
472.216	528.38
472.435	555.38
472.654	554.38
472.873	562.38
473.092	546.38
473.311	530.38
473.53	536.38
473.749	556.38
473.968	585.38
474.187	682.38
474.406	703.38
474.625	608.38
474.844	563.38
475.063	542.38
475.282	580.38
475.501	543.38
475.72	573.38
475.939	569.38
476.158	578.38
476.377	582.38
476.596	552.38
476.814	561.38
477.033	586.38
477.252	590.38
477.471	567.38
477.69	590.38
477.908	611.38
478.127	613.38
478.346	612.38
478.564	625.38
478.783	635.38
479.002	607.38
479.22	649.38
479.439	653.38
479.658	643.38
479.876	645.38
480.095	672.38
480.313	697.38
480.532	679.38
480.751	677.38
480.969	687.38
481.188	719.38
481.406	755.38
481.624	686.38
481.843	663.38
482.061	662.38
482.28	644.38
482.498	650.38
482.717	633.38
482.935	659.38
483.153	645.38
483.372	655.38
483.59	622.38
483.808	649.38
484.027	638.38
484.245	657.38
484.463	632.38
484.681	651.38
484.9	674.38
485.118	667.38
485.336	647.38
485.554	642.38
485.772	679.38
485.99	663.38
486.209	671.38
486.427	694.38
486.645	684.38
486.863	689.38
487.081	702.38
487.299	680.38
487.517	693.38
487.735	679.38
487.953	681.38
488.171	697.38
488.389	678.38
488.607	669.38
488.825	699.38
489.043	686.38
489.261	706.38
489.479	705.38
489.696	699.38
489.914	698.38
490.132	732.38
490.35	725.38
490.568	755.38
490.786	718.38
491.003	741.38
491.221	751.38
491.439	787.38
491.657	779.38
491.874	784.38
492.092	785.38
492.31	770.38
492.527	785.38
492.745	789.38
492.963	821.38
493.18	817.38
493.398	817.38
493.615	823.38
493.833	815.38
494.05	802.38
494.268	828.38
494.485	809.38
494.703	839.38
494.92	827.38
495.138	817.38
495.355	845.38
495.573	812.38
495.79	827.38
496.008	837.38
496.225	823.38
496.442	846.38
496.66	835.38
496.877	832.38
497.094	847.38
497.312	849.38
497.529	849.38
497.746	870.38
497.963	884.38
498.181	914.38
498.398	918.38
498.615	937.38
498.832	965.38
499.049	1006.38
499.267	971.38
499.484	1077.38
499.701	1090.38
499.918	1157.38
500.135	1224.38
500.352	1301.38
500.569	1333.38
500.786	1338.38
501.003	1305.38
501.22	1252.38
501.437	1197.38
501.654	1140.38
