Data from 1974.PennyLincolnUp.Lamp.En5.5.200Scan.071719.P1.Changed Mount._HRD10591_15-51-38-855.txt Node
Date: Thu Jul 18 15:51:38 EDT 2019
User: cochatt
Spectrometer: HR+D1059
Trigger mode: 1
Integration Time (sec): 1.000000E-1
Scans to average: 1
Electric dark correction enabled: true
Nonlinearity correction enabled: false
Boxcar width: 0
XAxis mode: Wavelengths
Number of Pixels in Spectrum: 2048
>>>>>Begin Spectral Data<<<<<
223.165	-11.56
223.4	-11.56
223.635	-11.56
223.869	-14.56
224.104	-13.56
224.338	-29.56
224.573	-2.56
224.808	-9.56
225.042	-12.56
225.277	5.44
225.511	-16.56
225.746	-5.56
225.98	21.44
226.215	3.44
226.449	18.44
226.683	33.44
226.918	10.44
227.152	23.44
227.387	37.44
227.621	33.44
227.856	37.44
228.09	58.44
228.324	46.44
228.559	51.44
228.793	66.44
229.027	85.44
229.262	98.44
229.496	99.44
229.73	109.44
229.964	141.44
230.199	132.44
230.433	119.44
230.667	117.44
230.901	108.44
231.136	107.44
231.37	118.44
231.604	114.44
231.838	116.44
232.072	89.44
232.306	99.44
232.541	113.44
232.775	116.44
233.009	123.44
233.243	114.44
233.477	108.44
233.711	115.44
233.945	106.44
234.179	109.44
234.413	126.44
234.647	116.44
234.881	122.44
235.115	124.44
235.349	112.44
235.583	114.44
235.817	122.44
236.051	141.44
236.285	153.44
236.519	125.44
236.753	132.44
236.987	146.44
237.221	164.44
237.455	219.44
237.689	170.44
237.922	129.44
238.156	121.44
238.39	129.44
238.624	128.44
238.858	122.44
239.091	132.44
239.325	121.44
239.559	139.44
239.793	130.44
240.027	144.44
240.26	141.44
240.494	153.44
240.728	150.44
240.961	143.44
241.195	149.44
241.429	155.44
241.662	129.44
241.896	139.44
242.13	141.44
242.363	138.44
242.597	135.44
242.83	135.44
243.064	142.44
243.298	134.44
243.531	139.44
243.765	131.44
243.998	135.44
244.232	139.44
244.465	144.44
244.699	141.44
244.932	158.44
245.166	149.44
245.399	159.44
245.633	157.44
245.866	160.44
246.099	152.44
246.333	160.44
246.566	154.44
246.8	157.44
247.033	159.44
247.266	164.44
247.5	164.44
247.733	164.44
247.966	170.44
248.2	192.44
248.433	178.44
248.666	157.44
248.899	181.44
249.133	195.44
249.366	198.44
249.599	209.44
249.832	183.44
250.066	191.44
250.299	197.44
250.532	201.44
250.765	199.44
250.998	214.44
251.231	219.44
251.465	215.44
251.698	194.44
251.931	207.44
252.164	190.44
252.397	181.44
252.63	195.44
252.863	208.44
253.096	211.44
253.329	217.44
253.562	221.44
253.795	218.44
254.028	223.44
254.261	208.44
254.494	221.44
254.727	248.44
254.96	274.44
255.193	257.44
255.426	251.44
255.659	238.44
255.892	219.44
256.124	232.44
256.357	222.44
256.59	218.44
256.823	195.44
257.056	184.44
257.289	205.44
257.521	189.44
257.754	210.44
257.987	203.44
258.22	212.44
258.452	203.44
258.685	206.44
258.918	206.44
259.151	202.44
259.383	233.44
259.616	219.44
259.849	233.44
260.081	222.44
260.314	237.44
260.547	236.44
260.779	249.44
261.012	205.44
261.244	241.44
261.477	211.44
261.71	210.44
261.942	226.44
262.175	207.44
262.407	202.44
262.64	222.44
262.872	206.44
263.105	220.44
263.337	204.44
263.57	205.44
263.802	215.44
264.035	208.44
264.267	209.44
264.499	202.44
264.732	220.44
264.964	231.44
265.197	214.44
265.429	207.44
265.661	223.44
265.894	221.44
266.126	225.44
266.358	224.44
266.591	222.44
266.823	230.44
267.055	230.44
267.287	240.44
267.52	234.44
267.752	227.44
267.984	221.44
268.216	226.44
268.448	236.44
268.681	222.44
268.913	238.44
269.145	261.44
269.377	246.44
269.609	274.44
269.841	273.44
270.073	257.44
270.306	284.44
270.538	301.44
270.77	298.44
271.002	293.44
271.234	255.44
271.466	306.44
271.698	305.44
271.93	303.44
272.162	301.44
272.394	293.44
272.626	293.44
272.858	262.44
273.09	262.44
273.322	270.44
273.553	264.44
273.785	275.44
274.017	257.44
274.249	261.44
274.481	274.44
274.713	257.44
274.945	264.44
275.176	274.44
275.408	293.44
275.64	247.44
275.872	259.44
276.104	261.44
276.335	258.44
276.567	255.44
276.799	273.44
277.031	302.44
277.262	293.44
277.494	321.44
277.726	268.44
277.957	288.44
278.189	270.44
278.421	275.44
278.652	271.44
278.884	258.44
279.115	278.44
279.347	285.44
279.579	273.44
279.81	268.44
280.042	275.44
280.273	277.44
280.505	264.44
280.736	258.44
280.968	265.44
281.199	265.44
281.431	254.44
281.662	275.44
281.894	279.44
282.125	279.44
282.356	264.44
282.588	294.44
282.819	299.44
283.051	295.44
283.282	288.44
283.513	276.44
283.745	249.44
283.976	280.44
284.207	299.44
284.439	271.44
284.67	271.44
284.901	270.44
285.132	293.44
285.364	293.44
285.595	286.44
285.826	287.44
286.057	300.44
286.288	284.44
286.52	270.44
286.751	292.44
286.982	286.44
287.213	273.44
287.444	290.44
287.675	293.44
287.906	303.44
288.138	293.44
288.369	293.44
288.6	312.44
288.831	307.44
289.062	291.44
289.293	293.44
289.524	282.44
289.755	285.44
289.986	302.44
290.217	316.44
290.448	289.44
290.679	303.44
290.91	296.44
291.141	287.44
291.371	272.44
291.602	300.44
291.833	294.44
292.064	317.44
292.295	294.44
292.526	296.44
292.757	300.44
292.987	297.44
293.218	298.44
293.449	309.44
293.68	283.44
293.91	289.44
294.141	294.44
294.372	291.44
294.603	308.44
294.833	300.44
295.064	302.44
295.295	304.44
295.525	295.44
295.756	289.44
295.987	312.44
296.217	329.44
296.448	331.44
296.679	318.44
296.909	305.44
297.14	316.44
297.37	285.44
297.601	304.44
297.831	290.44
298.062	302.44
298.292	306.44
298.523	322.44
298.753	308.44
298.984	328.44
299.214	299.44
299.445	311.44
299.675	331.44
299.905	319.44
300.136	306.44
300.366	325.44
300.597	345.44
300.827	324.44
301.057	305.44
301.288	325.44
301.518	314.44
301.748	333.44
301.979	341.44
302.209	320.44
302.439	326.44
302.669	332.44
302.9	330.44
303.13	311.44
303.36	324.44
303.59	336.44
303.82	322.44
304.051	348.44
304.281	336.44
304.511	338.44
304.741	328.44
304.971	315.44
305.201	336.44
305.431	326.44
305.661	338.44
305.891	334.44
306.121	313.44
306.352	334.44
306.582	345.44
306.812	348.44
307.042	321.44
307.272	348.44
307.502	333.44
307.731	330.44
307.961	331.44
308.191	331.44
308.421	325.44
308.651	354.44
308.881	337.44
309.111	334.44
309.341	329.44
309.571	334.44
309.8	369.44
310.03	349.44
310.26	358.44
310.49	354.44
310.72	370.44
310.949	380.44
311.179	359.44
311.409	373.44
311.639	355.44
311.868	375.44
312.098	360.44
312.328	359.44
312.557	391.44
312.787	391.44
313.017	380.44
313.246	379.44
313.476	364.44
313.706	356.44
313.935	372.44
314.165	368.44
314.394	389.44
314.624	390.44
314.853	379.44
315.083	361.44
315.312	396.44
315.542	372.44
315.771	379.44
316.001	359.44
316.23	338.44
316.46	381.44
316.689	381.44
316.919	375.44
317.148	391.44
317.377	370.44
317.607	374.44
317.836	374.44
318.065	378.44
318.295	357.44
318.524	373.44
318.753	362.44
318.983	374.44
319.212	383.44
319.441	362.44
319.67	367.44
319.9	372.44
320.129	359.44
320.358	377.44
320.587	379.44
320.816	383.44
321.046	359.44
321.275	379.44
321.504	401.44
321.733	385.44
321.962	387.44
322.191	419.44
322.42	404.44
322.649	408.44
322.878	404.44
323.108	401.44
323.337	437.44
323.566	433.44
323.795	464.44
324.024	501.44
324.253	583.44
324.482	731.44
324.71	1096.44
324.939	1587.44
325.168	1408.44
325.397	723.44
325.626	522.44
325.855	458.44
326.084	453.44
326.313	445.44
326.542	448.44
326.77	471.44
326.999	543.44
327.228	678.44
327.457	1001.44
327.686	1201.44
327.914	832.44
328.143	572.44
328.372	518.44
328.6	498.44
328.829	473.44
329.058	500.44
329.287	500.44
329.515	462.44
329.744	449.44
329.972	437.44
330.201	460.44
330.43	509.44
330.658	516.44
330.887	531.44
331.115	515.44
331.344	475.44
331.572	456.44
331.801	456.44
332.03	468.44
332.258	446.44
332.486	444.44
332.715	457.44
332.943	451.44
333.172	456.44
333.4	473.44
333.629	479.44
333.857	480.44
334.085	491.44
334.314	481.44
334.542	500.44
334.771	531.44
334.999	488.44
335.227	477.44
335.455	473.44
335.684	451.44
335.912	447.44
336.14	446.44
336.369	417.44
336.597	439.44
336.825	458.44
337.053	441.44
337.281	447.44
337.51	434.44
337.738	441.44
337.966	433.44
338.194	468.44
338.422	423.44
338.65	442.44
338.878	420.44
339.106	433.44
339.334	431.44
339.562	431.44
339.79	420.44
340.018	443.44
340.246	420.44
340.474	437.44
340.702	429.44
340.93	421.44
341.158	432.44
341.386	447.44
341.614	421.44
341.842	439.44
342.07	412.44
342.298	428.44
342.526	421.44
342.754	430.44
342.981	410.44
343.209	431.44
343.437	413.44
343.665	437.44
343.893	435.44
344.12	452.44
344.348	467.44
344.576	464.44
344.804	462.44
345.031	453.44
345.259	461.44
345.487	458.44
345.714	454.44
345.942	440.44
346.17	422.44
346.397	427.44
346.625	430.44
346.853	408.44
347.08	413.44
347.308	415.44
347.535	428.44
347.763	417.44
347.99	413.44
348.218	405.44
348.445	423.44
348.673	424.44
348.9	420.44
349.128	403.44
349.355	410.44
349.583	407.44
349.81	425.44
350.037	401.44
350.265	396.44
350.492	399.44
350.72	398.44
350.947	418.44
351.174	414.44
351.402	415.44
351.629	415.44
351.856	411.44
352.083	417.44
352.311	426.44
352.538	426.44
352.765	433.44
352.992	420.44
353.22	394.44
353.447	413.44
353.674	412.44
353.901	405.44
354.128	410.44
354.355	395.44
354.583	405.44
354.81	390.44
355.037	403.44
355.264	387.44
355.491	405.44
355.718	394.44
355.945	403.44
356.172	407.44
356.399	401.44
356.626	402.44
356.853	393.44
357.08	414.44
357.307	407.44
357.534	385.44
357.761	403.44
357.988	406.44
358.215	392.44
358.441	399.44
358.668	393.44
358.895	413.44
359.122	402.44
359.349	394.44
359.576	414.44
359.802	415.44
360.029	437.44
360.256	443.44
360.483	439.44
360.709	436.44
360.936	445.44
361.163	426.44
361.39	418.44
361.616	434.44
361.843	398.44
362.07	411.44
362.296	442.44
362.523	430.44
362.749	412.44
362.976	414.44
363.203	432.44
363.429	409.44
363.656	395.44
363.882	402.44
364.109	398.44
364.335	410.44
364.562	405.44
364.788	409.44
365.015	420.44
365.241	417.44
365.468	421.44
365.694	397.44
365.92	413.44
366.147	413.44
366.373	418.44
366.599	405.44
366.826	418.44
367.052	399.44
367.278	395.44
367.505	411.44
367.731	437.44
367.957	405.44
368.184	424.44
368.41	431.44
368.636	433.44
368.862	421.44
369.089	441.44
369.315	421.44
369.541	410.44
369.767	413.44
369.993	434.44
370.219	410.44
370.445	402.44
370.672	440.44
370.898	431.44
371.124	415.44
371.35	414.44
371.576	423.44
371.802	427.44
372.028	411.44
372.254	421.44
372.48	422.44
372.706	420.44
372.932	427.44
373.158	425.44
373.384	441.44
373.61	433.44
373.835	411.44
374.061	417.44
374.287	434.44
374.513	435.44
374.739	433.44
374.965	441.44
375.191	466.44
375.416	446.44
375.642	447.44
375.868	443.44
376.094	439.44
376.319	418.44
376.545	432.44
376.771	439.44
376.997	414.44
377.222	424.44
377.448	429.44
377.674	425.44
377.899	424.44
378.125	417.44
378.35	405.44
378.576	422.44
378.802	428.44
379.027	419.44
379.253	418.44
379.478	430.44
379.704	416.44
379.929	437.44
380.155	421.44
380.38	429.44
380.606	428.44
380.831	441.44
381.057	430.44
381.282	437.44
381.507	429.44
381.733	437.44
381.958	416.44
382.184	418.44
382.409	433.44
382.634	445.44
382.86	430.44
383.085	449.44
383.31	471.44
383.535	429.44
383.761	463.44
383.986	462.44
384.211	448.44
384.436	450.44
384.662	451.44
384.887	464.44
385.112	469.44
385.337	458.44
385.562	482.44
385.787	459.44
386.013	463.44
386.238	485.44
386.463	482.44
386.688	475.44
386.913	461.44
387.138	486.44
387.363	490.44
387.588	491.44
387.813	478.44
388.038	465.44
388.263	462.44
388.488	490.44
388.713	481.44
388.938	471.44
389.163	494.44
389.387	501.44
389.612	475.44
389.837	471.44
390.062	473.44
390.287	471.44
390.512	472.44
390.736	475.44
390.961	471.44
391.186	478.44
391.411	481.44
391.636	507.44
391.86	505.44
392.085	522.44
392.31	486.44
392.534	502.44
392.759	497.44
392.984	486.44
393.208	467.44
393.433	481.44
393.658	494.44
393.882	481.44
394.107	479.44
394.331	521.44
394.556	485.44
394.78	484.44
395.005	486.44
395.229	507.44
395.454	520.44
395.678	515.44
395.903	508.44
396.127	533.44
396.352	511.44
396.576	491.44
396.801	476.44
397.025	504.44
397.249	521.44
397.474	525.44
397.698	522.44
397.922	521.44
398.147	546.44
398.371	546.44
398.595	539.44
398.82	551.44
399.044	553.44
399.268	580.44
399.492	622.44
399.717	691.44
399.941	705.44
400.165	683.44
400.389	689.44
400.613	643.44
400.837	586.44
401.062	610.44
401.286	587.44
401.51	565.44
401.734	563.44
401.958	549.44
402.182	564.44
402.406	566.44
402.63	577.44
402.854	569.44
403.078	574.44
403.302	563.44
403.526	573.44
403.75	575.44
403.974	585.44
404.198	580.44
404.422	579.44
404.645	587.44
404.869	583.44
405.093	625.44
405.317	661.44
405.541	724.44
405.765	637.44
405.988	613.44
406.212	593.44
406.436	602.44
406.66	632.44
406.883	627.44
407.107	632.44
407.331	677.44
407.555	745.44
407.778	760.44
408.002	701.44
408.226	638.44
408.449	630.44
408.673	647.44
408.896	646.44
409.12	709.44
409.344	655.44
409.567	593.44
409.791	589.44
410.014	578.44
410.238	606.44
410.461	593.44
410.685	564.44
410.908	592.44
411.132	624.44
411.355	637.44
411.578	622.44
411.802	604.44
412.025	592.44
412.249	581.44
412.472	598.44
412.695	643.44
412.919	647.44
413.142	580.44
413.365	583.44
413.589	574.44
413.812	567.44
414.035	548.44
414.258	547.44
414.482	529.44
414.705	540.44
414.928	541.44
415.151	550.44
415.374	554.44
415.597	546.44
415.821	551.44
416.044	560.44
416.267	561.44
416.49	534.44
416.713	561.44
416.936	546.44
417.159	545.44
417.382	552.44
417.605	550.44
417.828	568.44
418.051	546.44
418.274	575.44
418.497	557.44
418.72	539.44
418.943	551.44
419.166	589.44
419.389	606.44
419.611	591.44
419.834	607.44
420.057	584.44
420.28	573.44
420.503	568.44
420.726	572.44
420.948	582.44
421.171	620.44
421.394	650.44
421.617	592.44
421.839	563.44
422.062	570.44
422.285	572.44
422.507	616.44
422.73	702.44
422.953	685.44
423.175	623.44
423.398	623.44
423.621	605.44
423.843	596.44
424.066	607.44
424.288	607.44
424.511	645.44
424.733	634.44
424.956	734.44
425.178	703.44
425.401	698.44
425.623	726.44
425.846	652.44
426.068	611.44
426.291	584.44
426.513	603.44
426.735	592.44
426.958	644.44
427.18	691.44
427.402	856.44
427.625	901.44
427.847	806.44
428.069	682.44
428.292	626.44
428.514	581.44
428.736	565.44
428.958	554.44
429.181	541.44
429.403	551.44
429.625	558.44
429.847	590.44
430.069	640.44
430.292	637.44
430.514	568.44
430.736	545.44
430.958	556.44
431.18	536.44
431.402	562.44
431.624	520.44
431.846	541.44
432.068	521.44
432.29	546.44
432.512	538.44
432.734	549.44
432.956	523.44
433.178	540.44
433.4	551.44
433.622	549.44
433.844	548.44
434.066	551.44
434.287	524.44
434.509	527.44
434.731	556.44
434.953	562.44
435.175	579.44
435.397	601.44
435.618	596.44
435.84	637.44
436.062	726.44
436.284	800.44
436.505	644.44
436.727	596.44
436.949	588.44
437.17	540.44
437.392	559.44
437.614	566.44
437.835	590.44
438.057	646.44
438.278	775.44
438.5	753.44
438.721	814.44
438.943	805.44
439.165	642.44
439.386	598.44
439.608	617.44
439.829	600.44
440.05	591.44
440.272	646.44
440.493	610.44
440.715	565.44
440.936	581.44
441.158	557.44
441.379	551.44
441.6	586.44
441.822	609.44
442.043	629.44
442.264	713.44
442.486	738.44
442.707	651.44
442.928	597.44
443.149	603.44
443.371	634.44
443.592	652.44
443.813	775.44
444.034	827.44
444.255	716.44
444.476	619.44
444.698	640.44
444.919	627.44
445.14	715.44
445.361	660.44
445.582	647.44
445.803	686.44
446.024	791.44
446.245	776.44
446.466	733.44
446.687	637.44
446.908	586.44
447.129	568.44
447.35	562.44
447.571	542.44
447.792	550.44
448.013	535.44
448.234	547.44
448.455	603.44
448.675	712.44
448.896	825.44
449.117	685.44
449.338	649.44
449.559	780.44
449.779	875.44
450	702.44
450.221	590.44
450.442	557.44
450.662	532.44
450.883	547.44
451.104	535.44
451.324	536.44
451.545	550.44
451.766	504.44
451.986	483.44
452.207	488.44
452.428	488.44
452.648	479.44
452.869	484.44
453.089	491.44
453.31	503.44
453.53	490.44
453.751	485.44
453.971	482.44
454.192	489.44
454.412	484.44
454.633	478.44
454.853	472.44
455.073	480.44
455.294	515.44
455.514	555.44
455.734	568.44
455.955	500.44
456.175	463.44
456.395	456.44
456.616	445.44
456.836	458.44
457.056	460.44
457.276	438.44
457.497	473.44
457.717	463.44
457.937	481.44
458.157	484.44
458.377	478.44
458.598	495.44
458.818	546.44
459.038	587.44
459.258	622.44
459.478	566.44
459.698	536.44
459.918	527.44
460.138	527.44
460.358	572.44
460.578	561.44
460.798	547.44
461.018	567.44
461.238	558.44
461.458	563.44
461.678	554.44
461.898	567.44
462.118	561.44
462.338	574.44
462.558	568.44
462.777	586.44
462.997	633.44
463.217	640.44
463.437	627.44
463.657	614.44
463.876	625.44
464.096	597.44
464.316	603.44
464.536	625.44
464.755	622.44
464.975	604.44
465.195	577.44
465.414	636.44
465.634	575.44
465.854	556.44
466.073	516.44
466.293	523.44
466.512	518.44
466.732	517.44
466.951	509.44
467.171	503.44
467.391	533.44
467.61	519.44
467.829	538.44
468.049	515.44
468.268	475.44
468.488	519.44
468.707	499.44
468.927	511.44
469.146	502.44
469.365	492.44
469.585	503.44
469.804	523.44
470.023	508.44
470.243	501.44
470.462	518.44
470.681	524.44
470.901	526.44
471.12	525.44
471.339	513.44
471.558	520.44
471.777	522.44
471.997	520.44
472.216	525.44
472.435	522.44
472.654	505.44
472.873	506.44
473.092	509.44
473.311	505.44
473.53	514.44
473.749	510.44
473.968	549.44
474.187	614.44
474.406	675.44
474.625	554.44
474.844	539.44
475.063	529.44
475.282	512.44
475.501	519.44
475.72	532.44
475.939	504.44
476.158	514.44
476.377	533.44
476.596	549.44
476.814	551.44
477.033	553.44
477.252	549.44
477.471	554.44
477.69	563.44
477.908	569.44
478.127	602.44
478.346	569.44
478.564	606.44
478.783	599.44
479.002	598.44
479.22	591.44
479.439	606.44
479.658	635.44
479.876	602.44
480.095	629.44
480.313	671.44
480.532	646.44
480.751	649.44
480.969	636.44
481.188	643.44
481.406	683.44
481.624	635.44
481.843	638.44
482.061	610.44
482.28	609.44
482.498	588.44
482.717	606.44
482.935	598.44
483.153	610.44
483.372	625.44
483.59	611.44
483.808	605.44
484.027	603.44
484.245	618.44
484.463	605.44
484.681	623.44
484.9	625.44
485.118	618.44
485.336	582.44
485.554	633.44
485.772	598.44
485.99	611.44
486.209	618.44
486.427	616.44
486.645	652.44
486.863	636.44
487.081	637.44
487.299	642.44
487.517	643.44
487.735	622.44
487.953	638.44
488.171	635.44
488.389	635.44
488.607	654.44
488.825	644.44
489.043	654.44
489.261	652.44
489.479	636.44
489.696	664.44
489.914	661.44
490.132	680.44
490.35	663.44
490.568	677.44
490.786	683.44
491.003	690.44
491.221	707.44
491.439	721.44
491.657	743.44
491.874	751.44
492.092	757.44
492.31	763.44
492.527	754.44
492.745	719.44
492.963	758.44
493.18	734.44
493.398	748.44
493.615	769.44
493.833	773.44
494.05	770.44
494.268	737.44
494.485	734.44
494.703	750.44
494.92	752.44
495.138	763.44
495.355	755.44
495.573	748.44
495.79	755.44
496.008	779.44
496.225	769.44
496.442	750.44
496.66	773.44
496.877	759.44
497.094	798.44
497.312	809.44
497.529	789.44
497.746	814.44
497.963	813.44
498.181	817.44
498.398	834.44
498.615	872.44
498.832	919.44
499.049	931.44
499.267	948.44
499.484	980.44
499.701	1021.44
499.918	1082.44
500.135	1127.44
500.352	1193.44
500.569	1239.44
500.786	1273.44
501.003	1191.44
501.22	1159.44
501.437	1106.44
501.654	1037.44
