Data from 1974.PennyLincolnUp.Lamp.En5.5.200Scan.071719.P1.Changed Mount._HRD10591_15-52-54-857.txt Node
Date: Thu Jul 18 15:52:54 EDT 2019
User: cochatt
Spectrometer: HR+D1059
Trigger mode: 1
Integration Time (sec): 1.000000E-1
Scans to average: 1
Electric dark correction enabled: true
Nonlinearity correction enabled: false
Boxcar width: 0
XAxis mode: Wavelengths
Number of Pixels in Spectrum: 2048
>>>>>Begin Spectral Data<<<<<
223.165	-26.25
223.4	-26.25
223.635	-26.25
223.869	-14.25
224.104	-10.25
224.338	-15.25
224.573	-14.25
224.808	-3.25
225.042	3.75
225.277	-5.25
225.511	1.75
225.746	1.75
225.98	3.75
226.215	15.75
226.449	6.75
226.683	10.75
226.918	14.75
227.152	29.75
227.387	38.75
227.621	39.75
227.856	33.75
228.09	37.75
228.324	34.75
228.559	49.75
228.793	75.75
229.027	86.75
229.262	100.75
229.496	119.75
229.73	137.75
229.964	144.75
230.199	136.75
230.433	120.75
230.667	121.75
230.901	117.75
231.136	89.75
231.37	121.75
231.604	126.75
231.838	123.75
232.072	126.75
232.306	113.75
232.541	121.75
232.775	133.75
233.009	135.75
233.243	127.75
233.477	129.75
233.711	132.75
233.945	107.75
234.179	125.75
234.413	118.75
234.647	126.75
234.881	108.75
235.115	111.75
235.349	117.75
235.583	128.75
235.817	126.75
236.051	123.75
236.285	129.75
236.519	113.75
236.753	139.75
236.987	149.75
237.221	177.75
237.455	222.75
237.689	187.75
237.922	137.75
238.156	142.75
238.39	137.75
238.624	137.75
238.858	131.75
239.091	133.75
239.325	126.75
239.559	133.75
239.793	142.75
240.027	140.75
240.26	145.75
240.494	163.75
240.728	178.75
240.961	151.75
241.195	141.75
241.429	150.75
241.662	157.75
241.896	141.75
242.13	150.75
242.363	145.75
242.597	143.75
242.83	125.75
243.064	142.75
243.298	156.75
243.531	150.75
243.765	155.75
243.998	131.75
244.232	158.75
244.465	139.75
244.699	133.75
244.932	145.75
245.166	153.75
245.399	167.75
245.633	159.75
245.866	157.75
246.099	177.75
246.333	153.75
246.566	165.75
246.8	159.75
247.033	176.75
247.266	174.75
247.5	170.75
247.733	154.75
247.966	184.75
248.2	189.75
248.433	172.75
248.666	204.75
248.899	196.75
249.133	196.75
249.366	213.75
249.599	211.75
249.832	182.75
250.066	203.75
250.299	193.75
250.532	186.75
250.765	211.75
250.998	241.75
251.231	235.75
251.465	237.75
251.698	215.75
251.931	212.75
252.164	200.75
252.397	195.75
252.63	214.75
252.863	225.75
253.096	214.75
253.329	223.75
253.562	253.75
253.795	243.75
254.028	238.75
254.261	230.75
254.494	227.75
254.727	259.75
254.96	311.75
255.193	282.75
255.426	263.75
255.659	244.75
255.892	243.75
256.124	254.75
256.357	241.75
256.59	231.75
256.823	228.75
257.056	227.75
257.289	221.75
257.521	231.75
257.754	245.75
257.987	227.75
258.22	243.75
258.452	223.75
258.685	228.75
258.918	220.75
259.151	214.75
259.383	226.75
259.616	236.75
259.849	245.75
260.081	251.75
260.314	286.75
260.547	289.75
260.779	267.75
261.012	237.75
261.244	241.75
261.477	252.75
261.71	237.75
261.942	230.75
262.175	248.75
262.407	241.75
262.64	240.75
262.872	232.75
263.105	222.75
263.337	231.75
263.57	229.75
263.802	216.75
264.035	228.75
264.267	222.75
264.499	229.75
264.732	221.75
264.964	225.75
265.197	226.75
265.429	221.75
265.661	240.75
265.894	213.75
266.126	228.75
266.358	236.75
266.591	242.75
266.823	241.75
267.055	230.75
267.287	247.75
267.52	239.75
267.752	245.75
267.984	237.75
268.216	248.75
268.448	266.75
268.681	266.75
268.913	262.75
269.145	272.75
269.377	303.75
269.609	305.75
269.841	303.75
270.073	308.75
270.306	304.75
270.538	334.75
270.77	322.75
271.002	314.75
271.234	307.75
271.466	318.75
271.698	321.75
271.93	338.75
272.162	335.75
272.394	328.75
272.626	307.75
272.858	295.75
273.09	274.75
273.322	299.75
273.553	286.75
273.785	285.75
274.017	297.75
274.249	282.75
274.481	285.75
274.713	262.75
274.945	295.75
275.176	277.75
275.408	278.75
275.64	293.75
275.872	276.75
276.104	278.75
276.335	276.75
276.567	315.75
276.799	312.75
277.031	309.75
277.262	335.75
277.494	331.75
277.726	315.75
277.957	296.75
278.189	317.75
278.421	278.75
278.652	293.75
278.884	296.75
279.115	291.75
279.347	289.75
279.579	291.75
279.81	293.75
280.042	280.75
280.273	279.75
280.505	283.75
280.736	280.75
280.968	312.75
281.199	317.75
281.431	285.75
281.662	300.75
281.894	295.75
282.125	289.75
282.356	305.75
282.588	310.75
282.819	318.75
283.051	318.75
283.282	295.75
283.513	300.75
283.745	314.75
283.976	301.75
284.207	321.75
284.439	302.75
284.67	301.75
284.901	314.75
285.132	319.75
285.364	314.75
285.595	305.75
285.826	310.75
286.057	301.75
286.288	319.75
286.52	322.75
286.751	305.75
286.982	327.75
287.213	298.75
287.444	309.75
287.675	325.75
287.906	343.75
288.138	358.75
288.369	329.75
288.6	321.75
288.831	340.75
289.062	326.75
289.293	330.75
289.524	318.75
289.755	313.75
289.986	320.75
290.217	327.75
290.448	305.75
290.679	312.75
290.91	322.75
291.141	331.75
291.371	314.75
291.602	333.75
291.833	321.75
292.064	335.75
292.295	323.75
292.526	349.75
292.757	313.75
292.987	336.75
293.218	310.75
293.449	324.75
293.68	324.75
293.91	332.75
294.141	314.75
294.372	334.75
294.603	333.75
294.833	319.75
295.064	331.75
295.295	316.75
295.525	327.75
295.756	338.75
295.987	342.75
296.217	350.75
296.448	346.75
296.679	315.75
296.909	346.75
297.14	341.75
297.37	351.75
297.601	345.75
297.831	327.75
298.062	333.75
298.292	351.75
298.523	339.75
298.753	340.75
298.984	357.75
299.214	331.75
299.445	338.75
299.675	331.75
299.905	351.75
300.136	349.75
300.366	363.75
300.597	364.75
300.827	359.75
301.057	374.75
301.288	361.75
301.518	345.75
301.748	362.75
301.979	377.75
302.209	369.75
302.439	370.75
302.669	372.75
302.9	392.75
303.13	360.75
303.36	353.75
303.59	375.75
303.82	361.75
304.051	361.75
304.281	366.75
304.511	363.75
304.741	359.75
304.971	336.75
305.201	373.75
305.431	360.75
305.661	344.75
305.891	345.75
306.121	378.75
306.352	381.75
306.582	362.75
306.812	360.75
307.042	366.75
307.272	368.75
307.502	380.75
307.731	345.75
307.961	369.75
308.191	357.75
308.421	347.75
308.651	371.75
308.881	381.75
309.111	366.75
309.341	387.75
309.571	391.75
309.8	382.75
310.03	379.75
310.26	391.75
310.49	387.75
310.72	392.75
310.949	415.75
311.179	439.75
311.409	410.75
311.639	403.75
311.868	392.75
312.098	399.75
312.328	400.75
312.557	424.75
312.787	440.75
313.017	427.75
313.246	428.75
313.476	405.75
313.706	411.75
313.935	403.75
314.165	422.75
314.394	414.75
314.624	424.75
314.853	427.75
315.083	393.75
315.312	413.75
315.542	408.75
315.771	405.75
316.001	406.75
316.23	404.75
316.46	398.75
316.689	406.75
316.919	420.75
317.148	431.75
317.377	404.75
317.607	406.75
317.836	408.75
318.065	399.75
318.295	411.75
318.524	399.75
318.753	407.75
318.983	406.75
319.212	401.75
319.441	413.75
319.67	424.75
319.9	395.75
320.129	414.75
320.358	413.75
320.587	435.75
320.816	439.75
321.046	443.75
321.275	428.75
321.504	395.75
321.733	435.75
321.962	447.75
322.191	457.75
322.42	469.75
322.649	470.75
322.878	467.75
323.108	457.75
323.337	469.75
323.566	505.75
323.795	527.75
324.024	542.75
324.253	635.75
324.482	871.75
324.71	1289.75
324.939	1934.75
325.168	1665.75
325.397	873.75
325.626	609.75
325.855	526.75
326.084	517.75
326.313	498.75
326.542	522.75
326.77	549.75
326.999	607.75
327.228	817.75
327.457	1175.75
327.686	1447.75
327.914	975.75
328.143	659.75
328.372	607.75
328.6	587.75
328.829	577.75
329.058	570.75
329.287	594.75
329.515	558.75
329.744	527.75
329.972	527.75
330.201	556.75
330.43	571.75
330.658	573.75
330.887	603.75
331.115	600.75
331.344	565.75
331.572	521.75
331.801	540.75
332.03	539.75
332.258	503.75
332.486	504.75
332.715	493.75
332.943	500.75
333.172	493.75
333.4	504.75
333.629	536.75
333.857	533.75
334.085	545.75
334.314	557.75
334.542	581.75
334.771	593.75
334.999	562.75
335.227	542.75
335.455	503.75
335.684	519.75
335.912	519.75
336.14	474.75
336.369	484.75
336.597	529.75
336.825	509.75
337.053	503.75
337.281	509.75
337.51	480.75
337.738	484.75
337.966	505.75
338.194	496.75
338.422	505.75
338.65	469.75
338.878	499.75
339.106	473.75
339.334	492.75
339.562	471.75
339.79	474.75
340.018	500.75
340.246	476.75
340.474	471.75
340.702	476.75
340.93	489.75
341.158	479.75
341.386	477.75
341.614	500.75
341.842	476.75
342.07	471.75
342.298	455.75
342.526	464.75
342.754	453.75
342.981	458.75
343.209	454.75
343.437	471.75
343.665	479.75
343.893	488.75
344.12	515.75
344.348	516.75
344.576	484.75
344.804	503.75
345.031	491.75
345.259	512.75
345.487	477.75
345.714	485.75
345.942	450.75
346.17	463.75
346.397	473.75
346.625	455.75
346.853	466.75
347.08	457.75
347.308	480.75
347.535	454.75
347.763	488.75
347.99	459.75
348.218	469.75
348.445	470.75
348.673	478.75
348.9	469.75
349.128	443.75
349.355	442.75
349.583	459.75
349.81	451.75
350.037	442.75
350.265	441.75
350.492	445.75
350.72	445.75
350.947	482.75
351.174	465.75
351.402	482.75
351.629	467.75
351.856	456.75
352.083	445.75
352.311	461.75
352.538	458.75
352.765	467.75
352.992	457.75
353.22	471.75
353.447	455.75
353.674	435.75
353.901	430.75
354.128	449.75
354.355	429.75
354.583	446.75
354.81	443.75
355.037	438.75
355.264	439.75
355.491	445.75
355.718	421.75
355.945	439.75
356.172	422.75
356.399	422.75
356.626	449.75
356.853	441.75
357.08	452.75
357.307	437.75
357.534	431.75
357.761	448.75
357.988	441.75
358.215	429.75
358.441	453.75
358.668	432.75
358.895	444.75
359.122	437.75
359.349	456.75
359.576	461.75
359.802	466.75
360.029	504.75
360.256	502.75
360.483	485.75
360.709	467.75
360.936	452.75
361.163	458.75
361.39	452.75
361.616	452.75
361.843	452.75
362.07	472.75
362.296	468.75
362.523	453.75
362.749	470.75
362.976	476.75
363.203	457.75
363.429	455.75
363.656	442.75
363.882	469.75
364.109	444.75
364.335	447.75
364.562	478.75
364.788	449.75
365.015	473.75
365.241	444.75
365.468	457.75
365.694	457.75
365.92	448.75
366.147	439.75
366.373	426.75
366.599	449.75
366.826	452.75
367.052	465.75
367.278	460.75
367.505	444.75
367.731	465.75
367.957	454.75
368.184	473.75
368.41	457.75
368.636	478.75
368.862	477.75
369.089	464.75
369.315	455.75
369.541	453.75
369.767	459.75
369.993	454.75
370.219	453.75
370.445	469.75
370.672	439.75
370.898	452.75
371.124	459.75
371.35	451.75
371.576	459.75
371.802	457.75
372.028	442.75
372.254	472.75
372.48	458.75
372.706	451.75
372.932	464.75
373.158	481.75
373.384	471.75
373.61	459.75
373.835	458.75
374.061	479.75
374.287	466.75
374.513	505.75
374.739	469.75
374.965	476.75
375.191	464.75
375.416	483.75
375.642	485.75
375.868	473.75
376.094	481.75
376.319	464.75
376.545	458.75
376.771	460.75
376.997	469.75
377.222	451.75
377.448	476.75
377.674	458.75
377.899	453.75
378.125	467.75
378.35	456.75
378.576	467.75
378.802	464.75
379.027	439.75
379.253	461.75
379.478	449.75
379.704	451.75
379.929	485.75
380.155	470.75
380.38	459.75
380.606	466.75
380.831	454.75
381.057	471.75
381.282	461.75
381.507	481.75
381.733	481.75
381.958	467.75
382.184	481.75
382.409	491.75
382.634	470.75
382.86	491.75
383.085	491.75
383.31	479.75
383.535	487.75
383.761	482.75
383.986	510.75
384.211	491.75
384.436	491.75
384.662	507.75
384.887	535.75
385.112	503.75
385.337	518.75
385.562	537.75
385.787	523.75
386.013	543.75
386.238	527.75
386.463	523.75
386.688	508.75
386.913	516.75
387.138	519.75
387.363	518.75
387.588	530.75
387.813	518.75
388.038	507.75
388.263	529.75
388.488	515.75
388.713	521.75
388.938	503.75
389.163	534.75
389.387	527.75
389.612	513.75
389.837	501.75
390.062	513.75
390.287	532.75
390.512	522.75
390.736	534.75
390.961	511.75
391.186	518.75
391.411	537.75
391.636	537.75
391.86	540.75
392.085	556.75
392.31	555.75
392.534	564.75
392.759	545.75
392.984	569.75
393.208	555.75
393.433	525.75
393.658	522.75
393.882	536.75
394.107	534.75
394.331	527.75
394.556	528.75
394.78	534.75
395.005	557.75
395.229	539.75
395.454	534.75
395.678	553.75
395.903	587.75
396.127	598.75
396.352	591.75
396.576	571.75
396.801	557.75
397.025	563.75
397.249	561.75
397.474	566.75
397.698	551.75
397.922	601.75
398.147	599.75
398.371	594.75
398.595	584.75
398.82	614.75
399.044	625.75
399.268	645.75
399.492	684.75
399.717	750.75
399.941	774.75
400.165	766.75
400.389	767.75
400.613	687.75
400.837	642.75
401.062	638.75
401.286	637.75
401.51	618.75
401.734	598.75
401.958	615.75
402.182	627.75
402.406	623.75
402.63	639.75
402.854	617.75
403.078	649.75
403.302	614.75
403.526	647.75
403.75	639.75
403.974	634.75
404.198	613.75
404.422	643.75
404.645	655.75
404.869	635.75
405.093	699.75
405.317	735.75
405.541	761.75
405.765	691.75
405.988	662.75
406.212	678.75
406.436	690.75
406.66	703.75
406.883	681.75
407.107	705.75
407.331	756.75
407.555	850.75
407.778	837.75
408.002	766.75
408.226	710.75
408.449	718.75
408.673	711.75
408.896	717.75
409.12	761.75
409.344	731.75
409.567	682.75
409.791	665.75
410.014	643.75
410.238	629.75
410.461	642.75
410.685	637.75
410.908	668.75
411.132	685.75
411.355	693.75
411.578	690.75
411.802	675.75
412.025	654.75
412.249	659.75
412.472	669.75
412.695	713.75
412.919	701.75
413.142	645.75
413.365	611.75
413.589	628.75
413.812	623.75
414.035	618.75
414.258	588.75
414.482	632.75
414.705	625.75
414.928	586.75
415.151	607.75
415.374	594.75
415.597	595.75
415.821	575.75
416.044	601.75
416.267	606.75
416.49	597.75
416.713	604.75
416.936	600.75
417.159	600.75
417.382	612.75
417.605	628.75
417.828	619.75
418.051	634.75
418.274	623.75
418.497	598.75
418.72	633.75
418.943	614.75
419.166	641.75
419.389	665.75
419.611	675.75
419.834	660.75
420.057	658.75
420.28	651.75
420.503	618.75
420.726	621.75
420.948	615.75
421.171	682.75
421.394	714.75
421.617	649.75
421.839	640.75
422.062	643.75
422.285	620.75
422.507	713.75
422.73	760.75
422.953	771.75
423.175	683.75
423.398	662.75
423.621	650.75
423.843	683.75
424.066	686.75
424.288	684.75
424.511	702.75
424.733	725.75
424.956	820.75
425.178	780.75
425.401	774.75
425.623	778.75
425.846	695.75
426.068	669.75
426.291	654.75
426.513	655.75
426.735	674.75
426.958	701.75
427.18	777.75
427.402	887.75
427.625	979.75
427.847	876.75
428.069	753.75
428.292	691.75
428.514	628.75
428.736	617.75
428.958	600.75
429.181	602.75
429.403	590.75
429.625	610.75
429.847	610.75
430.069	701.75
430.292	712.75
430.514	618.75
430.736	604.75
430.958	618.75
431.18	604.75
431.402	590.75
431.624	596.75
431.846	589.75
432.068	585.75
432.29	571.75
432.512	601.75
432.734	598.75
432.956	585.75
433.178	603.75
433.4	620.75
433.622	599.75
433.844	602.75
434.066	589.75
434.287	581.75
434.509	577.75
434.731	586.75
434.953	630.75
435.175	655.75
435.397	643.75
435.618	667.75
435.84	692.75
436.062	791.75
436.284	851.75
436.505	731.75
436.727	657.75
436.949	607.75
437.17	600.75
437.392	579.75
437.614	611.75
437.835	627.75
438.057	728.75
438.278	858.75
438.5	828.75
438.721	945.75
438.943	885.75
439.165	737.75
439.386	671.75
439.608	673.75
439.829	654.75
440.05	691.75
440.272	722.75
440.493	668.75
440.715	633.75
440.936	621.75
441.158	631.75
441.379	629.75
441.6	625.75
441.822	646.75
442.043	714.75
442.264	783.75
442.486	848.75
442.707	721.75
442.928	695.75
443.149	691.75
443.371	681.75
443.592	725.75
443.813	830.75
444.034	921.75
444.255	761.75
444.476	699.75
444.698	703.75
444.919	679.75
445.14	773.75
445.361	738.75
445.582	699.75
445.803	746.75
446.024	849.75
446.245	904.75
446.466	801.75
446.687	687.75
446.908	664.75
447.129	627.75
447.35	569.75
447.571	616.75
447.792	601.75
448.013	589.75
448.234	587.75
448.455	655.75
448.675	787.75
448.896	917.75
449.117	794.75
449.338	718.75
449.559	833.75
449.779	953.75
450	751.75
450.221	661.75
450.442	603.75
450.662	575.75
450.883	577.75
451.104	602.75
451.324	593.75
451.545	579.75
451.766	567.75
451.986	561.75
452.207	565.75
452.428	541.75
452.648	521.75
452.869	533.75
453.089	535.75
453.31	548.75
453.53	540.75
453.751	548.75
453.971	533.75
454.192	541.75
454.412	554.75
454.633	541.75
454.853	536.75
455.073	528.75
455.294	554.75
455.514	616.75
455.734	619.75
455.955	547.75
456.175	535.75
456.395	510.75
456.616	504.75
456.836	525.75
457.056	498.75
457.276	523.75
457.497	489.75
457.717	502.75
457.937	505.75
458.157	525.75
458.377	514.75
458.598	566.75
458.818	616.75
459.038	680.75
459.258	707.75
459.478	615.75
459.698	581.75
459.918	581.75
460.138	595.75
460.358	603.75
460.578	596.75
460.798	597.75
461.018	606.75
461.238	604.75
461.458	621.75
461.678	611.75
461.898	602.75
462.118	606.75
462.338	645.75
462.558	645.75
462.777	663.75
462.997	683.75
463.217	716.75
463.437	712.75
463.657	665.75
463.876	663.75
464.096	676.75
464.316	674.75
464.536	637.75
464.755	647.75
464.975	659.75
465.195	662.75
465.414	722.75
465.634	654.75
465.854	614.75
466.073	585.75
466.293	588.75
466.512	554.75
466.732	567.75
466.951	543.75
467.171	556.75
467.391	577.75
467.61	555.75
467.829	554.75
468.049	579.75
468.268	570.75
468.488	574.75
468.707	537.75
468.927	526.75
469.146	553.75
469.365	554.75
469.585	536.75
469.804	555.75
470.023	583.75
470.243	574.75
470.462	586.75
470.681	575.75
470.901	584.75
471.12	569.75
471.339	561.75
471.558	562.75
471.777	570.75
471.997	550.75
472.216	570.75
472.435	580.75
472.654	582.75
472.873	549.75
473.092	584.75
473.311	557.75
473.53	551.75
473.749	574.75
473.968	588.75
474.187	710.75
474.406	749.75
474.625	633.75
474.844	586.75
475.063	587.75
475.282	558.75
475.501	572.75
475.72	572.75
475.939	579.75
476.158	563.75
476.377	581.75
476.596	576.75
476.814	565.75
477.033	583.75
477.252	597.75
477.471	594.75
477.69	609.75
477.908	603.75
478.127	639.75
478.346	642.75
478.564	641.75
478.783	637.75
479.002	652.75
479.22	644.75
479.439	663.75
479.658	675.75
479.876	674.75
480.095	673.75
480.313	694.75
480.532	681.75
480.751	696.75
480.969	671.75
481.188	735.75
481.406	788.75
481.624	699.75
481.843	665.75
482.061	661.75
482.28	662.75
482.498	682.75
482.717	653.75
482.935	661.75
483.153	653.75
483.372	683.75
483.59	669.75
483.808	654.75
484.027	647.75
484.245	663.75
484.463	668.75
484.681	690.75
484.9	669.75
485.118	677.75
485.336	680.75
485.554	685.75
485.772	687.75
485.99	677.75
486.209	703.75
486.427	685.75
486.645	703.75
486.863	709.75
487.081	702.75
487.299	720.75
487.517	731.75
487.735	705.75
487.953	715.75
488.171	707.75
488.389	707.75
488.607	713.75
488.825	697.75
489.043	686.75
489.261	713.75
489.479	729.75
489.696	736.75
489.914	729.75
490.132	727.75
490.35	740.75
490.568	747.75
490.786	773.75
491.003	767.75
491.221	765.75
491.439	782.75
491.657	803.75
491.874	801.75
492.092	809.75
492.31	830.75
492.527	825.75
492.745	814.75
492.963	824.75
493.18	836.75
493.398	841.75
493.615	820.75
493.833	833.75
494.05	835.75
494.268	850.75
494.485	836.75
494.703	836.75
494.92	839.75
495.138	839.75
495.355	852.75
495.573	847.75
495.79	836.75
496.008	861.75
496.225	827.75
496.442	845.75
496.66	861.75
496.877	846.75
497.094	859.75
497.312	862.75
497.529	908.75
497.746	912.75
497.963	911.75
498.181	892.75
498.398	958.75
498.615	954.75
498.832	995.75
499.049	1029.75
499.267	1051.75
499.484	1098.75
499.701	1155.75
499.918	1220.75
500.135	1275.75
500.352	1346.75
500.569	1362.75
500.786	1398.75
501.003	1359.75
501.22	1301.75
501.437	1239.75
501.654	1153.75
