Data from 1974.PennyLincolnUp.Lamp.En5.5.200Scan.071719.P1.Changed Mount._HRD10591_15-53-26-857.txt Node
Date: Thu Jul 18 15:53:26 EDT 2019
User: cochatt
Spectrometer: HR+D1059
Trigger mode: 1
Integration Time (sec): 1.000000E-1
Scans to average: 1
Electric dark correction enabled: true
Nonlinearity correction enabled: false
Boxcar width: 0
XAxis mode: Wavelengths
Number of Pixels in Spectrum: 2048
>>>>>Begin Spectral Data<<<<<
223.165	-9.62
223.4	-9.62
223.635	-9.62
223.869	-16.62
224.104	-23.62
224.338	-7.62
224.573	-13.62
224.808	-12.62
225.042	-8.62
225.277	1.38
225.511	-0.62
225.746	8.38
225.98	7.38
226.215	-2.62
226.449	16.38
226.683	11.38
226.918	24.38
227.152	26.38
227.387	24.38
227.621	32.38
227.856	41.38
228.09	47.38
228.324	48.38
228.559	48.38
228.793	69.38
229.027	95.38
229.262	115.38
229.496	119.38
229.73	135.38
229.964	162.38
230.199	123.38
230.433	125.38
230.667	124.38
230.901	107.38
231.136	113.38
231.37	106.38
231.604	124.38
231.838	114.38
232.072	98.38
232.306	99.38
232.541	112.38
232.775	122.38
233.009	119.38
233.243	122.38
233.477	125.38
233.711	112.38
233.945	116.38
234.179	130.38
234.413	136.38
234.647	116.38
234.881	117.38
235.115	125.38
235.349	108.38
235.583	129.38
235.817	129.38
236.051	126.38
236.285	134.38
236.519	136.38
236.753	138.38
236.987	162.38
237.221	183.38
237.455	239.38
237.689	203.38
237.922	137.38
238.156	137.38
238.39	128.38
238.624	133.38
238.858	121.38
239.091	131.38
239.325	137.38
239.559	128.38
239.793	123.38
240.027	147.38
240.26	141.38
240.494	167.38
240.728	168.38
240.961	161.38
241.195	135.38
241.429	148.38
241.662	139.38
241.896	131.38
242.13	136.38
242.363	145.38
242.597	135.38
242.83	148.38
243.064	143.38
243.298	153.38
243.531	138.38
243.765	149.38
243.998	151.38
244.232	155.38
244.465	145.38
244.699	167.38
244.932	164.38
245.166	161.38
245.399	150.38
245.633	149.38
245.866	160.38
246.099	152.38
246.333	154.38
246.566	168.38
246.8	155.38
247.033	159.38
247.266	172.38
247.5	166.38
247.733	169.38
247.966	173.38
248.2	174.38
248.433	188.38
248.666	171.38
248.899	194.38
249.133	212.38
249.366	224.38
249.599	202.38
249.832	200.38
250.066	193.38
250.299	192.38
250.532	202.38
250.765	199.38
250.998	237.38
251.231	244.38
251.465	235.38
251.698	231.38
251.931	234.38
252.164	201.38
252.397	210.38
252.63	213.38
252.863	214.38
253.096	221.38
253.329	240.38
253.562	247.38
253.795	244.38
254.028	244.38
254.261	232.38
254.494	238.38
254.727	273.38
254.96	283.38
255.193	273.38
255.426	259.38
255.659	248.38
255.892	255.38
256.124	244.38
256.357	261.38
256.59	224.38
256.823	226.38
257.056	230.38
257.289	224.38
257.521	213.38
257.754	237.38
257.987	223.38
258.22	232.38
258.452	217.38
258.685	220.38
258.918	233.38
259.151	223.38
259.383	225.38
259.616	241.38
259.849	239.38
260.081	241.38
260.314	260.38
260.547	257.38
260.779	279.38
261.012	262.38
261.244	248.38
261.477	251.38
261.71	242.38
261.942	244.38
262.175	265.38
262.407	243.38
262.64	232.38
262.872	240.38
263.105	224.38
263.337	235.38
263.57	227.38
263.802	251.38
264.035	220.38
264.267	232.38
264.499	233.38
264.732	217.38
264.964	233.38
265.197	237.38
265.429	235.38
265.661	233.38
265.894	243.38
266.126	236.38
266.358	223.38
266.591	248.38
266.823	255.38
267.055	251.38
267.287	251.38
267.52	246.38
267.752	251.38
267.984	252.38
268.216	249.38
268.448	254.38
268.681	253.38
268.913	257.38
269.145	267.38
269.377	285.38
269.609	292.38
269.841	304.38
270.073	288.38
270.306	299.38
270.538	326.38
270.77	328.38
271.002	332.38
271.234	305.38
271.466	303.38
271.698	316.38
271.93	323.38
272.162	336.38
272.394	323.38
272.626	324.38
272.858	298.38
273.09	295.38
273.322	290.38
273.553	278.38
273.785	295.38
274.017	282.38
274.249	279.38
274.481	287.38
274.713	291.38
274.945	289.38
275.176	299.38
275.408	292.38
275.64	277.38
275.872	277.38
276.104	276.38
276.335	280.38
276.567	284.38
276.799	302.38
277.031	329.38
277.262	373.38
277.494	346.38
277.726	303.38
277.957	329.38
278.189	305.38
278.421	316.38
278.652	291.38
278.884	303.38
279.115	275.38
279.347	291.38
279.579	291.38
279.81	298.38
280.042	297.38
280.273	272.38
280.505	277.38
280.736	297.38
280.968	292.38
281.199	301.38
281.431	290.38
281.662	299.38
281.894	308.38
282.125	295.38
282.356	316.38
282.588	339.38
282.819	332.38
283.051	298.38
283.282	310.38
283.513	305.38
283.745	305.38
283.976	324.38
284.207	308.38
284.439	324.38
284.67	308.38
284.901	315.38
285.132	310.38
285.364	306.38
285.595	307.38
285.826	320.38
286.057	325.38
286.288	322.38
286.52	330.38
286.751	305.38
286.982	309.38
287.213	317.38
287.444	315.38
287.675	324.38
287.906	325.38
288.138	321.38
288.369	319.38
288.6	334.38
288.831	334.38
289.062	339.38
289.293	339.38
289.524	323.38
289.755	316.38
289.986	327.38
290.217	333.38
290.448	321.38
290.679	315.38
290.91	344.38
291.141	329.38
291.371	329.38
291.602	327.38
291.833	323.38
292.064	337.38
292.295	326.38
292.526	331.38
292.757	320.38
292.987	329.38
293.218	316.38
293.449	335.38
293.68	316.38
293.91	316.38
294.141	315.38
294.372	296.38
294.603	343.38
294.833	337.38
295.064	352.38
295.295	339.38
295.525	319.38
295.756	314.38
295.987	339.38
296.217	353.38
296.448	357.38
296.679	338.38
296.909	334.38
297.14	337.38
297.37	338.38
297.601	324.38
297.831	347.38
298.062	333.38
298.292	352.38
298.523	330.38
298.753	367.38
298.984	338.38
299.214	339.38
299.445	354.38
299.675	340.38
299.905	340.38
300.136	348.38
300.366	356.38
300.597	341.38
300.827	357.38
301.057	363.38
301.288	369.38
301.518	360.38
301.748	355.38
301.979	345.38
302.209	364.38
302.439	350.38
302.669	373.38
302.9	348.38
303.13	349.38
303.36	358.38
303.59	354.38
303.82	379.38
304.051	367.38
304.281	375.38
304.511	364.38
304.741	381.38
304.971	383.38
305.201	374.38
305.431	361.38
305.661	367.38
305.891	358.38
306.121	363.38
306.352	361.38
306.582	363.38
306.812	364.38
307.042	373.38
307.272	356.38
307.502	346.38
307.731	373.38
307.961	377.38
308.191	363.38
308.421	377.38
308.651	372.38
308.881	383.38
309.111	391.38
309.341	355.38
309.571	376.38
309.8	387.38
310.03	399.38
310.26	395.38
310.49	405.38
310.72	402.38
310.949	418.38
311.179	417.38
311.409	403.38
311.639	408.38
311.868	397.38
312.098	399.38
312.328	416.38
312.557	408.38
312.787	430.38
313.017	435.38
313.246	417.38
313.476	409.38
313.706	438.38
313.935	403.38
314.165	439.38
314.394	434.38
314.624	435.38
314.853	403.38
315.083	427.38
315.312	409.38
315.542	422.38
315.771	413.38
316.001	417.38
316.23	400.38
316.46	409.38
316.689	428.38
316.919	399.38
317.148	433.38
317.377	425.38
317.607	407.38
317.836	413.38
318.065	426.38
318.295	409.38
318.524	402.38
318.753	407.38
318.983	409.38
319.212	413.38
319.441	426.38
319.67	435.38
319.9	413.38
320.129	415.38
320.358	405.38
320.587	419.38
320.816	444.38
321.046	435.38
321.275	418.38
321.504	421.38
321.733	416.38
321.962	443.38
322.191	459.38
322.42	454.38
322.649	453.38
322.878	454.38
323.108	468.38
323.337	498.38
323.566	505.38
323.795	521.38
324.024	566.38
324.253	648.38
324.482	882.38
324.71	1318.38
324.939	1967.38
325.168	1756.38
325.397	916.38
325.626	618.38
325.855	533.38
326.084	519.38
326.313	517.38
326.542	508.38
326.77	545.38
326.999	609.38
327.228	805.38
327.457	1223.38
327.686	1479.38
327.914	996.38
328.143	680.38
328.372	602.38
328.6	578.38
328.829	554.38
329.058	555.38
329.287	589.38
329.515	561.38
329.744	518.38
329.972	530.38
330.201	526.38
330.43	571.38
330.658	595.38
330.887	614.38
331.115	599.38
331.344	548.38
331.572	503.38
331.801	515.38
332.03	509.38
332.258	515.38
332.486	527.38
332.715	467.38
332.943	476.38
333.172	491.38
333.4	521.38
333.629	525.38
333.857	535.38
334.085	546.38
334.314	556.38
334.542	580.38
334.771	593.38
334.999	528.38
335.227	550.38
335.455	533.38
335.684	495.38
335.912	511.38
336.14	485.38
336.369	506.38
336.597	493.38
336.825	495.38
337.053	483.38
337.281	498.38
337.51	507.38
337.738	490.38
337.966	493.38
338.194	495.38
338.422	492.38
338.65	496.38
338.878	486.38
339.106	504.38
339.334	492.38
339.562	496.38
339.79	476.38
340.018	461.38
340.246	482.38
340.474	500.38
340.702	476.38
340.93	482.38
341.158	459.38
341.386	473.38
341.614	447.38
341.842	468.38
342.07	450.38
342.298	467.38
342.526	476.38
342.754	464.38
342.981	467.38
343.209	476.38
343.437	479.38
343.665	497.38
343.893	503.38
344.12	488.38
344.348	522.38
344.576	503.38
344.804	496.38
345.031	524.38
345.259	504.38
345.487	500.38
345.714	466.38
345.942	463.38
346.17	455.38
346.397	461.38
346.625	456.38
346.853	454.38
347.08	450.38
347.308	442.38
347.535	480.38
347.763	476.38
347.99	472.38
348.218	471.38
348.445	488.38
348.673	459.38
348.9	479.38
349.128	435.38
349.355	455.38
349.583	454.38
349.81	455.38
350.037	468.38
350.265	441.38
350.492	440.38
350.72	442.38
350.947	455.38
351.174	474.38
351.402	471.38
351.629	482.38
351.856	452.38
352.083	460.38
352.311	481.38
352.538	479.38
352.765	474.38
352.992	438.38
353.22	471.38
353.447	458.38
353.674	453.38
353.901	453.38
354.128	420.38
354.355	423.38
354.583	440.38
354.81	454.38
355.037	449.38
355.264	431.38
355.491	451.38
355.718	444.38
355.945	440.38
356.172	439.38
356.399	463.38
356.626	443.38
356.853	446.38
357.08	431.38
357.307	436.38
357.534	427.38
357.761	443.38
357.988	441.38
358.215	443.38
358.441	465.38
358.668	447.38
358.895	461.38
359.122	458.38
359.349	435.38
359.576	482.38
359.802	486.38
360.029	497.38
360.256	502.38
360.483	480.38
360.709	465.38
360.936	466.38
361.163	436.38
361.39	477.38
361.616	453.38
361.843	456.38
362.07	482.38
362.296	476.38
362.523	466.38
362.749	471.38
362.976	448.38
363.203	451.38
363.429	455.38
363.656	459.38
363.882	467.38
364.109	442.38
364.335	443.38
364.562	450.38
364.788	446.38
365.015	465.38
365.241	457.38
365.468	462.38
365.694	476.38
365.92	448.38
366.147	452.38
366.373	453.38
366.599	469.38
366.826	436.38
367.052	447.38
367.278	447.38
367.505	458.38
367.731	467.38
367.957	443.38
368.184	466.38
368.41	462.38
368.636	468.38
368.862	471.38
369.089	452.38
369.315	474.38
369.541	460.38
369.767	448.38
369.993	461.38
370.219	460.38
370.445	436.38
370.672	461.38
370.898	448.38
371.124	448.38
371.35	478.38
371.576	453.38
371.802	437.38
372.028	446.38
372.254	461.38
372.48	468.38
372.706	463.38
372.932	474.38
373.158	457.38
373.384	454.38
373.61	466.38
373.835	465.38
374.061	476.38
374.287	485.38
374.513	500.38
374.739	477.38
374.965	477.38
375.191	474.38
375.416	482.38
375.642	463.38
375.868	465.38
376.094	452.38
376.319	478.38
376.545	475.38
376.771	470.38
376.997	476.38
377.222	466.38
377.448	464.38
377.674	471.38
377.899	456.38
378.125	468.38
378.35	451.38
378.576	479.38
378.802	440.38
379.027	464.38
379.253	454.38
379.478	457.38
379.704	473.38
379.929	469.38
380.155	445.38
380.38	453.38
380.606	461.38
380.831	444.38
381.057	471.38
381.282	448.38
381.507	462.38
381.733	481.38
381.958	460.38
382.184	461.38
382.409	485.38
382.634	476.38
382.86	465.38
383.085	498.38
383.31	490.38
383.535	495.38
383.761	471.38
383.986	522.38
384.211	517.38
384.436	490.38
384.662	511.38
384.887	490.38
385.112	488.38
385.337	515.38
385.562	516.38
385.787	529.38
386.013	527.38
386.238	531.38
386.463	527.38
386.688	535.38
386.913	524.38
387.138	527.38
387.363	516.38
387.588	520.38
387.813	519.38
388.038	524.38
388.263	520.38
388.488	532.38
388.713	503.38
388.938	519.38
389.163	510.38
389.387	516.38
389.612	513.38
389.837	509.38
390.062	519.38
390.287	518.38
390.512	516.38
390.736	520.38
390.961	519.38
391.186	532.38
391.411	556.38
391.636	547.38
391.86	558.38
392.085	553.38
392.31	556.38
392.534	554.38
392.759	540.38
392.984	534.38
393.208	513.38
393.433	518.38
393.658	535.38
393.882	529.38
394.107	535.38
394.331	531.38
394.556	540.38
394.78	530.38
395.005	548.38
395.229	539.38
395.454	536.38
395.678	556.38
395.903	571.38
396.127	569.38
396.352	582.38
396.576	563.38
396.801	539.38
397.025	561.38
397.249	556.38
397.474	555.38
397.698	565.38
397.922	551.38
398.147	569.38
398.371	625.38
398.595	593.38
398.82	595.38
399.044	627.38
399.268	659.38
399.492	677.38
399.717	747.38
399.941	781.38
400.165	768.38
400.389	766.38
400.613	672.38
400.837	647.38
401.062	638.38
401.286	611.38
401.51	611.38
401.734	607.38
401.958	610.38
402.182	629.38
402.406	631.38
402.63	623.38
402.854	639.38
403.078	623.38
403.302	648.38
403.526	661.38
403.75	659.38
403.974	649.38
404.198	633.38
404.422	641.38
404.645	665.38
404.869	667.38
405.093	689.38
405.317	735.38
405.541	777.38
405.765	696.38
405.988	665.38
406.212	672.38
406.436	682.38
406.66	707.38
406.883	676.38
407.107	732.38
407.331	760.38
407.555	843.38
407.778	855.38
408.002	777.38
408.226	713.38
408.449	703.38
408.673	712.38
408.896	736.38
409.12	757.38
409.344	742.38
409.567	654.38
409.791	650.38
410.014	649.38
410.238	644.38
410.461	651.38
410.685	648.38
410.908	656.38
411.132	691.38
411.355	723.38
411.578	682.38
411.802	635.38
412.025	618.38
412.249	643.38
412.472	657.38
412.695	699.38
412.919	701.38
413.142	629.38
413.365	618.38
413.589	637.38
413.812	634.38
414.035	604.38
414.258	628.38
414.482	597.38
414.705	615.38
414.928	608.38
415.151	611.38
415.374	612.38
415.597	602.38
415.821	610.38
416.044	599.38
416.267	605.38
416.49	616.38
416.713	598.38
416.936	612.38
417.159	605.38
417.382	596.38
417.605	595.38
417.828	596.38
418.051	633.38
418.274	600.38
418.497	591.38
418.72	617.38
418.943	607.38
419.166	649.38
419.389	671.38
419.611	665.38
419.834	647.38
420.057	641.38
420.28	634.38
420.503	634.38
420.726	629.38
420.948	651.38
421.171	713.38
421.394	688.38
421.617	629.38
421.839	635.38
422.062	624.38
422.285	630.38
422.507	724.38
422.73	788.38
422.953	745.38
423.175	682.38
423.398	654.38
423.621	660.38
423.843	705.38
424.066	676.38
424.288	675.38
424.511	680.38
424.733	744.38
424.956	857.38
425.178	825.38
425.401	785.38
425.623	848.38
425.846	716.38
426.068	655.38
426.291	657.38
426.513	660.38
426.735	663.38
426.958	701.38
427.18	815.38
427.402	946.38
427.625	1007.38
427.847	843.38
428.069	778.38
428.292	684.38
428.514	643.38
428.736	618.38
428.958	640.38
429.181	629.38
429.403	615.38
429.625	620.38
429.847	664.38
430.069	712.38
430.292	723.38
430.514	652.38
430.736	621.38
430.958	639.38
431.18	557.38
431.402	593.38
431.624	589.38
431.846	593.38
432.068	581.38
432.29	588.38
432.512	563.38
432.734	593.38
432.956	586.38
433.178	622.38
433.4	604.38
433.622	600.38
433.844	593.38
434.066	587.38
434.287	583.38
434.509	609.38
434.731	599.38
434.953	625.38
435.175	628.38
435.397	682.38
435.618	675.38
435.84	723.38
436.062	804.38
436.284	876.38
436.505	748.38
436.727	668.38
436.949	644.38
437.17	625.38
437.392	624.38
437.614	611.38
437.835	635.38
438.057	725.38
438.278	851.38
438.5	835.38
438.721	933.38
438.943	901.38
439.165	723.38
439.386	653.38
439.608	659.38
439.829	660.38
440.05	685.38
440.272	727.38
440.493	681.38
440.715	647.38
440.936	651.38
441.158	613.38
441.379	616.38
441.6	632.38
441.822	667.38
442.043	662.38
442.264	789.38
442.486	809.38
442.707	729.38
442.928	671.38
443.149	674.38
443.371	724.38
443.592	752.38
443.813	858.38
444.034	936.38
444.255	780.38
444.476	716.38
444.698	687.38
444.919	678.38
445.14	761.38
445.361	739.38
445.582	719.38
445.803	782.38
446.024	878.38
446.245	873.38
446.466	795.38
446.687	712.38
446.908	663.38
447.129	638.38
447.35	605.38
447.571	639.38
447.792	588.38
448.013	584.38
448.234	625.38
448.455	661.38
448.675	792.38
448.896	917.38
449.117	769.38
449.338	745.38
449.559	835.38
449.779	964.38
450	774.38
450.221	643.38
450.442	627.38
450.662	588.38
450.883	604.38
451.104	586.38
451.324	593.38
451.545	563.38
451.766	556.38
451.986	543.38
452.207	555.38
452.428	538.38
452.648	546.38
452.869	523.38
453.089	546.38
453.31	560.38
453.53	571.38
453.751	549.38
453.971	543.38
454.192	561.38
454.412	534.38
454.633	522.38
454.853	541.38
455.073	552.38
455.294	560.38
455.514	640.38
455.734	616.38
455.955	528.38
456.175	536.38
456.395	499.38
456.616	538.38
456.836	540.38
457.056	504.38
457.276	507.38
457.497	508.38
457.717	504.38
457.937	532.38
458.157	523.38
458.377	541.38
458.598	566.38
458.818	611.38
459.038	675.38
459.258	715.38
459.478	624.38
459.698	607.38
459.918	600.38
460.138	588.38
460.358	587.38
460.578	590.38
460.798	623.38
461.018	627.38
461.238	614.38
461.458	595.38
461.678	604.38
461.898	623.38
462.118	597.38
462.338	622.38
462.558	642.38
462.777	638.38
462.997	667.38
463.217	708.38
463.437	693.38
463.657	682.38
463.876	655.38
464.096	664.38
464.316	634.38
464.536	663.38
464.755	657.38
464.975	657.38
465.195	660.38
465.414	697.38
465.634	663.38
465.854	623.38
466.073	596.38
466.293	580.38
466.512	565.38
466.732	561.38
466.951	561.38
467.171	569.38
467.391	554.38
467.61	554.38
467.829	557.38
468.049	563.38
468.268	550.38
468.488	550.38
468.707	566.38
468.927	539.38
469.146	547.38
469.365	547.38
469.585	560.38
469.804	565.38
470.023	574.38
470.243	544.38
470.462	584.38
470.681	584.38
470.901	586.38
471.12	587.38
471.339	589.38
471.558	552.38
471.777	573.38
471.997	549.38
472.216	565.38
472.435	588.38
472.654	583.38
472.873	562.38
473.092	568.38
473.311	582.38
473.53	555.38
473.749	586.38
473.968	628.38
474.187	722.38
474.406	734.38
474.625	632.38
474.844	594.38
475.063	549.38
475.282	556.38
475.501	559.38
475.72	564.38
475.939	591.38
476.158	568.38
476.377	582.38
476.596	586.38
476.814	600.38
477.033	599.38
477.252	597.38
477.471	612.38
477.69	616.38
477.908	636.38
478.127	634.38
478.346	633.38
478.564	649.38
478.783	659.38
479.002	657.38
479.22	661.38
479.439	666.38
479.658	692.38
479.876	683.38
480.095	693.38
480.313	737.38
480.532	703.38
480.751	716.38
480.969	714.38
481.188	763.38
481.406	745.38
481.624	731.38
481.843	697.38
482.061	689.38
482.28	665.38
482.498	677.38
482.717	671.38
482.935	636.38
483.153	657.38
483.372	665.38
483.59	668.38
483.808	646.38
484.027	657.38
484.245	677.38
484.463	690.38
484.681	684.38
484.9	668.38
485.118	677.38
485.336	689.38
485.554	671.38
485.772	681.38
485.99	676.38
486.209	672.38
486.427	712.38
486.645	676.38
486.863	724.38
487.081	705.38
487.299	705.38
487.517	699.38
487.735	716.38
487.953	722.38
488.171	730.38
488.389	682.38
488.607	721.38
488.825	729.38
489.043	700.38
489.261	720.38
489.479	733.38
489.696	729.38
489.914	707.38
490.132	726.38
490.35	769.38
490.568	748.38
490.786	761.38
491.003	770.38
491.221	799.38
491.439	801.38
491.657	814.38
491.874	817.38
492.092	851.38
492.31	838.38
492.527	813.38
492.745	847.38
492.963	822.38
493.18	812.38
493.398	858.38
493.615	811.38
493.833	843.38
494.05	852.38
494.268	843.38
494.485	833.38
494.703	819.38
494.92	837.38
495.138	854.38
495.355	837.38
495.573	842.38
495.79	834.38
496.008	870.38
496.225	870.38
496.442	839.38
496.66	856.38
496.877	873.38
497.094	871.38
497.312	871.38
497.529	907.38
497.746	900.38
497.963	921.38
498.181	947.38
498.398	945.38
498.615	973.38
498.832	967.38
499.049	1025.38
499.267	1065.38
499.484	1092.38
499.701	1126.38
499.918	1207.38
500.135	1263.38
500.352	1349.38
500.569	1393.38
500.786	1367.38
501.003	1349.38
501.22	1277.38
501.437	1257.38
501.654	1159.38
