Data from 1974.PennyLincolnUp.Lamp.En5.5.200Scan.071719.P1.Changed Mount._HRD10591_15-54-06-857.txt Node
Date: Thu Jul 18 15:54:06 EDT 2019
User: cochatt
Spectrometer: HR+D1059
Trigger mode: 1
Integration Time (sec): 1.000000E-1
Scans to average: 1
Electric dark correction enabled: true
Nonlinearity correction enabled: false
Boxcar width: 0
XAxis mode: Wavelengths
Number of Pixels in Spectrum: 2048
>>>>>Begin Spectral Data<<<<<
223.165	-20.06
223.4	-20.06
223.635	-20.06
223.869	-18.06
224.104	-19.06
224.338	-24.06
224.573	-18.06
224.808	-17.06
225.042	-12.06
225.277	1.94
225.511	-4.06
225.746	6.94
225.98	24.94
226.215	22.94
226.449	1.94
226.683	10.94
226.918	19.94
227.152	42.94
227.387	22.94
227.621	24.94
227.856	35.94
228.09	36.94
228.324	47.94
228.559	56.94
228.793	79.94
229.027	98.94
229.262	105.94
229.496	109.94
229.73	108.94
229.964	137.94
230.199	127.94
230.433	118.94
230.667	122.94
230.901	116.94
231.136	125.94
231.37	126.94
231.604	114.94
231.838	110.94
232.072	117.94
232.306	124.94
232.541	114.94
232.775	107.94
233.009	116.94
233.243	121.94
233.477	113.94
233.711	99.94
233.945	115.94
234.179	120.94
234.413	121.94
234.647	114.94
234.881	129.94
235.115	133.94
235.349	124.94
235.583	129.94
235.817	122.94
236.051	133.94
236.285	145.94
236.519	123.94
236.753	132.94
236.987	145.94
237.221	195.94
237.455	237.94
237.689	202.94
237.922	137.94
238.156	145.94
238.39	138.94
238.624	104.94
238.858	134.94
239.091	125.94
239.325	143.94
239.559	139.94
239.793	132.94
240.027	157.94
240.26	145.94
240.494	161.94
240.728	157.94
240.961	163.94
241.195	157.94
241.429	144.94
241.662	146.94
241.896	139.94
242.13	152.94
242.363	151.94
242.597	149.94
242.83	155.94
243.064	141.94
243.298	147.94
243.531	153.94
243.765	152.94
243.998	165.94
244.232	157.94
244.465	152.94
244.699	154.94
244.932	152.94
245.166	140.94
245.399	161.94
245.633	166.94
245.866	166.94
246.099	148.94
246.333	159.94
246.566	168.94
246.8	171.94
247.033	179.94
247.266	166.94
247.5	158.94
247.733	177.94
247.966	185.94
248.2	180.94
248.433	191.94
248.666	198.94
248.899	195.94
249.133	198.94
249.366	206.94
249.599	188.94
249.832	200.94
250.066	193.94
250.299	215.94
250.532	207.94
250.765	221.94
250.998	226.94
251.231	233.94
251.465	220.94
251.698	222.94
251.931	209.94
252.164	210.94
252.397	221.94
252.63	207.94
252.863	218.94
253.096	225.94
253.329	219.94
253.562	245.94
253.795	246.94
254.028	223.94
254.261	216.94
254.494	238.94
254.727	257.94
254.96	308.94
255.193	306.94
255.426	250.94
255.659	249.94
255.892	244.94
256.124	246.94
256.357	233.94
256.59	239.94
256.823	227.94
257.056	243.94
257.289	216.94
257.521	230.94
257.754	242.94
257.987	234.94
258.22	210.94
258.452	220.94
258.685	210.94
258.918	211.94
259.151	219.94
259.383	229.94
259.616	235.94
259.849	239.94
260.081	255.94
260.314	268.94
260.547	275.94
260.779	257.94
261.012	246.94
261.244	237.94
261.477	224.94
261.71	236.94
261.942	244.94
262.175	252.94
262.407	234.94
262.64	226.94
262.872	225.94
263.105	246.94
263.337	223.94
263.57	235.94
263.802	236.94
264.035	226.94
264.267	231.94
264.499	228.94
264.732	241.94
264.964	225.94
265.197	243.94
265.429	234.94
265.661	221.94
265.894	243.94
266.126	237.94
266.358	239.94
266.591	239.94
266.823	245.94
267.055	259.94
267.287	257.94
267.52	255.94
267.752	239.94
267.984	243.94
268.216	266.94
268.448	277.94
268.681	246.94
268.913	274.94
269.145	265.94
269.377	295.94
269.609	290.94
269.841	303.94
270.073	276.94
270.306	315.94
270.538	348.94
270.77	346.94
271.002	335.94
271.234	310.94
271.466	331.94
271.698	320.94
271.93	335.94
272.162	343.94
272.394	326.94
272.626	329.94
272.858	309.94
273.09	303.94
273.322	299.94
273.553	260.94
273.785	291.94
274.017	301.94
274.249	297.94
274.481	268.94
274.713	298.94
274.945	295.94
275.176	287.94
275.408	274.94
275.64	295.94
275.872	283.94
276.104	301.94
276.335	291.94
276.567	300.94
276.799	306.94
277.031	314.94
277.262	325.94
277.494	347.94
277.726	312.94
277.957	307.94
278.189	302.94
278.421	293.94
278.652	298.94
278.884	287.94
279.115	307.94
279.347	304.94
279.579	305.94
279.81	303.94
280.042	293.94
280.273	282.94
280.505	272.94
280.736	287.94
280.968	298.94
281.199	318.94
281.431	289.94
281.662	287.94
281.894	286.94
282.125	299.94
282.356	315.94
282.588	323.94
282.819	324.94
283.051	302.94
283.282	291.94
283.513	307.94
283.745	308.94
283.976	302.94
284.207	313.94
284.439	309.94
284.67	319.94
284.901	331.94
285.132	317.94
285.364	313.94
285.595	321.94
285.826	314.94
286.057	319.94
286.288	301.94
286.52	309.94
286.751	280.94
286.982	309.94
287.213	311.94
287.444	315.94
287.675	323.94
287.906	325.94
288.138	350.94
288.369	347.94
288.6	343.94
288.831	309.94
289.062	317.94
289.293	332.94
289.524	338.94
289.755	315.94
289.986	332.94
290.217	338.94
290.448	316.94
290.679	312.94
290.91	313.94
291.141	306.94
291.371	313.94
291.602	327.94
291.833	342.94
292.064	331.94
292.295	327.94
292.526	328.94
292.757	319.94
292.987	325.94
293.218	330.94
293.449	323.94
293.68	330.94
293.91	328.94
294.141	331.94
294.372	326.94
294.603	322.94
294.833	337.94
295.064	328.94
295.295	345.94
295.525	329.94
295.756	319.94
295.987	341.94
296.217	356.94
296.448	366.94
296.679	358.94
296.909	325.94
297.14	307.94
297.37	327.94
297.601	342.94
297.831	330.94
298.062	339.94
298.292	348.94
298.523	340.94
298.753	351.94
298.984	339.94
299.214	332.94
299.445	343.94
299.675	342.94
299.905	341.94
300.136	344.94
300.366	342.94
300.597	374.94
300.827	351.94
301.057	349.94
301.288	361.94
301.518	352.94
301.748	353.94
301.979	353.94
302.209	355.94
302.439	359.94
302.669	359.94
302.9	364.94
303.13	357.94
303.36	357.94
303.59	378.94
303.82	371.94
304.051	377.94
304.281	384.94
304.511	373.94
304.741	376.94
304.971	351.94
305.201	362.94
305.431	348.94
305.661	373.94
305.891	348.94
306.121	373.94
306.352	373.94
306.582	372.94
306.812	384.94
307.042	373.94
307.272	359.94
307.502	377.94
307.731	350.94
307.961	348.94
308.191	370.94
308.421	371.94
308.651	362.94
308.881	367.94
309.111	359.94
309.341	356.94
309.571	394.94
309.8	377.94
310.03	385.94
310.26	379.94
310.49	411.94
310.72	408.94
310.949	416.94
311.179	406.94
311.409	412.94
311.639	390.94
311.868	371.94
312.098	407.94
312.328	399.94
312.557	417.94
312.787	438.94
313.017	437.94
313.246	425.94
313.476	394.94
313.706	413.94
313.935	414.94
314.165	421.94
314.394	426.94
314.624	435.94
314.853	417.94
315.083	414.94
315.312	426.94
315.542	414.94
315.771	411.94
316.001	398.94
316.23	406.94
316.46	421.94
316.689	423.94
316.919	411.94
317.148	413.94
317.377	404.94
317.607	429.94
317.836	415.94
318.065	411.94
318.295	442.94
318.524	407.94
318.753	391.94
318.983	413.94
319.212	410.94
319.441	427.94
319.67	418.94
319.9	384.94
320.129	407.94
320.358	395.94
320.587	424.94
320.816	443.94
321.046	435.94
321.275	422.94
321.504	415.94
321.733	417.94
321.962	414.94
322.191	466.94
322.42	467.94
322.649	463.94
322.878	468.94
323.108	469.94
323.337	493.94
323.566	531.94
323.795	523.94
324.024	575.94
324.253	664.94
324.482	893.94
324.71	1325.94
324.939	1943.94
325.168	1745.94
325.397	874.94
325.626	651.94
325.855	554.94
326.084	528.94
326.313	497.94
326.542	536.94
326.77	552.94
326.999	633.94
327.228	806.94
327.457	1187.94
327.686	1516.94
327.914	1021.94
328.143	713.94
328.372	626.94
328.6	599.94
328.829	554.94
329.058	570.94
329.287	573.94
329.515	567.94
329.744	527.94
329.972	523.94
330.201	520.94
330.43	570.94
330.658	620.94
330.887	635.94
331.115	598.94
331.344	550.94
331.572	517.94
331.801	518.94
332.03	541.94
332.258	520.94
332.486	513.94
332.715	502.94
332.943	499.94
333.172	501.94
333.4	537.94
333.629	514.94
333.857	536.94
334.085	539.94
334.314	568.94
334.542	587.94
334.771	620.94
334.999	578.94
335.227	554.94
335.455	502.94
335.684	518.94
335.912	516.94
336.14	478.94
336.369	512.94
336.597	498.94
336.825	524.94
337.053	505.94
337.281	506.94
337.51	500.94
337.738	493.94
337.966	486.94
338.194	501.94
338.422	475.94
338.65	479.94
338.878	459.94
339.106	476.94
339.334	482.94
339.562	476.94
339.79	475.94
340.018	470.94
340.246	497.94
340.474	477.94
340.702	475.94
340.93	480.94
341.158	473.94
341.386	476.94
341.614	486.94
341.842	476.94
342.07	471.94
342.298	474.94
342.526	473.94
342.754	470.94
342.981	463.94
343.209	452.94
343.437	476.94
343.665	478.94
343.893	494.94
344.12	502.94
344.348	491.94
344.576	495.94
344.804	486.94
345.031	482.94
345.259	496.94
345.487	479.94
345.714	474.94
345.942	468.94
346.17	476.94
346.397	464.94
346.625	473.94
346.853	457.94
347.08	451.94
347.308	469.94
347.535	447.94
347.763	462.94
347.99	462.94
348.218	486.94
348.445	469.94
348.673	460.94
348.9	471.94
349.128	471.94
349.355	443.94
349.583	455.94
349.81	435.94
350.037	469.94
350.265	453.94
350.492	437.94
350.72	473.94
350.947	457.94
351.174	467.94
351.402	490.94
351.629	463.94
351.856	451.94
352.083	470.94
352.311	455.94
352.538	467.94
352.765	486.94
352.992	466.94
353.22	465.94
353.447	456.94
353.674	451.94
353.901	440.94
354.128	446.94
354.355	453.94
354.583	446.94
354.81	442.94
355.037	446.94
355.264	449.94
355.491	435.94
355.718	444.94
355.945	441.94
356.172	425.94
356.399	435.94
356.626	443.94
356.853	450.94
357.08	440.94
357.307	428.94
357.534	447.94
357.761	430.94
357.988	433.94
358.215	432.94
358.441	455.94
358.668	437.94
358.895	449.94
359.122	469.94
359.349	446.94
359.576	459.94
359.802	480.94
360.029	490.94
360.256	514.94
360.483	482.94
360.709	468.94
360.936	465.94
361.163	461.94
361.39	491.94
361.616	468.94
361.843	456.94
362.07	448.94
362.296	486.94
362.523	441.94
362.749	465.94
362.976	472.94
363.203	450.94
363.429	440.94
363.656	443.94
363.882	432.94
364.109	437.94
364.335	446.94
364.562	452.94
364.788	467.94
365.015	445.94
365.241	454.94
365.468	460.94
365.694	476.94
365.92	453.94
366.147	457.94
366.373	444.94
366.599	443.94
366.826	447.94
367.052	453.94
367.278	452.94
367.505	462.94
367.731	462.94
367.957	449.94
368.184	463.94
368.41	451.94
368.636	458.94
368.862	477.94
369.089	469.94
369.315	461.94
369.541	459.94
369.767	447.94
369.993	454.94
370.219	451.94
370.445	437.94
370.672	452.94
370.898	466.94
371.124	460.94
371.35	449.94
371.576	445.94
371.802	482.94
372.028	467.94
372.254	470.94
372.48	454.94
372.706	444.94
372.932	477.94
373.158	463.94
373.384	461.94
373.61	466.94
373.835	465.94
374.061	453.94
374.287	451.94
374.513	458.94
374.739	489.94
374.965	490.94
375.191	470.94
375.416	481.94
375.642	473.94
375.868	478.94
376.094	488.94
376.319	449.94
376.545	459.94
376.771	477.94
376.997	458.94
377.222	454.94
377.448	455.94
377.674	459.94
377.899	456.94
378.125	460.94
378.35	433.94
378.576	457.94
378.802	457.94
379.027	461.94
379.253	453.94
379.478	472.94
379.704	463.94
379.929	462.94
380.155	464.94
380.38	461.94
380.606	486.94
380.831	454.94
381.057	455.94
381.282	479.94
381.507	486.94
381.733	475.94
381.958	472.94
382.184	457.94
382.409	458.94
382.634	475.94
382.86	472.94
383.085	477.94
383.31	504.94
383.535	487.94
383.761	481.94
383.986	476.94
384.211	489.94
384.436	485.94
384.662	483.94
384.887	499.94
385.112	504.94
385.337	489.94
385.562	485.94
385.787	519.94
386.013	530.94
386.238	517.94
386.463	519.94
386.688	505.94
386.913	497.94
387.138	526.94
387.363	522.94
387.588	507.94
387.813	519.94
388.038	538.94
388.263	505.94
388.488	524.94
388.713	526.94
388.938	498.94
389.163	510.94
389.387	512.94
389.612	542.94
389.837	491.94
390.062	529.94
390.287	505.94
390.512	518.94
390.736	515.94
390.961	530.94
391.186	538.94
391.411	530.94
391.636	543.94
391.86	530.94
392.085	533.94
392.31	549.94
392.534	524.94
392.759	521.94
392.984	547.94
393.208	533.94
393.433	547.94
393.658	541.94
393.882	527.94
394.107	520.94
394.331	538.94
394.556	525.94
394.78	544.94
395.005	531.94
395.229	514.94
395.454	555.94
395.678	570.94
395.903	555.94
396.127	593.94
396.352	553.94
396.576	542.94
396.801	550.94
397.025	536.94
397.249	549.94
397.474	565.94
397.698	553.94
397.922	573.94
398.147	615.94
398.371	588.94
398.595	599.94
398.82	577.94
399.044	602.94
399.268	635.94
399.492	680.94
399.717	739.94
399.941	744.94
400.165	761.94
400.389	767.94
400.613	709.94
400.837	641.94
401.062	615.94
401.286	628.94
401.51	601.94
401.734	593.94
401.958	595.94
402.182	618.94
402.406	606.94
402.63	605.94
402.854	611.94
403.078	624.94
403.302	619.94
403.526	637.94
403.75	637.94
403.974	643.94
404.198	623.94
404.422	639.94
404.645	650.94
404.869	647.94
405.093	683.94
405.317	716.94
405.541	747.94
405.765	667.94
405.988	644.94
406.212	660.94
406.436	681.94
406.66	696.94
406.883	678.94
407.107	725.94
407.331	768.94
407.555	820.94
407.778	838.94
408.002	733.94
408.226	722.94
408.449	698.94
408.673	708.94
408.896	691.94
409.12	737.94
409.344	725.94
409.567	638.94
409.791	652.94
410.014	631.94
410.238	625.94
410.461	635.94
410.685	640.94
410.908	674.94
411.132	692.94
411.355	707.94
411.578	707.94
411.802	627.94
412.025	643.94
412.249	629.94
412.472	672.94
412.695	721.94
412.919	699.94
413.142	639.94
413.365	621.94
413.589	627.94
413.812	623.94
414.035	611.94
414.258	585.94
414.482	582.94
414.705	602.94
414.928	612.94
415.151	608.94
415.374	609.94
415.597	599.94
415.821	629.94
416.044	621.94
416.267	618.94
416.49	591.94
416.713	585.94
416.936	591.94
417.159	616.94
417.382	606.94
417.605	601.94
417.828	606.94
418.051	615.94
418.274	620.94
418.497	604.94
418.72	618.94
418.943	600.94
419.166	625.94
419.389	636.94
419.611	664.94
419.834	654.94
420.057	629.94
420.28	627.94
420.503	642.94
420.726	628.94
420.948	644.94
421.171	674.94
421.394	691.94
421.617	661.94
421.839	601.94
422.062	645.94
422.285	622.94
422.507	695.94
422.73	807.94
422.953	760.94
423.175	691.94
423.398	641.94
423.621	658.94
423.843	676.94
424.066	701.94
424.288	671.94
424.511	667.94
424.733	735.94
424.956	830.94
425.178	789.94
425.401	794.94
425.623	786.94
425.846	698.94
426.068	663.94
426.291	641.94
426.513	643.94
426.735	675.94
426.958	686.94
427.18	790.94
427.402	908.94
427.625	989.94
427.847	873.94
428.069	762.94
428.292	699.94
428.514	654.94
428.736	618.94
428.958	621.94
429.181	614.94
429.403	607.94
429.625	617.94
429.847	659.94
430.069	740.94
430.292	712.94
430.514	646.94
430.736	615.94
430.958	581.94
431.18	576.94
431.402	591.94
431.624	593.94
431.846	546.94
432.068	589.94
432.29	587.94
432.512	598.94
432.734	592.94
432.956	577.94
433.178	588.94
433.4	602.94
433.622	597.94
433.844	595.94
434.066	582.94
434.287	597.94
434.509	581.94
434.731	619.94
434.953	617.94
435.175	638.94
435.397	664.94
435.618	674.94
435.84	695.94
436.062	819.94
436.284	854.94
436.505	722.94
436.727	680.94
436.949	643.94
437.17	613.94
437.392	605.94
437.614	620.94
437.835	641.94
438.057	772.94
438.278	849.94
438.5	842.94
438.721	916.94
438.943	911.94
439.165	713.94
439.386	666.94
439.608	674.94
439.829	659.94
440.05	680.94
440.272	725.94
440.493	675.94
440.715	634.94
440.936	616.94
441.158	624.94
441.379	622.94
441.6	615.94
441.822	638.94
442.043	700.94
442.264	791.94
442.486	843.94
442.707	743.94
442.928	662.94
443.149	689.94
443.371	713.94
443.592	747.94
443.813	851.94
444.034	934.94
444.255	805.94
444.476	729.94
444.698	699.94
444.919	677.94
445.14	776.94
445.361	714.94
445.582	701.94
445.803	782.94
446.024	861.94
446.245	875.94
446.466	795.94
446.687	720.94
446.908	651.94
447.129	629.94
447.35	604.94
447.571	585.94
447.792	590.94
448.013	591.94
448.234	614.94
448.455	676.94
448.675	802.94
448.896	912.94
449.117	790.94
449.338	732.94
449.559	821.94
449.779	965.94
450	789.94
450.221	661.94
450.442	600.94
450.662	595.94
450.883	583.94
451.104	611.94
451.324	571.94
451.545	577.94
451.766	574.94
451.986	531.94
452.207	539.94
452.428	538.94
452.648	537.94
452.869	546.94
453.089	533.94
453.31	555.94
453.53	555.94
453.751	510.94
453.971	543.94
454.192	570.94
454.412	543.94
454.633	511.94
454.853	534.94
455.073	512.94
455.294	547.94
455.514	609.94
455.734	628.94
455.955	555.94
456.175	513.94
456.395	512.94
456.616	489.94
456.836	503.94
457.056	493.94
457.276	521.94
457.497	508.94
457.717	512.94
457.937	514.94
458.157	529.94
458.377	509.94
458.598	545.94
458.818	585.94
459.038	668.94
459.258	732.94
459.478	620.94
459.698	590.94
459.918	567.94
460.138	590.94
460.358	587.94
460.578	606.94
460.798	611.94
461.018	611.94
461.238	604.94
461.458	579.94
461.678	617.94
461.898	595.94
462.118	609.94
462.338	594.94
462.558	627.94
462.777	639.94
462.997	651.94
463.217	693.94
463.437	681.94
463.657	668.94
463.876	657.94
464.096	667.94
464.316	655.94
464.536	652.94
464.755	634.94
464.975	630.94
465.195	663.94
465.414	724.94
465.634	647.94
465.854	612.94
466.073	583.94
466.293	592.94
466.512	558.94
466.732	586.94
466.951	578.94
467.171	574.94
467.391	587.94
467.61	574.94
467.829	566.94
468.049	563.94
468.268	558.94
468.488	574.94
468.707	547.94
468.927	531.94
469.146	531.94
469.365	556.94
469.585	546.94
469.804	546.94
470.023	597.94
470.243	595.94
470.462	596.94
470.681	591.94
470.901	598.94
471.12	555.94
471.339	574.94
471.558	581.94
471.777	565.94
471.997	567.94
472.216	560.94
472.435	599.94
472.654	579.94
472.873	553.94
473.092	557.94
473.311	562.94
473.53	538.94
473.749	555.94
473.968	619.94
474.187	701.94
474.406	742.94
474.625	625.94
474.844	580.94
475.063	563.94
475.282	561.94
475.501	561.94
475.72	597.94
475.939	561.94
476.158	555.94
476.377	557.94
476.596	578.94
476.814	587.94
477.033	602.94
477.252	593.94
477.471	589.94
477.69	609.94
477.908	582.94
478.127	617.94
478.346	625.94
478.564	651.94
478.783	625.94
479.002	659.94
479.22	663.94
479.439	661.94
479.658	672.94
479.876	685.94
480.095	669.94
480.313	737.94
480.532	712.94
480.751	715.94
480.969	698.94
481.188	737.94
481.406	771.94
481.624	701.94
481.843	683.94
482.061	689.94
482.28	684.94
482.498	676.94
482.717	658.94
482.935	647.94
483.153	645.94
483.372	670.94
483.59	676.94
483.808	669.94
484.027	662.94
484.245	661.94
484.463	670.94
484.681	655.94
484.9	662.94
485.118	674.94
485.336	665.94
485.554	685.94
485.772	682.94
485.99	683.94
486.209	667.94
486.427	682.94
486.645	704.94
486.863	702.94
487.081	710.94
487.299	725.94
487.517	734.94
487.735	714.94
487.953	711.94
488.171	688.94
488.389	696.94
488.607	707.94
488.825	722.94
489.043	692.94
489.261	710.94
489.479	733.94
489.696	707.94
489.914	753.94
490.132	739.94
490.35	757.94
490.568	765.94
490.786	765.94
491.003	780.94
491.221	793.94
491.439	769.94
491.657	798.94
491.874	807.94
492.092	809.94
492.31	804.94
492.527	837.94
492.745	821.94
492.963	845.94
493.18	824.94
493.398	835.94
493.615	856.94
493.833	821.94
494.05	845.94
494.268	829.94
494.485	856.94
494.703	833.94
494.92	821.94
495.138	840.94
495.355	838.94
495.573	851.94
495.79	833.94
496.008	872.94
496.225	874.94
496.442	862.94
496.66	878.94
496.877	850.94
497.094	853.94
497.312	855.94
497.529	901.94
497.746	862.94
497.963	910.94
498.181	925.94
498.398	913.94
498.615	962.94
498.832	986.94
499.049	1006.94
499.267	1030.94
499.484	1098.94
499.701	1163.94
499.918	1191.94
500.135	1258.94
500.352	1309.94
500.569	1357.94
500.786	1364.94
501.003	1341.94
501.22	1286.94
501.437	1197.94
501.654	1173.94
