Data from 1974.PennyLincolnUp.Lamp.En5.5.200Scan.071719.P1.Changed Mount._HRD10591_15-51-58-857.txt Node
Date: Thu Jul 18 15:51:58 EDT 2019
User: cochatt
Spectrometer: HR+D1059
Trigger mode: 1
Integration Time (sec): 1.000000E-1
Scans to average: 1
Electric dark correction enabled: true
Nonlinearity correction enabled: false
Boxcar width: 0
XAxis mode: Wavelengths
Number of Pixels in Spectrum: 2048
>>>>>Begin Spectral Data<<<<<
223.165	-16.44
223.4	-16.44
223.635	-16.44
223.869	-23.44
224.104	-16.44
224.338	-3.44
224.573	-11.44
224.808	-18.44
225.042	2.56
225.277	-7.44
225.511	5.56
225.746	-1.44
225.98	-11.44
226.215	7.56
226.449	13.56
226.683	23.56
226.918	22.56
227.152	34.56
227.387	39.56
227.621	39.56
227.856	39.56
228.09	40.56
228.324	51.56
228.559	57.56
228.793	80.56
229.027	100.56
229.262	103.56
229.496	116.56
229.73	134.56
229.964	152.56
230.199	132.56
230.433	117.56
230.667	117.56
230.901	129.56
231.136	118.56
231.37	116.56
231.604	118.56
231.838	123.56
232.072	110.56
232.306	126.56
232.541	124.56
232.775	114.56
233.009	120.56
233.243	112.56
233.477	127.56
233.711	121.56
233.945	130.56
234.179	138.56
234.413	126.56
234.647	123.56
234.881	106.56
235.115	132.56
235.349	106.56
235.583	130.56
235.817	127.56
236.051	133.56
236.285	131.56
236.519	127.56
236.753	133.56
236.987	125.56
237.221	169.56
237.455	220.56
237.689	181.56
237.922	150.56
238.156	132.56
238.39	145.56
238.624	114.56
238.858	138.56
239.091	141.56
239.325	119.56
239.559	118.56
239.793	144.56
240.027	140.56
240.26	140.56
240.494	170.56
240.728	154.56
240.961	163.56
241.195	151.56
241.429	152.56
241.662	145.56
241.896	146.56
242.13	135.56
242.363	124.56
242.597	135.56
242.83	138.56
243.064	136.56
243.298	150.56
243.531	149.56
243.765	149.56
243.998	160.56
244.232	157.56
244.465	154.56
244.699	164.56
244.932	165.56
245.166	148.56
245.399	162.56
245.633	163.56
245.866	170.56
246.099	157.56
246.333	183.56
246.566	154.56
246.8	156.56
247.033	171.56
247.266	175.56
247.5	167.56
247.733	176.56
247.966	176.56
248.2	167.56
248.433	171.56
248.666	204.56
248.899	194.56
249.133	196.56
249.366	215.56
249.599	196.56
249.832	199.56
250.066	180.56
250.299	185.56
250.532	197.56
250.765	194.56
250.998	220.56
251.231	247.56
251.465	225.56
251.698	209.56
251.931	215.56
252.164	193.56
252.397	210.56
252.63	205.56
252.863	222.56
253.096	237.56
253.329	229.56
253.562	219.56
253.795	218.56
254.028	220.56
254.261	226.56
254.494	244.56
254.727	231.56
254.96	278.56
255.193	279.56
255.426	256.56
255.659	245.56
255.892	250.56
256.124	222.56
256.357	251.56
256.59	223.56
256.823	220.56
257.056	235.56
257.289	212.56
257.521	214.56
257.754	218.56
257.987	211.56
258.22	235.56
258.452	222.56
258.685	219.56
258.918	219.56
259.151	243.56
259.383	225.56
259.616	226.56
259.849	243.56
260.081	236.56
260.314	246.56
260.547	254.56
260.779	232.56
261.012	229.56
261.244	238.56
261.477	233.56
261.71	225.56
261.942	232.56
262.175	231.56
262.407	237.56
262.64	224.56
262.872	229.56
263.105	231.56
263.337	229.56
263.57	218.56
263.802	245.56
264.035	214.56
264.267	223.56
264.499	229.56
264.732	218.56
264.964	236.56
265.197	232.56
265.429	243.56
265.661	203.56
265.894	221.56
266.126	231.56
266.358	237.56
266.591	240.56
266.823	227.56
267.055	221.56
267.287	240.56
267.52	244.56
267.752	232.56
267.984	229.56
268.216	249.56
268.448	243.56
268.681	244.56
268.913	258.56
269.145	270.56
269.377	273.56
269.609	278.56
269.841	269.56
270.073	282.56
270.306	284.56
270.538	299.56
270.77	297.56
271.002	303.56
271.234	282.56
271.466	300.56
271.698	294.56
271.93	318.56
272.162	312.56
272.394	319.56
272.626	319.56
272.858	290.56
273.09	293.56
273.322	282.56
273.553	268.56
273.785	281.56
274.017	282.56
274.249	271.56
274.481	284.56
274.713	268.56
274.945	280.56
275.176	276.56
275.408	279.56
275.64	272.56
275.872	264.56
276.104	261.56
276.335	277.56
276.567	287.56
276.799	277.56
277.031	314.56
277.262	324.56
277.494	332.56
277.726	303.56
277.957	315.56
278.189	299.56
278.421	292.56
278.652	282.56
278.884	286.56
279.115	288.56
279.347	281.56
279.579	290.56
279.81	291.56
280.042	280.56
280.273	278.56
280.505	294.56
280.736	306.56
280.968	280.56
281.199	252.56
281.431	299.56
281.662	296.56
281.894	282.56
282.125	297.56
282.356	307.56
282.588	318.56
282.819	320.56
283.051	294.56
283.282	297.56
283.513	278.56
283.745	295.56
283.976	315.56
284.207	318.56
284.439	294.56
284.67	276.56
284.901	286.56
285.132	310.56
285.364	300.56
285.595	311.56
285.826	303.56
286.057	295.56
286.288	288.56
286.52	317.56
286.751	298.56
286.982	287.56
287.213	299.56
287.444	297.56
287.675	298.56
287.906	300.56
288.138	299.56
288.369	311.56
288.6	330.56
288.831	311.56
289.062	311.56
289.293	312.56
289.524	304.56
289.755	317.56
289.986	295.56
290.217	323.56
290.448	309.56
290.679	318.56
290.91	304.56
291.141	306.56
291.371	316.56
291.602	315.56
291.833	292.56
292.064	316.56
292.295	323.56
292.526	328.56
292.757	299.56
292.987	316.56
293.218	299.56
293.449	320.56
293.68	320.56
293.91	308.56
294.141	311.56
294.372	322.56
294.603	312.56
294.833	323.56
295.064	299.56
295.295	301.56
295.525	303.56
295.756	327.56
295.987	312.56
296.217	344.56
296.448	355.56
296.679	341.56
296.909	334.56
297.14	329.56
297.37	343.56
297.601	324.56
297.831	338.56
298.062	306.56
298.292	328.56
298.523	341.56
298.753	335.56
298.984	324.56
299.214	329.56
299.445	341.56
299.675	340.56
299.905	324.56
300.136	327.56
300.366	351.56
300.597	322.56
300.827	326.56
301.057	332.56
301.288	344.56
301.518	330.56
301.748	357.56
301.979	365.56
302.209	355.56
302.439	366.56
302.669	351.56
302.9	343.56
303.13	338.56
303.36	351.56
303.59	368.56
303.82	376.56
304.051	353.56
304.281	349.56
304.511	356.56
304.741	358.56
304.971	334.56
305.201	341.56
305.431	343.56
305.661	329.56
305.891	336.56
306.121	358.56
306.352	349.56
306.582	356.56
306.812	356.56
307.042	365.56
307.272	344.56
307.502	356.56
307.731	344.56
307.961	354.56
308.191	358.56
308.421	373.56
308.651	357.56
308.881	370.56
309.111	350.56
309.341	360.56
309.571	356.56
309.8	363.56
310.03	386.56
310.26	368.56
310.49	370.56
310.72	386.56
310.949	385.56
311.179	381.56
311.409	395.56
311.639	395.56
311.868	392.56
312.098	394.56
312.328	395.56
312.557	376.56
312.787	418.56
313.017	419.56
313.246	388.56
313.476	386.56
313.706	386.56
313.935	395.56
314.165	386.56
314.394	418.56
314.624	411.56
314.853	383.56
315.083	402.56
315.312	386.56
315.542	400.56
315.771	376.56
316.001	381.56
316.23	392.56
316.46	388.56
316.689	376.56
316.919	400.56
317.148	405.56
317.377	416.56
317.607	382.56
317.836	389.56
318.065	402.56
318.295	375.56
318.524	403.56
318.753	384.56
318.983	393.56
319.212	400.56
319.441	393.56
319.67	408.56
319.9	391.56
320.129	403.56
320.358	389.56
320.587	399.56
320.816	407.56
321.046	418.56
321.275	411.56
321.504	427.56
321.733	403.56
321.962	415.56
322.191	423.56
322.42	439.56
322.649	427.56
322.878	428.56
323.108	439.56
323.337	453.56
323.566	463.56
323.795	476.56
324.024	540.56
324.253	590.56
324.482	780.56
324.71	1148.56
324.939	1695.56
325.168	1481.56
325.397	786.56
325.626	576.56
325.855	520.56
326.084	472.56
326.313	462.56
326.542	468.56
326.77	524.56
326.999	552.56
327.228	723.56
327.457	1082.56
327.686	1307.56
327.914	897.56
328.143	602.56
328.372	565.56
328.6	542.56
328.829	516.56
329.058	532.56
329.287	549.56
329.515	505.56
329.744	485.56
329.972	490.56
330.201	508.56
330.43	526.56
330.658	552.56
330.887	559.56
331.115	549.56
331.344	499.56
331.572	480.56
331.801	486.56
332.03	483.56
332.258	483.56
332.486	454.56
332.715	467.56
332.943	486.56
333.172	496.56
333.4	494.56
333.629	520.56
333.857	500.56
334.085	507.56
334.314	530.56
334.542	550.56
334.771	531.56
334.999	512.56
335.227	522.56
335.455	515.56
335.684	470.56
335.912	489.56
336.14	479.56
336.369	458.56
336.597	499.56
336.825	470.56
337.053	474.56
337.281	488.56
337.51	466.56
337.738	468.56
337.966	458.56
338.194	447.56
338.422	466.56
338.65	457.56
338.878	461.56
339.106	465.56
339.334	470.56
339.562	458.56
339.79	464.56
340.018	449.56
340.246	444.56
340.474	471.56
340.702	452.56
340.93	457.56
341.158	430.56
341.386	439.56
341.614	440.56
341.842	473.56
342.07	457.56
342.298	456.56
342.526	450.56
342.754	438.56
342.981	445.56
343.209	446.56
343.437	459.56
343.665	479.56
343.893	471.56
344.12	478.56
344.348	468.56
344.576	473.56
344.804	469.56
345.031	464.56
345.259	467.56
345.487	441.56
345.714	470.56
345.942	439.56
346.17	468.56
346.397	456.56
346.625	446.56
346.853	459.56
347.08	438.56
347.308	450.56
347.535	440.56
347.763	448.56
347.99	448.56
348.218	437.56
348.445	447.56
348.673	454.56
348.9	444.56
349.128	439.56
349.355	429.56
349.583	435.56
349.81	430.56
350.037	420.56
350.265	416.56
350.492	442.56
350.72	450.56
350.947	444.56
351.174	429.56
351.402	419.56
351.629	430.56
351.856	450.56
352.083	436.56
352.311	435.56
352.538	445.56
352.765	451.56
352.992	454.56
353.22	440.56
353.447	428.56
353.674	414.56
353.901	431.56
354.128	432.56
354.355	423.56
354.583	416.56
354.81	418.56
355.037	415.56
355.264	401.56
355.491	423.56
355.718	424.56
355.945	427.56
356.172	434.56
356.399	409.56
356.626	405.56
356.853	402.56
357.08	404.56
357.307	409.56
357.534	409.56
357.761	421.56
357.988	426.56
358.215	434.56
358.441	430.56
358.668	416.56
358.895	440.56
359.122	425.56
359.349	431.56
359.576	432.56
359.802	457.56
360.029	466.56
360.256	484.56
360.483	458.56
360.709	458.56
360.936	453.56
361.163	440.56
361.39	428.56
361.616	438.56
361.843	428.56
362.07	428.56
362.296	428.56
362.523	446.56
362.749	448.56
362.976	424.56
363.203	428.56
363.429	426.56
363.656	415.56
363.882	446.56
364.109	438.56
364.335	427.56
364.562	419.56
364.788	404.56
365.015	422.56
365.241	426.56
365.468	448.56
365.694	428.56
365.92	426.56
366.147	435.56
366.373	420.56
366.599	442.56
366.826	415.56
367.052	420.56
367.278	426.56
367.505	415.56
367.731	426.56
367.957	425.56
368.184	450.56
368.41	433.56
368.636	445.56
368.862	468.56
369.089	446.56
369.315	443.56
369.541	414.56
369.767	441.56
369.993	402.56
370.219	435.56
370.445	429.56
370.672	457.56
370.898	467.56
371.124	450.56
371.35	438.56
371.576	440.56
371.802	438.56
372.028	450.56
372.254	459.56
372.48	454.56
372.706	471.56
372.932	438.56
373.158	428.56
373.384	444.56
373.61	437.56
373.835	438.56
374.061	439.56
374.287	463.56
374.513	460.56
374.739	461.56
374.965	455.56
375.191	451.56
375.416	473.56
375.642	467.56
375.868	435.56
376.094	463.56
376.319	434.56
376.545	445.56
376.771	445.56
376.997	443.56
377.222	428.56
377.448	444.56
377.674	459.56
377.899	438.56
378.125	446.56
378.35	440.56
378.576	448.56
378.802	441.56
379.027	453.56
379.253	429.56
379.478	443.56
379.704	436.56
379.929	446.56
380.155	436.56
380.38	439.56
380.606	448.56
380.831	461.56
381.057	424.56
381.282	436.56
381.507	446.56
381.733	440.56
381.958	446.56
382.184	435.56
382.409	482.56
382.634	470.56
382.86	441.56
383.085	470.56
383.31	441.56
383.535	474.56
383.761	473.56
383.986	488.56
384.211	499.56
384.436	483.56
384.662	487.56
384.887	478.56
385.112	517.56
385.337	490.56
385.562	491.56
385.787	517.56
386.013	514.56
386.238	506.56
386.463	503.56
386.688	499.56
386.913	495.56
387.138	494.56
387.363	488.56
387.588	494.56
387.813	518.56
388.038	498.56
388.263	507.56
388.488	481.56
388.713	496.56
388.938	517.56
389.163	508.56
389.387	508.56
389.612	503.56
389.837	514.56
390.062	495.56
390.287	508.56
390.512	493.56
390.736	508.56
390.961	507.56
391.186	505.56
391.411	518.56
391.636	514.56
391.86	533.56
392.085	493.56
392.31	545.56
392.534	542.56
392.759	526.56
392.984	500.56
393.208	495.56
393.433	522.56
393.658	526.56
393.882	503.56
394.107	498.56
394.331	527.56
394.556	518.56
394.78	490.56
395.005	514.56
395.229	505.56
395.454	531.56
395.678	545.56
395.903	534.56
396.127	537.56
396.352	536.56
396.576	524.56
396.801	524.56
397.025	520.56
397.249	534.56
397.474	538.56
397.698	544.56
397.922	553.56
398.147	552.56
398.371	578.56
398.595	570.56
398.82	582.56
399.044	599.56
399.268	615.56
399.492	674.56
399.717	696.56
399.941	712.56
400.165	724.56
400.389	696.56
400.613	654.56
400.837	626.56
401.062	610.56
401.286	599.56
401.51	593.56
401.734	584.56
401.958	592.56
402.182	606.56
402.406	613.56
402.63	607.56
402.854	589.56
403.078	587.56
403.302	607.56
403.526	613.56
403.75	629.56
403.974	644.56
404.198	584.56
404.422	616.56
404.645	618.56
404.869	634.56
405.093	664.56
405.317	706.56
405.541	712.56
405.765	653.56
405.988	631.56
406.212	650.56
406.436	651.56
406.66	640.56
406.883	651.56
407.107	696.56
407.331	733.56
407.555	789.56
407.778	802.56
408.002	733.56
408.226	674.56
408.449	671.56
408.673	672.56
408.896	670.56
409.12	733.56
409.344	706.56
409.567	629.56
409.791	630.56
410.014	599.56
410.238	596.56
410.461	610.56
410.685	618.56
410.908	606.56
411.132	631.56
411.355	671.56
411.578	671.56
411.802	626.56
412.025	597.56
412.249	598.56
412.472	622.56
412.695	676.56
412.919	668.56
413.142	633.56
413.365	599.56
413.589	596.56
413.812	577.56
414.035	585.56
414.258	572.56
414.482	583.56
414.705	584.56
414.928	570.56
415.151	576.56
415.374	578.56
415.597	575.56
415.821	581.56
416.044	576.56
416.267	605.56
416.49	572.56
416.713	574.56
416.936	557.56
417.159	561.56
417.382	590.56
417.605	581.56
417.828	574.56
418.051	588.56
418.274	597.56
418.497	594.56
418.72	597.56
418.943	574.56
419.166	581.56
419.389	631.56
419.611	621.56
419.834	605.56
420.057	614.56
420.28	610.56
420.503	626.56
420.726	585.56
420.948	598.56
421.171	659.56
421.394	677.56
421.617	622.56
421.839	614.56
422.062	612.56
422.285	632.56
422.507	680.56
422.73	724.56
422.953	723.56
423.175	646.56
423.398	634.56
423.621	644.56
423.843	640.56
424.066	654.56
424.288	643.56
424.511	623.56
424.733	716.56
424.956	782.56
425.178	744.56
425.401	719.56
425.623	783.56
425.846	676.56
426.068	628.56
426.291	636.56
426.513	591.56
426.735	619.56
426.958	660.56
427.18	762.56
427.402	869.56
427.625	952.56
427.847	815.56
428.069	719.56
428.292	649.56
428.514	606.56
428.736	601.56
428.958	613.56
429.181	555.56
429.403	574.56
429.625	586.56
429.847	622.56
430.069	703.56
430.292	673.56
430.514	591.56
430.736	593.56
430.958	565.56
431.18	556.56
431.402	574.56
431.624	533.56
431.846	557.56
432.068	558.56
432.29	564.56
432.512	570.56
432.734	578.56
432.956	557.56
433.178	571.56
433.4	593.56
433.622	560.56
433.844	559.56
434.066	547.56
434.287	558.56
434.509	575.56
434.731	600.56
434.953	576.56
435.175	583.56
435.397	631.56
435.618	598.56
435.84	668.56
436.062	747.56
436.284	818.56
436.505	706.56
436.727	657.56
436.949	591.56
437.17	563.56
437.392	609.56
437.614	587.56
437.835	615.56
438.057	694.56
438.278	794.56
438.5	772.56
438.721	891.56
438.943	835.56
439.165	684.56
439.386	642.56
439.608	619.56
439.829	632.56
440.05	638.56
440.272	676.56
440.493	656.56
440.715	611.56
440.936	599.56
441.158	575.56
441.379	602.56
441.6	593.56
441.822	638.56
442.043	657.56
442.264	750.56
442.486	792.56
442.707	684.56
442.928	671.56
443.149	659.56
443.371	659.56
443.592	713.56
443.813	796.56
444.034	898.56
444.255	741.56
444.476	662.56
444.698	635.56
444.919	641.56
445.14	784.56
445.361	711.56
445.582	694.56
445.803	707.56
446.024	823.56
446.245	815.56
446.466	766.56
446.687	683.56
446.908	624.56
447.129	594.56
447.35	581.56
447.571	614.56
447.792	569.56
448.013	559.56
448.234	593.56
448.455	631.56
448.675	759.56
448.896	845.56
449.117	715.56
449.338	703.56
449.559	798.56
449.779	924.56
450	713.56
450.221	630.56
450.442	582.56
450.662	544.56
450.883	530.56
451.104	555.56
451.324	564.56
451.545	520.56
451.766	524.56
451.986	506.56
452.207	510.56
452.428	540.56
452.648	528.56
452.869	504.56
453.089	524.56
453.31	519.56
453.53	540.56
453.751	505.56
453.971	490.56
454.192	546.56
454.412	537.56
454.633	485.56
454.853	513.56
455.073	476.56
455.294	529.56
455.514	586.56
455.734	588.56
455.955	528.56
456.175	499.56
456.395	487.56
456.616	472.56
456.836	489.56
457.056	475.56
457.276	481.56
457.497	512.56
457.717	492.56
457.937	514.56
458.157	478.56
458.377	500.56
458.598	540.56
458.818	582.56
459.038	637.56
459.258	649.56
459.478	578.56
459.698	565.56
459.918	557.56
460.138	549.56
460.358	579.56
460.578	596.56
460.798	597.56
461.018	566.56
461.238	586.56
461.458	582.56
461.678	583.56
461.898	580.56
462.118	597.56
462.338	623.56
462.558	598.56
462.777	636.56
462.997	661.56
463.217	656.56
463.437	661.56
463.657	634.56
463.876	640.56
464.096	613.56
464.316	628.56
464.536	644.56
464.755	635.56
464.975	603.56
465.195	623.56
465.414	666.56
465.634	632.56
465.854	588.56
466.073	543.56
466.293	550.56
466.512	546.56
466.732	533.56
466.951	568.56
467.171	523.56
467.391	546.56
467.61	553.56
467.829	557.56
468.049	551.56
468.268	522.56
468.488	505.56
468.707	517.56
468.927	534.56
469.146	533.56
469.365	515.56
469.585	504.56
469.804	525.56
470.023	570.56
470.243	528.56
470.462	538.56
470.681	542.56
470.901	568.56
471.12	562.56
471.339	566.56
471.558	574.56
471.777	535.56
471.997	538.56
472.216	527.56
472.435	557.56
472.654	542.56
472.873	528.56
473.092	524.56
473.311	543.56
473.53	528.56
473.749	530.56
473.968	577.56
474.187	645.56
474.406	692.56
474.625	598.56
474.844	563.56
475.063	536.56
475.282	543.56
475.501	559.56
475.72	553.56
475.939	562.56
476.158	547.56
476.377	558.56
476.596	569.56
476.814	586.56
477.033	590.56
477.252	571.56
477.471	560.56
477.69	593.56
477.908	600.56
478.127	597.56
478.346	606.56
478.564	616.56
478.783	635.56
479.002	612.56
479.22	632.56
479.439	633.56
479.658	644.56
479.876	634.56
480.095	656.56
480.313	698.56
480.532	674.56
480.751	662.56
480.969	684.56
481.188	695.56
481.406	727.56
481.624	686.56
481.843	630.56
482.061	632.56
482.28	622.56
482.498	621.56
482.717	628.56
482.935	643.56
483.153	644.56
483.372	640.56
483.59	622.56
483.808	634.56
484.027	635.56
484.245	637.56
484.463	648.56
484.681	654.56
484.9	650.56
485.118	649.56
485.336	631.56
485.554	630.56
485.772	643.56
485.99	669.56
486.209	672.56
486.427	646.56
486.645	662.56
486.863	663.56
487.081	682.56
487.299	674.56
487.517	666.56
487.735	688.56
487.953	699.56
488.171	658.56
488.389	661.56
488.607	668.56
488.825	682.56
489.043	688.56
489.261	719.56
489.479	716.56
489.696	685.56
489.914	692.56
490.132	682.56
490.35	713.56
490.568	720.56
490.786	760.56
491.003	725.56
491.221	739.56
491.439	765.56
491.657	749.56
491.874	764.56
492.092	752.56
492.31	749.56
492.527	774.56
492.745	777.56
492.963	791.56
493.18	794.56
493.398	822.56
493.615	820.56
493.833	808.56
494.05	806.56
494.268	797.56
494.485	820.56
494.703	820.56
494.92	828.56
495.138	813.56
495.355	780.56
495.573	820.56
495.79	804.56
496.008	813.56
496.225	795.56
496.442	815.56
496.66	821.56
496.877	838.56
497.094	842.56
497.312	837.56
497.529	842.56
497.746	850.56
497.963	855.56
498.181	891.56
498.398	890.56
498.615	936.56
498.832	938.56
499.049	999.56
499.267	984.56
499.484	1034.56
499.701	1087.56
499.918	1107.56
500.135	1215.56
500.352	1300.56
500.569	1293.56
500.786	1282.56
501.003	1300.56
501.22	1181.56
501.437	1162.56
501.654	1111.56
