Data from 1974.PennyLincolnUp.Lamp.En5.5.200Scan.071719.P1.Changed Mount._HRD10591_15-52-03-856.txt Node
Date: Thu Jul 18 15:52:03 EDT 2019
User: cochatt
Spectrometer: HR+D1059
Trigger mode: 1
Integration Time (sec): 1.000000E-1
Scans to average: 1
Electric dark correction enabled: true
Nonlinearity correction enabled: false
Boxcar width: 0
XAxis mode: Wavelengths
Number of Pixels in Spectrum: 2048
>>>>>Begin Spectral Data<<<<<
223.165	-21.38
223.4	-21.38
223.635	-21.38
223.869	-26.38
224.104	-19.38
224.338	-20.38
224.573	-15.38
224.808	6.62
225.042	-1.38
225.277	-7.38
225.511	0.62
225.746	14.62
225.98	12.62
226.215	7.62
226.449	6.62
226.683	14.62
226.918	16.62
227.152	31.62
227.387	30.62
227.621	41.62
227.856	52.62
228.09	39.62
228.324	61.62
228.559	51.62
228.793	73.62
229.027	90.62
229.262	93.62
229.496	89.62
229.73	113.62
229.964	148.62
230.199	122.62
230.433	116.62
230.667	109.62
230.901	109.62
231.136	117.62
231.37	107.62
231.604	106.62
231.838	117.62
232.072	117.62
232.306	106.62
232.541	119.62
232.775	112.62
233.009	120.62
233.243	122.62
233.477	120.62
233.711	109.62
233.945	117.62
234.179	117.62
234.413	100.62
234.647	105.62
234.881	129.62
235.115	114.62
235.349	126.62
235.583	99.62
235.817	117.62
236.051	128.62
236.285	128.62
236.519	132.62
236.753	134.62
236.987	138.62
237.221	175.62
237.455	218.62
237.689	183.62
237.922	142.62
238.156	130.62
238.39	131.62
238.624	118.62
238.858	141.62
239.091	120.62
239.325	131.62
239.559	124.62
239.793	143.62
240.027	131.62
240.26	154.62
240.494	149.62
240.728	168.62
240.961	147.62
241.195	149.62
241.429	134.62
241.662	149.62
241.896	135.62
242.13	150.62
242.363	152.62
242.597	131.62
242.83	140.62
243.064	151.62
243.298	150.62
243.531	135.62
243.765	147.62
243.998	147.62
244.232	155.62
244.465	149.62
244.699	138.62
244.932	151.62
245.166	159.62
245.399	144.62
245.633	159.62
245.866	142.62
246.099	152.62
246.333	157.62
246.566	155.62
246.8	152.62
247.033	161.62
247.266	161.62
247.5	181.62
247.733	165.62
247.966	154.62
248.2	177.62
248.433	194.62
248.666	185.62
248.899	187.62
249.133	193.62
249.366	203.62
249.599	196.62
249.832	188.62
250.066	184.62
250.299	198.62
250.532	197.62
250.765	197.62
250.998	212.62
251.231	221.62
251.465	220.62
251.698	201.62
251.931	201.62
252.164	204.62
252.397	210.62
252.63	216.62
252.863	223.62
253.096	229.62
253.329	223.62
253.562	235.62
253.795	225.62
254.028	229.62
254.261	230.62
254.494	215.62
254.727	276.62
254.96	274.62
255.193	285.62
255.426	262.62
255.659	236.62
255.892	243.62
256.124	236.62
256.357	263.62
256.59	246.62
256.823	224.62
257.056	210.62
257.289	223.62
257.521	216.62
257.754	220.62
257.987	225.62
258.22	235.62
258.452	224.62
258.685	215.62
258.918	221.62
259.151	222.62
259.383	226.62
259.616	234.62
259.849	224.62
260.081	241.62
260.314	250.62
260.547	253.62
260.779	256.62
261.012	240.62
261.244	227.62
261.477	236.62
261.71	239.62
261.942	229.62
262.175	240.62
262.407	209.62
262.64	232.62
262.872	226.62
263.105	221.62
263.337	213.62
263.57	221.62
263.802	224.62
264.035	228.62
264.267	221.62
264.499	240.62
264.732	223.62
264.964	201.62
265.197	223.62
265.429	222.62
265.661	218.62
265.894	231.62
266.126	223.62
266.358	219.62
266.591	223.62
266.823	240.62
267.055	237.62
267.287	243.62
267.52	245.62
267.752	244.62
267.984	253.62
268.216	247.62
268.448	268.62
268.681	263.62
268.913	253.62
269.145	276.62
269.377	286.62
269.609	284.62
269.841	278.62
270.073	288.62
270.306	300.62
270.538	316.62
270.77	300.62
271.002	304.62
271.234	292.62
271.466	327.62
271.698	316.62
271.93	308.62
272.162	346.62
272.394	334.62
272.626	319.62
272.858	297.62
273.09	275.62
273.322	283.62
273.553	279.62
273.785	265.62
274.017	271.62
274.249	292.62
274.481	266.62
274.713	263.62
274.945	277.62
275.176	268.62
275.408	292.62
275.64	265.62
275.872	286.62
276.104	270.62
276.335	292.62
276.567	275.62
276.799	294.62
277.031	299.62
277.262	331.62
277.494	328.62
277.726	297.62
277.957	294.62
278.189	324.62
278.421	285.62
278.652	278.62
278.884	289.62
279.115	285.62
279.347	298.62
279.579	280.62
279.81	281.62
280.042	276.62
280.273	300.62
280.505	295.62
280.736	292.62
280.968	289.62
281.199	288.62
281.431	297.62
281.662	275.62
281.894	287.62
282.125	293.62
282.356	295.62
282.588	319.62
282.819	324.62
283.051	296.62
283.282	296.62
283.513	289.62
283.745	274.62
283.976	298.62
284.207	285.62
284.439	312.62
284.67	302.62
284.901	293.62
285.132	286.62
285.364	285.62
285.595	300.62
285.826	292.62
286.057	289.62
286.288	293.62
286.52	297.62
286.751	289.62
286.982	298.62
287.213	318.62
287.444	300.62
287.675	323.62
287.906	329.62
288.138	336.62
288.369	328.62
288.6	333.62
288.831	308.62
289.062	322.62
289.293	304.62
289.524	316.62
289.755	290.62
289.986	318.62
290.217	307.62
290.448	316.62
290.679	341.62
290.91	308.62
291.141	311.62
291.371	305.62
291.602	308.62
291.833	295.62
292.064	326.62
292.295	316.62
292.526	316.62
292.757	314.62
292.987	306.62
293.218	317.62
293.449	312.62
293.68	316.62
293.91	315.62
294.141	299.62
294.372	312.62
294.603	324.62
294.833	324.62
295.064	330.62
295.295	318.62
295.525	313.62
295.756	318.62
295.987	327.62
296.217	348.62
296.448	333.62
296.679	337.62
296.909	345.62
297.14	322.62
297.37	327.62
297.601	331.62
297.831	333.62
298.062	324.62
298.292	335.62
298.523	324.62
298.753	314.62
298.984	327.62
299.214	328.62
299.445	341.62
299.675	345.62
299.905	340.62
300.136	339.62
300.366	335.62
300.597	315.62
300.827	342.62
301.057	338.62
301.288	367.62
301.518	359.62
301.748	349.62
301.979	347.62
302.209	327.62
302.439	336.62
302.669	351.62
302.9	351.62
303.13	350.62
303.36	356.62
303.59	355.62
303.82	349.62
304.051	369.62
304.281	349.62
304.511	342.62
304.741	349.62
304.971	348.62
305.201	368.62
305.431	350.62
305.661	341.62
305.891	353.62
306.121	348.62
306.352	343.62
306.582	367.62
306.812	335.62
307.042	348.62
307.272	371.62
307.502	349.62
307.731	353.62
307.961	376.62
308.191	362.62
308.421	364.62
308.651	358.62
308.881	357.62
309.111	339.62
309.341	356.62
309.571	363.62
309.8	381.62
310.03	357.62
310.26	383.62
310.49	406.62
310.72	392.62
310.949	388.62
311.179	386.62
311.409	399.62
311.639	373.62
311.868	395.62
312.098	400.62
312.328	388.62
312.557	392.62
312.787	411.62
313.017	418.62
313.246	392.62
313.476	393.62
313.706	388.62
313.935	399.62
314.165	421.62
314.394	409.62
314.624	409.62
314.853	370.62
315.083	408.62
315.312	397.62
315.542	385.62
315.771	396.62
316.001	381.62
316.23	417.62
316.46	382.62
316.689	402.62
316.919	407.62
317.148	412.62
317.377	395.62
317.607	417.62
317.836	403.62
318.065	394.62
318.295	388.62
318.524	393.62
318.753	409.62
318.983	410.62
319.212	391.62
319.441	409.62
319.67	387.62
319.9	397.62
320.129	395.62
320.358	382.62
320.587	416.62
320.816	413.62
321.046	406.62
321.275	415.62
321.504	407.62
321.733	414.62
321.962	408.62
322.191	422.62
322.42	420.62
322.649	454.62
322.878	467.62
323.108	453.62
323.337	445.62
323.566	471.62
323.795	511.62
324.024	542.62
324.253	584.62
324.482	809.62
324.71	1170.62
324.939	1708.62
325.168	1515.62
325.397	812.62
325.626	585.62
325.855	523.62
326.084	487.62
326.313	479.62
326.542	499.62
326.77	499.62
326.999	571.62
327.228	779.62
327.457	1079.62
327.686	1339.62
327.914	907.62
328.143	649.62
328.372	578.62
328.6	515.62
328.829	535.62
329.058	509.62
329.287	536.62
329.515	524.62
329.744	527.62
329.972	482.62
330.201	502.62
330.43	529.62
330.658	555.62
330.887	531.62
331.115	560.62
331.344	523.62
331.572	490.62
331.801	500.62
332.03	515.62
332.258	495.62
332.486	474.62
332.715	493.62
332.943	489.62
333.172	473.62
333.4	480.62
333.629	504.62
333.857	506.62
334.085	503.62
334.314	513.62
334.542	550.62
334.771	580.62
334.999	542.62
335.227	496.62
335.455	488.62
335.684	485.62
335.912	462.62
336.14	472.62
336.369	475.62
336.597	498.62
336.825	509.62
337.053	476.62
337.281	480.62
337.51	473.62
337.738	480.62
337.966	467.62
338.194	457.62
338.422	457.62
338.65	455.62
338.878	448.62
339.106	463.62
339.334	470.62
339.562	464.62
339.79	465.62
340.018	457.62
340.246	452.62
340.474	444.62
340.702	473.62
340.93	454.62
341.158	460.62
341.386	446.62
341.614	449.62
341.842	460.62
342.07	451.62
342.298	453.62
342.526	456.62
342.754	432.62
342.981	438.62
343.209	456.62
343.437	451.62
343.665	477.62
343.893	471.62
344.12	480.62
344.348	478.62
344.576	472.62
344.804	472.62
345.031	490.62
345.259	481.62
345.487	455.62
345.714	453.62
345.942	451.62
346.17	432.62
346.397	447.62
346.625	451.62
346.853	444.62
347.08	420.62
347.308	442.62
347.535	425.62
347.763	449.62
347.99	449.62
348.218	450.62
348.445	456.62
348.673	439.62
348.9	443.62
349.128	420.62
349.355	449.62
349.583	448.62
349.81	446.62
350.037	415.62
350.265	428.62
350.492	443.62
350.72	430.62
350.947	441.62
351.174	423.62
351.402	448.62
351.629	445.62
351.856	473.62
352.083	447.62
352.311	453.62
352.538	435.62
352.765	454.62
352.992	450.62
353.22	417.62
353.447	429.62
353.674	448.62
353.901	435.62
354.128	440.62
354.355	420.62
354.583	435.62
354.81	419.62
355.037	410.62
355.264	419.62
355.491	414.62
355.718	439.62
355.945	423.62
356.172	421.62
356.399	429.62
356.626	421.62
356.853	416.62
357.08	433.62
357.307	441.62
357.534	442.62
357.761	423.62
357.988	444.62
358.215	413.62
358.441	415.62
358.668	428.62
358.895	435.62
359.122	433.62
359.349	432.62
359.576	442.62
359.802	458.62
360.029	456.62
360.256	478.62
360.483	507.62
360.709	463.62
360.936	456.62
361.163	444.62
361.39	421.62
361.616	455.62
361.843	441.62
362.07	449.62
362.296	450.62
362.523	439.62
362.749	447.62
362.976	425.62
363.203	431.62
363.429	436.62
363.656	436.62
363.882	432.62
364.109	452.62
364.335	422.62
364.562	427.62
364.788	425.62
365.015	457.62
365.241	426.62
365.468	441.62
365.694	443.62
365.92	455.62
366.147	441.62
366.373	431.62
366.599	440.62
366.826	433.62
367.052	435.62
367.278	446.62
367.505	433.62
367.731	447.62
367.957	424.62
368.184	425.62
368.41	445.62
368.636	436.62
368.862	452.62
369.089	439.62
369.315	448.62
369.541	445.62
369.767	440.62
369.993	435.62
370.219	450.62
370.445	449.62
370.672	463.62
370.898	445.62
371.124	444.62
371.35	454.62
371.576	445.62
371.802	424.62
372.028	445.62
372.254	438.62
372.48	442.62
372.706	450.62
372.932	459.62
373.158	456.62
373.384	443.62
373.61	452.62
373.835	438.62
374.061	433.62
374.287	417.62
374.513	453.62
374.739	456.62
374.965	454.62
375.191	469.62
375.416	467.62
375.642	458.62
375.868	483.62
376.094	468.62
376.319	456.62
376.545	434.62
376.771	441.62
376.997	461.62
377.222	451.62
377.448	427.62
377.674	428.62
377.899	450.62
378.125	435.62
378.35	460.62
378.576	441.62
378.802	442.62
379.027	441.62
379.253	448.62
379.478	448.62
379.704	436.62
379.929	461.62
380.155	436.62
380.38	472.62
380.606	456.62
380.831	459.62
381.057	465.62
381.282	448.62
381.507	438.62
381.733	461.62
381.958	465.62
382.184	458.62
382.409	469.62
382.634	451.62
382.86	457.62
383.085	472.62
383.31	477.62
383.535	472.62
383.761	467.62
383.986	506.62
384.211	490.62
384.436	488.62
384.662	506.62
384.887	495.62
385.112	500.62
385.337	512.62
385.562	504.62
385.787	493.62
386.013	517.62
386.238	517.62
386.463	500.62
386.688	507.62
386.913	481.62
387.138	508.62
387.363	515.62
387.588	496.62
387.813	508.62
388.038	476.62
388.263	513.62
388.488	506.62
388.713	515.62
388.938	512.62
389.163	496.62
389.387	516.62
389.612	521.62
389.837	478.62
390.062	492.62
390.287	498.62
390.512	517.62
390.736	523.62
390.961	509.62
391.186	510.62
391.411	492.62
391.636	507.62
391.86	517.62
392.085	559.62
392.31	523.62
392.534	524.62
392.759	550.62
392.984	520.62
393.208	516.62
393.433	504.62
393.658	512.62
393.882	508.62
394.107	517.62
394.331	512.62
394.556	515.62
394.78	524.62
395.005	523.62
395.229	525.62
395.454	509.62
395.678	549.62
395.903	545.62
396.127	573.62
396.352	543.62
396.576	550.62
396.801	514.62
397.025	547.62
397.249	554.62
397.474	537.62
397.698	523.62
397.922	573.62
398.147	578.62
398.371	573.62
398.595	569.62
398.82	587.62
399.044	576.62
399.268	629.62
399.492	671.62
399.717	692.62
399.941	721.62
400.165	731.62
400.389	743.62
400.613	660.62
400.837	635.62
401.062	594.62
401.286	589.62
401.51	594.62
401.734	585.62
401.958	595.62
402.182	591.62
402.406	594.62
402.63	595.62
402.854	624.62
403.078	586.62
403.302	610.62
403.526	633.62
403.75	601.62
403.974	612.62
404.198	634.62
404.422	629.62
404.645	641.62
404.869	624.62
405.093	663.62
405.317	694.62
405.541	721.62
405.765	669.62
405.988	637.62
406.212	652.62
406.436	671.62
406.66	665.62
406.883	660.62
407.107	693.62
407.331	719.62
407.555	819.62
407.778	800.62
408.002	722.62
408.226	700.62
408.449	653.62
408.673	666.62
408.896	683.62
409.12	736.62
409.344	699.62
409.567	659.62
409.791	612.62
410.014	628.62
410.238	598.62
410.461	606.62
410.685	627.62
410.908	651.62
411.132	643.62
411.355	681.62
411.578	652.62
411.802	609.62
412.025	624.62
412.249	635.62
412.472	662.62
412.695	671.62
412.919	675.62
413.142	608.62
413.365	613.62
413.589	596.62
413.812	601.62
414.035	576.62
414.258	556.62
414.482	557.62
414.705	612.62
414.928	590.62
415.151	580.62
415.374	580.62
415.597	560.62
415.821	573.62
416.044	587.62
416.267	585.62
416.49	573.62
416.713	573.62
416.936	573.62
417.159	582.62
417.382	571.62
417.605	593.62
417.828	613.62
418.051	607.62
418.274	594.62
418.497	567.62
418.72	565.62
418.943	595.62
419.166	599.62
419.389	634.62
419.611	630.62
419.834	619.62
420.057	629.62
420.28	630.62
420.503	619.62
420.726	596.62
420.948	625.62
421.171	654.62
421.394	679.62
421.617	624.62
421.839	589.62
422.062	605.62
422.285	625.62
422.507	662.62
422.73	738.62
422.953	736.62
423.175	634.62
423.398	635.62
423.621	634.62
423.843	659.62
424.066	670.62
424.288	639.62
424.511	661.62
424.733	705.62
424.956	802.62
425.178	771.62
425.401	754.62
425.623	804.62
425.846	690.62
426.068	643.62
426.291	631.62
426.513	611.62
426.735	640.62
426.958	663.62
427.18	749.62
427.402	885.62
427.625	969.62
427.847	837.62
428.069	740.62
428.292	707.62
428.514	613.62
428.736	597.62
428.958	626.62
429.181	590.62
429.403	596.62
429.625	587.62
429.847	611.62
430.069	668.62
430.292	674.62
430.514	584.62
430.736	594.62
430.958	569.62
431.18	591.62
431.402	580.62
431.624	543.62
431.846	554.62
432.068	573.62
432.29	569.62
432.512	567.62
432.734	569.62
432.956	570.62
433.178	575.62
433.4	590.62
433.622	580.62
433.844	546.62
434.066	533.62
434.287	551.62
434.509	578.62
434.731	607.62
434.953	587.62
435.175	581.62
435.397	635.62
435.618	628.62
435.84	660.62
436.062	777.62
436.284	855.62
436.505	694.62
436.727	636.62
436.949	624.62
437.17	591.62
437.392	593.62
437.614	586.62
437.835	601.62
438.057	707.62
438.278	802.62
438.5	789.62
438.721	864.62
438.943	857.62
439.165	696.62
439.386	618.62
439.608	641.62
439.829	618.62
440.05	636.62
440.272	676.62
440.493	663.62
440.715	598.62
440.936	612.62
441.158	579.62
441.379	584.62
441.6	633.62
441.822	648.62
442.043	675.62
442.264	736.62
442.486	799.62
442.707	687.62
442.928	635.62
443.149	651.62
443.371	693.62
443.592	707.62
443.813	835.62
444.034	903.62
444.255	732.62
444.476	657.62
444.698	651.62
444.919	667.62
445.14	803.62
445.361	725.62
445.582	694.62
445.803	733.62
446.024	822.62
446.245	843.62
446.466	769.62
446.687	678.62
446.908	643.62
447.129	600.62
447.35	604.62
447.571	572.62
447.792	572.62
448.013	577.62
448.234	601.62
448.455	633.62
448.675	756.62
448.896	906.62
449.117	737.62
449.338	712.62
449.559	806.62
449.779	893.62
450	723.62
450.221	630.62
450.442	573.62
450.662	561.62
450.883	592.62
451.104	595.62
451.324	553.62
451.545	535.62
451.766	543.62
451.986	519.62
452.207	507.62
452.428	531.62
452.648	507.62
452.869	530.62
453.089	538.62
453.31	532.62
453.53	519.62
453.751	515.62
453.971	499.62
454.192	547.62
454.412	511.62
454.633	548.62
454.853	516.62
455.073	508.62
455.294	541.62
455.514	594.62
455.734	606.62
455.955	513.62
456.175	517.62
456.395	504.62
456.616	512.62
456.836	472.62
457.056	503.62
457.276	481.62
457.497	484.62
457.717	490.62
457.937	485.62
458.157	514.62
458.377	521.62
458.598	529.62
458.818	552.62
459.038	640.62
459.258	654.62
459.478	610.62
459.698	570.62
459.918	548.62
460.138	562.62
460.358	579.62
460.578	578.62
460.798	599.62
461.018	603.62
461.238	582.62
461.458	595.62
461.678	579.62
461.898	608.62
462.118	596.62
462.338	631.62
462.558	607.62
462.777	610.62
462.997	647.62
463.217	653.62
463.437	705.62
463.657	642.62
463.876	639.62
464.096	617.62
464.316	629.62
464.536	640.62
464.755	627.62
464.975	641.62
465.195	655.62
465.414	672.62
465.634	606.62
465.854	594.62
466.073	578.62
466.293	565.62
466.512	535.62
466.732	547.62
466.951	548.62
467.171	537.62
467.391	537.62
467.61	544.62
467.829	535.62
468.049	535.62
468.268	566.62
468.488	520.62
468.707	539.62
468.927	515.62
469.146	533.62
469.365	512.62
469.585	528.62
469.804	529.62
470.023	532.62
470.243	553.62
470.462	554.62
470.681	599.62
470.901	552.62
471.12	562.62
471.339	549.62
471.558	535.62
471.777	508.62
471.997	535.62
472.216	539.62
472.435	580.62
472.654	565.62
472.873	534.62
473.092	523.62
473.311	514.62
473.53	536.62
473.749	541.62
473.968	583.62
474.187	692.62
474.406	708.62
474.625	614.62
474.844	567.62
475.063	572.62
475.282	548.62
475.501	545.62
475.72	547.62
475.939	539.62
476.158	544.62
476.377	556.62
476.596	564.62
476.814	553.62
477.033	582.62
477.252	557.62
477.471	579.62
477.69	579.62
477.908	594.62
478.127	613.62
478.346	614.62
478.564	628.62
478.783	578.62
479.002	621.62
479.22	649.62
479.439	635.62
479.658	652.62
479.876	648.62
480.095	674.62
480.313	691.62
480.532	683.62
480.751	689.62
480.969	663.62
481.188	705.62
481.406	737.62
481.624	682.62
481.843	666.62
482.061	676.62
482.28	630.62
482.498	632.62
482.717	642.62
482.935	651.62
483.153	636.62
483.372	642.62
483.59	624.62
483.808	614.62
484.027	639.62
484.245	622.62
484.463	661.62
484.681	677.62
484.9	646.62
485.118	653.62
485.336	639.62
485.554	643.62
485.772	666.62
485.99	658.62
486.209	662.62
486.427	683.62
486.645	664.62
486.863	685.62
487.081	668.62
487.299	683.62
487.517	694.62
487.735	697.62
487.953	677.62
488.171	672.62
488.389	687.62
488.607	665.62
488.825	692.62
489.043	684.62
489.261	702.62
489.479	727.62
489.696	691.62
489.914	715.62
490.132	724.62
490.35	709.62
490.568	741.62
490.786	743.62
491.003	769.62
491.221	726.62
491.439	781.62
491.657	768.62
491.874	799.62
492.092	802.62
492.31	797.62
492.527	775.62
492.745	793.62
492.963	795.62
493.18	789.62
493.398	796.62
493.615	811.62
493.833	795.62
494.05	808.62
494.268	810.62
494.485	790.62
494.703	832.62
494.92	826.62
495.138	805.62
495.355	811.62
495.573	808.62
495.79	807.62
496.008	824.62
496.225	843.62
496.442	838.62
496.66	847.62
496.877	840.62
497.094	823.62
497.312	849.62
497.529	851.62
497.746	853.62
497.963	872.62
498.181	913.62
498.398	905.62
498.615	930.62
498.832	945.62
499.049	999.62
499.267	1027.62
499.484	1067.62
499.701	1103.62
499.918	1172.62
500.135	1238.62
500.352	1267.62
500.569	1345.62
500.786	1342.62
501.003	1297.62
501.22	1218.62
501.437	1166.62
501.654	1137.62
