Data from 1974.PennyLincolnUp.Lamp.En5.5.200Scan.071719.P1.Changed Mount._HRD10591_15-52-06-856.txt Node
Date: Thu Jul 18 15:52:06 EDT 2019
User: cochatt
Spectrometer: HR+D1059
Trigger mode: 1
Integration Time (sec): 1.000000E-1
Scans to average: 1
Electric dark correction enabled: true
Nonlinearity correction enabled: false
Boxcar width: 0
XAxis mode: Wavelengths
Number of Pixels in Spectrum: 2048
>>>>>Begin Spectral Data<<<<<
223.165	-9.81
223.4	-9.81
223.635	-9.81
223.869	-24.81
224.104	-22.81
224.338	-10.81
224.573	-19.81
224.808	-5.81
225.042	1.19
225.277	0.19
225.511	-8.81
225.746	10.19
225.98	1.19
226.215	19.19
226.449	5.19
226.683	15.19
226.918	19.19
227.152	31.19
227.387	16.19
227.621	46.19
227.856	52.19
228.09	51.19
228.324	41.19
228.559	49.19
228.793	83.19
229.027	87.19
229.262	96.19
229.496	107.19
229.73	122.19
229.964	122.19
230.199	140.19
230.433	113.19
230.667	124.19
230.901	104.19
231.136	108.19
231.37	125.19
231.604	118.19
231.838	114.19
232.072	106.19
232.306	125.19
232.541	120.19
232.775	110.19
233.009	119.19
233.243	122.19
233.477	116.19
233.711	118.19
233.945	119.19
234.179	97.19
234.413	119.19
234.647	112.19
234.881	118.19
235.115	107.19
235.349	113.19
235.583	129.19
235.817	123.19
236.051	127.19
236.285	119.19
236.519	124.19
236.753	130.19
236.987	151.19
237.221	175.19
237.455	230.19
237.689	183.19
237.922	138.19
238.156	147.19
238.39	131.19
238.624	139.19
238.858	127.19
239.091	141.19
239.325	148.19
239.559	131.19
239.793	127.19
240.027	119.19
240.26	133.19
240.494	145.19
240.728	161.19
240.961	168.19
241.195	164.19
241.429	137.19
241.662	148.19
241.896	134.19
242.13	133.19
242.363	140.19
242.597	136.19
242.83	137.19
243.064	130.19
243.298	155.19
243.531	158.19
243.765	156.19
243.998	144.19
244.232	143.19
244.465	146.19
244.699	153.19
244.932	149.19
245.166	156.19
245.399	146.19
245.633	165.19
245.866	154.19
246.099	141.19
246.333	155.19
246.566	152.19
246.8	161.19
247.033	156.19
247.266	166.19
247.5	156.19
247.733	177.19
247.966	183.19
248.2	175.19
248.433	181.19
248.666	172.19
248.899	177.19
249.133	181.19
249.366	201.19
249.599	199.19
249.832	178.19
250.066	182.19
250.299	208.19
250.532	184.19
250.765	211.19
250.998	219.19
251.231	197.19
251.465	211.19
251.698	213.19
251.931	202.19
252.164	201.19
252.397	212.19
252.63	213.19
252.863	194.19
253.096	224.19
253.329	232.19
253.562	232.19
253.795	218.19
254.028	219.19
254.261	230.19
254.494	218.19
254.727	248.19
254.96	263.19
255.193	272.19
255.426	261.19
255.659	249.19
255.892	235.19
256.124	237.19
256.357	225.19
256.59	236.19
256.823	214.19
257.056	217.19
257.289	218.19
257.521	212.19
257.754	226.19
257.987	218.19
258.22	194.19
258.452	218.19
258.685	197.19
258.918	209.19
259.151	213.19
259.383	232.19
259.616	232.19
259.849	233.19
260.081	244.19
260.314	268.19
260.547	257.19
260.779	258.19
261.012	241.19
261.244	225.19
261.477	234.19
261.71	228.19
261.942	221.19
262.175	225.19
262.407	220.19
262.64	217.19
262.872	210.19
263.105	221.19
263.337	223.19
263.57	221.19
263.802	232.19
264.035	225.19
264.267	231.19
264.499	223.19
264.732	215.19
264.964	222.19
265.197	219.19
265.429	208.19
265.661	207.19
265.894	215.19
266.126	226.19
266.358	205.19
266.591	209.19
266.823	218.19
267.055	231.19
267.287	237.19
267.52	233.19
267.752	230.19
267.984	231.19
268.216	226.19
268.448	213.19
268.681	232.19
268.913	241.19
269.145	261.19
269.377	261.19
269.609	279.19
269.841	263.19
270.073	269.19
270.306	289.19
270.538	289.19
270.77	308.19
271.002	316.19
271.234	305.19
271.466	302.19
271.698	301.19
271.93	325.19
272.162	291.19
272.394	311.19
272.626	315.19
272.858	299.19
273.09	280.19
273.322	266.19
273.553	293.19
273.785	256.19
274.017	267.19
274.249	263.19
274.481	274.19
274.713	259.19
274.945	266.19
275.176	274.19
275.408	282.19
275.64	291.19
275.872	261.19
276.104	288.19
276.335	276.19
276.567	279.19
276.799	299.19
277.031	313.19
277.262	317.19
277.494	317.19
277.726	306.19
277.957	302.19
278.189	286.19
278.421	285.19
278.652	276.19
278.884	283.19
279.115	258.19
279.347	270.19
279.579	282.19
279.81	278.19
280.042	279.19
280.273	284.19
280.505	283.19
280.736	270.19
280.968	262.19
281.199	268.19
281.431	278.19
281.662	278.19
281.894	287.19
282.125	289.19
282.356	296.19
282.588	309.19
282.819	307.19
283.051	312.19
283.282	281.19
283.513	290.19
283.745	285.19
283.976	315.19
284.207	282.19
284.439	285.19
284.67	286.19
284.901	290.19
285.132	319.19
285.364	299.19
285.595	290.19
285.826	302.19
286.057	301.19
286.288	293.19
286.52	290.19
286.751	293.19
286.982	314.19
287.213	320.19
287.444	295.19
287.675	298.19
287.906	302.19
288.138	308.19
288.369	327.19
288.6	300.19
288.831	302.19
289.062	307.19
289.293	312.19
289.524	314.19
289.755	280.19
289.986	312.19
290.217	298.19
290.448	316.19
290.679	297.19
290.91	297.19
291.141	293.19
291.371	317.19
291.602	314.19
291.833	301.19
292.064	307.19
292.295	316.19
292.526	315.19
292.757	297.19
292.987	307.19
293.218	314.19
293.449	322.19
293.68	303.19
293.91	302.19
294.141	293.19
294.372	300.19
294.603	305.19
294.833	313.19
295.064	306.19
295.295	295.19
295.525	322.19
295.756	327.19
295.987	326.19
296.217	354.19
296.448	350.19
296.679	334.19
296.909	325.19
297.14	315.19
297.37	330.19
297.601	306.19
297.831	313.19
298.062	311.19
298.292	339.19
298.523	310.19
298.753	314.19
298.984	331.19
299.214	325.19
299.445	335.19
299.675	317.19
299.905	327.19
300.136	349.19
300.366	335.19
300.597	338.19
300.827	338.19
301.057	343.19
301.288	346.19
301.518	348.19
301.748	361.19
301.979	350.19
302.209	361.19
302.439	338.19
302.669	349.19
302.9	353.19
303.13	330.19
303.36	349.19
303.59	344.19
303.82	348.19
304.051	356.19
304.281	342.19
304.511	341.19
304.741	358.19
304.971	351.19
305.201	344.19
305.431	337.19
305.661	348.19
305.891	356.19
306.121	341.19
306.352	332.19
306.582	348.19
306.812	365.19
307.042	357.19
307.272	345.19
307.502	352.19
307.731	333.19
307.961	351.19
308.191	344.19
308.421	339.19
308.651	357.19
308.881	349.19
309.111	349.19
309.341	351.19
309.571	367.19
309.8	372.19
310.03	375.19
310.26	376.19
310.49	373.19
310.72	389.19
310.949	362.19
311.179	403.19
311.409	376.19
311.639	381.19
311.868	362.19
312.098	377.19
312.328	393.19
312.557	376.19
312.787	395.19
313.017	394.19
313.246	384.19
313.476	382.19
313.706	381.19
313.935	381.19
314.165	401.19
314.394	399.19
314.624	379.19
314.853	398.19
315.083	398.19
315.312	381.19
315.542	383.19
315.771	380.19
316.001	381.19
316.23	386.19
316.46	385.19
316.689	378.19
316.919	398.19
317.148	374.19
317.377	399.19
317.607	404.19
317.836	386.19
318.065	382.19
318.295	390.19
318.524	402.19
318.753	375.19
318.983	390.19
319.212	397.19
319.441	397.19
319.67	401.19
319.9	387.19
320.129	385.19
320.358	403.19
320.587	387.19
320.816	393.19
321.046	401.19
321.275	407.19
321.504	395.19
321.733	405.19
321.962	426.19
322.191	405.19
322.42	404.19
322.649	435.19
322.878	438.19
323.108	438.19
323.337	458.19
323.566	482.19
323.795	503.19
324.024	485.19
324.253	590.19
324.482	781.19
324.71	1145.19
324.939	1707.19
325.168	1515.19
325.397	775.19
325.626	578.19
325.855	497.19
326.084	473.19
326.313	455.19
326.542	473.19
326.77	506.19
326.999	562.19
327.228	710.19
327.457	1108.19
327.686	1321.19
327.914	884.19
328.143	609.19
328.372	569.19
328.6	531.19
328.829	523.19
329.058	546.19
329.287	534.19
329.515	498.19
329.744	506.19
329.972	465.19
330.201	490.19
330.43	519.19
330.658	551.19
330.887	567.19
331.115	557.19
331.344	494.19
331.572	481.19
331.801	494.19
332.03	489.19
332.258	470.19
332.486	463.19
332.715	460.19
332.943	457.19
333.172	480.19
333.4	494.19
333.629	489.19
333.857	507.19
334.085	485.19
334.314	542.19
334.542	551.19
334.771	551.19
334.999	518.19
335.227	496.19
335.455	497.19
335.684	469.19
335.912	468.19
336.14	458.19
336.369	469.19
336.597	470.19
336.825	489.19
337.053	490.19
337.281	452.19
337.51	451.19
337.738	468.19
337.966	465.19
338.194	499.19
338.422	461.19
338.65	453.19
338.878	467.19
339.106	444.19
339.334	439.19
339.562	454.19
339.79	452.19
340.018	421.19
340.246	438.19
340.474	447.19
340.702	425.19
340.93	456.19
341.158	452.19
341.386	443.19
341.614	453.19
341.842	450.19
342.07	429.19
342.298	444.19
342.526	409.19
342.754	430.19
342.981	418.19
343.209	430.19
343.437	441.19
343.665	469.19
343.893	469.19
344.12	472.19
344.348	479.19
344.576	454.19
344.804	480.19
345.031	461.19
345.259	444.19
345.487	459.19
345.714	451.19
345.942	434.19
346.17	437.19
346.397	447.19
346.625	434.19
346.853	427.19
347.08	433.19
347.308	407.19
347.535	453.19
347.763	447.19
347.99	434.19
348.218	445.19
348.445	444.19
348.673	449.19
348.9	435.19
349.128	428.19
349.355	397.19
349.583	405.19
349.81	425.19
350.037	417.19
350.265	408.19
350.492	429.19
350.72	442.19
350.947	431.19
351.174	433.19
351.402	437.19
351.629	434.19
351.856	445.19
352.083	425.19
352.311	447.19
352.538	438.19
352.765	449.19
352.992	413.19
353.22	429.19
353.447	423.19
353.674	413.19
353.901	416.19
354.128	433.19
354.355	411.19
354.583	421.19
354.81	421.19
355.037	423.19
355.264	427.19
355.491	409.19
355.718	396.19
355.945	425.19
356.172	412.19
356.399	382.19
356.626	424.19
356.853	426.19
357.08	408.19
357.307	414.19
357.534	400.19
357.761	400.19
357.988	405.19
358.215	427.19
358.441	416.19
358.668	399.19
358.895	416.19
359.122	451.19
359.349	424.19
359.576	426.19
359.802	434.19
360.029	450.19
360.256	470.19
360.483	469.19
360.709	451.19
360.936	425.19
361.163	438.19
361.39	445.19
361.616	453.19
361.843	435.19
362.07	428.19
362.296	448.19
362.523	433.19
362.749	426.19
362.976	422.19
363.203	428.19
363.429	426.19
363.656	429.19
363.882	421.19
364.109	429.19
364.335	426.19
364.562	417.19
364.788	432.19
365.015	454.19
365.241	405.19
365.468	428.19
365.694	464.19
365.92	425.19
366.147	424.19
366.373	430.19
366.599	420.19
366.826	417.19
367.052	421.19
367.278	423.19
367.505	419.19
367.731	417.19
367.957	439.19
368.184	421.19
368.41	453.19
368.636	447.19
368.862	426.19
369.089	443.19
369.315	426.19
369.541	425.19
369.767	413.19
369.993	425.19
370.219	428.19
370.445	453.19
370.672	441.19
370.898	431.19
371.124	444.19
371.35	425.19
371.576	423.19
371.802	414.19
372.028	437.19
372.254	450.19
372.48	436.19
372.706	441.19
372.932	439.19
373.158	428.19
373.384	449.19
373.61	453.19
373.835	443.19
374.061	445.19
374.287	430.19
374.513	439.19
374.739	446.19
374.965	451.19
375.191	473.19
375.416	472.19
375.642	459.19
375.868	452.19
376.094	449.19
376.319	467.19
376.545	439.19
376.771	427.19
376.997	442.19
377.222	436.19
377.448	444.19
377.674	423.19
377.899	441.19
378.125	435.19
378.35	436.19
378.576	432.19
378.802	453.19
379.027	439.19
379.253	433.19
379.478	418.19
379.704	439.19
379.929	436.19
380.155	433.19
380.38	453.19
380.606	444.19
380.831	415.19
381.057	449.19
381.282	458.19
381.507	458.19
381.733	431.19
381.958	442.19
382.184	447.19
382.409	426.19
382.634	445.19
382.86	422.19
383.085	439.19
383.31	447.19
383.535	478.19
383.761	468.19
383.986	449.19
384.211	464.19
384.436	467.19
384.662	471.19
384.887	479.19
385.112	467.19
385.337	453.19
385.562	468.19
385.787	499.19
386.013	487.19
386.238	492.19
386.463	526.19
386.688	479.19
386.913	481.19
387.138	485.19
387.363	517.19
387.588	481.19
387.813	489.19
388.038	484.19
388.263	481.19
388.488	484.19
388.713	490.19
388.938	486.19
389.163	506.19
389.387	484.19
389.612	502.19
389.837	503.19
390.062	478.19
390.287	477.19
390.512	490.19
390.736	487.19
390.961	504.19
391.186	502.19
391.411	485.19
391.636	502.19
391.86	513.19
392.085	523.19
392.31	516.19
392.534	499.19
392.759	514.19
392.984	513.19
393.208	499.19
393.433	517.19
393.658	511.19
393.882	483.19
394.107	497.19
394.331	488.19
394.556	506.19
394.78	504.19
395.005	505.19
395.229	515.19
395.454	522.19
395.678	524.19
395.903	545.19
396.127	527.19
396.352	553.19
396.576	503.19
396.801	535.19
397.025	514.19
397.249	533.19
397.474	546.19
397.698	524.19
397.922	546.19
398.147	545.19
398.371	567.19
398.595	547.19
398.82	572.19
399.044	598.19
399.268	626.19
399.492	646.19
399.717	685.19
399.941	736.19
400.165	723.19
400.389	719.19
400.613	649.19
400.837	625.19
401.062	584.19
401.286	585.19
401.51	566.19
401.734	566.19
401.958	573.19
402.182	566.19
402.406	595.19
402.63	596.19
402.854	573.19
403.078	590.19
403.302	587.19
403.526	603.19
403.75	590.19
403.974	605.19
404.198	595.19
404.422	614.19
404.645	613.19
404.869	633.19
405.093	635.19
405.317	682.19
405.541	712.19
405.765	641.19
405.988	644.19
406.212	620.19
406.436	623.19
406.66	649.19
406.883	643.19
407.107	653.19
407.331	682.19
407.555	786.19
407.778	767.19
408.002	721.19
408.226	659.19
408.449	656.19
408.673	633.19
408.896	693.19
409.12	736.19
409.344	681.19
409.567	630.19
409.791	623.19
410.014	593.19
410.238	611.19
410.461	604.19
410.685	597.19
410.908	611.19
411.132	653.19
411.355	663.19
411.578	652.19
411.802	642.19
412.025	609.19
412.249	628.19
412.472	610.19
412.695	653.19
412.919	653.19
413.142	597.19
413.365	588.19
413.589	603.19
413.812	573.19
414.035	561.19
414.258	566.19
414.482	555.19
414.705	572.19
414.928	578.19
415.151	575.19
415.374	556.19
415.597	557.19
415.821	565.19
416.044	571.19
416.267	563.19
416.49	561.19
416.713	547.19
416.936	552.19
417.159	546.19
417.382	567.19
417.605	561.19
417.828	591.19
418.051	594.19
418.274	563.19
418.497	581.19
418.72	577.19
418.943	556.19
419.166	615.19
419.389	632.19
419.611	615.19
419.834	606.19
420.057	588.19
420.28	594.19
420.503	596.19
420.726	588.19
420.948	585.19
421.171	637.19
421.394	668.19
421.617	584.19
421.839	563.19
422.062	601.19
422.285	598.19
422.507	653.19
422.73	705.19
422.953	706.19
423.175	642.19
423.398	607.19
423.621	598.19
423.843	632.19
424.066	656.19
424.288	615.19
424.511	629.19
424.733	674.19
424.956	777.19
425.178	756.19
425.401	729.19
425.623	760.19
425.846	672.19
426.068	614.19
426.291	598.19
426.513	614.19
426.735	637.19
426.958	667.19
427.18	726.19
427.402	889.19
427.625	936.19
427.847	801.19
428.069	726.19
428.292	657.19
428.514	603.19
428.736	585.19
428.958	610.19
429.181	551.19
429.403	566.19
429.625	567.19
429.847	599.19
430.069	670.19
430.292	663.19
430.514	589.19
430.736	563.19
430.958	563.19
431.18	534.19
431.402	551.19
431.624	538.19
431.846	555.19
432.068	539.19
432.29	545.19
432.512	554.19
432.734	539.19
432.956	525.19
433.178	549.19
433.4	543.19
433.622	525.19
433.844	551.19
434.066	582.19
434.287	544.19
434.509	586.19
434.731	576.19
434.953	571.19
435.175	591.19
435.397	644.19
435.618	630.19
435.84	647.19
436.062	720.19
436.284	787.19
436.505	669.19
436.727	627.19
436.949	592.19
437.17	570.19
437.392	543.19
437.614	578.19
437.835	604.19
438.057	708.19
438.278	762.19
438.5	789.19
438.721	877.19
438.943	844.19
439.165	692.19
439.386	637.19
439.608	619.19
439.829	608.19
440.05	646.19
440.272	675.19
440.493	646.19
440.715	614.19
440.936	577.19
441.158	598.19
441.379	580.19
441.6	603.19
441.822	625.19
442.043	629.19
442.264	721.19
442.486	778.19
442.707	692.19
442.928	633.19
443.149	629.19
443.371	677.19
443.592	706.19
443.813	795.19
444.034	873.19
444.255	721.19
444.476	643.19
444.698	643.19
444.919	650.19
445.14	795.19
445.361	701.19
445.582	657.19
445.803	689.19
446.024	801.19
446.245	792.19
446.466	746.19
446.687	655.19
446.908	643.19
447.129	575.19
447.35	608.19
447.571	586.19
447.792	546.19
448.013	568.19
448.234	561.19
448.455	625.19
448.675	736.19
448.896	863.19
449.117	725.19
449.338	664.19
449.559	779.19
449.779	883.19
450	699.19
450.221	602.19
450.442	563.19
450.662	554.19
450.883	556.19
451.104	575.19
451.324	555.19
451.545	536.19
451.766	535.19
451.986	515.19
452.207	499.19
452.428	512.19
452.648	486.19
452.869	514.19
453.089	503.19
453.31	511.19
453.53	503.19
453.751	488.19
453.971	484.19
454.192	524.19
454.412	493.19
454.633	513.19
454.853	517.19
455.073	513.19
455.294	544.19
455.514	590.19
455.734	586.19
455.955	500.19
456.175	502.19
456.395	475.19
456.616	467.19
456.836	486.19
457.056	474.19
457.276	458.19
457.497	471.19
457.717	478.19
457.937	476.19
458.157	500.19
458.377	498.19
458.598	503.19
458.818	541.19
459.038	618.19
459.258	661.19
459.478	589.19
459.698	535.19
459.918	550.19
460.138	566.19
460.358	568.19
460.578	574.19
460.798	578.19
461.018	557.19
461.238	565.19
461.458	544.19
461.678	556.19
461.898	579.19
462.118	556.19
462.338	582.19
462.558	601.19
462.777	611.19
462.997	602.19
463.217	645.19
463.437	643.19
463.657	627.19
463.876	620.19
464.096	622.19
464.316	600.19
464.536	615.19
464.755	635.19
464.975	594.19
465.195	609.19
465.414	656.19
465.634	629.19
465.854	560.19
466.073	569.19
466.293	518.19
466.512	527.19
466.732	542.19
466.951	533.19
467.171	528.19
467.391	542.19
467.61	517.19
467.829	550.19
468.049	527.19
468.268	541.19
468.488	505.19
468.707	498.19
468.927	516.19
469.146	511.19
469.365	489.19
469.585	515.19
469.804	516.19
470.023	541.19
470.243	527.19
470.462	545.19
470.681	521.19
470.901	542.19
471.12	556.19
471.339	542.19
471.558	545.19
471.777	520.19
471.997	531.19
472.216	557.19
472.435	554.19
472.654	534.19
472.873	511.19
473.092	504.19
473.311	514.19
473.53	540.19
473.749	517.19
473.968	572.19
474.187	660.19
474.406	680.19
474.625	570.19
474.844	544.19
475.063	561.19
475.282	538.19
475.501	525.19
475.72	552.19
475.939	528.19
476.158	526.19
476.377	562.19
476.596	540.19
476.814	558.19
477.033	584.19
477.252	590.19
477.471	588.19
477.69	571.19
477.908	563.19
478.127	612.19
478.346	600.19
478.564	597.19
478.783	581.19
479.002	587.19
479.22	622.19
479.439	614.19
479.658	614.19
479.876	645.19
480.095	616.19
480.313	653.19
480.532	655.19
480.751	659.19
480.969	660.19
481.188	687.19
481.406	702.19
481.624	651.19
481.843	635.19
482.061	642.19
482.28	629.19
482.498	613.19
482.717	613.19
482.935	615.19
483.153	620.19
483.372	622.19
483.59	616.19
483.808	627.19
484.027	620.19
484.245	621.19
484.463	637.19
484.681	636.19
484.9	646.19
485.118	647.19
485.336	605.19
485.554	619.19
485.772	640.19
485.99	649.19
486.209	637.19
486.427	645.19
486.645	675.19
486.863	677.19
487.081	680.19
487.299	639.19
487.517	645.19
487.735	671.19
487.953	683.19
488.171	668.19
488.389	665.19
488.607	673.19
488.825	653.19
489.043	655.19
489.261	685.19
489.479	698.19
489.696	678.19
489.914	691.19
490.132	694.19
490.35	698.19
490.568	695.19
490.786	721.19
491.003	714.19
491.221	740.19
491.439	745.19
491.657	746.19
491.874	756.19
492.092	752.19
492.31	758.19
492.527	762.19
492.745	775.19
492.963	801.19
493.18	771.19
493.398	804.19
493.615	801.19
493.833	805.19
494.05	802.19
494.268	784.19
494.485	788.19
494.703	796.19
494.92	797.19
495.138	764.19
495.355	773.19
495.573	796.19
495.79	806.19
496.008	783.19
496.225	801.19
496.442	790.19
496.66	806.19
496.877	798.19
497.094	798.19
497.312	814.19
497.529	822.19
497.746	819.19
497.963	857.19
498.181	875.19
498.398	885.19
498.615	909.19
498.832	926.19
499.049	937.19
499.267	966.19
499.484	1007.19
499.701	1036.19
499.918	1101.19
500.135	1176.19
500.352	1250.19
500.569	1273.19
500.786	1289.19
501.003	1251.19
501.22	1220.19
501.437	1177.19
501.654	1083.19
