Data from 1974.PennyLincolnUp.Lamp.En5.5.200Scan.071719.P1.Changed Mount._HRD10591_15-51-43-856.txt Node
Date: Thu Jul 18 15:51:43 EDT 2019
User: cochatt
Spectrometer: HR+D1059
Trigger mode: 1
Integration Time (sec): 1.000000E-1
Scans to average: 1
Electric dark correction enabled: true
Nonlinearity correction enabled: false
Boxcar width: 0
XAxis mode: Wavelengths
Number of Pixels in Spectrum: 2048
>>>>>Begin Spectral Data<<<<<
223.165	-8.25
223.4	-8.25
223.635	-8.25
223.869	-26.25
224.104	-15.25
224.338	-17.25
224.573	-11.25
224.808	-2.25
225.042	-10.25
225.277	5.75
225.511	-9.25
225.746	-20.25
225.98	3.75
226.215	13.75
226.449	19.75
226.683	20.75
226.918	29.75
227.152	26.75
227.387	37.75
227.621	33.75
227.856	36.75
228.09	45.75
228.324	39.75
228.559	65.75
228.793	73.75
229.027	98.75
229.262	112.75
229.496	121.75
229.73	122.75
229.964	139.75
230.199	130.75
230.433	111.75
230.667	101.75
230.901	112.75
231.136	106.75
231.37	113.75
231.604	116.75
231.838	119.75
232.072	100.75
232.306	125.75
232.541	129.75
232.775	112.75
233.009	119.75
233.243	115.75
233.477	109.75
233.711	122.75
233.945	132.75
234.179	126.75
234.413	114.75
234.647	113.75
234.881	115.75
235.115	121.75
235.349	121.75
235.583	121.75
235.817	119.75
236.051	136.75
236.285	141.75
236.519	121.75
236.753	152.75
236.987	144.75
237.221	169.75
237.455	205.75
237.689	178.75
237.922	141.75
238.156	135.75
238.39	131.75
238.624	119.75
238.858	117.75
239.091	122.75
239.325	126.75
239.559	139.75
239.793	128.75
240.027	131.75
240.26	144.75
240.494	165.75
240.728	158.75
240.961	168.75
241.195	147.75
241.429	146.75
241.662	139.75
241.896	135.75
242.13	128.75
242.363	127.75
242.597	138.75
242.83	146.75
243.064	149.75
243.298	143.75
243.531	157.75
243.765	155.75
243.998	142.75
244.232	143.75
244.465	158.75
244.699	152.75
244.932	161.75
245.166	137.75
245.399	153.75
245.633	166.75
245.866	164.75
246.099	169.75
246.333	144.75
246.566	155.75
246.8	169.75
247.033	149.75
247.266	149.75
247.5	158.75
247.733	179.75
247.966	193.75
248.2	180.75
248.433	180.75
248.666	164.75
248.899	197.75
249.133	195.75
249.366	200.75
249.599	194.75
249.832	185.75
250.066	173.75
250.299	198.75
250.532	198.75
250.765	193.75
250.998	238.75
251.231	235.75
251.465	222.75
251.698	219.75
251.931	205.75
252.164	204.75
252.397	199.75
252.63	203.75
252.863	203.75
253.096	219.75
253.329	234.75
253.562	220.75
253.795	206.75
254.028	213.75
254.261	226.75
254.494	223.75
254.727	250.75
254.96	258.75
255.193	262.75
255.426	246.75
255.659	248.75
255.892	241.75
256.124	221.75
256.357	242.75
256.59	239.75
256.823	214.75
257.056	239.75
257.289	208.75
257.521	214.75
257.754	202.75
257.987	213.75
258.22	211.75
258.452	220.75
258.685	215.75
258.918	218.75
259.151	218.75
259.383	221.75
259.616	242.75
259.849	229.75
260.081	238.75
260.314	247.75
260.547	246.75
260.779	246.75
261.012	237.75
261.244	234.75
261.477	213.75
261.71	237.75
261.942	235.75
262.175	223.75
262.407	213.75
262.64	209.75
262.872	213.75
263.105	223.75
263.337	229.75
263.57	214.75
263.802	232.75
264.035	209.75
264.267	223.75
264.499	208.75
264.732	216.75
264.964	216.75
265.197	212.75
265.429	221.75
265.661	240.75
265.894	230.75
266.126	220.75
266.358	221.75
266.591	232.75
266.823	236.75
267.055	228.75
267.287	236.75
267.52	233.75
267.752	242.75
267.984	244.75
268.216	246.75
268.448	250.75
268.681	233.75
268.913	247.75
269.145	261.75
269.377	270.75
269.609	268.75
269.841	272.75
270.073	294.75
270.306	289.75
270.538	307.75
270.77	310.75
271.002	290.75
271.234	286.75
271.466	300.75
271.698	301.75
271.93	310.75
272.162	298.75
272.394	317.75
272.626	293.75
272.858	280.75
273.09	277.75
273.322	282.75
273.553	269.75
273.785	266.75
274.017	265.75
274.249	284.75
274.481	258.75
274.713	272.75
274.945	269.75
275.176	278.75
275.408	278.75
275.64	250.75
275.872	263.75
276.104	268.75
276.335	269.75
276.567	282.75
276.799	264.75
277.031	297.75
277.262	333.75
277.494	306.75
277.726	303.75
277.957	295.75
278.189	271.75
278.421	288.75
278.652	277.75
278.884	282.75
279.115	287.75
279.347	282.75
279.579	259.75
279.81	282.75
280.042	286.75
280.273	271.75
280.505	282.75
280.736	284.75
280.968	282.75
281.199	273.75
281.431	279.75
281.662	296.75
281.894	293.75
282.125	288.75
282.356	287.75
282.588	305.75
282.819	319.75
283.051	277.75
283.282	297.75
283.513	279.75
283.745	295.75
283.976	289.75
284.207	299.75
284.439	311.75
284.67	279.75
284.901	293.75
285.132	286.75
285.364	285.75
285.595	292.75
285.826	295.75
286.057	296.75
286.288	283.75
286.52	312.75
286.751	300.75
286.982	283.75
287.213	309.75
287.444	299.75
287.675	305.75
287.906	311.75
288.138	309.75
288.369	309.75
288.6	323.75
288.831	307.75
289.062	296.75
289.293	296.75
289.524	293.75
289.755	299.75
289.986	313.75
290.217	290.75
290.448	291.75
290.679	292.75
290.91	305.75
291.141	305.75
291.371	317.75
291.602	304.75
291.833	323.75
292.064	284.75
292.295	307.75
292.526	318.75
292.757	299.75
292.987	281.75
293.218	302.75
293.449	300.75
293.68	332.75
293.91	301.75
294.141	284.75
294.372	294.75
294.603	312.75
294.833	321.75
295.064	316.75
295.295	317.75
295.525	318.75
295.756	311.75
295.987	321.75
296.217	318.75
296.448	324.75
296.679	315.75
296.909	338.75
297.14	317.75
297.37	329.75
297.601	327.75
297.831	325.75
298.062	322.75
298.292	325.75
298.523	317.75
298.753	292.75
298.984	313.75
299.214	305.75
299.445	324.75
299.675	334.75
299.905	325.75
300.136	321.75
300.366	343.75
300.597	325.75
300.827	314.75
301.057	329.75
301.288	355.75
301.518	330.75
301.748	342.75
301.979	314.75
302.209	345.75
302.439	337.75
302.669	346.75
302.9	349.75
303.13	330.75
303.36	340.75
303.59	348.75
303.82	332.75
304.051	357.75
304.281	351.75
304.511	337.75
304.741	324.75
304.971	360.75
305.201	349.75
305.431	354.75
305.661	350.75
305.891	347.75
306.121	342.75
306.352	337.75
306.582	351.75
306.812	341.75
307.042	364.75
307.272	342.75
307.502	341.75
307.731	361.75
307.961	354.75
308.191	345.75
308.421	332.75
308.651	349.75
308.881	334.75
309.111	341.75
309.341	344.75
309.571	371.75
309.8	361.75
310.03	377.75
310.26	374.75
310.49	380.75
310.72	380.75
310.949	398.75
311.179	399.75
311.409	388.75
311.639	374.75
311.868	396.75
312.098	391.75
312.328	374.75
312.557	390.75
312.787	397.75
313.017	397.75
313.246	377.75
313.476	369.75
313.706	378.75
313.935	373.75
314.165	383.75
314.394	407.75
314.624	403.75
314.853	392.75
315.083	386.75
315.312	385.75
315.542	388.75
315.771	374.75
316.001	384.75
316.23	383.75
316.46	361.75
316.689	397.75
316.919	395.75
317.148	389.75
317.377	385.75
317.607	386.75
317.836	382.75
318.065	385.75
318.295	395.75
318.524	406.75
318.753	375.75
318.983	397.75
319.212	390.75
319.441	382.75
319.67	399.75
319.9	404.75
320.129	409.75
320.358	389.75
320.587	381.75
320.816	391.75
321.046	412.75
321.275	401.75
321.504	403.75
321.733	394.75
321.962	387.75
322.191	420.75
322.42	419.75
322.649	426.75
322.878	422.75
323.108	445.75
323.337	465.75
323.566	439.75
323.795	458.75
324.024	503.75
324.253	557.75
324.482	754.75
324.71	1135.75
324.939	1651.75
325.168	1425.75
325.397	746.75
325.626	537.75
325.855	479.75
326.084	471.75
326.313	456.75
326.542	467.75
326.77	496.75
326.999	538.75
327.228	727.75
327.457	1047.75
327.686	1293.75
327.914	873.75
328.143	612.75
328.372	539.75
328.6	530.75
328.829	488.75
329.058	515.75
329.287	526.75
329.515	493.75
329.744	490.75
329.972	482.75
330.201	489.75
330.43	512.75
330.658	547.75
330.887	529.75
331.115	535.75
331.344	482.75
331.572	478.75
331.801	447.75
332.03	473.75
332.258	478.75
332.486	472.75
332.715	457.75
332.943	474.75
333.172	465.75
333.4	451.75
333.629	500.75
333.857	488.75
334.085	501.75
334.314	515.75
334.542	541.75
334.771	563.75
334.999	506.75
335.227	513.75
335.455	479.75
335.684	477.75
335.912	455.75
336.14	458.75
336.369	445.75
336.597	475.75
336.825	486.75
337.053	458.75
337.281	454.75
337.51	462.75
337.738	456.75
337.966	479.75
338.194	462.75
338.422	477.75
338.65	446.75
338.878	444.75
339.106	452.75
339.334	453.75
339.562	459.75
339.79	459.75
340.018	440.75
340.246	448.75
340.474	439.75
340.702	469.75
340.93	455.75
341.158	440.75
341.386	471.75
341.614	467.75
341.842	470.75
342.07	439.75
342.298	431.75
342.526	425.75
342.754	440.75
342.981	455.75
343.209	423.75
343.437	441.75
343.665	434.75
343.893	482.75
344.12	486.75
344.348	457.75
344.576	473.75
344.804	458.75
345.031	451.75
345.259	469.75
345.487	459.75
345.714	445.75
345.942	433.75
346.17	416.75
346.397	420.75
346.625	416.75
346.853	411.75
347.08	420.75
347.308	414.75
347.535	435.75
347.763	447.75
347.99	400.75
348.218	437.75
348.445	441.75
348.673	426.75
348.9	414.75
349.128	439.75
349.355	430.75
349.583	399.75
349.81	435.75
350.037	453.75
350.265	412.75
350.492	411.75
350.72	435.75
350.947	440.75
351.174	421.75
351.402	421.75
351.629	446.75
351.856	410.75
352.083	429.75
352.311	410.75
352.538	430.75
352.765	426.75
352.992	414.75
353.22	410.75
353.447	424.75
353.674	429.75
353.901	403.75
354.128	403.75
354.355	418.75
354.583	421.75
354.81	410.75
355.037	405.75
355.264	409.75
355.491	402.75
355.718	413.75
355.945	413.75
356.172	404.75
356.399	407.75
356.626	414.75
356.853	410.75
357.08	391.75
357.307	418.75
357.534	421.75
357.761	393.75
357.988	408.75
358.215	422.75
358.441	428.75
358.668	417.75
358.895	419.75
359.122	438.75
359.349	439.75
359.576	434.75
359.802	442.75
360.029	475.75
360.256	448.75
360.483	461.75
360.709	442.75
360.936	435.75
361.163	427.75
361.39	448.75
361.616	435.75
361.843	421.75
362.07	423.75
362.296	422.75
362.523	435.75
362.749	422.75
362.976	445.75
363.203	433.75
363.429	415.75
363.656	425.75
363.882	407.75
364.109	433.75
364.335	414.75
364.562	440.75
364.788	425.75
365.015	436.75
365.241	410.75
365.468	429.75
365.694	427.75
365.92	422.75
366.147	420.75
366.373	429.75
366.599	440.75
366.826	423.75
367.052	425.75
367.278	405.75
367.505	425.75
367.731	435.75
367.957	410.75
368.184	430.75
368.41	439.75
368.636	433.75
368.862	442.75
369.089	420.75
369.315	411.75
369.541	439.75
369.767	437.75
369.993	424.75
370.219	416.75
370.445	428.75
370.672	435.75
370.898	417.75
371.124	429.75
371.35	427.75
371.576	438.75
371.802	429.75
372.028	407.75
372.254	423.75
372.48	401.75
372.706	435.75
372.932	450.75
373.158	459.75
373.384	446.75
373.61	425.75
373.835	453.75
374.061	442.75
374.287	435.75
374.513	459.75
374.739	466.75
374.965	452.75
375.191	429.75
375.416	469.75
375.642	460.75
375.868	462.75
376.094	451.75
376.319	453.75
376.545	445.75
376.771	434.75
376.997	443.75
377.222	425.75
377.448	421.75
377.674	429.75
377.899	412.75
378.125	420.75
378.35	430.75
378.576	434.75
378.802	436.75
379.027	429.75
379.253	442.75
379.478	456.75
379.704	438.75
379.929	427.75
380.155	447.75
380.38	443.75
380.606	454.75
380.831	436.75
381.057	446.75
381.282	424.75
381.507	443.75
381.733	441.75
381.958	456.75
382.184	424.75
382.409	446.75
382.634	455.75
382.86	428.75
383.085	441.75
383.31	458.75
383.535	459.75
383.761	456.75
383.986	472.75
384.211	486.75
384.436	467.75
384.662	473.75
384.887	477.75
385.112	477.75
385.337	490.75
385.562	487.75
385.787	485.75
386.013	495.75
386.238	506.75
386.463	510.75
386.688	492.75
386.913	455.75
387.138	477.75
387.363	481.75
387.588	485.75
387.813	475.75
388.038	487.75
388.263	495.75
388.488	510.75
388.713	487.75
388.938	508.75
389.163	507.75
389.387	514.75
389.612	490.75
389.837	499.75
390.062	474.75
390.287	483.75
390.512	496.75
390.736	506.75
390.961	498.75
391.186	500.75
391.411	473.75
391.636	502.75
391.86	505.75
392.085	499.75
392.31	519.75
392.534	516.75
392.759	523.75
392.984	509.75
393.208	508.75
393.433	500.75
393.658	521.75
393.882	480.75
394.107	494.75
394.331	479.75
394.556	496.75
394.78	517.75
395.005	517.75
395.229	530.75
395.454	531.75
395.678	522.75
395.903	529.75
396.127	563.75
396.352	558.75
396.576	533.75
396.801	527.75
397.025	528.75
397.249	511.75
397.474	540.75
397.698	533.75
397.922	530.75
398.147	587.75
398.371	580.75
398.595	545.75
398.82	561.75
399.044	578.75
399.268	605.75
399.492	667.75
399.717	686.75
399.941	719.75
400.165	727.75
400.389	720.75
400.613	642.75
400.837	615.75
401.062	588.75
401.286	582.75
401.51	590.75
401.734	571.75
401.958	603.75
402.182	559.75
402.406	580.75
402.63	586.75
402.854	591.75
403.078	613.75
403.302	595.75
403.526	587.75
403.75	599.75
403.974	602.75
404.198	600.75
404.422	585.75
404.645	595.75
404.869	606.75
405.093	649.75
405.317	698.75
405.541	694.75
405.765	674.75
405.988	635.75
406.212	623.75
406.436	642.75
406.66	618.75
406.883	643.75
407.107	671.75
407.331	738.75
407.555	783.75
407.778	792.75
408.002	735.75
408.226	696.75
408.449	650.75
408.673	649.75
408.896	686.75
409.12	718.75
409.344	677.75
409.567	622.75
409.791	601.75
410.014	576.75
410.238	572.75
410.461	590.75
410.685	601.75
410.908	620.75
411.132	635.75
411.355	683.75
411.578	647.75
411.802	598.75
412.025	575.75
412.249	615.75
412.472	627.75
412.695	662.75
412.919	659.75
413.142	630.75
413.365	596.75
413.589	605.75
413.812	552.75
414.035	552.75
414.258	571.75
414.482	571.75
414.705	570.75
414.928	585.75
415.151	568.75
415.374	565.75
415.597	573.75
415.821	550.75
416.044	574.75
416.267	575.75
416.49	556.75
416.713	569.75
416.936	553.75
417.159	577.75
417.382	585.75
417.605	557.75
417.828	586.75
418.051	582.75
418.274	592.75
418.497	561.75
418.72	551.75
418.943	568.75
419.166	583.75
419.389	625.75
419.611	637.75
419.834	612.75
420.057	604.75
420.28	606.75
420.503	589.75
420.726	579.75
420.948	595.75
421.171	647.75
421.394	674.75
421.617	610.75
421.839	564.75
422.062	593.75
422.285	588.75
422.507	657.75
422.73	714.75
422.953	695.75
423.175	643.75
423.398	631.75
423.621	633.75
423.843	625.75
424.066	622.75
424.288	635.75
424.511	637.75
424.733	674.75
424.956	743.75
425.178	732.75
425.401	721.75
425.623	756.75
425.846	673.75
426.068	631.75
426.291	619.75
426.513	609.75
426.735	625.75
426.958	662.75
427.18	746.75
427.402	841.75
427.625	965.75
427.847	775.75
428.069	693.75
428.292	641.75
428.514	585.75
428.736	575.75
428.958	571.75
429.181	562.75
429.403	564.75
429.625	558.75
429.847	585.75
430.069	675.75
430.292	661.75
430.514	600.75
430.736	586.75
430.958	571.75
431.18	548.75
431.402	561.75
431.624	551.75
431.846	542.75
432.068	550.75
432.29	524.75
432.512	555.75
432.734	563.75
432.956	534.75
433.178	541.75
433.4	550.75
433.622	558.75
433.844	514.75
434.066	542.75
434.287	559.75
434.509	556.75
434.731	565.75
434.953	583.75
435.175	604.75
435.397	625.75
435.618	615.75
435.84	625.75
436.062	734.75
436.284	812.75
436.505	686.75
436.727	636.75
436.949	545.75
437.17	565.75
437.392	574.75
437.614	575.75
437.835	599.75
438.057	694.75
438.278	806.75
438.5	779.75
438.721	863.75
438.943	829.75
439.165	677.75
439.386	622.75
439.608	620.75
439.829	602.75
440.05	621.75
440.272	667.75
440.493	638.75
440.715	615.75
440.936	592.75
441.158	588.75
441.379	589.75
441.6	589.75
441.822	636.75
442.043	654.75
442.264	714.75
442.486	782.75
442.707	666.75
442.928	627.75
443.149	641.75
443.371	643.75
443.592	702.75
443.813	805.75
444.034	871.75
444.255	718.75
444.476	639.75
444.698	635.75
444.919	647.75
445.14	732.75
445.361	707.75
445.582	651.75
445.803	709.75
446.024	799.75
446.245	839.75
446.466	763.75
446.687	656.75
446.908	632.75
447.129	576.75
447.35	579.75
447.571	553.75
447.792	553.75
448.013	564.75
448.234	578.75
448.455	618.75
448.675	724.75
448.896	858.75
449.117	736.75
449.338	692.75
449.559	795.75
449.779	905.75
450	702.75
450.221	607.75
450.442	595.75
450.662	560.75
450.883	521.75
451.104	547.75
451.324	530.75
451.545	530.75
451.766	526.75
451.986	499.75
452.207	504.75
452.428	502.75
452.648	494.75
452.869	489.75
453.089	511.75
453.31	504.75
453.53	498.75
453.751	499.75
453.971	502.75
454.192	491.75
454.412	517.75
454.633	515.75
454.853	495.75
455.073	487.75
455.294	510.75
455.514	587.75
455.734	577.75
455.955	513.75
456.175	475.75
456.395	472.75
456.616	468.75
456.836	477.75
457.056	464.75
457.276	469.75
457.497	458.75
457.717	489.75
457.937	473.75
458.157	494.75
458.377	501.75
458.598	514.75
458.818	564.75
459.038	626.75
459.258	626.75
459.478	575.75
459.698	533.75
459.918	545.75
460.138	551.75
460.358	554.75
460.578	562.75
460.798	607.75
461.018	568.75
461.238	581.75
461.458	592.75
461.678	571.75
461.898	580.75
462.118	577.75
462.338	588.75
462.558	610.75
462.777	600.75
462.997	640.75
463.217	639.75
463.437	654.75
463.657	630.75
463.876	602.75
464.096	605.75
464.316	589.75
464.536	627.75
464.755	587.75
464.975	634.75
465.195	629.75
465.414	648.75
465.634	586.75
465.854	585.75
466.073	550.75
466.293	575.75
466.512	538.75
466.732	545.75
466.951	512.75
467.171	533.75
467.391	526.75
467.61	534.75
467.829	545.75
468.049	524.75
468.268	545.75
468.488	514.75
468.707	505.75
468.927	522.75
469.146	509.75
469.365	519.75
469.585	514.75
469.804	526.75
470.023	528.75
470.243	540.75
470.462	515.75
470.681	551.75
470.901	534.75
471.12	529.75
471.339	532.75
471.558	548.75
471.777	523.75
471.997	510.75
472.216	537.75
472.435	546.75
472.654	529.75
472.873	501.75
473.092	524.75
473.311	517.75
473.53	523.75
473.749	531.75
473.968	580.75
474.187	663.75
474.406	707.75
474.625	578.75
474.844	541.75
475.063	523.75
475.282	548.75
475.501	517.75
475.72	575.75
475.939	526.75
476.158	527.75
476.377	539.75
476.596	564.75
476.814	547.75
477.033	541.75
477.252	576.75
477.471	563.75
477.69	580.75
477.908	595.75
478.127	606.75
478.346	591.75
478.564	598.75
478.783	607.75
479.002	632.75
479.22	617.75
479.439	639.75
479.658	629.75
479.876	637.75
480.095	665.75
480.313	656.75
480.532	661.75
480.751	671.75
480.969	660.75
481.188	700.75
481.406	711.75
481.624	653.75
481.843	618.75
482.061	625.75
482.28	627.75
482.498	619.75
482.717	627.75
482.935	610.75
483.153	614.75
483.372	617.75
483.59	613.75
483.808	655.75
484.027	641.75
484.245	620.75
484.463	641.75
484.681	625.75
484.9	643.75
485.118	621.75
485.336	632.75
485.554	643.75
485.772	634.75
485.99	651.75
486.209	641.75
486.427	639.75
486.645	650.75
486.863	685.75
487.081	673.75
487.299	694.75
487.517	659.75
487.735	659.75
487.953	668.75
488.171	670.75
488.389	676.75
488.607	687.75
488.825	670.75
489.043	673.75
489.261	686.75
489.479	689.75
489.696	675.75
489.914	679.75
490.132	679.75
490.35	697.75
490.568	697.75
490.786	695.75
491.003	730.75
491.221	732.75
491.439	742.75
491.657	765.75
491.874	760.75
492.092	775.75
492.31	774.75
492.527	772.75
492.745	795.75
492.963	794.75
493.18	802.75
493.398	814.75
493.615	776.75
493.833	761.75
494.05	787.75
494.268	781.75
494.485	798.75
494.703	765.75
494.92	765.75
495.138	788.75
495.355	781.75
495.573	811.75
495.79	788.75
496.008	823.75
496.225	784.75
496.442	795.75
496.66	786.75
496.877	783.75
497.094	801.75
497.312	779.75
497.529	802.75
497.746	846.75
497.963	841.75
498.181	853.75
498.398	893.75
498.615	912.75
498.832	925.75
499.049	971.75
499.267	975.75
499.484	1012.75
499.701	1079.75
499.918	1121.75
500.135	1181.75
500.352	1231.75
500.569	1282.75
500.786	1258.75
501.003	1260.75
501.22	1164.75
501.437	1159.75
501.654	1102.75
