Data from 1974.PennyLincolnUp.Lamp.En5.5.200Scan.071719.P1.Changed Mount._HRD10591_15-52-32-856.txt Node
Date: Thu Jul 18 15:52:32 EDT 2019
User: cochatt
Spectrometer: HR+D1059
Trigger mode: 1
Integration Time (sec): 1.000000E-1
Scans to average: 1
Electric dark correction enabled: true
Nonlinearity correction enabled: false
Boxcar width: 0
XAxis mode: Wavelengths
Number of Pixels in Spectrum: 2048
>>>>>Begin Spectral Data<<<<<
223.165	-21.69
223.4	-21.69
223.635	-21.69
223.869	-12.69
224.104	-21.69
224.338	-9.69
224.573	-4.69
224.808	2.31
225.042	-9.69
225.277	-4.69
225.511	-12.69
225.746	10.31
225.98	10.31
226.215	-5.69
226.449	17.31
226.683	18.31
226.918	12.31
227.152	32.31
227.387	18.31
227.621	22.31
227.856	39.31
228.09	51.31
228.324	37.31
228.559	48.31
228.793	67.31
229.027	93.31
229.262	104.31
229.496	105.31
229.73	130.31
229.964	154.31
230.199	132.31
230.433	116.31
230.667	116.31
230.901	105.31
231.136	112.31
231.37	105.31
231.604	122.31
231.838	107.31
232.072	95.31
232.306	96.31
232.541	127.31
232.775	116.31
233.009	108.31
233.243	112.31
233.477	115.31
233.711	118.31
233.945	102.31
234.179	123.31
234.413	102.31
234.647	111.31
234.881	114.31
235.115	110.31
235.349	115.31
235.583	124.31
235.817	123.31
236.051	128.31
236.285	131.31
236.519	120.31
236.753	121.31
236.987	134.31
237.221	154.31
237.455	198.31
237.689	179.31
237.922	133.31
238.156	136.31
238.39	114.31
238.624	136.31
238.858	120.31
239.091	116.31
239.325	127.31
239.559	130.31
239.793	131.31
240.027	133.31
240.26	118.31
240.494	144.31
240.728	166.31
240.961	157.31
241.195	140.31
241.429	137.31
241.662	138.31
241.896	138.31
242.13	134.31
242.363	140.31
242.597	145.31
242.83	149.31
243.064	124.31
243.298	137.31
243.531	148.31
243.765	135.31
243.998	134.31
244.232	121.31
244.465	149.31
244.699	133.31
244.932	146.31
245.166	155.31
245.399	167.31
245.633	137.31
245.866	164.31
246.099	142.31
246.333	151.31
246.566	154.31
246.8	149.31
247.033	162.31
247.266	161.31
247.5	170.31
247.733	166.31
247.966	174.31
248.2	178.31
248.433	161.31
248.666	171.31
248.899	192.31
249.133	179.31
249.366	200.31
249.599	204.31
249.832	159.31
250.066	180.31
250.299	183.31
250.532	214.31
250.765	205.31
250.998	223.31
251.231	225.31
251.465	201.31
251.698	208.31
251.931	190.31
252.164	198.31
252.397	177.31
252.63	201.31
252.863	213.31
253.096	219.31
253.329	231.31
253.562	233.31
253.795	220.31
254.028	214.31
254.261	221.31
254.494	236.31
254.727	254.31
254.96	283.31
255.193	260.31
255.426	256.31
255.659	234.31
255.892	222.31
256.124	226.31
256.357	227.31
256.59	233.31
256.823	229.31
257.056	212.31
257.289	204.31
257.521	214.31
257.754	221.31
257.987	214.31
258.22	216.31
258.452	214.31
258.685	219.31
258.918	215.31
259.151	217.31
259.383	214.31
259.616	242.31
259.849	211.31
260.081	222.31
260.314	240.31
260.547	244.31
260.779	247.31
261.012	233.31
261.244	216.31
261.477	241.31
261.71	210.31
261.942	221.31
262.175	230.31
262.407	233.31
262.64	244.31
262.872	208.31
263.105	212.31
263.337	224.31
263.57	222.31
263.802	221.31
264.035	222.31
264.267	218.31
264.499	217.31
264.732	208.31
264.964	223.31
265.197	221.31
265.429	199.31
265.661	216.31
265.894	239.31
266.126	230.31
266.358	244.31
266.591	240.31
266.823	224.31
267.055	227.31
267.287	250.31
267.52	224.31
267.752	236.31
267.984	229.31
268.216	242.31
268.448	222.31
268.681	243.31
268.913	252.31
269.145	250.31
269.377	270.31
269.609	260.31
269.841	256.31
270.073	271.31
270.306	287.31
270.538	306.31
270.77	313.31
271.002	302.31
271.234	284.31
271.466	306.31
271.698	297.31
271.93	314.31
272.162	308.31
272.394	309.31
272.626	311.31
272.858	281.31
273.09	276.31
273.322	266.31
273.553	276.31
273.785	251.31
274.017	267.31
274.249	275.31
274.481	272.31
274.713	265.31
274.945	287.31
275.176	246.31
275.408	267.31
275.64	272.31
275.872	288.31
276.104	271.31
276.335	255.31
276.567	269.31
276.799	288.31
277.031	294.31
277.262	314.31
277.494	334.31
277.726	302.31
277.957	298.31
278.189	286.31
278.421	289.31
278.652	283.31
278.884	269.31
279.115	273.31
279.347	281.31
279.579	267.31
279.81	282.31
280.042	276.31
280.273	285.31
280.505	278.31
280.736	288.31
280.968	301.31
281.199	290.31
281.431	294.31
281.662	261.31
281.894	272.31
282.125	274.31
282.356	291.31
282.588	292.31
282.819	288.31
283.051	299.31
283.282	295.31
283.513	295.31
283.745	284.31
283.976	285.31
284.207	278.31
284.439	296.31
284.67	280.31
284.901	275.31
285.132	299.31
285.364	295.31
285.595	295.31
285.826	273.31
286.057	303.31
286.288	310.31
286.52	290.31
286.751	290.31
286.982	291.31
287.213	302.31
287.444	289.31
287.675	293.31
287.906	315.31
288.138	297.31
288.369	303.31
288.6	316.31
288.831	291.31
289.062	304.31
289.293	291.31
289.524	299.31
289.755	307.31
289.986	307.31
290.217	305.31
290.448	290.31
290.679	301.31
290.91	290.31
291.141	294.31
291.371	306.31
291.602	319.31
291.833	291.31
292.064	306.31
292.295	292.31
292.526	298.31
292.757	299.31
292.987	298.31
293.218	312.31
293.449	294.31
293.68	293.31
293.91	305.31
294.141	297.31
294.372	300.31
294.603	299.31
294.833	292.31
295.064	303.31
295.295	306.31
295.525	310.31
295.756	314.31
295.987	305.31
296.217	320.31
296.448	334.31
296.679	330.31
296.909	317.31
297.14	334.31
297.37	311.31
297.601	326.31
297.831	313.31
298.062	321.31
298.292	316.31
298.523	310.31
298.753	313.31
298.984	314.31
299.214	331.31
299.445	318.31
299.675	313.31
299.905	326.31
300.136	321.31
300.366	338.31
300.597	313.31
300.827	323.31
301.057	328.31
301.288	343.31
301.518	334.31
301.748	347.31
301.979	337.31
302.209	315.31
302.439	342.31
302.669	338.31
302.9	348.31
303.13	332.31
303.36	330.31
303.59	346.31
303.82	338.31
304.051	363.31
304.281	339.31
304.511	342.31
304.741	320.31
304.971	350.31
305.201	340.31
305.431	338.31
305.661	348.31
305.891	343.31
306.121	347.31
306.352	342.31
306.582	337.31
306.812	326.31
307.042	351.31
307.272	337.31
307.502	347.31
307.731	342.31
307.961	340.31
308.191	365.31
308.421	352.31
308.651	338.31
308.881	354.31
309.111	385.31
309.341	355.31
309.571	350.31
309.8	360.31
310.03	362.31
310.26	387.31
310.49	375.31
310.72	374.31
310.949	368.31
311.179	378.31
311.409	374.31
311.639	390.31
311.868	379.31
312.098	379.31
312.328	370.31
312.557	402.31
312.787	402.31
313.017	400.31
313.246	384.31
313.476	380.31
313.706	376.31
313.935	376.31
314.165	384.31
314.394	415.31
314.624	389.31
314.853	380.31
315.083	405.31
315.312	378.31
315.542	390.31
315.771	371.31
316.001	368.31
316.23	384.31
316.46	376.31
316.689	380.31
316.919	395.31
317.148	379.31
317.377	386.31
317.607	388.31
317.836	399.31
318.065	365.31
318.295	376.31
318.524	394.31
318.753	393.31
318.983	393.31
319.212	385.31
319.441	375.31
319.67	382.31
319.9	392.31
320.129	374.31
320.358	393.31
320.587	376.31
320.816	380.31
321.046	388.31
321.275	396.31
321.504	401.31
321.733	382.31
321.962	378.31
322.191	395.31
322.42	407.31
322.649	420.31
322.878	424.31
323.108	430.31
323.337	452.31
323.566	454.31
323.795	478.31
324.024	500.31
324.253	593.31
324.482	776.31
324.71	1182.31
324.939	1756.31
325.168	1536.31
325.397	823.31
325.626	591.31
325.855	510.31
326.084	459.31
326.313	460.31
326.542	488.31
326.77	492.31
326.999	565.31
327.228	721.31
327.457	1070.31
327.686	1323.31
327.914	926.31
328.143	606.31
328.372	553.31
328.6	533.31
328.829	494.31
329.058	517.31
329.287	547.31
329.515	518.31
329.744	476.31
329.972	512.31
330.201	508.31
330.43	524.31
330.658	543.31
330.887	576.31
331.115	547.31
331.344	502.31
331.572	461.31
331.801	480.31
332.03	506.31
332.258	454.31
332.486	437.31
332.715	449.31
332.943	464.31
333.172	483.31
333.4	471.31
333.629	487.31
333.857	492.31
334.085	510.31
334.314	521.31
334.542	534.31
334.771	540.31
334.999	518.31
335.227	492.31
335.455	484.31
335.684	472.31
335.912	459.31
336.14	466.31
336.369	472.31
336.597	489.31
336.825	467.31
337.053	475.31
337.281	455.31
337.51	457.31
337.738	464.31
337.966	461.31
338.194	437.31
338.422	440.31
338.65	454.31
338.878	454.31
339.106	456.31
339.334	462.31
339.562	441.31
339.79	446.31
340.018	423.31
340.246	441.31
340.474	464.31
340.702	468.31
340.93	444.31
341.158	435.31
341.386	434.31
341.614	450.31
341.842	444.31
342.07	431.31
342.298	426.31
342.526	438.31
342.754	441.31
342.981	440.31
343.209	439.31
343.437	459.31
343.665	459.31
343.893	458.31
344.12	473.31
344.348	458.31
344.576	461.31
344.804	472.31
345.031	463.31
345.259	452.31
345.487	462.31
345.714	448.31
345.942	447.31
346.17	426.31
346.397	424.31
346.625	424.31
346.853	415.31
347.08	428.31
347.308	417.31
347.535	441.31
347.763	421.31
347.99	436.31
348.218	440.31
348.445	431.31
348.673	435.31
348.9	414.31
349.128	414.31
349.355	424.31
349.583	431.31
349.81	410.31
350.037	448.31
350.265	409.31
350.492	412.31
350.72	438.31
350.947	434.31
351.174	445.31
351.402	427.31
351.629	428.31
351.856	442.31
352.083	433.31
352.311	434.31
352.538	448.31
352.765	438.31
352.992	418.31
353.22	423.31
353.447	412.31
353.674	410.31
353.901	411.31
354.128	404.31
354.355	411.31
354.583	393.31
354.81	425.31
355.037	431.31
355.264	426.31
355.491	413.31
355.718	407.31
355.945	402.31
356.172	407.31
356.399	401.31
356.626	399.31
356.853	384.31
357.08	428.31
357.307	418.31
357.534	409.31
357.761	433.31
357.988	434.31
358.215	399.31
358.441	417.31
358.668	428.31
358.895	404.31
359.122	407.31
359.349	436.31
359.576	450.31
359.802	454.31
360.029	471.31
360.256	475.31
360.483	434.31
360.709	437.31
360.936	454.31
361.163	433.31
361.39	421.31
361.616	438.31
361.843	426.31
362.07	432.31
362.296	438.31
362.523	434.31
362.749	439.31
362.976	423.31
363.203	412.31
363.429	435.31
363.656	419.31
363.882	426.31
364.109	439.31
364.335	425.31
364.562	421.31
364.788	402.31
365.015	418.31
365.241	427.31
365.468	432.31
365.694	420.31
365.92	438.31
366.147	414.31
366.373	429.31
366.599	420.31
366.826	427.31
367.052	408.31
367.278	409.31
367.505	401.31
367.731	425.31
367.957	427.31
368.184	433.31
368.41	423.31
368.636	443.31
368.862	446.31
369.089	431.31
369.315	438.31
369.541	401.31
369.767	434.31
369.993	430.31
370.219	424.31
370.445	406.31
370.672	422.31
370.898	416.31
371.124	426.31
371.35	432.31
371.576	436.31
371.802	433.31
372.028	435.31
372.254	430.31
372.48	446.31
372.706	427.31
372.932	428.31
373.158	435.31
373.384	443.31
373.61	425.31
373.835	423.31
374.061	435.31
374.287	438.31
374.513	438.31
374.739	432.31
374.965	447.31
375.191	444.31
375.416	440.31
375.642	442.31
375.868	438.31
376.094	447.31
376.319	430.31
376.545	437.31
376.771	442.31
376.997	432.31
377.222	436.31
377.448	426.31
377.674	437.31
377.899	434.31
378.125	436.31
378.35	434.31
378.576	422.31
378.802	403.31
379.027	430.31
379.253	419.31
379.478	411.31
379.704	419.31
379.929	406.31
380.155	450.31
380.38	426.31
380.606	463.31
380.831	451.31
381.057	447.31
381.282	438.31
381.507	410.31
381.733	433.31
381.958	441.31
382.184	450.31
382.409	457.31
382.634	434.31
382.86	447.31
383.085	459.31
383.31	451.31
383.535	453.31
383.761	456.31
383.986	475.31
384.211	472.31
384.436	483.31
384.662	463.31
384.887	466.31
385.112	474.31
385.337	479.31
385.562	486.31
385.787	463.31
386.013	470.31
386.238	497.31
386.463	510.31
386.688	484.31
386.913	482.31
387.138	489.31
387.363	469.31
387.588	475.31
387.813	482.31
388.038	478.31
388.263	476.31
388.488	484.31
388.713	466.31
388.938	486.31
389.163	466.31
389.387	487.31
389.612	470.31
389.837	477.31
390.062	482.31
390.287	495.31
390.512	479.31
390.736	471.31
390.961	473.31
391.186	490.31
391.411	484.31
391.636	491.31
391.86	514.31
392.085	510.31
392.31	475.31
392.534	523.31
392.759	496.31
392.984	496.31
393.208	498.31
393.433	496.31
393.658	492.31
393.882	482.31
394.107	465.31
394.331	490.31
394.556	487.31
394.78	490.31
395.005	483.31
395.229	499.31
395.454	505.31
395.678	532.31
395.903	531.31
396.127	538.31
396.352	532.31
396.576	520.31
396.801	492.31
397.025	498.31
397.249	504.31
397.474	527.31
397.698	505.31
397.922	544.31
398.147	542.31
398.371	579.31
398.595	558.31
398.82	552.31
399.044	576.31
399.268	592.31
399.492	643.31
399.717	691.31
399.941	724.31
400.165	734.31
400.389	710.31
400.613	647.31
400.837	614.31
401.062	576.31
401.286	588.31
401.51	576.31
401.734	571.31
401.958	577.31
402.182	571.31
402.406	579.31
402.63	587.31
402.854	562.31
403.078	569.31
403.302	567.31
403.526	602.31
403.75	599.31
403.974	593.31
404.198	596.31
404.422	598.31
404.645	575.31
404.869	594.31
405.093	634.31
405.317	671.31
405.541	706.31
405.765	668.31
405.988	624.31
406.212	625.31
406.436	645.31
406.66	635.31
406.883	650.31
407.107	668.31
407.331	729.31
407.555	748.31
407.778	754.31
408.002	709.31
408.226	675.31
408.449	635.31
408.673	660.31
408.896	672.31
409.12	704.31
409.344	666.31
409.567	651.31
409.791	610.31
410.014	579.31
410.238	588.31
410.461	599.31
410.685	586.31
410.908	588.31
411.132	630.31
411.355	671.31
411.578	634.31
411.802	610.31
412.025	599.31
412.249	596.31
412.472	626.31
412.695	665.31
412.919	634.31
413.142	604.31
413.365	601.31
413.589	584.31
413.812	564.31
414.035	582.31
414.258	553.31
414.482	581.31
414.705	576.31
414.928	553.31
415.151	579.31
415.374	524.31
415.597	566.31
415.821	562.31
416.044	556.31
416.267	575.31
416.49	567.31
416.713	559.31
416.936	571.31
417.159	571.31
417.382	552.31
417.605	582.31
417.828	579.31
418.051	583.31
418.274	575.31
418.497	554.31
418.72	568.31
418.943	579.31
419.166	584.31
419.389	616.31
419.611	600.31
419.834	601.31
420.057	584.31
420.28	609.31
420.503	603.31
420.726	597.31
420.948	599.31
421.171	627.31
421.394	642.31
421.617	593.31
421.839	587.31
422.062	582.31
422.285	568.31
422.507	648.31
422.73	708.31
422.953	683.31
423.175	619.31
423.398	613.31
423.621	596.31
423.843	630.31
424.066	615.31
424.288	632.31
424.511	642.31
424.733	702.31
424.956	757.31
425.178	723.31
425.401	744.31
425.623	740.31
425.846	656.31
426.068	629.31
426.291	581.31
426.513	616.31
426.735	618.31
426.958	652.31
427.18	712.31
427.402	847.31
427.625	926.31
427.847	788.31
428.069	707.31
428.292	663.31
428.514	608.31
428.736	590.31
428.958	592.31
429.181	578.31
429.403	565.31
429.625	569.31
429.847	599.31
430.069	675.31
430.292	648.31
430.514	583.31
430.736	577.31
430.958	546.31
431.18	543.31
431.402	547.31
431.624	541.31
431.846	535.31
432.068	522.31
432.29	548.31
432.512	550.31
432.734	546.31
432.956	561.31
433.178	575.31
433.4	569.31
433.622	546.31
433.844	569.31
434.066	544.31
434.287	572.31
434.509	545.31
434.731	569.31
434.953	564.31
435.175	598.31
435.397	604.31
435.618	595.31
435.84	634.31
436.062	707.31
436.284	839.31
436.505	673.31
436.727	615.31
436.949	577.31
437.17	568.31
437.392	571.31
437.614	582.31
437.835	605.31
438.057	674.31
438.278	798.31
438.5	779.31
438.721	867.31
438.943	830.31
439.165	688.31
439.386	619.31
439.608	612.31
439.829	601.31
440.05	631.31
440.272	652.31
440.493	624.31
440.715	613.31
440.936	574.31
441.158	576.31
441.379	573.31
441.6	598.31
441.822	591.31
442.043	648.31
442.264	708.31
442.486	781.31
442.707	674.31
442.928	637.31
443.149	625.31
443.371	638.31
443.592	673.31
443.813	802.31
444.034	863.31
444.255	726.31
444.476	641.31
444.698	660.31
444.919	634.31
445.14	745.31
445.361	651.31
445.582	660.31
445.803	702.31
446.024	810.31
446.245	794.31
446.466	736.31
446.687	641.31
446.908	599.31
447.129	608.31
447.35	562.31
447.571	582.31
447.792	551.31
448.013	550.31
448.234	568.31
448.455	602.31
448.675	739.31
448.896	844.31
449.117	730.31
449.338	664.31
449.559	775.31
449.779	901.31
450	713.31
450.221	606.31
450.442	564.31
450.662	550.31
450.883	536.31
451.104	550.31
451.324	530.31
451.545	522.31
451.766	497.31
451.986	498.31
452.207	486.31
452.428	501.31
452.648	508.31
452.869	487.31
453.089	491.31
453.31	522.31
453.53	496.31
453.751	491.31
453.971	498.31
454.192	508.31
454.412	498.31
454.633	494.31
454.853	500.31
455.073	499.31
455.294	502.31
455.514	577.31
455.734	570.31
455.955	504.31
456.175	485.31
456.395	459.31
456.616	451.31
456.836	481.31
457.056	488.31
457.276	454.31
457.497	460.31
457.717	472.31
457.937	481.31
458.157	476.31
458.377	495.31
458.598	496.31
458.818	552.31
459.038	595.31
459.258	640.31
459.478	570.31
459.698	555.31
459.918	548.31
460.138	554.31
460.358	560.31
460.578	568.31
460.798	554.31
461.018	570.31
461.238	566.31
461.458	568.31
461.678	571.31
461.898	578.31
462.118	577.31
462.338	570.31
462.558	595.31
462.777	589.31
462.997	626.31
463.217	640.31
463.437	631.31
463.657	611.31
463.876	622.31
464.096	617.31
464.316	608.31
464.536	608.31
464.755	646.31
464.975	599.31
465.195	614.31
465.414	661.31
465.634	614.31
465.854	568.31
466.073	552.31
466.293	549.31
466.512	555.31
466.732	534.31
466.951	532.31
467.171	529.31
467.391	534.31
467.61	541.31
467.829	528.31
468.049	523.31
468.268	511.31
468.488	509.31
468.707	502.31
468.927	475.31
469.146	520.31
469.365	512.31
469.585	510.31
469.804	523.31
470.023	538.31
470.243	537.31
470.462	538.31
470.681	543.31
470.901	557.31
471.12	515.31
471.339	526.31
471.558	538.31
471.777	535.31
471.997	532.31
472.216	513.31
472.435	570.31
472.654	545.31
472.873	508.31
473.092	533.31
473.311	514.31
473.53	523.31
473.749	542.31
473.968	553.31
474.187	643.31
474.406	679.31
474.625	579.31
474.844	527.31
475.063	531.31
475.282	511.31
475.501	539.31
475.72	530.31
475.939	528.31
476.158	533.31
476.377	547.31
476.596	556.31
476.814	564.31
477.033	561.31
477.252	588.31
477.471	571.31
477.69	566.31
477.908	571.31
478.127	559.31
478.346	602.31
478.564	597.31
478.783	608.31
479.002	622.31
479.22	602.31
479.439	635.31
479.658	627.31
479.876	606.31
480.095	609.31
480.313	680.31
480.532	640.31
480.751	650.31
480.969	650.31
481.188	702.31
481.406	707.31
481.624	676.31
481.843	666.31
482.061	628.31
482.28	626.31
482.498	594.31
482.717	609.31
482.935	605.31
483.153	598.31
483.372	622.31
483.59	622.31
483.808	615.31
484.027	616.31
484.245	617.31
484.463	617.31
484.681	626.31
484.9	616.31
485.118	650.31
485.336	652.31
485.554	633.31
485.772	636.31
485.99	629.31
486.209	650.31
486.427	671.31
486.645	657.31
486.863	654.31
487.081	619.31
487.299	662.31
487.517	649.31
487.735	668.31
487.953	652.31
488.171	666.31
488.389	638.31
488.607	662.31
488.825	666.31
489.043	653.31
489.261	678.31
489.479	658.31
489.696	667.31
489.914	682.31
490.132	649.31
490.35	699.31
490.568	705.31
490.786	671.31
491.003	736.31
491.221	734.31
491.439	762.31
491.657	731.31
491.874	766.31
492.092	767.31
492.31	751.31
492.527	754.31
492.745	734.31
492.963	753.31
493.18	792.31
493.398	786.31
493.615	772.31
493.833	786.31
494.05	809.31
494.268	765.31
494.485	773.31
494.703	774.31
494.92	789.31
495.138	766.31
495.355	772.31
495.573	803.31
495.79	783.31
496.008	767.31
496.225	784.31
496.442	771.31
496.66	824.31
496.877	800.31
497.094	832.31
497.312	801.31
497.529	809.31
497.746	849.31
497.963	805.31
498.181	853.31
498.398	864.31
498.615	888.31
498.832	934.31
499.049	932.31
499.267	972.31
499.484	1022.31
499.701	1065.31
499.918	1110.31
500.135	1184.31
500.352	1234.31
500.569	1266.31
500.786	1251.31
501.003	1241.31
501.22	1156.31
501.437	1112.31
501.654	1075.31
