Data from 1974.PennyLincolnUp.Lamp.En5.5.200Scan.071719.P1.Changed Mount._HRD10591_15-53-58-857.txt Node
Date: Thu Jul 18 15:53:58 EDT 2019
User: cochatt
Spectrometer: HR+D1059
Trigger mode: 1
Integration Time (sec): 1.000000E-1
Scans to average: 1
Electric dark correction enabled: true
Nonlinearity correction enabled: false
Boxcar width: 0
XAxis mode: Wavelengths
Number of Pixels in Spectrum: 2048
>>>>>Begin Spectral Data<<<<<
223.165	-23.38
223.4	-23.38
223.635	-23.38
223.869	-16.38
224.104	-14.38
224.338	-13.38
224.573	-3.38
224.808	-9.38
225.042	0.62
225.277	12.62
225.511	-16.38
225.746	-8.38
225.98	-2.38
226.215	-9.38
226.449	24.62
226.683	30.62
226.918	28.62
227.152	19.62
227.387	46.62
227.621	41.62
227.856	33.62
228.09	56.62
228.324	61.62
228.559	63.62
228.793	72.62
229.027	114.62
229.262	109.62
229.496	128.62
229.73	130.62
229.964	171.62
230.199	135.62
230.433	125.62
230.667	109.62
230.901	121.62
231.136	123.62
231.37	138.62
231.604	121.62
231.838	109.62
232.072	128.62
232.306	127.62
232.541	117.62
232.775	111.62
233.009	120.62
233.243	139.62
233.477	123.62
233.711	118.62
233.945	125.62
234.179	123.62
234.413	117.62
234.647	124.62
234.881	128.62
235.115	126.62
235.349	134.62
235.583	135.62
235.817	134.62
236.051	139.62
236.285	130.62
236.519	123.62
236.753	125.62
236.987	153.62
237.221	178.62
237.455	231.62
237.689	194.62
237.922	156.62
238.156	146.62
238.39	135.62
238.624	138.62
238.858	129.62
239.091	135.62
239.325	125.62
239.559	126.62
239.793	125.62
240.027	141.62
240.26	151.62
240.494	153.62
240.728	144.62
240.961	153.62
241.195	163.62
241.429	145.62
241.662	155.62
241.896	159.62
242.13	147.62
242.363	140.62
242.597	152.62
242.83	153.62
243.064	156.62
243.298	159.62
243.531	157.62
243.765	146.62
243.998	155.62
244.232	150.62
244.465	162.62
244.699	160.62
244.932	153.62
245.166	155.62
245.399	162.62
245.633	173.62
245.866	174.62
246.099	163.62
246.333	169.62
246.566	167.62
246.8	176.62
247.033	176.62
247.266	164.62
247.5	165.62
247.733	169.62
247.966	184.62
248.2	192.62
248.433	182.62
248.666	187.62
248.899	207.62
249.133	210.62
249.366	211.62
249.599	212.62
249.832	203.62
250.066	179.62
250.299	192.62
250.532	209.62
250.765	235.62
250.998	237.62
251.231	239.62
251.465	219.62
251.698	223.62
251.931	226.62
252.164	216.62
252.397	209.62
252.63	213.62
252.863	208.62
253.096	236.62
253.329	237.62
253.562	255.62
253.795	234.62
254.028	239.62
254.261	224.62
254.494	260.62
254.727	269.62
254.96	313.62
255.193	292.62
255.426	269.62
255.659	234.62
255.892	232.62
256.124	257.62
256.357	259.62
256.59	231.62
256.823	223.62
257.056	233.62
257.289	217.62
257.521	229.62
257.754	228.62
257.987	232.62
258.22	215.62
258.452	197.62
258.685	220.62
258.918	229.62
259.151	221.62
259.383	243.62
259.616	249.62
259.849	259.62
260.081	242.62
260.314	277.62
260.547	286.62
260.779	267.62
261.012	254.62
261.244	238.62
261.477	253.62
261.71	237.62
261.942	245.62
262.175	236.62
262.407	237.62
262.64	248.62
262.872	250.62
263.105	245.62
263.337	235.62
263.57	214.62
263.802	249.62
264.035	229.62
264.267	231.62
264.499	218.62
264.732	240.62
264.964	237.62
265.197	225.62
265.429	233.62
265.661	233.62
265.894	223.62
266.126	232.62
266.358	218.62
266.591	235.62
266.823	242.62
267.055	253.62
267.287	250.62
267.52	248.62
267.752	256.62
267.984	247.62
268.216	248.62
268.448	258.62
268.681	242.62
268.913	262.62
269.145	273.62
269.377	275.62
269.609	305.62
269.841	298.62
270.073	305.62
270.306	299.62
270.538	342.62
270.77	317.62
271.002	313.62
271.234	318.62
271.466	318.62
271.698	322.62
271.93	336.62
272.162	334.62
272.394	343.62
272.626	331.62
272.858	303.62
273.09	274.62
273.322	301.62
273.553	291.62
273.785	282.62
274.017	299.62
274.249	281.62
274.481	283.62
274.713	272.62
274.945	303.62
275.176	277.62
275.408	273.62
275.64	249.62
275.872	281.62
276.104	285.62
276.335	277.62
276.567	294.62
276.799	314.62
277.031	323.62
277.262	327.62
277.494	342.62
277.726	309.62
277.957	321.62
278.189	315.62
278.421	291.62
278.652	306.62
278.884	302.62
279.115	284.62
279.347	295.62
279.579	305.62
279.81	283.62
280.042	281.62
280.273	289.62
280.505	293.62
280.736	301.62
280.968	299.62
281.199	287.62
281.431	290.62
281.662	301.62
281.894	294.62
282.125	294.62
282.356	294.62
282.588	316.62
282.819	329.62
283.051	305.62
283.282	310.62
283.513	304.62
283.745	301.62
283.976	306.62
284.207	304.62
284.439	327.62
284.67	304.62
284.901	320.62
285.132	315.62
285.364	287.62
285.595	296.62
285.826	304.62
286.057	318.62
286.288	308.62
286.52	305.62
286.751	303.62
286.982	312.62
287.213	313.62
287.444	343.62
287.675	321.62
287.906	327.62
288.138	314.62
288.369	344.62
288.6	338.62
288.831	328.62
289.062	314.62
289.293	307.62
289.524	315.62
289.755	318.62
289.986	314.62
290.217	324.62
290.448	305.62
290.679	313.62
290.91	335.62
291.141	314.62
291.371	306.62
291.602	313.62
291.833	311.62
292.064	317.62
292.295	309.62
292.526	311.62
292.757	316.62
292.987	333.62
293.218	320.62
293.449	300.62
293.68	323.62
293.91	306.62
294.141	325.62
294.372	333.62
294.603	307.62
294.833	305.62
295.064	313.62
295.295	319.62
295.525	306.62
295.756	331.62
295.987	340.62
296.217	328.62
296.448	366.62
296.679	321.62
296.909	329.62
297.14	337.62
297.37	351.62
297.601	334.62
297.831	328.62
298.062	320.62
298.292	319.62
298.523	336.62
298.753	347.62
298.984	343.62
299.214	335.62
299.445	322.62
299.675	337.62
299.905	344.62
300.136	348.62
300.366	327.62
300.597	346.62
300.827	348.62
301.057	351.62
301.288	346.62
301.518	373.62
301.748	368.62
301.979	345.62
302.209	343.62
302.439	373.62
302.669	359.62
302.9	350.62
303.13	375.62
303.36	385.62
303.59	377.62
303.82	387.62
304.051	367.62
304.281	370.62
304.511	341.62
304.741	363.62
304.971	367.62
305.201	363.62
305.431	363.62
305.661	347.62
305.891	353.62
306.121	341.62
306.352	358.62
306.582	371.62
306.812	354.62
307.042	355.62
307.272	354.62
307.502	362.62
307.731	368.62
307.961	373.62
308.191	365.62
308.421	363.62
308.651	351.62
308.881	365.62
309.111	383.62
309.341	368.62
309.571	368.62
309.8	390.62
310.03	390.62
310.26	401.62
310.49	399.62
310.72	400.62
310.949	408.62
311.179	410.62
311.409	399.62
311.639	411.62
311.868	395.62
312.098	408.62
312.328	412.62
312.557	403.62
312.787	432.62
313.017	433.62
313.246	433.62
313.476	406.62
313.706	413.62
313.935	385.62
314.165	422.62
314.394	423.62
314.624	416.62
314.853	418.62
315.083	413.62
315.312	410.62
315.542	395.62
315.771	401.62
316.001	413.62
316.23	402.62
316.46	393.62
316.689	381.62
316.919	414.62
317.148	419.62
317.377	422.62
317.607	427.62
317.836	389.62
318.065	408.62
318.295	415.62
318.524	413.62
318.753	422.62
318.983	410.62
319.212	399.62
319.441	408.62
319.67	409.62
319.9	404.62
320.129	401.62
320.358	416.62
320.587	394.62
320.816	414.62
321.046	415.62
321.275	421.62
321.504	425.62
321.733	429.62
321.962	433.62
322.191	415.62
322.42	433.62
322.649	453.62
322.878	461.62
323.108	463.62
323.337	473.62
323.566	483.62
323.795	526.62
324.024	546.62
324.253	645.62
324.482	852.62
324.71	1309.62
324.939	1955.62
325.168	1726.62
325.397	895.62
325.626	631.62
325.855	556.62
326.084	504.62
326.313	503.62
326.542	527.62
326.77	531.62
326.999	606.62
327.228	809.62
327.457	1182.62
327.686	1508.62
327.914	974.62
328.143	655.62
328.372	607.62
328.6	568.62
328.829	554.62
329.058	571.62
329.287	566.62
329.515	522.62
329.744	528.62
329.972	525.62
330.201	540.62
330.43	581.62
330.658	585.62
330.887	599.62
331.115	581.62
331.344	519.62
331.572	518.62
331.801	513.62
332.03	504.62
332.258	499.62
332.486	476.62
332.715	493.62
332.943	486.62
333.172	502.62
333.4	517.62
333.629	527.62
333.857	546.62
334.085	528.62
334.314	539.62
334.542	574.62
334.771	592.62
334.999	543.62
335.227	515.62
335.455	491.62
335.684	494.62
335.912	517.62
336.14	508.62
336.369	483.62
336.597	484.62
336.825	507.62
337.053	498.62
337.281	498.62
337.51	488.62
337.738	454.62
337.966	474.62
338.194	474.62
338.422	501.62
338.65	503.62
338.878	470.62
339.106	471.62
339.334	454.62
339.562	481.62
339.79	461.62
340.018	460.62
340.246	469.62
340.474	461.62
340.702	464.62
340.93	457.62
341.158	457.62
341.386	467.62
341.614	463.62
341.842	455.62
342.07	465.62
342.298	454.62
342.526	459.62
342.754	453.62
342.981	454.62
343.209	458.62
343.437	458.62
343.665	463.62
343.893	475.62
344.12	490.62
344.348	479.62
344.576	462.62
344.804	491.62
345.031	493.62
345.259	521.62
345.487	487.62
345.714	468.62
345.942	453.62
346.17	446.62
346.397	447.62
346.625	461.62
346.853	430.62
347.08	450.62
347.308	465.62
347.535	471.62
347.763	460.62
347.99	480.62
348.218	454.62
348.445	458.62
348.673	460.62
348.9	464.62
349.128	450.62
349.355	442.62
349.583	467.62
349.81	434.62
350.037	450.62
350.265	459.62
350.492	445.62
350.72	442.62
350.947	457.62
351.174	465.62
351.402	462.62
351.629	467.62
351.856	447.62
352.083	453.62
352.311	467.62
352.538	470.62
352.765	465.62
352.992	465.62
353.22	470.62
353.447	437.62
353.674	437.62
353.901	460.62
354.128	423.62
354.355	444.62
354.583	436.62
354.81	432.62
355.037	448.62
355.264	440.62
355.491	425.62
355.718	426.62
355.945	438.62
356.172	440.62
356.399	450.62
356.626	422.62
356.853	421.62
357.08	423.62
357.307	413.62
357.534	424.62
357.761	442.62
357.988	442.62
358.215	441.62
358.441	419.62
358.668	433.62
358.895	439.62
359.122	450.62
359.349	440.62
359.576	460.62
359.802	442.62
360.029	486.62
360.256	495.62
360.483	489.62
360.709	478.62
360.936	471.62
361.163	458.62
361.39	451.62
361.616	462.62
361.843	459.62
362.07	471.62
362.296	450.62
362.523	439.62
362.749	473.62
362.976	454.62
363.203	446.62
363.429	443.62
363.656	441.62
363.882	454.62
364.109	459.62
364.335	438.62
364.562	450.62
364.788	425.62
365.015	463.62
365.241	461.62
365.468	471.62
365.694	446.62
365.92	459.62
366.147	443.62
366.373	432.62
366.599	423.62
366.826	445.62
367.052	452.62
367.278	426.62
367.505	466.62
367.731	455.62
367.957	458.62
368.184	447.62
368.41	432.62
368.636	453.62
368.862	451.62
369.089	438.62
369.315	457.62
369.541	457.62
369.767	469.62
369.993	468.62
370.219	457.62
370.445	459.62
370.672	455.62
370.898	446.62
371.124	442.62
371.35	461.62
371.576	454.62
371.802	447.62
372.028	473.62
372.254	451.62
372.48	452.62
372.706	455.62
372.932	434.62
373.158	460.62
373.384	466.62
373.61	465.62
373.835	473.62
374.061	462.62
374.287	463.62
374.513	458.62
374.739	474.62
374.965	472.62
375.191	481.62
375.416	453.62
375.642	454.62
375.868	463.62
376.094	455.62
376.319	449.62
376.545	430.62
376.771	449.62
376.997	465.62
377.222	465.62
377.448	455.62
377.674	441.62
377.899	463.62
378.125	436.62
378.35	467.62
378.576	450.62
378.802	472.62
379.027	457.62
379.253	458.62
379.478	445.62
379.704	463.62
379.929	452.62
380.155	434.62
380.38	457.62
380.606	465.62
380.831	461.62
381.057	480.62
381.282	457.62
381.507	469.62
381.733	440.62
381.958	454.62
382.184	467.62
382.409	467.62
382.634	475.62
382.86	465.62
383.085	477.62
383.31	489.62
383.535	481.62
383.761	476.62
383.986	471.62
384.211	485.62
384.436	474.62
384.662	489.62
384.887	489.62
385.112	504.62
385.337	505.62
385.562	504.62
385.787	484.62
386.013	520.62
386.238	514.62
386.463	511.62
386.688	507.62
386.913	499.62
387.138	526.62
387.363	521.62
387.588	507.62
387.813	511.62
388.038	496.62
388.263	513.62
388.488	481.62
388.713	528.62
388.938	510.62
389.163	519.62
389.387	528.62
389.612	510.62
389.837	522.62
390.062	504.62
390.287	505.62
390.512	493.62
390.736	510.62
390.961	475.62
391.186	527.62
391.411	529.62
391.636	520.62
391.86	519.62
392.085	526.62
392.31	548.62
392.534	555.62
392.759	540.62
392.984	527.62
393.208	510.62
393.433	526.62
393.658	510.62
393.882	525.62
394.107	527.62
394.331	519.62
394.556	515.62
394.78	526.62
395.005	528.62
395.229	512.62
395.454	548.62
395.678	560.62
395.903	570.62
396.127	553.62
396.352	567.62
396.576	551.62
396.801	538.62
397.025	527.62
397.249	534.62
397.474	542.62
397.698	538.62
397.922	584.62
398.147	590.62
398.371	585.62
398.595	566.62
398.82	593.62
399.044	620.62
399.268	614.62
399.492	684.62
399.717	723.62
399.941	740.62
400.165	741.62
400.389	706.62
400.613	675.62
400.837	641.62
401.062	629.62
401.286	603.62
401.51	606.62
401.734	589.62
401.958	617.62
402.182	601.62
402.406	637.62
402.63	618.62
402.854	608.62
403.078	620.62
403.302	613.62
403.526	635.62
403.75	614.62
403.974	605.62
404.198	629.62
404.422	623.62
404.645	626.62
404.869	622.62
405.093	677.62
405.317	700.62
405.541	749.62
405.765	698.62
405.988	651.62
406.212	663.62
406.436	668.62
406.66	711.62
406.883	653.62
407.107	688.62
407.331	739.62
407.555	800.62
407.778	834.62
408.002	752.62
408.226	681.62
408.449	676.62
408.673	691.62
408.896	709.62
409.12	751.62
409.344	725.62
409.567	660.62
409.791	651.62
410.014	631.62
410.238	652.62
410.461	611.62
410.685	630.62
410.908	628.62
411.132	667.62
411.355	714.62
411.578	685.62
411.802	629.62
412.025	640.62
412.249	634.62
412.472	663.62
412.695	697.62
412.919	660.62
413.142	642.62
413.365	610.62
413.589	608.62
413.812	603.62
414.035	595.62
414.258	599.62
414.482	604.62
414.705	609.62
414.928	577.62
415.151	609.62
415.374	597.62
415.597	595.62
415.821	555.62
416.044	597.62
416.267	595.62
416.49	578.62
416.713	595.62
416.936	584.62
417.159	598.62
417.382	568.62
417.605	595.62
417.828	591.62
418.051	620.62
418.274	613.62
418.497	593.62
418.72	611.62
418.943	588.62
419.166	622.62
419.389	646.62
419.611	648.62
419.834	635.62
420.057	620.62
420.28	627.62
420.503	614.62
420.726	613.62
420.948	633.62
421.171	649.62
421.394	687.62
421.617	647.62
421.839	633.62
422.062	618.62
422.285	640.62
422.507	671.62
422.73	765.62
422.953	761.62
423.175	683.62
423.398	643.62
423.621	641.62
423.843	671.62
424.066	677.62
424.288	659.62
424.511	665.62
424.733	721.62
424.956	785.62
425.178	758.62
425.401	784.62
425.623	813.62
425.846	707.62
426.068	631.62
426.291	643.62
426.513	653.62
426.735	653.62
426.958	674.62
427.18	788.62
427.402	898.62
427.625	985.62
427.847	857.62
428.069	743.62
428.292	703.62
428.514	625.62
428.736	617.62
428.958	616.62
429.181	588.62
429.403	590.62
429.625	593.62
429.847	622.62
430.069	718.62
430.292	702.62
430.514	609.62
430.736	609.62
430.958	584.62
431.18	591.62
431.402	557.62
431.624	559.62
431.846	555.62
432.068	558.62
432.29	592.62
432.512	558.62
432.734	583.62
432.956	598.62
433.178	590.62
433.4	605.62
433.622	587.62
433.844	576.62
434.066	581.62
434.287	575.62
434.509	588.62
434.731	600.62
434.953	601.62
435.175	622.62
435.397	642.62
435.618	626.62
435.84	708.62
436.062	783.62
436.284	892.62
436.505	725.62
436.727	646.62
436.949	608.62
437.17	597.62
437.392	613.62
437.614	605.62
437.835	626.62
438.057	726.62
438.278	825.62
438.5	845.62
438.721	924.62
438.943	895.62
439.165	753.62
439.386	638.62
439.608	629.62
439.829	656.62
440.05	643.62
440.272	686.62
440.493	673.62
440.715	616.62
440.936	608.62
441.158	634.62
441.379	616.62
441.6	634.62
441.822	641.62
442.043	674.62
442.264	762.62
442.486	832.62
442.707	714.62
442.928	647.62
443.149	672.62
443.371	697.62
443.592	723.62
443.813	856.62
444.034	911.62
444.255	754.62
444.476	683.62
444.698	668.62
444.919	674.62
445.14	794.62
445.361	718.62
445.582	699.62
445.803	757.62
446.024	862.62
446.245	875.62
446.466	768.62
446.687	687.62
446.908	650.62
447.129	603.62
447.35	605.62
447.571	574.62
447.792	571.62
448.013	595.62
448.234	616.62
448.455	685.62
448.675	784.62
448.896	927.62
449.117	793.62
449.338	734.62
449.559	824.62
449.779	960.62
450	760.62
450.221	629.62
450.442	585.62
450.662	573.62
450.883	554.62
451.104	579.62
451.324	573.62
451.545	552.62
451.766	566.62
451.986	545.62
452.207	520.62
452.428	521.62
452.648	537.62
452.869	521.62
453.089	505.62
453.31	554.62
453.53	519.62
453.751	534.62
453.971	549.62
454.192	544.62
454.412	519.62
454.633	494.62
454.853	526.62
455.073	506.62
455.294	562.62
455.514	648.62
455.734	621.62
455.955	535.62
456.175	503.62
456.395	490.62
456.616	497.62
456.836	496.62
457.056	489.62
457.276	495.62
457.497	520.62
457.717	507.62
457.937	494.62
458.157	535.62
458.377	528.62
458.598	546.62
458.818	595.62
459.038	653.62
459.258	727.62
459.478	621.62
459.698	557.62
459.918	575.62
460.138	565.62
460.358	575.62
460.578	594.62
460.798	591.62
461.018	603.62
461.238	575.62
461.458	599.62
461.678	610.62
461.898	600.62
462.118	579.62
462.338	606.62
462.558	604.62
462.777	637.62
462.997	673.62
463.217	670.62
463.437	685.62
463.657	634.62
463.876	663.62
464.096	614.62
464.316	608.62
464.536	650.62
464.755	642.62
464.975	642.62
465.195	658.62
465.414	697.62
465.634	653.62
465.854	600.62
466.073	609.62
466.293	552.62
466.512	563.62
466.732	559.62
466.951	558.62
467.171	562.62
467.391	545.62
467.61	574.62
467.829	581.62
468.049	571.62
468.268	545.62
468.488	536.62
468.707	525.62
468.927	543.62
469.146	530.62
469.365	554.62
469.585	552.62
469.804	547.62
470.023	567.62
470.243	557.62
470.462	558.62
470.681	600.62
470.901	570.62
471.12	567.62
471.339	555.62
471.558	558.62
471.777	562.62
471.997	553.62
472.216	553.62
472.435	581.62
472.654	554.62
472.873	561.62
473.092	556.62
473.311	543.62
473.53	531.62
473.749	560.62
473.968	588.62
474.187	681.62
474.406	742.62
474.625	589.62
474.844	574.62
475.063	578.62
475.282	545.62
475.501	544.62
475.72	570.62
475.939	553.62
476.158	584.62
476.377	586.62
476.596	604.62
476.814	547.62
477.033	587.62
477.252	565.62
477.471	582.62
477.69	595.62
477.908	605.62
478.127	623.62
478.346	628.62
478.564	621.62
478.783	623.62
479.002	639.62
479.22	635.62
479.439	628.62
479.658	677.62
479.876	686.62
480.095	655.62
480.313	710.62
480.532	704.62
480.751	671.62
480.969	693.62
481.188	710.62
481.406	746.62
481.624	701.62
481.843	689.62
482.061	656.62
482.28	669.62
482.498	672.62
482.717	642.62
482.935	659.62
483.153	638.62
483.372	667.62
483.59	667.62
483.808	657.62
484.027	656.62
484.245	663.62
484.463	645.62
484.681	668.62
484.9	657.62
485.118	664.62
485.336	659.62
485.554	671.62
485.772	675.62
485.99	641.62
486.209	686.62
486.427	709.62
486.645	671.62
486.863	718.62
487.081	706.62
487.299	693.62
487.517	724.62
487.735	695.62
487.953	679.62
488.171	710.62
488.389	710.62
488.607	691.62
488.825	693.62
489.043	691.62
489.261	710.62
489.479	677.62
489.696	711.62
489.914	698.62
490.132	711.62
490.35	708.62
490.568	722.62
490.786	728.62
491.003	774.62
491.221	777.62
491.439	756.62
491.657	776.62
491.874	791.62
492.092	785.62
492.31	783.62
492.527	797.62
492.745	818.62
492.963	834.62
493.18	823.62
493.398	811.62
493.615	861.62
493.833	825.62
494.05	851.62
494.268	840.62
494.485	837.62
494.703	819.62
494.92	866.62
495.138	810.62
495.355	805.62
495.573	856.62
495.79	811.62
496.008	848.62
496.225	849.62
496.442	818.62
496.66	901.62
496.877	830.62
497.094	858.62
497.312	819.62
497.529	857.62
497.746	867.62
497.963	906.62
498.181	912.62
498.398	931.62
498.615	946.62
498.832	968.62
499.049	1007.62
499.267	1032.62
499.484	1072.62
499.701	1094.62
499.918	1150.62
500.135	1222.62
500.352	1308.62
500.569	1326.62
500.786	1343.62
501.003	1285.62
501.22	1197.62
501.437	1167.62
501.654	1126.62
