Data from 1974.PennyLincolnUp.Lamp.En5.5.200Scan.071719.P1.Changed Mount._HRD10591_15-53-02-857.txt Node
Date: Thu Jul 18 15:53:02 EDT 2019
User: cochatt
Spectrometer: HR+D1059
Trigger mode: 1
Integration Time (sec): 1.000000E-1
Scans to average: 1
Electric dark correction enabled: true
Nonlinearity correction enabled: false
Boxcar width: 0
XAxis mode: Wavelengths
Number of Pixels in Spectrum: 2048
>>>>>Begin Spectral Data<<<<<
223.165	-24.19
223.4	-24.19
223.635	-24.19
223.869	-22.19
224.104	-31.19
224.338	-10.19
224.573	-11.19
224.808	-15.19
225.042	-3.19
225.277	-11.19
225.511	4.81
225.746	0.81
225.98	13.81
226.215	2.81
226.449	12.81
226.683	21.81
226.918	32.81
227.152	38.81
227.387	36.81
227.621	16.81
227.856	52.81
228.09	27.81
228.324	52.81
228.559	56.81
228.793	58.81
229.027	90.81
229.262	101.81
229.496	123.81
229.73	135.81
229.964	168.81
230.199	137.81
230.433	108.81
230.667	108.81
230.901	127.81
231.136	104.81
231.37	109.81
231.604	112.81
231.838	108.81
232.072	115.81
232.306	128.81
232.541	134.81
232.775	109.81
233.009	114.81
233.243	108.81
233.477	106.81
233.711	114.81
233.945	119.81
234.179	125.81
234.413	121.81
234.647	112.81
234.881	130.81
235.115	130.81
235.349	131.81
235.583	117.81
235.817	127.81
236.051	135.81
236.285	142.81
236.519	123.81
236.753	126.81
236.987	136.81
237.221	167.81
237.455	237.81
237.689	181.81
237.922	146.81
238.156	133.81
238.39	135.81
238.624	136.81
238.858	130.81
239.091	139.81
239.325	135.81
239.559	132.81
239.793	128.81
240.027	141.81
240.26	146.81
240.494	156.81
240.728	158.81
240.961	153.81
241.195	148.81
241.429	151.81
241.662	131.81
241.896	136.81
242.13	139.81
242.363	139.81
242.597	140.81
242.83	158.81
243.064	148.81
243.298	148.81
243.531	147.81
243.765	136.81
243.998	156.81
244.232	141.81
244.465	169.81
244.699	159.81
244.932	151.81
245.166	157.81
245.399	157.81
245.633	169.81
245.866	171.81
246.099	152.81
246.333	146.81
246.566	164.81
246.8	154.81
247.033	163.81
247.266	174.81
247.5	169.81
247.733	181.81
247.966	180.81
248.2	165.81
248.433	194.81
248.666	193.81
248.899	206.81
249.133	212.81
249.366	209.81
249.599	217.81
249.832	205.81
250.066	197.81
250.299	188.81
250.532	188.81
250.765	209.81
250.998	207.81
251.231	243.81
251.465	246.81
251.698	233.81
251.931	209.81
252.164	204.81
252.397	198.81
252.63	221.81
252.863	221.81
253.096	205.81
253.329	234.81
253.562	233.81
253.795	218.81
254.028	221.81
254.261	228.81
254.494	224.81
254.727	259.81
254.96	290.81
255.193	293.81
255.426	266.81
255.659	256.81
255.892	242.81
256.124	230.81
256.357	251.81
256.59	253.81
256.823	228.81
257.056	211.81
257.289	239.81
257.521	225.81
257.754	217.81
257.987	234.81
258.22	232.81
258.452	217.81
258.685	238.81
258.918	225.81
259.151	221.81
259.383	229.81
259.616	234.81
259.849	243.81
260.081	256.81
260.314	270.81
260.547	259.81
260.779	276.81
261.012	240.81
261.244	240.81
261.477	227.81
261.71	234.81
261.942	233.81
262.175	238.81
262.407	235.81
262.64	240.81
262.872	229.81
263.105	229.81
263.337	235.81
263.57	241.81
263.802	230.81
264.035	244.81
264.267	222.81
264.499	227.81
264.732	229.81
264.964	228.81
265.197	229.81
265.429	251.81
265.661	235.81
265.894	234.81
266.126	230.81
266.358	212.81
266.591	241.81
266.823	225.81
267.055	242.81
267.287	249.81
267.52	252.81
267.752	243.81
267.984	221.81
268.216	241.81
268.448	256.81
268.681	249.81
268.913	257.81
269.145	265.81
269.377	273.81
269.609	292.81
269.841	266.81
270.073	299.81
270.306	312.81
270.538	330.81
270.77	338.81
271.002	310.81
271.234	306.81
271.466	328.81
271.698	341.81
271.93	327.81
272.162	308.81
272.394	331.81
272.626	325.81
272.858	300.81
273.09	283.81
273.322	292.81
273.553	287.81
273.785	273.81
274.017	285.81
274.249	282.81
274.481	286.81
274.713	272.81
274.945	290.81
275.176	288.81
275.408	280.81
275.64	276.81
275.872	259.81
276.104	289.81
276.335	274.81
276.567	290.81
276.799	304.81
277.031	325.81
277.262	318.81
277.494	326.81
277.726	328.81
277.957	328.81
278.189	304.81
278.421	305.81
278.652	282.81
278.884	270.81
279.115	304.81
279.347	288.81
279.579	290.81
279.81	295.81
280.042	301.81
280.273	268.81
280.505	280.81
280.736	290.81
280.968	287.81
281.199	291.81
281.431	290.81
281.662	296.81
281.894	289.81
282.125	294.81
282.356	301.81
282.588	318.81
282.819	338.81
283.051	299.81
283.282	274.81
283.513	301.81
283.745	283.81
283.976	310.81
284.207	298.81
284.439	299.81
284.67	296.81
284.901	300.81
285.132	305.81
285.364	288.81
285.595	296.81
285.826	311.81
286.057	317.81
286.288	290.81
286.52	301.81
286.751	311.81
286.982	329.81
287.213	296.81
287.444	295.81
287.675	313.81
287.906	340.81
288.138	337.81
288.369	317.81
288.6	338.81
288.831	326.81
289.062	313.81
289.293	314.81
289.524	312.81
289.755	311.81
289.986	317.81
290.217	316.81
290.448	319.81
290.679	302.81
290.91	320.81
291.141	310.81
291.371	311.81
291.602	309.81
291.833	306.81
292.064	322.81
292.295	332.81
292.526	316.81
292.757	305.81
292.987	325.81
293.218	331.81
293.449	330.81
293.68	326.81
293.91	326.81
294.141	319.81
294.372	330.81
294.603	336.81
294.833	323.81
295.064	326.81
295.295	311.81
295.525	331.81
295.756	332.81
295.987	319.81
296.217	342.81
296.448	350.81
296.679	337.81
296.909	332.81
297.14	331.81
297.37	297.81
297.601	322.81
297.831	315.81
298.062	327.81
298.292	317.81
298.523	331.81
298.753	342.81
298.984	310.81
299.214	347.81
299.445	340.81
299.675	328.81
299.905	330.81
300.136	321.81
300.366	327.81
300.597	332.81
300.827	334.81
301.057	348.81
301.288	369.81
301.518	372.81
301.748	340.81
301.979	351.81
302.209	358.81
302.439	349.81
302.669	360.81
302.9	345.81
303.13	341.81
303.36	370.81
303.59	348.81
303.82	360.81
304.051	358.81
304.281	348.81
304.511	362.81
304.741	367.81
304.971	331.81
305.201	354.81
305.431	360.81
305.661	348.81
305.891	350.81
306.121	342.81
306.352	353.81
306.582	379.81
306.812	354.81
307.042	378.81
307.272	364.81
307.502	357.81
307.731	361.81
307.961	380.81
308.191	354.81
308.421	380.81
308.651	362.81
308.881	353.81
309.111	361.81
309.341	373.81
309.571	388.81
309.8	377.81
310.03	393.81
310.26	392.81
310.49	400.81
310.72	401.81
310.949	391.81
311.179	394.81
311.409	389.81
311.639	405.81
311.868	415.81
312.098	409.81
312.328	413.81
312.557	425.81
312.787	414.81
313.017	420.81
313.246	404.81
313.476	391.81
313.706	396.81
313.935	406.81
314.165	416.81
314.394	421.81
314.624	449.81
314.853	413.81
315.083	417.81
315.312	431.81
315.542	392.81
315.771	386.81
316.001	376.81
316.23	406.81
316.46	402.81
316.689	397.81
316.919	416.81
317.148	420.81
317.377	424.81
317.607	390.81
317.836	408.81
318.065	398.81
318.295	409.81
318.524	413.81
318.753	396.81
318.983	424.81
319.212	393.81
319.441	400.81
319.67	428.81
319.9	394.81
320.129	399.81
320.358	410.81
320.587	428.81
320.816	409.81
321.046	423.81
321.275	416.81
321.504	419.81
321.733	429.81
321.962	419.81
322.191	427.81
322.42	465.81
322.649	455.81
322.878	472.81
323.108	473.81
323.337	477.81
323.566	497.81
323.795	534.81
324.024	552.81
324.253	652.81
324.482	890.81
324.71	1328.81
324.939	1972.81
325.168	1719.81
325.397	894.81
325.626	583.81
325.855	560.81
326.084	524.81
326.313	521.81
326.542	516.81
326.77	555.81
326.999	597.81
327.228	827.81
327.457	1232.81
327.686	1507.81
327.914	1003.81
328.143	714.81
328.372	600.81
328.6	549.81
328.829	567.81
329.058	573.81
329.287	583.81
329.515	564.81
329.744	521.81
329.972	525.81
330.201	535.81
330.43	572.81
330.658	583.81
330.887	607.81
331.115	587.81
331.344	540.81
331.572	527.81
331.801	513.81
332.03	508.81
332.258	496.81
332.486	499.81
332.715	492.81
332.943	479.81
333.172	487.81
333.4	518.81
333.629	522.81
333.857	517.81
334.085	524.81
334.314	523.81
334.542	590.81
334.771	582.81
334.999	524.81
335.227	525.81
335.455	490.81
335.684	492.81
335.912	521.81
336.14	500.81
336.369	498.81
336.597	491.81
336.825	502.81
337.053	491.81
337.281	469.81
337.51	468.81
337.738	496.81
337.966	475.81
338.194	476.81
338.422	480.81
338.65	489.81
338.878	471.81
339.106	484.81
339.334	482.81
339.562	471.81
339.79	461.81
340.018	478.81
340.246	454.81
340.474	468.81
340.702	483.81
340.93	465.81
341.158	480.81
341.386	459.81
341.614	458.81
341.842	487.81
342.07	471.81
342.298	458.81
342.526	448.81
342.754	489.81
342.981	451.81
343.209	480.81
343.437	440.81
343.665	454.81
343.893	486.81
344.12	489.81
344.348	490.81
344.576	491.81
344.804	477.81
345.031	469.81
345.259	482.81
345.487	470.81
345.714	468.81
345.942	440.81
346.17	458.81
346.397	457.81
346.625	467.81
346.853	450.81
347.08	436.81
347.308	420.81
347.535	462.81
347.763	456.81
347.99	466.81
348.218	466.81
348.445	469.81
348.673	440.81
348.9	472.81
349.128	441.81
349.355	438.81
349.583	441.81
349.81	423.81
350.037	438.81
350.265	427.81
350.492	428.81
350.72	448.81
350.947	459.81
351.174	455.81
351.402	481.81
351.629	457.81
351.856	445.81
352.083	460.81
352.311	443.81
352.538	464.81
352.765	454.81
352.992	456.81
353.22	461.81
353.447	450.81
353.674	445.81
353.901	429.81
354.128	437.81
354.355	441.81
354.583	448.81
354.81	427.81
355.037	444.81
355.264	422.81
355.491	425.81
355.718	429.81
355.945	422.81
356.172	434.81
356.399	427.81
356.626	425.81
356.853	449.81
357.08	432.81
357.307	425.81
357.534	428.81
357.761	453.81
357.988	424.81
358.215	426.81
358.441	420.81
358.668	436.81
358.895	450.81
359.122	419.81
359.349	440.81
359.576	461.81
359.802	490.81
360.029	500.81
360.256	492.81
360.483	473.81
360.709	458.81
360.936	468.81
361.163	455.81
361.39	449.81
361.616	463.81
361.843	453.81
362.07	444.81
362.296	453.81
362.523	468.81
362.749	432.81
362.976	462.81
363.203	457.81
363.429	457.81
363.656	441.81
363.882	446.81
364.109	459.81
364.335	441.81
364.562	451.81
364.788	456.81
365.015	449.81
365.241	440.81
365.468	451.81
365.694	459.81
365.92	447.81
366.147	444.81
366.373	440.81
366.599	420.81
366.826	438.81
367.052	425.81
367.278	448.81
367.505	429.81
367.731	438.81
367.957	442.81
368.184	400.81
368.41	444.81
368.636	441.81
368.862	451.81
369.089	464.81
369.315	452.81
369.541	444.81
369.767	465.81
369.993	424.81
370.219	467.81
370.445	466.81
370.672	440.81
370.898	445.81
371.124	439.81
371.35	423.81
371.576	464.81
371.802	462.81
372.028	442.81
372.254	459.81
372.48	447.81
372.706	460.81
372.932	462.81
373.158	454.81
373.384	457.81
373.61	435.81
373.835	469.81
374.061	438.81
374.287	454.81
374.513	472.81
374.739	482.81
374.965	461.81
375.191	462.81
375.416	466.81
375.642	467.81
375.868	452.81
376.094	444.81
376.319	474.81
376.545	462.81
376.771	455.81
376.997	430.81
377.222	462.81
377.448	451.81
377.674	455.81
377.899	441.81
378.125	450.81
378.35	425.81
378.576	450.81
378.802	440.81
379.027	431.81
379.253	446.81
379.478	444.81
379.704	449.81
379.929	439.81
380.155	472.81
380.38	460.81
380.606	453.81
380.831	460.81
381.057	455.81
381.282	486.81
381.507	442.81
381.733	466.81
381.958	456.81
382.184	454.81
382.409	481.81
382.634	444.81
382.86	474.81
383.085	488.81
383.31	469.81
383.535	478.81
383.761	481.81
383.986	480.81
384.211	452.81
384.436	482.81
384.662	481.81
384.887	472.81
385.112	480.81
385.337	498.81
385.562	537.81
385.787	494.81
386.013	525.81
386.238	498.81
386.463	519.81
386.688	515.81
386.913	488.81
387.138	498.81
387.363	504.81
387.588	497.81
387.813	488.81
388.038	490.81
388.263	506.81
388.488	500.81
388.713	501.81
388.938	509.81
389.163	500.81
389.387	479.81
389.612	488.81
389.837	526.81
390.062	509.81
390.287	526.81
390.512	497.81
390.736	518.81
390.961	510.81
391.186	503.81
391.411	522.81
391.636	512.81
391.86	539.81
392.085	514.81
392.31	532.81
392.534	543.81
392.759	541.81
392.984	516.81
393.208	523.81
393.433	515.81
393.658	514.81
393.882	512.81
394.107	513.81
394.331	529.81
394.556	533.81
394.78	533.81
395.005	522.81
395.229	519.81
395.454	540.81
395.678	538.81
395.903	564.81
396.127	560.81
396.352	580.81
396.576	535.81
396.801	514.81
397.025	525.81
397.249	548.81
397.474	524.81
397.698	559.81
397.922	574.81
398.147	566.81
398.371	585.81
398.595	589.81
398.82	581.81
399.044	623.81
399.268	626.81
399.492	668.81
399.717	714.81
399.941	743.81
400.165	772.81
400.389	754.81
400.613	669.81
400.837	632.81
401.062	628.81
401.286	611.81
401.51	584.81
401.734	566.81
401.958	615.81
402.182	600.81
402.406	624.81
402.63	588.81
402.854	606.81
403.078	612.81
403.302	618.81
403.526	619.81
403.75	634.81
403.974	629.81
404.198	614.81
404.422	636.81
404.645	617.81
404.869	624.81
405.093	660.81
405.317	724.81
405.541	730.81
405.765	680.81
405.988	628.81
406.212	656.81
406.436	668.81
406.66	713.81
406.883	665.81
407.107	661.81
407.331	741.81
407.555	821.81
407.778	819.81
408.002	747.81
408.226	690.81
408.449	696.81
408.673	682.81
408.896	697.81
409.12	755.81
409.344	715.81
409.567	672.81
409.791	620.81
410.014	649.81
410.238	615.81
410.461	603.81
410.685	646.81
410.908	640.81
411.132	654.81
411.355	714.81
411.578	671.81
411.802	632.81
412.025	585.81
412.249	634.81
412.472	655.81
412.695	688.81
412.919	663.81
413.142	620.81
413.365	615.81
413.589	605.81
413.812	588.81
414.035	599.81
414.258	588.81
414.482	585.81
414.705	581.81
414.928	594.81
415.151	583.81
415.374	599.81
415.597	587.81
415.821	598.81
416.044	579.81
416.267	572.81
416.49	579.81
416.713	579.81
416.936	588.81
417.159	572.81
417.382	581.81
417.605	605.81
417.828	597.81
418.051	626.81
418.274	625.81
418.497	586.81
418.72	580.81
418.943	595.81
419.166	626.81
419.389	642.81
419.611	636.81
419.834	636.81
420.057	634.81
420.28	630.81
420.503	602.81
420.726	613.81
420.948	625.81
421.171	680.81
421.394	706.81
421.617	648.81
421.839	606.81
422.062	609.81
422.285	618.81
422.507	677.81
422.73	754.81
422.953	740.81
423.175	671.81
423.398	656.81
423.621	628.81
423.843	678.81
424.066	669.81
424.288	642.81
424.511	671.81
424.733	728.81
424.956	816.81
425.178	772.81
425.401	758.81
425.623	820.81
425.846	683.81
426.068	640.81
426.291	672.81
426.513	625.81
426.735	642.81
426.958	678.81
427.18	788.81
427.402	900.81
427.625	975.81
427.847	880.81
428.069	744.81
428.292	678.81
428.514	616.81
428.736	622.81
428.958	605.81
429.181	589.81
429.403	588.81
429.625	608.81
429.847	641.81
430.069	674.81
430.292	692.81
430.514	629.81
430.736	593.81
430.958	588.81
431.18	562.81
431.402	555.81
431.624	571.81
431.846	568.81
432.068	565.81
432.29	573.81
432.512	570.81
432.734	617.81
432.956	590.81
433.178	598.81
433.4	611.81
433.622	564.81
433.844	580.81
434.066	569.81
434.287	570.81
434.509	567.81
434.731	590.81
434.953	594.81
435.175	626.81
435.397	634.81
435.618	647.81
435.84	682.81
436.062	790.81
436.284	856.81
436.505	714.81
436.727	643.81
436.949	624.81
437.17	606.81
437.392	578.81
437.614	587.81
437.835	640.81
438.057	739.81
438.278	823.81
438.5	815.81
438.721	922.81
438.943	909.81
439.165	695.81
439.386	671.81
439.608	645.81
439.829	634.81
440.05	638.81
440.272	704.81
440.493	682.81
440.715	656.81
440.936	610.81
441.158	627.81
441.379	598.81
441.6	617.81
441.822	637.81
442.043	700.81
442.264	758.81
442.486	829.81
442.707	731.81
442.928	681.81
443.149	678.81
443.371	705.81
443.592	747.81
443.813	827.81
444.034	884.81
444.255	732.81
444.476	676.81
444.698	695.81
444.919	680.81
445.14	792.81
445.361	692.81
445.582	708.81
445.803	761.81
446.024	845.81
446.245	852.81
446.466	797.81
446.687	686.81
446.908	655.81
447.129	601.81
447.35	605.81
447.571	576.81
447.792	595.81
448.013	581.81
448.234	603.81
448.455	633.81
448.675	754.81
448.896	897.81
449.117	743.81
449.338	708.81
449.559	830.81
449.779	960.81
450	757.81
450.221	644.81
450.442	605.81
450.662	594.81
450.883	569.81
451.104	586.81
451.324	566.81
451.545	570.81
451.766	545.81
451.986	528.81
452.207	530.81
452.428	525.81
452.648	541.81
452.869	527.81
453.089	542.81
453.31	568.81
453.53	532.81
453.751	524.81
453.971	537.81
454.192	552.81
454.412	518.81
454.633	509.81
454.853	520.81
455.073	513.81
455.294	560.81
455.514	616.81
455.734	607.81
455.955	515.81
456.175	533.81
456.395	523.81
456.616	506.81
456.836	501.81
457.056	489.81
457.276	485.81
457.497	480.81
457.717	474.81
457.937	494.81
458.157	510.81
458.377	525.81
458.598	552.81
458.818	588.81
459.038	666.81
459.258	684.81
459.478	598.81
459.698	576.81
459.918	577.81
460.138	585.81
460.358	561.81
460.578	596.81
460.798	584.81
461.018	596.81
461.238	568.81
461.458	573.81
461.678	584.81
461.898	582.81
462.118	590.81
462.338	589.81
462.558	642.81
462.777	646.81
462.997	679.81
463.217	673.81
463.437	686.81
463.657	645.81
463.876	652.81
464.096	649.81
464.316	635.81
464.536	639.81
464.755	635.81
464.975	630.81
465.195	658.81
465.414	694.81
465.634	646.81
465.854	628.81
466.073	602.81
466.293	578.81
466.512	566.81
466.732	563.81
466.951	557.81
467.171	551.81
467.391	547.81
467.61	550.81
467.829	547.81
468.049	551.81
468.268	569.81
468.488	549.81
468.707	533.81
468.927	518.81
469.146	536.81
469.365	544.81
469.585	538.81
469.804	569.81
470.023	561.81
470.243	559.81
470.462	578.81
470.681	565.81
470.901	579.81
471.12	562.81
471.339	542.81
471.558	572.81
471.777	586.81
471.997	545.81
472.216	546.81
472.435	553.81
472.654	567.81
472.873	551.81
473.092	557.81
473.311	543.81
473.53	558.81
473.749	570.81
473.968	601.81
474.187	702.81
474.406	704.81
474.625	613.81
474.844	566.81
475.063	542.81
475.282	547.81
475.501	560.81
475.72	555.81
475.939	552.81
476.158	541.81
476.377	543.81
476.596	566.81
476.814	579.81
477.033	603.81
477.252	600.81
477.471	593.81
477.69	590.81
477.908	579.81
478.127	623.81
478.346	599.81
478.564	614.81
478.783	624.81
479.002	618.81
479.22	622.81
479.439	657.81
479.658	637.81
479.876	659.81
480.095	670.81
480.313	706.81
480.532	690.81
480.751	671.81
480.969	666.81
481.188	748.81
481.406	763.81
481.624	692.81
481.843	666.81
482.061	648.81
482.28	655.81
482.498	657.81
482.717	638.81
482.935	650.81
483.153	632.81
483.372	653.81
483.59	631.81
483.808	648.81
484.027	665.81
484.245	658.81
484.463	644.81
484.681	676.81
484.9	656.81
485.118	649.81
485.336	661.81
485.554	665.81
485.772	652.81
485.99	643.81
486.209	672.81
486.427	661.81
486.645	691.81
486.863	692.81
487.081	697.81
487.299	670.81
487.517	708.81
487.735	706.81
487.953	683.81
488.171	708.81
488.389	690.81
488.607	721.81
488.825	690.81
489.043	702.81
489.261	678.81
489.479	712.81
489.696	710.81
489.914	715.81
490.132	716.81
490.35	752.81
490.568	733.81
490.786	722.81
491.003	747.81
491.221	796.81
491.439	781.81
491.657	798.81
491.874	798.81
492.092	792.81
492.31	805.81
492.527	789.81
492.745	835.81
492.963	816.81
493.18	826.81
493.398	829.81
493.615	842.81
493.833	828.81
494.05	812.81
494.268	820.81
494.485	824.81
494.703	802.81
494.92	808.81
495.138	832.81
495.355	832.81
495.573	850.81
495.79	838.81
496.008	837.81
496.225	815.81
496.442	826.81
496.66	837.81
496.877	829.81
497.094	832.81
497.312	854.81
497.529	835.81
497.746	873.81
497.963	890.81
498.181	910.81
498.398	936.81
498.615	923.81
498.832	965.81
499.049	993.81
499.267	1011.81
499.484	1079.81
499.701	1116.81
499.918	1184.81
500.135	1232.81
500.352	1294.81
500.569	1324.81
500.786	1313.81
501.003	1316.81
501.22	1257.81
501.437	1195.81
501.654	1086.81
