Data from 1974.PennyLincolnUp.Lamp.En5.5.200Scan.071719.P1.Changed Mount._HRD10591_15-52-48-857.txt Node
Date: Thu Jul 18 15:52:48 EDT 2019
User: cochatt
Spectrometer: HR+D1059
Trigger mode: 1
Integration Time (sec): 1.000000E-1
Scans to average: 1
Electric dark correction enabled: true
Nonlinearity correction enabled: false
Boxcar width: 0
XAxis mode: Wavelengths
Number of Pixels in Spectrum: 2048
>>>>>Begin Spectral Data<<<<<
223.165	-14.19
223.4	-14.19
223.635	-14.19
223.869	-28.19
224.104	-10.19
224.338	-13.19
224.573	-29.19
224.808	-7.19
225.042	-6.19
225.277	-1.19
225.511	-5.19
225.746	3.81
225.98	6.81
226.215	2.81
226.449	34.81
226.683	16.81
226.918	23.81
227.152	25.81
227.387	40.81
227.621	33.81
227.856	48.81
228.09	41.81
228.324	54.81
228.559	59.81
228.793	64.81
229.027	81.81
229.262	99.81
229.496	113.81
229.73	118.81
229.964	154.81
230.199	130.81
230.433	120.81
230.667	137.81
230.901	128.81
231.136	117.81
231.37	100.81
231.604	108.81
231.838	113.81
232.072	114.81
232.306	117.81
232.541	139.81
232.775	127.81
233.009	116.81
233.243	120.81
233.477	107.81
233.711	105.81
233.945	113.81
234.179	122.81
234.413	124.81
234.647	130.81
234.881	117.81
235.115	108.81
235.349	107.81
235.583	111.81
235.817	131.81
236.051	127.81
236.285	124.81
236.519	143.81
236.753	132.81
236.987	132.81
237.221	169.81
237.455	216.81
237.689	180.81
237.922	141.81
238.156	138.81
238.39	133.81
238.624	137.81
238.858	136.81
239.091	132.81
239.325	127.81
239.559	135.81
239.793	133.81
240.027	133.81
240.26	147.81
240.494	146.81
240.728	148.81
240.961	155.81
241.195	165.81
241.429	143.81
241.662	130.81
241.896	130.81
242.13	141.81
242.363	153.81
242.597	157.81
242.83	158.81
243.064	133.81
243.298	149.81
243.531	144.81
243.765	155.81
243.998	155.81
244.232	144.81
244.465	145.81
244.699	156.81
244.932	164.81
245.166	150.81
245.399	155.81
245.633	150.81
245.866	142.81
246.099	148.81
246.333	146.81
246.566	162.81
246.8	162.81
247.033	177.81
247.266	188.81
247.5	160.81
247.733	157.81
247.966	183.81
248.2	168.81
248.433	171.81
248.666	171.81
248.899	209.81
249.133	206.81
249.366	197.81
249.599	180.81
249.832	193.81
250.066	186.81
250.299	192.81
250.532	201.81
250.765	210.81
250.998	206.81
251.231	242.81
251.465	227.81
251.698	205.81
251.931	198.81
252.164	205.81
252.397	200.81
252.63	205.81
252.863	213.81
253.096	218.81
253.329	240.81
253.562	242.81
253.795	225.81
254.028	219.81
254.261	234.81
254.494	213.81
254.727	248.81
254.96	281.81
255.193	296.81
255.426	268.81
255.659	241.81
255.892	227.81
256.124	244.81
256.357	238.81
256.59	251.81
256.823	235.81
257.056	217.81
257.289	210.81
257.521	223.81
257.754	225.81
257.987	210.81
258.22	231.81
258.452	214.81
258.685	210.81
258.918	225.81
259.151	231.81
259.383	226.81
259.616	232.81
259.849	232.81
260.081	241.81
260.314	265.81
260.547	277.81
260.779	268.81
261.012	237.81
261.244	250.81
261.477	246.81
261.71	231.81
261.942	230.81
262.175	255.81
262.407	231.81
262.64	233.81
262.872	212.81
263.105	229.81
263.337	213.81
263.57	219.81
263.802	209.81
264.035	228.81
264.267	214.81
264.499	235.81
264.732	219.81
264.964	220.81
265.197	217.81
265.429	221.81
265.661	214.81
265.894	230.81
266.126	217.81
266.358	229.81
266.591	232.81
266.823	242.81
267.055	236.81
267.287	253.81
267.52	251.81
267.752	257.81
267.984	250.81
268.216	263.81
268.448	256.81
268.681	239.81
268.913	239.81
269.145	267.81
269.377	293.81
269.609	286.81
269.841	274.81
270.073	292.81
270.306	298.81
270.538	322.81
270.77	328.81
271.002	317.81
271.234	295.81
271.466	293.81
271.698	316.81
271.93	330.81
272.162	328.81
272.394	310.81
272.626	312.81
272.858	298.81
273.09	278.81
273.322	272.81
273.553	289.81
273.785	283.81
274.017	276.81
274.249	277.81
274.481	275.81
274.713	279.81
274.945	282.81
275.176	277.81
275.408	286.81
275.64	282.81
275.872	281.81
276.104	265.81
276.335	283.81
276.567	302.81
276.799	278.81
277.031	306.81
277.262	328.81
277.494	329.81
277.726	314.81
277.957	308.81
278.189	305.81
278.421	284.81
278.652	289.81
278.884	284.81
279.115	294.81
279.347	286.81
279.579	295.81
279.81	274.81
280.042	282.81
280.273	282.81
280.505	298.81
280.736	284.81
280.968	281.81
281.199	293.81
281.431	293.81
281.662	286.81
281.894	281.81
282.125	292.81
282.356	311.81
282.588	306.81
282.819	300.81
283.051	287.81
283.282	286.81
283.513	279.81
283.745	286.81
283.976	298.81
284.207	315.81
284.439	309.81
284.67	304.81
284.901	286.81
285.132	301.81
285.364	314.81
285.595	297.81
285.826	300.81
286.057	290.81
286.288	291.81
286.52	308.81
286.751	308.81
286.982	304.81
287.213	308.81
287.444	308.81
287.675	294.81
287.906	334.81
288.138	328.81
288.369	335.81
288.6	310.81
288.831	324.81
289.062	309.81
289.293	306.81
289.524	329.81
289.755	294.81
289.986	282.81
290.217	294.81
290.448	310.81
290.679	306.81
290.91	319.81
291.141	311.81
291.371	309.81
291.602	321.81
291.833	320.81
292.064	312.81
292.295	305.81
292.526	315.81
292.757	311.81
292.987	320.81
293.218	308.81
293.449	309.81
293.68	320.81
293.91	311.81
294.141	316.81
294.372	326.81
294.603	325.81
294.833	322.81
295.064	314.81
295.295	325.81
295.525	306.81
295.756	330.81
295.987	319.81
296.217	320.81
296.448	338.81
296.679	320.81
296.909	310.81
297.14	325.81
297.37	330.81
297.601	313.81
297.831	317.81
298.062	327.81
298.292	320.81
298.523	330.81
298.753	333.81
298.984	328.81
299.214	334.81
299.445	330.81
299.675	323.81
299.905	334.81
300.136	347.81
300.366	340.81
300.597	358.81
300.827	348.81
301.057	341.81
301.288	342.81
301.518	339.81
301.748	345.81
301.979	362.81
302.209	372.81
302.439	372.81
302.669	345.81
302.9	356.81
303.13	348.81
303.36	370.81
303.59	337.81
303.82	360.81
304.051	369.81
304.281	353.81
304.511	326.81
304.741	345.81
304.971	369.81
305.201	344.81
305.431	348.81
305.661	352.81
305.891	354.81
306.121	337.81
306.352	360.81
306.582	362.81
306.812	342.81
307.042	355.81
307.272	358.81
307.502	356.81
307.731	375.81
307.961	357.81
308.191	351.81
308.421	350.81
308.651	366.81
308.881	348.81
309.111	365.81
309.341	347.81
309.571	377.81
309.8	366.81
310.03	376.81
310.26	386.81
310.49	381.81
310.72	387.81
310.949	377.81
311.179	423.81
311.409	385.81
311.639	395.81
311.868	392.81
312.098	383.81
312.328	394.81
312.557	393.81
312.787	399.81
313.017	429.81
313.246	403.81
313.476	379.81
313.706	397.81
313.935	407.81
314.165	404.81
314.394	427.81
314.624	410.81
314.853	414.81
315.083	389.81
315.312	389.81
315.542	397.81
315.771	398.81
316.001	381.81
316.23	398.81
316.46	378.81
316.689	390.81
316.919	404.81
317.148	427.81
317.377	390.81
317.607	410.81
317.836	401.81
318.065	384.81
318.295	412.81
318.524	400.81
318.753	409.81
318.983	399.81
319.212	381.81
319.441	396.81
319.67	422.81
319.9	403.81
320.129	400.81
320.358	413.81
320.587	402.81
320.816	395.81
321.046	386.81
321.275	416.81
321.504	418.81
321.733	421.81
321.962	433.81
322.191	428.81
322.42	432.81
322.649	432.81
322.878	462.81
323.108	451.81
323.337	483.81
323.566	475.81
323.795	513.81
324.024	518.81
324.253	619.81
324.482	826.81
324.71	1222.81
324.939	1798.81
325.168	1628.81
325.397	853.81
325.626	591.81
325.855	506.81
326.084	491.81
326.313	485.81
326.542	484.81
326.77	525.81
326.999	608.81
327.228	754.81
327.457	1116.81
327.686	1390.81
327.914	949.81
328.143	640.81
328.372	566.81
328.6	564.81
328.829	557.81
329.058	555.81
329.287	568.81
329.515	555.81
329.744	518.81
329.972	505.81
330.201	524.81
330.43	539.81
330.658	561.81
330.887	569.81
331.115	563.81
331.344	512.81
331.572	496.81
331.801	501.81
332.03	499.81
332.258	491.81
332.486	493.81
332.715	493.81
332.943	484.81
333.172	488.81
333.4	476.81
333.629	499.81
333.857	507.81
334.085	532.81
334.314	520.81
334.542	542.81
334.771	563.81
334.999	531.81
335.227	509.81
335.455	489.81
335.684	483.81
335.912	508.81
336.14	482.81
336.369	470.81
336.597	500.81
336.825	500.81
337.053	493.81
337.281	493.81
337.51	453.81
337.738	483.81
337.966	462.81
338.194	488.81
338.422	454.81
338.65	477.81
338.878	481.81
339.106	463.81
339.334	471.81
339.562	473.81
339.79	463.81
340.018	470.81
340.246	449.81
340.474	461.81
340.702	478.81
340.93	469.81
341.158	462.81
341.386	460.81
341.614	473.81
341.842	450.81
342.07	450.81
342.298	448.81
342.526	447.81
342.754	450.81
342.981	440.81
343.209	449.81
343.437	444.81
343.665	463.81
343.893	469.81
344.12	475.81
344.348	481.81
344.576	478.81
344.804	466.81
345.031	484.81
345.259	496.81
345.487	458.81
345.714	440.81
345.942	442.81
346.17	474.81
346.397	463.81
346.625	444.81
346.853	458.81
347.08	453.81
347.308	432.81
347.535	465.81
347.763	444.81
347.99	456.81
348.218	450.81
348.445	462.81
348.673	445.81
348.9	434.81
349.128	432.81
349.355	434.81
349.583	413.81
349.81	429.81
350.037	431.81
350.265	442.81
350.492	418.81
350.72	434.81
350.947	439.81
351.174	440.81
351.402	449.81
351.629	456.81
351.856	440.81
352.083	424.81
352.311	440.81
352.538	442.81
352.765	438.81
352.992	450.81
353.22	437.81
353.447	461.81
353.674	448.81
353.901	432.81
354.128	441.81
354.355	418.81
354.583	452.81
354.81	436.81
355.037	433.81
355.264	413.81
355.491	436.81
355.718	418.81
355.945	411.81
356.172	416.81
356.399	428.81
356.626	429.81
356.853	425.81
357.08	412.81
357.307	418.81
357.534	416.81
357.761	434.81
357.988	438.81
358.215	434.81
358.441	424.81
358.668	414.81
358.895	443.81
359.122	422.81
359.349	434.81
359.576	448.81
359.802	459.81
360.029	475.81
360.256	468.81
360.483	455.81
360.709	450.81
360.936	459.81
361.163	450.81
361.39	459.81
361.616	459.81
361.843	443.81
362.07	467.81
362.296	453.81
362.523	437.81
362.749	427.81
362.976	442.81
363.203	436.81
363.429	446.81
363.656	437.81
363.882	435.81
364.109	455.81
364.335	434.81
364.562	420.81
364.788	443.81
365.015	443.81
365.241	444.81
365.468	446.81
365.694	443.81
365.92	444.81
366.147	438.81
366.373	423.81
366.599	436.81
366.826	409.81
367.052	424.81
367.278	429.81
367.505	440.81
367.731	426.81
367.957	452.81
368.184	444.81
368.41	452.81
368.636	461.81
368.862	466.81
369.089	444.81
369.315	443.81
369.541	442.81
369.767	440.81
369.993	437.81
370.219	446.81
370.445	452.81
370.672	426.81
370.898	444.81
371.124	452.81
371.35	432.81
371.576	428.81
371.802	448.81
372.028	443.81
372.254	435.81
372.48	436.81
372.706	452.81
372.932	447.81
373.158	442.81
373.384	445.81
373.61	435.81
373.835	452.81
374.061	437.81
374.287	439.81
374.513	437.81
374.739	471.81
374.965	473.81
375.191	463.81
375.416	465.81
375.642	471.81
375.868	451.81
376.094	454.81
376.319	434.81
376.545	457.81
376.771	458.81
376.997	429.81
377.222	437.81
377.448	435.81
377.674	457.81
377.899	443.81
378.125	446.81
378.35	438.81
378.576	442.81
378.802	450.81
379.027	461.81
379.253	443.81
379.478	448.81
379.704	448.81
379.929	451.81
380.155	428.81
380.38	452.81
380.606	451.81
380.831	465.81
381.057	439.81
381.282	457.81
381.507	453.81
381.733	454.81
381.958	463.81
382.184	476.81
382.409	448.81
382.634	471.81
382.86	465.81
383.085	460.81
383.31	485.81
383.535	489.81
383.761	489.81
383.986	472.81
384.211	474.81
384.436	472.81
384.662	470.81
384.887	496.81
385.112	488.81
385.337	480.81
385.562	487.81
385.787	494.81
386.013	507.81
386.238	521.81
386.463	508.81
386.688	508.81
386.913	480.81
387.138	485.81
387.363	488.81
387.588	501.81
387.813	475.81
388.038	513.81
388.263	512.81
388.488	499.81
388.713	488.81
388.938	491.81
389.163	499.81
389.387	526.81
389.612	492.81
389.837	501.81
390.062	491.81
390.287	508.81
390.512	493.81
390.736	496.81
390.961	492.81
391.186	527.81
391.411	520.81
391.636	522.81
391.86	515.81
392.085	514.81
392.31	534.81
392.534	535.81
392.759	533.81
392.984	506.81
393.208	514.81
393.433	526.81
393.658	516.81
393.882	517.81
394.107	541.81
394.331	496.81
394.556	525.81
394.78	522.81
395.005	540.81
395.229	525.81
395.454	513.81
395.678	540.81
395.903	518.81
396.127	564.81
396.352	550.81
396.576	518.81
396.801	535.81
397.025	526.81
397.249	545.81
397.474	543.81
397.698	538.81
397.922	571.81
398.147	558.81
398.371	570.81
398.595	581.81
398.82	576.81
399.044	582.81
399.268	637.81
399.492	674.81
399.717	698.81
399.941	728.81
400.165	726.81
400.389	722.81
400.613	682.81
400.837	638.81
401.062	611.81
401.286	591.81
401.51	598.81
401.734	556.81
401.958	608.81
402.182	593.81
402.406	602.81
402.63	622.81
402.854	621.81
403.078	594.81
403.302	609.81
403.526	619.81
403.75	616.81
403.974	606.81
404.198	626.81
404.422	624.81
404.645	601.81
404.869	658.81
405.093	663.81
405.317	690.81
405.541	731.81
405.765	676.81
405.988	639.81
406.212	643.81
406.436	639.81
406.66	682.81
406.883	629.81
407.107	700.81
407.331	699.81
407.555	804.81
407.778	805.81
408.002	736.81
408.226	675.81
408.449	688.81
408.673	662.81
408.896	688.81
409.12	739.81
409.344	704.81
409.567	628.81
409.791	626.81
410.014	640.81
410.238	630.81
410.461	626.81
410.685	628.81
410.908	627.81
411.132	661.81
411.355	706.81
411.578	682.81
411.802	646.81
412.025	597.81
412.249	617.81
412.472	628.81
412.695	654.81
412.919	667.81
413.142	606.81
413.365	612.81
413.589	627.81
413.812	604.81
414.035	606.81
414.258	585.81
414.482	576.81
414.705	569.81
414.928	567.81
415.151	567.81
415.374	579.81
415.597	578.81
415.821	569.81
416.044	568.81
416.267	577.81
416.49	573.81
416.713	570.81
416.936	566.81
417.159	585.81
417.382	583.81
417.605	578.81
417.828	592.81
418.051	602.81
418.274	595.81
418.497	580.81
418.72	586.81
418.943	594.81
419.166	601.81
419.389	629.81
419.611	633.81
419.834	608.81
420.057	641.81
420.28	605.81
420.503	601.81
420.726	615.81
420.948	605.81
421.171	681.81
421.394	680.81
421.617	642.81
421.839	629.81
422.062	593.81
422.285	620.81
422.507	644.81
422.73	774.81
422.953	728.81
423.175	675.81
423.398	628.81
423.621	636.81
423.843	645.81
424.066	654.81
424.288	646.81
424.511	637.81
424.733	724.81
424.956	794.81
425.178	762.81
425.401	754.81
425.623	783.81
425.846	674.81
426.068	618.81
426.291	652.81
426.513	622.81
426.735	626.81
426.958	662.81
427.18	764.81
427.402	873.81
427.625	952.81
427.847	832.81
428.069	742.81
428.292	659.81
428.514	620.81
428.736	605.81
428.958	607.81
429.181	588.81
429.403	574.81
429.625	599.81
429.847	649.81
430.069	682.81
430.292	702.81
430.514	610.81
430.736	574.81
430.958	572.81
431.18	572.81
431.402	547.81
431.624	573.81
431.846	565.81
432.068	564.81
432.29	561.81
432.512	571.81
432.734	592.81
432.956	572.81
433.178	591.81
433.4	590.81
433.622	566.81
433.844	572.81
434.066	550.81
434.287	568.81
434.509	552.81
434.731	572.81
434.953	582.81
435.175	614.81
435.397	628.81
435.618	636.81
435.84	662.81
436.062	774.81
436.284	844.81
436.505	698.81
436.727	616.81
436.949	619.81
437.17	583.81
437.392	582.81
437.614	593.81
437.835	616.81
438.057	731.81
438.278	830.81
438.5	826.81
438.721	854.81
438.943	877.81
439.165	683.81
439.386	624.81
439.608	628.81
439.829	630.81
440.05	633.81
440.272	667.81
440.493	648.81
440.715	619.81
440.936	572.81
441.158	611.81
441.379	578.81
441.6	617.81
441.822	649.81
442.043	672.81
442.264	752.81
442.486	803.81
442.707	706.81
442.928	646.81
443.149	661.81
443.371	636.81
443.592	702.81
443.813	820.81
444.034	866.81
444.255	754.81
444.476	688.81
444.698	657.81
444.919	681.81
445.14	762.81
445.361	714.81
445.582	676.81
445.803	726.81
446.024	810.81
446.245	858.81
446.466	765.81
446.687	644.81
446.908	642.81
447.129	609.81
447.35	588.81
447.571	589.81
447.792	539.81
448.013	573.81
448.234	589.81
448.455	648.81
448.675	764.81
448.896	888.81
449.117	734.81
449.338	712.81
449.559	806.81
449.779	897.81
450	754.81
450.221	629.81
450.442	569.81
450.662	588.81
450.883	561.81
451.104	564.81
451.324	575.81
451.545	545.81
451.766	518.81
451.986	537.81
452.207	532.81
452.428	518.81
452.648	509.81
452.869	508.81
453.089	538.81
453.31	548.81
453.53	505.81
453.751	527.81
453.971	524.81
454.192	526.81
454.412	525.81
454.633	513.81
454.853	522.81
455.073	529.81
455.294	550.81
455.514	604.81
455.734	605.81
455.955	521.81
456.175	526.81
456.395	493.81
456.616	463.81
456.836	488.81
457.056	489.81
457.276	496.81
457.497	489.81
457.717	506.81
457.937	498.81
458.157	493.81
458.377	492.81
458.598	513.81
458.818	574.81
459.038	632.81
459.258	662.81
459.478	603.81
459.698	571.81
459.918	527.81
460.138	556.81
460.358	561.81
460.578	598.81
460.798	608.81
461.018	597.81
461.238	587.81
461.458	590.81
461.678	584.81
461.898	600.81
462.118	577.81
462.338	607.81
462.558	612.81
462.777	628.81
462.997	631.81
463.217	674.81
463.437	700.81
463.657	634.81
463.876	633.81
464.096	649.81
464.316	622.81
464.536	630.81
464.755	642.81
464.975	622.81
465.195	646.81
465.414	720.81
465.634	626.81
465.854	610.81
466.073	566.81
466.293	560.81
466.512	537.81
466.732	544.81
466.951	540.81
467.171	556.81
467.391	546.81
467.61	567.81
467.829	544.81
468.049	532.81
468.268	540.81
468.488	535.81
468.707	522.81
468.927	534.81
469.146	530.81
469.365	527.81
469.585	540.81
469.804	529.81
470.023	552.81
470.243	566.81
470.462	564.81
470.681	562.81
470.901	553.81
471.12	566.81
471.339	545.81
471.558	538.81
471.777	534.81
471.997	542.81
472.216	553.81
472.435	579.81
472.654	546.81
472.873	567.81
473.092	532.81
473.311	532.81
473.53	541.81
473.749	524.81
473.968	582.81
474.187	661.81
474.406	707.81
474.625	631.81
474.844	547.81
475.063	532.81
475.282	553.81
475.501	530.81
475.72	557.81
475.939	554.81
476.158	585.81
476.377	560.81
476.596	548.81
476.814	562.81
477.033	572.81
477.252	565.81
477.471	587.81
477.69	566.81
477.908	610.81
478.127	607.81
478.346	600.81
478.564	620.81
478.783	618.81
479.002	602.81
479.22	649.81
479.439	655.81
479.658	666.81
479.876	677.81
480.095	661.81
480.313	696.81
480.532	680.81
480.751	695.81
480.969	683.81
481.188	734.81
481.406	770.81
481.624	666.81
481.843	655.81
482.061	642.81
482.28	640.81
482.498	633.81
482.717	647.81
482.935	626.81
483.153	632.81
483.372	651.81
483.59	662.81
483.808	642.81
484.027	642.81
484.245	645.81
484.463	652.81
484.681	648.81
484.9	662.81
485.118	642.81
485.336	645.81
485.554	650.81
485.772	662.81
485.99	663.81
486.209	663.81
486.427	674.81
486.645	661.81
486.863	692.81
487.081	690.81
487.299	658.81
487.517	665.81
487.735	678.81
487.953	696.81
488.171	685.81
488.389	693.81
488.607	674.81
488.825	692.81
489.043	711.81
489.261	693.81
489.479	722.81
489.696	710.81
489.914	704.81
490.132	706.81
490.35	734.81
490.568	720.81
490.786	737.81
491.003	728.81
491.221	741.81
491.439	772.81
491.657	790.81
491.874	787.81
492.092	804.81
492.31	808.81
492.527	781.81
492.745	790.81
492.963	806.81
493.18	825.81
493.398	799.81
493.615	806.81
493.833	836.81
494.05	806.81
494.268	807.81
494.485	826.81
494.703	809.81
494.92	797.81
495.138	838.81
495.355	813.81
495.573	821.81
495.79	840.81
496.008	816.81
496.225	835.81
496.442	821.81
496.66	826.81
496.877	849.81
497.094	837.81
497.312	846.81
497.529	843.81
497.746	836.81
497.963	857.81
498.181	910.81
498.398	916.81
498.615	931.81
498.832	931.81
499.049	998.81
499.267	1023.81
499.484	1086.81
499.701	1111.81
499.918	1152.81
500.135	1178.81
500.352	1284.81
500.569	1282.81
500.786	1301.81
501.003	1272.81
501.22	1225.81
501.437	1186.81
501.654	1102.81
