Data from 1974.PennyLincolnUp.Lamp.En5.5.200Scan.071719.P1.Changed Mount._HRD10591_15-53-14-856.txt Node
Date: Thu Jul 18 15:53:14 EDT 2019
User: cochatt
Spectrometer: HR+D1059
Trigger mode: 1
Integration Time (sec): 1.000000E-1
Scans to average: 1
Electric dark correction enabled: true
Nonlinearity correction enabled: false
Boxcar width: 0
XAxis mode: Wavelengths
Number of Pixels in Spectrum: 2048
>>>>>Begin Spectral Data<<<<<
223.165	-5.38
223.4	-5.38
223.635	-5.38
223.869	-20.38
224.104	-10.38
224.338	-28.38
224.573	-23.38
224.808	-12.38
225.042	-4.38
225.277	-16.38
225.511	-4.38
225.746	1.62
225.98	16.62
226.215	13.62
226.449	15.62
226.683	24.62
226.918	25.62
227.152	27.62
227.387	45.62
227.621	36.62
227.856	41.62
228.09	46.62
228.324	51.62
228.559	65.62
228.793	80.62
229.027	116.62
229.262	123.62
229.496	121.62
229.73	137.62
229.964	154.62
230.199	153.62
230.433	133.62
230.667	124.62
230.901	111.62
231.136	112.62
231.37	115.62
231.604	119.62
231.838	116.62
232.072	117.62
232.306	116.62
232.541	117.62
232.775	127.62
233.009	143.62
233.243	122.62
233.477	119.62
233.711	115.62
233.945	113.62
234.179	116.62
234.413	122.62
234.647	120.62
234.881	115.62
235.115	126.62
235.349	131.62
235.583	121.62
235.817	124.62
236.051	150.62
236.285	122.62
236.519	132.62
236.753	128.62
236.987	167.62
237.221	203.62
237.455	248.62
237.689	194.62
237.922	161.62
238.156	149.62
238.39	154.62
238.624	140.62
238.858	131.62
239.091	123.62
239.325	123.62
239.559	132.62
239.793	137.62
240.027	141.62
240.26	152.62
240.494	148.62
240.728	156.62
240.961	138.62
241.195	170.62
241.429	144.62
241.662	153.62
241.896	144.62
242.13	151.62
242.363	144.62
242.597	158.62
242.83	154.62
243.064	144.62
243.298	143.62
243.531	154.62
243.765	160.62
243.998	151.62
244.232	162.62
244.465	153.62
244.699	162.62
244.932	163.62
245.166	150.62
245.399	167.62
245.633	164.62
245.866	160.62
246.099	172.62
246.333	165.62
246.566	176.62
246.8	166.62
247.033	172.62
247.266	173.62
247.5	173.62
247.733	174.62
247.966	191.62
248.2	191.62
248.433	190.62
248.666	195.62
248.899	181.62
249.133	236.62
249.366	199.62
249.599	214.62
249.832	188.62
250.066	195.62
250.299	195.62
250.532	202.62
250.765	219.62
250.998	238.62
251.231	246.62
251.465	231.62
251.698	236.62
251.931	206.62
252.164	201.62
252.397	209.62
252.63	208.62
252.863	226.62
253.096	236.62
253.329	228.62
253.562	231.62
253.795	229.62
254.028	229.62
254.261	224.62
254.494	230.62
254.727	255.62
254.96	273.62
255.193	302.62
255.426	249.62
255.659	259.62
255.892	261.62
256.124	248.62
256.357	259.62
256.59	247.62
256.823	240.62
257.056	223.62
257.289	225.62
257.521	225.62
257.754	228.62
257.987	235.62
258.22	230.62
258.452	229.62
258.685	227.62
258.918	221.62
259.151	231.62
259.383	231.62
259.616	232.62
259.849	228.62
260.081	271.62
260.314	279.62
260.547	286.62
260.779	263.62
261.012	255.62
261.244	238.62
261.477	239.62
261.71	231.62
261.942	238.62
262.175	256.62
262.407	238.62
262.64	239.62
262.872	224.62
263.105	225.62
263.337	231.62
263.57	238.62
263.802	239.62
264.035	240.62
264.267	238.62
264.499	229.62
264.732	235.62
264.964	243.62
265.197	243.62
265.429	222.62
265.661	227.62
265.894	217.62
266.126	230.62
266.358	229.62
266.591	254.62
266.823	247.62
267.055	238.62
267.287	252.62
267.52	256.62
267.752	253.62
267.984	246.62
268.216	255.62
268.448	268.62
268.681	255.62
268.913	250.62
269.145	285.62
269.377	303.62
269.609	294.62
269.841	291.62
270.073	294.62
270.306	303.62
270.538	328.62
270.77	333.62
271.002	311.62
271.234	321.62
271.466	335.62
271.698	349.62
271.93	350.62
272.162	339.62
272.394	331.62
272.626	336.62
272.858	315.62
273.09	296.62
273.322	315.62
273.553	281.62
273.785	291.62
274.017	300.62
274.249	300.62
274.481	273.62
274.713	282.62
274.945	304.62
275.176	299.62
275.408	287.62
275.64	285.62
275.872	303.62
276.104	291.62
276.335	288.62
276.567	312.62
276.799	320.62
277.031	309.62
277.262	333.62
277.494	344.62
277.726	322.62
277.957	319.62
278.189	304.62
278.421	296.62
278.652	291.62
278.884	305.62
279.115	301.62
279.347	317.62
279.579	287.62
279.81	271.62
280.042	295.62
280.273	302.62
280.505	300.62
280.736	309.62
280.968	296.62
281.199	293.62
281.431	289.62
281.662	310.62
281.894	303.62
282.125	312.62
282.356	311.62
282.588	331.62
282.819	347.62
283.051	308.62
283.282	319.62
283.513	320.62
283.745	311.62
283.976	318.62
284.207	311.62
284.439	304.62
284.67	318.62
284.901	309.62
285.132	313.62
285.364	314.62
285.595	305.62
285.826	313.62
286.057	323.62
286.288	292.62
286.52	322.62
286.751	328.62
286.982	339.62
287.213	304.62
287.444	311.62
287.675	324.62
287.906	317.62
288.138	351.62
288.369	330.62
288.6	337.62
288.831	326.62
289.062	341.62
289.293	339.62
289.524	308.62
289.755	326.62
289.986	332.62
290.217	328.62
290.448	339.62
290.679	326.62
290.91	321.62
291.141	338.62
291.371	317.62
291.602	320.62
291.833	343.62
292.064	336.62
292.295	314.62
292.526	328.62
292.757	327.62
292.987	337.62
293.218	318.62
293.449	319.62
293.68	311.62
293.91	307.62
294.141	341.62
294.372	333.62
294.603	328.62
294.833	326.62
295.064	340.62
295.295	337.62
295.525	337.62
295.756	350.62
295.987	342.62
296.217	355.62
296.448	382.62
296.679	348.62
296.909	343.62
297.14	344.62
297.37	337.62
297.601	331.62
297.831	351.62
298.062	327.62
298.292	332.62
298.523	328.62
298.753	341.62
298.984	347.62
299.214	349.62
299.445	350.62
299.675	345.62
299.905	360.62
300.136	346.62
300.366	343.62
300.597	353.62
300.827	373.62
301.057	360.62
301.288	375.62
301.518	365.62
301.748	387.62
301.979	362.62
302.209	368.62
302.439	383.62
302.669	366.62
302.9	367.62
303.13	362.62
303.36	358.62
303.59	381.62
303.82	374.62
304.051	382.62
304.281	356.62
304.511	352.62
304.741	353.62
304.971	360.62
305.201	361.62
305.431	355.62
305.661	373.62
305.891	381.62
306.121	372.62
306.352	356.62
306.582	366.62
306.812	377.62
307.042	366.62
307.272	376.62
307.502	369.62
307.731	367.62
307.961	375.62
308.191	373.62
308.421	374.62
308.651	385.62
308.881	396.62
309.111	384.62
309.341	391.62
309.571	382.62
309.8	384.62
310.03	402.62
310.26	396.62
310.49	399.62
310.72	409.62
310.949	415.62
311.179	426.62
311.409	417.62
311.639	409.62
311.868	410.62
312.098	414.62
312.328	400.62
312.557	424.62
312.787	449.62
313.017	428.62
313.246	406.62
313.476	408.62
313.706	399.62
313.935	401.62
314.165	411.62
314.394	444.62
314.624	440.62
314.853	419.62
315.083	429.62
315.312	429.62
315.542	428.62
315.771	421.62
316.001	426.62
316.23	427.62
316.46	401.62
316.689	401.62
316.919	429.62
317.148	418.62
317.377	424.62
317.607	429.62
317.836	422.62
318.065	425.62
318.295	424.62
318.524	425.62
318.753	401.62
318.983	406.62
319.212	413.62
319.441	435.62
319.67	411.62
319.9	427.62
320.129	391.62
320.358	445.62
320.587	419.62
320.816	419.62
321.046	444.62
321.275	437.62
321.504	425.62
321.733	421.62
321.962	433.62
322.191	462.62
322.42	479.62
322.649	456.62
322.878	481.62
323.108	479.62
323.337	490.62
323.566	495.62
323.795	505.62
324.024	567.62
324.253	625.62
324.482	875.62
324.71	1307.62
324.939	1911.62
325.168	1726.62
325.397	874.62
325.626	620.62
325.855	529.62
326.084	533.62
326.313	529.62
326.542	522.62
326.77	553.62
326.999	629.62
327.228	803.62
327.457	1180.62
327.686	1442.62
327.914	998.62
328.143	707.62
328.372	632.62
328.6	590.62
328.829	559.62
329.058	577.62
329.287	571.62
329.515	551.62
329.744	537.62
329.972	524.62
330.201	537.62
330.43	575.62
330.658	589.62
330.887	627.62
331.115	611.62
331.344	549.62
331.572	517.62
331.801	536.62
332.03	539.62
332.258	523.62
332.486	516.62
332.715	493.62
332.943	501.62
333.172	507.62
333.4	504.62
333.629	534.62
333.857	541.62
334.085	559.62
334.314	572.62
334.542	569.62
334.771	589.62
334.999	566.62
335.227	518.62
335.455	513.62
335.684	517.62
335.912	515.62
336.14	500.62
336.369	496.62
336.597	509.62
336.825	500.62
337.053	501.62
337.281	481.62
337.51	489.62
337.738	486.62
337.966	481.62
338.194	495.62
338.422	486.62
338.65	523.62
338.878	495.62
339.106	496.62
339.334	488.62
339.562	460.62
339.79	475.62
340.018	473.62
340.246	495.62
340.474	493.62
340.702	482.62
340.93	478.62
341.158	468.62
341.386	488.62
341.614	479.62
341.842	468.62
342.07	453.62
342.298	472.62
342.526	460.62
342.754	462.62
342.981	475.62
343.209	472.62
343.437	460.62
343.665	480.62
343.893	491.62
344.12	528.62
344.348	516.62
344.576	489.62
344.804	488.62
345.031	493.62
345.259	506.62
345.487	476.62
345.714	487.62
345.942	495.62
346.17	454.62
346.397	456.62
346.625	459.62
346.853	470.62
347.08	452.62
347.308	479.62
347.535	473.62
347.763	471.62
347.99	470.62
348.218	471.62
348.445	480.62
348.673	452.62
348.9	464.62
349.128	461.62
349.355	440.62
349.583	471.62
349.81	446.62
350.037	461.62
350.265	448.62
350.492	473.62
350.72	465.62
350.947	454.62
351.174	474.62
351.402	470.62
351.629	460.62
351.856	483.62
352.083	466.62
352.311	469.62
352.538	475.62
352.765	476.62
352.992	469.62
353.22	455.62
353.447	456.62
353.674	455.62
353.901	473.62
354.128	440.62
354.355	455.62
354.583	455.62
354.81	435.62
355.037	427.62
355.264	465.62
355.491	440.62
355.718	459.62
355.945	430.62
356.172	446.62
356.399	454.62
356.626	440.62
356.853	447.62
357.08	439.62
357.307	430.62
357.534	431.62
357.761	460.62
357.988	451.62
358.215	453.62
358.441	443.62
358.668	443.62
358.895	449.62
359.122	452.62
359.349	453.62
359.576	459.62
359.802	490.62
360.029	527.62
360.256	525.62
360.483	501.62
360.709	474.62
360.936	478.62
361.163	481.62
361.39	487.62
361.616	476.62
361.843	464.62
362.07	458.62
362.296	464.62
362.523	449.62
362.749	458.62
362.976	444.62
363.203	460.62
363.429	462.62
363.656	459.62
363.882	450.62
364.109	464.62
364.335	455.62
364.562	467.62
364.788	454.62
365.015	442.62
365.241	445.62
365.468	464.62
365.694	459.62
365.92	451.62
366.147	462.62
366.373	460.62
366.599	447.62
366.826	440.62
367.052	462.62
367.278	447.62
367.505	435.62
367.731	449.62
367.957	444.62
368.184	447.62
368.41	468.62
368.636	451.62
368.862	464.62
369.089	490.62
369.315	463.62
369.541	452.62
369.767	468.62
369.993	450.62
370.219	464.62
370.445	444.62
370.672	487.62
370.898	460.62
371.124	460.62
371.35	472.62
371.576	456.62
371.802	464.62
372.028	457.62
372.254	458.62
372.48	444.62
372.706	463.62
372.932	469.62
373.158	474.62
373.384	469.62
373.61	445.62
373.835	478.62
374.061	463.62
374.287	490.62
374.513	480.62
374.739	484.62
374.965	488.62
375.191	499.62
375.416	458.62
375.642	496.62
375.868	460.62
376.094	489.62
376.319	492.62
376.545	453.62
376.771	459.62
376.997	476.62
377.222	457.62
377.448	459.62
377.674	480.62
377.899	448.62
378.125	452.62
378.35	451.62
378.576	478.62
378.802	459.62
379.027	489.62
379.253	456.62
379.478	468.62
379.704	460.62
379.929	471.62
380.155	461.62
380.38	469.62
380.606	478.62
380.831	475.62
381.057	474.62
381.282	462.62
381.507	481.62
381.733	469.62
381.958	488.62
382.184	469.62
382.409	459.62
382.634	458.62
382.86	472.62
383.085	491.62
383.31	479.62
383.535	483.62
383.761	495.62
383.986	503.62
384.211	515.62
384.436	502.62
384.662	493.62
384.887	509.62
385.112	503.62
385.337	518.62
385.562	510.62
385.787	525.62
386.013	529.62
386.238	503.62
386.463	511.62
386.688	510.62
386.913	505.62
387.138	518.62
387.363	529.62
387.588	511.62
387.813	512.62
388.038	513.62
388.263	534.62
388.488	515.62
388.713	540.62
388.938	523.62
389.163	527.62
389.387	525.62
389.612	523.62
389.837	516.62
390.062	520.62
390.287	515.62
390.512	517.62
390.736	524.62
390.961	507.62
391.186	515.62
391.411	523.62
391.636	554.62
391.86	571.62
392.085	533.62
392.31	547.62
392.534	543.62
392.759	547.62
392.984	521.62
393.208	550.62
393.433	545.62
393.658	533.62
393.882	501.62
394.107	520.62
394.331	533.62
394.556	549.62
394.78	525.62
395.005	553.62
395.229	557.62
395.454	551.62
395.678	541.62
395.903	567.62
396.127	597.62
396.352	586.62
396.576	555.62
396.801	545.62
397.025	547.62
397.249	551.62
397.474	577.62
397.698	576.62
397.922	586.62
398.147	605.62
398.371	589.62
398.595	609.62
398.82	602.62
399.044	641.62
399.268	655.62
399.492	674.62
399.717	732.62
399.941	749.62
400.165	763.62
400.389	775.62
400.613	694.62
400.837	660.62
401.062	624.62
401.286	619.62
401.51	612.62
401.734	594.62
401.958	590.62
402.182	617.62
402.406	617.62
402.63	639.62
402.854	629.62
403.078	645.62
403.302	648.62
403.526	636.62
403.75	639.62
403.974	633.62
404.198	629.62
404.422	651.62
404.645	653.62
404.869	671.62
405.093	698.62
405.317	735.62
405.541	729.62
405.765	707.62
405.988	669.62
406.212	651.62
406.436	695.62
406.66	698.62
406.883	678.62
407.107	716.62
407.331	759.62
407.555	853.62
407.778	813.62
408.002	748.62
408.226	700.62
408.449	712.62
408.673	705.62
408.896	713.62
409.12	788.62
409.344	758.62
409.567	677.62
409.791	643.62
410.014	629.62
410.238	647.62
410.461	635.62
410.685	647.62
410.908	668.62
411.132	704.62
411.355	727.62
411.578	702.62
411.802	649.62
412.025	623.62
412.249	645.62
412.472	681.62
412.695	713.62
412.919	709.62
413.142	663.62
413.365	640.62
413.589	628.62
413.812	635.62
414.035	635.62
414.258	625.62
414.482	618.62
414.705	616.62
414.928	613.62
415.151	590.62
415.374	601.62
415.597	599.62
415.821	601.62
416.044	616.62
416.267	603.62
416.49	600.62
416.713	598.62
416.936	609.62
417.159	589.62
417.382	593.62
417.605	614.62
417.828	630.62
418.051	635.62
418.274	620.62
418.497	613.62
418.72	622.62
418.943	587.62
419.166	631.62
419.389	671.62
419.611	634.62
419.834	636.62
420.057	663.62
420.28	639.62
420.503	637.62
420.726	615.62
420.948	653.62
421.171	667.62
421.394	721.62
421.617	655.62
421.839	638.62
422.062	629.62
422.285	647.62
422.507	703.62
422.73	800.62
422.953	748.62
423.175	674.62
423.398	656.62
423.621	656.62
423.843	667.62
424.066	677.62
424.288	672.62
424.511	700.62
424.733	751.62
424.956	817.62
425.178	783.62
425.401	765.62
425.623	822.62
425.846	719.62
426.068	678.62
426.291	655.62
426.513	678.62
426.735	679.62
426.958	691.62
427.18	783.62
427.402	931.62
427.625	986.62
427.847	881.62
428.069	792.62
428.292	713.62
428.514	639.62
428.736	632.62
428.958	614.62
429.181	600.62
429.403	606.62
429.625	623.62
429.847	630.62
430.069	702.62
430.292	704.62
430.514	612.62
430.736	622.62
430.958	613.62
431.18	628.62
431.402	591.62
431.624	573.62
431.846	605.62
432.068	598.62
432.29	596.62
432.512	590.62
432.734	604.62
432.956	603.62
433.178	609.62
433.4	603.62
433.622	598.62
433.844	581.62
434.066	588.62
434.287	559.62
434.509	590.62
434.731	622.62
434.953	595.62
435.175	615.62
435.397	664.62
435.618	684.62
435.84	711.62
436.062	797.62
436.284	878.62
436.505	737.62
436.727	661.62
436.949	628.62
437.17	620.62
437.392	623.62
437.614	610.62
437.835	666.62
438.057	739.62
438.278	846.62
438.5	836.62
438.721	937.62
438.943	892.62
439.165	728.62
439.386	667.62
439.608	663.62
439.829	640.62
440.05	693.62
440.272	737.62
440.493	695.62
440.715	644.62
440.936	631.62
441.158	613.62
441.379	629.62
441.6	621.62
441.822	652.62
442.043	689.62
442.264	789.62
442.486	863.62
442.707	752.62
442.928	679.62
443.149	693.62
443.371	710.62
443.592	740.62
443.813	846.62
444.034	894.62
444.255	773.62
444.476	707.62
444.698	694.62
444.919	687.62
445.14	767.62
445.361	740.62
445.582	701.62
445.803	782.62
446.024	899.62
446.245	878.62
446.466	797.62
446.687	693.62
446.908	658.62
447.129	636.62
447.35	630.62
447.571	612.62
447.792	598.62
448.013	603.62
448.234	637.62
448.455	665.62
448.675	812.62
448.896	921.62
449.117	781.62
449.338	757.62
449.559	856.62
449.779	957.62
450	759.62
450.221	650.62
450.442	620.62
450.662	598.62
450.883	617.62
451.104	598.62
451.324	603.62
451.545	593.62
451.766	548.62
451.986	533.62
452.207	561.62
452.428	579.62
452.648	542.62
452.869	549.62
453.089	568.62
453.31	565.62
453.53	539.62
453.751	536.62
453.971	519.62
454.192	538.62
454.412	538.62
454.633	531.62
454.853	540.62
455.073	545.62
455.294	580.62
455.514	623.62
455.734	630.62
455.955	558.62
456.175	515.62
456.395	515.62
456.616	514.62
456.836	500.62
457.056	542.62
457.276	500.62
457.497	517.62
457.717	494.62
457.937	524.62
458.157	521.62
458.377	527.62
458.598	532.62
458.818	592.62
459.038	670.62
459.258	727.62
459.478	621.62
459.698	597.62
459.918	593.62
460.138	591.62
460.358	593.62
460.578	594.62
460.798	632.62
461.018	620.62
461.238	624.62
461.458	617.62
461.678	624.62
461.898	627.62
462.118	616.62
462.338	638.62
462.558	631.62
462.777	658.62
462.997	679.62
463.217	694.62
463.437	698.62
463.657	679.62
463.876	654.62
464.096	647.62
464.316	647.62
464.536	665.62
464.755	654.62
464.975	622.62
465.195	674.62
465.414	695.62
465.634	649.62
465.854	609.62
466.073	593.62
466.293	600.62
466.512	580.62
466.732	557.62
466.951	566.62
467.171	541.62
467.391	589.62
467.61	582.62
467.829	565.62
468.049	581.62
468.268	548.62
468.488	570.62
468.707	543.62
468.927	536.62
469.146	550.62
469.365	539.62
469.585	533.62
469.804	586.62
470.023	567.62
470.243	554.62
470.462	581.62
470.681	587.62
470.901	578.62
471.12	576.62
471.339	552.62
471.558	577.62
471.777	575.62
471.997	553.62
472.216	553.62
472.435	584.62
472.654	557.62
472.873	565.62
473.092	560.62
473.311	575.62
473.53	559.62
473.749	589.62
473.968	612.62
474.187	723.62
474.406	763.62
474.625	631.62
474.844	569.62
475.063	569.62
475.282	558.62
475.501	565.62
475.72	585.62
475.939	576.62
476.158	592.62
476.377	596.62
476.596	572.62
476.814	598.62
477.033	596.62
477.252	613.62
477.471	596.62
477.69	609.62
477.908	624.62
478.127	641.62
478.346	631.62
478.564	643.62
478.783	634.62
479.002	675.62
479.22	658.62
479.439	683.62
479.658	684.62
479.876	666.62
480.095	690.62
480.313	709.62
480.532	730.62
480.751	717.62
480.969	701.62
481.188	768.62
481.406	790.62
481.624	711.62
481.843	699.62
482.061	660.62
482.28	661.62
482.498	677.62
482.717	687.62
482.935	661.62
483.153	664.62
483.372	645.62
483.59	667.62
483.808	667.62
484.027	664.62
484.245	658.62
484.463	650.62
484.681	653.62
484.9	681.62
485.118	685.62
485.336	664.62
485.554	683.62
485.772	662.62
485.99	661.62
486.209	693.62
486.427	718.62
486.645	701.62
486.863	735.62
487.081	712.62
487.299	682.62
487.517	725.62
487.735	719.62
487.953	735.62
488.171	731.62
488.389	735.62
488.607	729.62
488.825	737.62
489.043	719.62
489.261	730.62
489.479	731.62
489.696	730.62
489.914	730.62
490.132	748.62
490.35	757.62
490.568	765.62
490.786	786.62
491.003	766.62
491.221	814.62
491.439	831.62
491.657	795.62
491.874	827.62
492.092	835.62
492.31	798.62
492.527	864.62
492.745	852.62
492.963	842.62
493.18	850.62
493.398	826.62
493.615	879.62
493.833	859.62
494.05	846.62
494.268	855.62
494.485	834.62
494.703	855.62
494.92	833.62
495.138	861.62
495.355	855.62
495.573	843.62
495.79	857.62
496.008	861.62
496.225	874.62
496.442	856.62
496.66	907.62
496.877	850.62
497.094	890.62
497.312	853.62
497.529	876.62
497.746	911.62
497.963	923.62
498.181	940.62
498.398	949.62
498.615	970.62
498.832	983.62
499.049	1015.62
499.267	1023.62
499.484	1131.62
499.701	1142.62
499.918	1190.62
500.135	1293.62
500.352	1327.62
500.569	1355.62
500.786	1366.62
501.003	1320.62
501.22	1267.62
501.437	1209.62
501.654	1149.62
