Data from 1974.PennyLincolnUp.Lamp.En5.5.200Scan.071719.P1.Changed Mount._HRD10591_15-53-29-857.txt Node
Date: Thu Jul 18 15:53:29 EDT 2019
User: cochatt
Spectrometer: HR+D1059
Trigger mode: 1
Integration Time (sec): 1.000000E-1
Scans to average: 1
Electric dark correction enabled: true
Nonlinearity correction enabled: false
Boxcar width: 0
XAxis mode: Wavelengths
Number of Pixels in Spectrum: 2048
>>>>>Begin Spectral Data<<<<<
223.165	-9.62
223.4	-9.62
223.635	-9.62
223.869	-18.62
224.104	-32.62
224.338	-17.62
224.573	-13.62
224.808	-2.62
225.042	-6.62
225.277	-1.62
225.511	4.38
225.746	2.38
225.98	0.38
226.215	13.38
226.449	16.38
226.683	2.38
226.918	24.38
227.152	39.38
227.387	38.38
227.621	29.38
227.856	29.38
228.09	39.38
228.324	46.38
228.559	71.38
228.793	79.38
229.027	94.38
229.262	111.38
229.496	119.38
229.73	127.38
229.964	131.38
230.199	136.38
230.433	117.38
230.667	125.38
230.901	116.38
231.136	107.38
231.37	115.38
231.604	117.38
231.838	110.38
232.072	106.38
232.306	127.38
232.541	120.38
232.775	114.38
233.009	115.38
233.243	129.38
233.477	116.38
233.711	121.38
233.945	122.38
234.179	119.38
234.413	123.38
234.647	131.38
234.881	114.38
235.115	118.38
235.349	119.38
235.583	130.38
235.817	124.38
236.051	145.38
236.285	126.38
236.519	141.38
236.753	141.38
236.987	150.38
237.221	172.38
237.455	228.38
237.689	187.38
237.922	142.38
238.156	138.38
238.39	142.38
238.624	131.38
238.858	136.38
239.091	129.38
239.325	119.38
239.559	134.38
239.793	130.38
240.027	133.38
240.26	119.38
240.494	139.38
240.728	149.38
240.961	160.38
241.195	161.38
241.429	138.38
241.662	125.38
241.896	137.38
242.13	140.38
242.363	159.38
242.597	148.38
242.83	165.38
243.064	158.38
243.298	156.38
243.531	139.38
243.765	145.38
243.998	137.38
244.232	137.38
244.465	147.38
244.699	162.38
244.932	164.38
245.166	162.38
245.399	158.38
245.633	143.38
245.866	151.38
246.099	153.38
246.333	147.38
246.566	166.38
246.8	173.38
247.033	162.38
247.266	167.38
247.5	169.38
247.733	162.38
247.966	201.38
248.2	177.38
248.433	175.38
248.666	184.38
248.899	194.38
249.133	202.38
249.366	223.38
249.599	199.38
249.832	189.38
250.066	197.38
250.299	201.38
250.532	197.38
250.765	220.38
250.998	213.38
251.231	228.38
251.465	227.38
251.698	201.38
251.931	199.38
252.164	192.38
252.397	209.38
252.63	217.38
252.863	208.38
253.096	222.38
253.329	222.38
253.562	236.38
253.795	237.38
254.028	239.38
254.261	228.38
254.494	228.38
254.727	260.38
254.96	280.38
255.193	282.38
255.426	246.38
255.659	232.38
255.892	248.38
256.124	245.38
256.357	249.38
256.59	223.38
256.823	218.38
257.056	213.38
257.289	211.38
257.521	235.38
257.754	204.38
257.987	203.38
258.22	214.38
258.452	233.38
258.685	218.38
258.918	213.38
259.151	233.38
259.383	226.38
259.616	237.38
259.849	240.38
260.081	248.38
260.314	270.38
260.547	262.38
260.779	278.38
261.012	246.38
261.244	228.38
261.477	229.38
261.71	245.38
261.942	223.38
262.175	238.38
262.407	218.38
262.64	225.38
262.872	225.38
263.105	218.38
263.337	247.38
263.57	235.38
263.802	235.38
264.035	227.38
264.267	238.38
264.499	225.38
264.732	224.38
264.964	220.38
265.197	234.38
265.429	223.38
265.661	227.38
265.894	235.38
266.126	230.38
266.358	240.38
266.591	230.38
266.823	249.38
267.055	243.38
267.287	238.38
267.52	246.38
267.752	241.38
267.984	245.38
268.216	251.38
268.448	239.38
268.681	239.38
268.913	255.38
269.145	283.38
269.377	277.38
269.609	279.38
269.841	302.38
270.073	281.38
270.306	315.38
270.538	322.38
270.77	340.38
271.002	300.38
271.234	314.38
271.466	313.38
271.698	319.38
271.93	347.38
272.162	330.38
272.394	345.38
272.626	309.38
272.858	318.38
273.09	295.38
273.322	277.38
273.553	274.38
273.785	286.38
274.017	282.38
274.249	271.38
274.481	291.38
274.713	285.38
274.945	281.38
275.176	276.38
275.408	301.38
275.64	277.38
275.872	285.38
276.104	280.38
276.335	283.38
276.567	290.38
276.799	293.38
277.031	307.38
277.262	331.38
277.494	317.38
277.726	333.38
277.957	299.38
278.189	282.38
278.421	294.38
278.652	267.38
278.884	282.38
279.115	283.38
279.347	299.38
279.579	289.38
279.81	292.38
280.042	295.38
280.273	291.38
280.505	301.38
280.736	292.38
280.968	283.38
281.199	289.38
281.431	283.38
281.662	295.38
281.894	290.38
282.125	279.38
282.356	307.38
282.588	335.38
282.819	296.38
283.051	284.38
283.282	293.38
283.513	315.38
283.745	290.38
283.976	298.38
284.207	314.38
284.439	289.38
284.67	305.38
284.901	305.38
285.132	299.38
285.364	316.38
285.595	302.38
285.826	268.38
286.057	311.38
286.288	308.38
286.52	318.38
286.751	293.38
286.982	300.38
287.213	315.38
287.444	310.38
287.675	311.38
287.906	326.38
288.138	343.38
288.369	329.38
288.6	334.38
288.831	330.38
289.062	316.38
289.293	309.38
289.524	297.38
289.755	323.38
289.986	329.38
290.217	299.38
290.448	310.38
290.679	321.38
290.91	299.38
291.141	307.38
291.371	321.38
291.602	330.38
291.833	306.38
292.064	323.38
292.295	286.38
292.526	314.38
292.757	319.38
292.987	339.38
293.218	322.38
293.449	321.38
293.68	310.38
293.91	302.38
294.141	332.38
294.372	314.38
294.603	322.38
294.833	331.38
295.064	321.38
295.295	325.38
295.525	330.38
295.756	340.38
295.987	332.38
296.217	326.38
296.448	328.38
296.679	336.38
296.909	314.38
297.14	315.38
297.37	350.38
297.601	325.38
297.831	330.38
298.062	325.38
298.292	325.38
298.523	345.38
298.753	319.38
298.984	351.38
299.214	323.38
299.445	356.38
299.675	339.38
299.905	348.38
300.136	346.38
300.366	331.38
300.597	334.38
300.827	348.38
301.057	361.38
301.288	344.38
301.518	370.38
301.748	345.38
301.979	336.38
302.209	356.38
302.439	372.38
302.669	363.38
302.9	361.38
303.13	349.38
303.36	362.38
303.59	366.38
303.82	379.38
304.051	363.38
304.281	358.38
304.511	350.38
304.741	350.38
304.971	363.38
305.201	346.38
305.431	362.38
305.661	374.38
305.891	361.38
306.121	343.38
306.352	372.38
306.582	369.38
306.812	358.38
307.042	339.38
307.272	353.38
307.502	358.38
307.731	375.38
307.961	361.38
308.191	355.38
308.421	369.38
308.651	363.38
308.881	378.38
309.111	363.38
309.341	366.38
309.571	376.38
309.8	380.38
310.03	384.38
310.26	382.38
310.49	410.38
310.72	390.38
310.949	386.38
311.179	403.38
311.409	407.38
311.639	410.38
311.868	392.38
312.098	383.38
312.328	409.38
312.557	420.38
312.787	418.38
313.017	437.38
313.246	405.38
313.476	390.38
313.706	404.38
313.935	406.38
314.165	410.38
314.394	437.38
314.624	399.38
314.853	421.38
315.083	423.38
315.312	386.38
315.542	396.38
315.771	403.38
316.001	393.38
316.23	394.38
316.46	395.38
316.689	407.38
316.919	394.38
317.148	400.38
317.377	415.38
317.607	415.38
317.836	393.38
318.065	410.38
318.295	407.38
318.524	396.38
318.753	405.38
318.983	419.38
319.212	407.38
319.441	406.38
319.67	427.38
319.9	404.38
320.129	387.38
320.358	409.38
320.587	423.38
320.816	412.38
321.046	436.38
321.275	410.38
321.504	412.38
321.733	427.38
321.962	426.38
322.191	441.38
322.42	434.38
322.649	455.38
322.878	450.38
323.108	458.38
323.337	482.38
323.566	501.38
323.795	539.38
324.024	550.38
324.253	613.38
324.482	851.38
324.71	1276.38
324.939	1886.38
325.168	1673.38
325.397	861.38
325.626	611.38
325.855	555.38
326.084	494.38
326.313	505.38
326.542	485.38
326.77	555.38
326.999	598.38
327.228	759.38
327.457	1179.38
327.686	1479.38
327.914	990.38
328.143	678.38
328.372	589.38
328.6	594.38
328.829	555.38
329.058	550.38
329.287	563.38
329.515	567.38
329.744	519.38
329.972	530.38
330.201	528.38
330.43	551.38
330.658	575.38
330.887	604.38
331.115	567.38
331.344	540.38
331.572	512.38
331.801	491.38
332.03	501.38
332.258	505.38
332.486	486.38
332.715	463.38
332.943	468.38
333.172	482.38
333.4	490.38
333.629	520.38
333.857	528.38
334.085	517.38
334.314	550.38
334.542	584.38
334.771	592.38
334.999	540.38
335.227	524.38
335.455	490.38
335.684	478.38
335.912	494.38
336.14	478.38
336.369	476.38
336.597	497.38
336.825	504.38
337.053	486.38
337.281	487.38
337.51	477.38
337.738	484.38
337.966	497.38
338.194	486.38
338.422	498.38
338.65	487.38
338.878	488.38
339.106	467.38
339.334	459.38
339.562	459.38
339.79	460.38
340.018	469.38
340.246	464.38
340.474	466.38
340.702	474.38
340.93	467.38
341.158	459.38
341.386	465.38
341.614	464.38
341.842	482.38
342.07	458.38
342.298	450.38
342.526	436.38
342.754	468.38
342.981	476.38
343.209	454.38
343.437	458.38
343.665	469.38
343.893	476.38
344.12	500.38
344.348	492.38
344.576	475.38
344.804	476.38
345.031	494.38
345.259	494.38
345.487	484.38
345.714	456.38
345.942	459.38
346.17	461.38
346.397	436.38
346.625	443.38
346.853	454.38
347.08	469.38
347.308	438.38
347.535	459.38
347.763	465.38
347.99	474.38
348.218	463.38
348.445	477.38
348.673	469.38
348.9	451.38
349.128	439.38
349.355	446.38
349.583	441.38
349.81	443.38
350.037	450.38
350.265	463.38
350.492	433.38
350.72	445.38
350.947	423.38
351.174	443.38
351.402	447.38
351.629	459.38
351.856	462.38
352.083	441.38
352.311	471.38
352.538	453.38
352.765	459.38
352.992	452.38
353.22	459.38
353.447	458.38
353.674	450.38
353.901	452.38
354.128	449.38
354.355	452.38
354.583	432.38
354.81	430.38
355.037	437.38
355.264	431.38
355.491	435.38
355.718	405.38
355.945	424.38
356.172	425.38
356.399	427.38
356.626	439.38
356.853	433.38
357.08	422.38
357.307	429.38
357.534	434.38
357.761	414.38
357.988	420.38
358.215	434.38
358.441	418.38
358.668	427.38
358.895	440.38
359.122	435.38
359.349	426.38
359.576	445.38
359.802	452.38
360.029	468.38
360.256	519.38
360.483	474.38
360.709	444.38
360.936	452.38
361.163	448.38
361.39	456.38
361.616	482.38
361.843	455.38
362.07	459.38
362.296	466.38
362.523	445.38
362.749	449.38
362.976	451.38
363.203	456.38
363.429	449.38
363.656	456.38
363.882	454.38
364.109	450.38
364.335	429.38
364.562	443.38
364.788	435.38
365.015	449.38
365.241	444.38
365.468	462.38
365.694	428.38
365.92	447.38
366.147	448.38
366.373	437.38
366.599	435.38
366.826	452.38
367.052	435.38
367.278	456.38
367.505	458.38
367.731	455.38
367.957	458.38
368.184	460.38
368.41	447.38
368.636	456.38
368.862	461.38
369.089	455.38
369.315	448.38
369.541	442.38
369.767	446.38
369.993	436.38
370.219	437.38
370.445	473.38
370.672	453.38
370.898	422.38
371.124	437.38
371.35	448.38
371.576	461.38
371.802	437.38
372.028	446.38
372.254	449.38
372.48	459.38
372.706	445.38
372.932	454.38
373.158	456.38
373.384	458.38
373.61	457.38
373.835	452.38
374.061	461.38
374.287	474.38
374.513	464.38
374.739	473.38
374.965	475.38
375.191	482.38
375.416	486.38
375.642	446.38
375.868	463.38
376.094	436.38
376.319	451.38
376.545	441.38
376.771	446.38
376.997	457.38
377.222	462.38
377.448	452.38
377.674	443.38
377.899	441.38
378.125	444.38
378.35	453.38
378.576	455.38
378.802	446.38
379.027	461.38
379.253	453.38
379.478	457.38
379.704	452.38
379.929	436.38
380.155	438.38
380.38	448.38
380.606	449.38
380.831	452.38
381.057	461.38
381.282	452.38
381.507	442.38
381.733	451.38
381.958	462.38
382.184	445.38
382.409	460.38
382.634	463.38
382.86	460.38
383.085	458.38
383.31	470.38
383.535	476.38
383.761	472.38
383.986	477.38
384.211	499.38
384.436	469.38
384.662	494.38
384.887	522.38
385.112	493.38
385.337	499.38
385.562	497.38
385.787	500.38
386.013	503.38
386.238	511.38
386.463	517.38
386.688	503.38
386.913	505.38
387.138	490.38
387.363	511.38
387.588	485.38
387.813	492.38
388.038	519.38
388.263	517.38
388.488	517.38
388.713	521.38
388.938	477.38
389.163	493.38
389.387	501.38
389.612	509.38
389.837	502.38
390.062	502.38
390.287	524.38
390.512	515.38
390.736	497.38
390.961	534.38
391.186	509.38
391.411	514.38
391.636	521.38
391.86	524.38
392.085	528.38
392.31	522.38
392.534	551.38
392.759	530.38
392.984	531.38
393.208	528.38
393.433	506.38
393.658	493.38
393.882	520.38
394.107	506.38
394.331	497.38
394.556	513.38
394.78	501.38
395.005	517.38
395.229	521.38
395.454	534.38
395.678	510.38
395.903	531.38
396.127	571.38
396.352	528.38
396.576	527.38
396.801	566.38
397.025	549.38
397.249	561.38
397.474	560.38
397.698	551.38
397.922	553.38
398.147	578.38
398.371	590.38
398.595	580.38
398.82	593.38
399.044	598.38
399.268	640.38
399.492	693.38
399.717	706.38
399.941	707.38
400.165	718.38
400.389	722.38
400.613	666.38
400.837	643.38
401.062	610.38
401.286	608.38
401.51	600.38
401.734	585.38
401.958	586.38
402.182	614.38
402.406	627.38
402.63	603.38
402.854	589.38
403.078	604.38
403.302	620.38
403.526	633.38
403.75	643.38
403.974	642.38
404.198	610.38
404.422	640.38
404.645	636.38
404.869	654.38
405.093	659.38
405.317	709.38
405.541	717.38
405.765	678.38
405.988	635.38
406.212	641.38
406.436	649.38
406.66	696.38
406.883	653.38
407.107	679.38
407.331	743.38
407.555	823.38
407.778	787.38
408.002	740.38
408.226	687.38
408.449	680.38
408.673	679.38
408.896	699.38
409.12	711.38
409.344	709.38
409.567	657.38
409.791	630.38
410.014	599.38
410.238	609.38
410.461	634.38
410.685	623.38
410.908	605.38
411.132	684.38
411.355	686.38
411.578	671.38
411.802	620.38
412.025	606.38
412.249	646.38
412.472	663.38
412.695	675.38
412.919	677.38
413.142	663.38
413.365	606.38
413.589	602.38
413.812	616.38
414.035	556.38
414.258	595.38
414.482	595.38
414.705	586.38
414.928	571.38
415.151	610.38
415.374	598.38
415.597	561.38
415.821	588.38
416.044	571.38
416.267	601.38
416.49	567.38
416.713	587.38
416.936	578.38
417.159	585.38
417.382	587.38
417.605	579.38
417.828	604.38
418.051	621.38
418.274	622.38
418.497	579.38
418.72	615.38
418.943	563.38
419.166	601.38
419.389	656.38
419.611	658.38
419.834	627.38
420.057	638.38
420.28	620.38
420.503	603.38
420.726	589.38
420.948	644.38
421.171	657.38
421.394	684.38
421.617	647.38
421.839	626.38
422.062	606.38
422.285	604.38
422.507	679.38
422.73	778.38
422.953	738.38
423.175	647.38
423.398	677.38
423.621	645.38
423.843	647.38
424.066	656.38
424.288	674.38
424.511	692.38
424.733	695.38
424.956	835.38
425.178	772.38
425.401	748.38
425.623	801.38
425.846	693.38
426.068	641.38
426.291	651.38
426.513	648.38
426.735	634.38
426.958	681.38
427.18	783.38
427.402	901.38
427.625	976.38
427.847	844.38
428.069	742.38
428.292	663.38
428.514	645.38
428.736	621.38
428.958	596.38
429.181	619.38
429.403	601.38
429.625	605.38
429.847	634.38
430.069	706.38
430.292	683.38
430.514	601.38
430.736	587.38
430.958	594.38
431.18	581.38
431.402	559.38
431.624	534.38
431.846	570.38
432.068	565.38
432.29	575.38
432.512	556.38
432.734	591.38
432.956	581.38
433.178	565.38
433.4	584.38
433.622	593.38
433.844	568.38
434.066	591.38
434.287	588.38
434.509	555.38
434.731	590.38
434.953	601.38
435.175	635.38
435.397	646.38
435.618	648.38
435.84	691.38
436.062	774.38
436.284	827.38
436.505	699.38
436.727	656.38
436.949	607.38
437.17	592.38
437.392	589.38
437.614	609.38
437.835	647.38
438.057	722.38
438.278	847.38
438.5	837.38
438.721	914.38
438.943	891.38
439.165	695.38
439.386	643.38
439.608	640.38
439.829	622.38
440.05	657.38
440.272	699.38
440.493	663.38
440.715	605.38
440.936	593.38
441.158	586.38
441.379	601.38
441.6	628.38
441.822	646.38
442.043	680.38
442.264	770.38
442.486	791.38
442.707	685.38
442.928	674.38
443.149	649.38
443.371	680.38
443.592	719.38
443.813	814.38
444.034	891.38
444.255	764.38
444.476	694.38
444.698	667.38
444.919	668.38
445.14	778.38
445.361	713.38
445.582	702.38
445.803	735.38
446.024	837.38
446.245	857.38
446.466	791.38
446.687	713.38
446.908	646.38
447.129	610.38
447.35	591.38
447.571	588.38
447.792	590.38
448.013	605.38
448.234	585.38
448.455	658.38
448.675	782.38
448.896	888.38
449.117	764.38
449.338	717.38
449.559	826.38
449.779	965.38
450	751.38
450.221	621.38
450.442	577.38
450.662	582.38
450.883	567.38
451.104	587.38
451.324	577.38
451.545	554.38
451.766	533.38
451.986	558.38
452.207	543.38
452.428	533.38
452.648	531.38
452.869	530.38
453.089	539.38
453.31	571.38
453.53	538.38
453.751	534.38
453.971	519.38
454.192	534.38
454.412	533.38
454.633	507.38
454.853	497.38
455.073	512.38
455.294	549.38
455.514	591.38
455.734	608.38
455.955	551.38
456.175	518.38
456.395	486.38
456.616	504.38
456.836	494.38
457.056	481.38
457.276	490.38
457.497	504.38
457.717	499.38
457.937	496.38
458.157	522.38
458.377	511.38
458.598	542.38
458.818	585.38
459.038	653.38
459.258	681.38
459.478	600.38
459.698	569.38
459.918	574.38
460.138	573.38
460.358	588.38
460.578	591.38
460.798	609.38
461.018	585.38
461.238	608.38
461.458	607.38
461.678	580.38
461.898	601.38
462.118	600.38
462.338	618.38
462.558	620.38
462.777	639.38
462.997	641.38
463.217	677.38
463.437	654.38
463.657	653.38
463.876	657.38
464.096	657.38
464.316	643.38
464.536	646.38
464.755	637.38
464.975	648.38
465.195	650.38
465.414	686.38
465.634	617.38
465.854	610.38
466.073	579.38
466.293	572.38
466.512	532.38
466.732	546.38
466.951	538.38
467.171	542.38
467.391	552.38
467.61	570.38
467.829	557.38
468.049	554.38
468.268	570.38
468.488	529.38
468.707	524.38
468.927	536.38
469.146	543.38
469.365	528.38
469.585	535.38
469.804	551.38
470.023	562.38
470.243	563.38
470.462	574.38
470.681	573.38
470.901	554.38
471.12	557.38
471.339	548.38
471.558	555.38
471.777	574.38
471.997	542.38
472.216	563.38
472.435	559.38
472.654	587.38
472.873	557.38
473.092	526.38
473.311	538.38
473.53	552.38
473.749	549.38
473.968	597.38
474.187	683.38
474.406	698.38
474.625	609.38
474.844	569.38
475.063	542.38
475.282	545.38
475.501	548.38
475.72	572.38
475.939	580.38
476.158	555.38
476.377	575.38
476.596	563.38
476.814	567.38
477.033	570.38
477.252	575.38
477.471	591.38
477.69	584.38
477.908	605.38
478.127	605.38
478.346	616.38
478.564	633.38
478.783	632.38
479.002	651.38
479.22	628.38
479.439	656.38
479.658	661.38
479.876	651.38
480.095	670.38
480.313	709.38
480.532	695.38
480.751	679.38
480.969	710.38
481.188	743.38
481.406	737.38
481.624	687.38
481.843	665.38
482.061	661.38
482.28	634.38
482.498	648.38
482.717	636.38
482.935	653.38
483.153	655.38
483.372	638.38
483.59	649.38
483.808	646.38
484.027	651.38
484.245	676.38
484.463	639.38
484.681	669.38
484.9	647.38
485.118	660.38
485.336	678.38
485.554	676.38
485.772	689.38
485.99	654.38
486.209	675.38
486.427	665.38
486.645	687.38
486.863	694.38
487.081	673.38
487.299	668.38
487.517	708.38
487.735	676.38
487.953	711.38
488.171	685.38
488.389	694.38
488.607	697.38
488.825	711.38
489.043	703.38
489.261	680.38
489.479	717.38
489.696	719.38
489.914	693.38
490.132	721.38
490.35	742.38
490.568	726.38
490.786	731.38
491.003	739.38
491.221	773.38
491.439	805.38
491.657	794.38
491.874	795.38
492.092	827.38
492.31	798.38
492.527	811.38
492.745	822.38
492.963	812.38
493.18	826.38
493.398	821.38
493.615	823.38
493.833	843.38
494.05	818.38
494.268	815.38
494.485	833.38
494.703	843.38
494.92	844.38
495.138	817.38
495.355	837.38
495.573	841.38
495.79	836.38
496.008	856.38
496.225	804.38
496.442	817.38
496.66	833.38
496.877	829.38
497.094	841.38
497.312	837.38
497.529	854.38
497.746	872.38
497.963	878.38
498.181	897.38
498.398	911.38
498.615	921.38
498.832	952.38
499.049	975.38
499.267	1019.38
499.484	1057.38
499.701	1117.38
499.918	1164.38
500.135	1252.38
500.352	1299.38
500.569	1318.38
500.786	1294.38
501.003	1279.38
501.22	1254.38
501.437	1203.38
501.654	1117.38
