Data from 1974.PennyLincolnUp.Lamp.En5.5.200Scan.071719.P1.Changed Mount._HRD10591_15-54-11-858.txt Node
Date: Thu Jul 18 15:54:11 EDT 2019
User: cochatt
Spectrometer: HR+D1059
Trigger mode: 1
Integration Time (sec): 1.000000E-1
Scans to average: 1
Electric dark correction enabled: true
Nonlinearity correction enabled: false
Boxcar width: 0
XAxis mode: Wavelengths
Number of Pixels in Spectrum: 2048
>>>>>Begin Spectral Data<<<<<
223.165	-18.12
223.4	-18.12
223.635	-18.12
223.869	-16.12
224.104	-17.12
224.338	-3.12
224.573	-8.12
224.808	-12.12
225.042	-8.12
225.277	3.88
225.511	-19.12
225.746	5.88
225.98	6.88
226.215	7.88
226.449	3.88
226.683	18.88
226.918	35.88
227.152	18.88
227.387	31.88
227.621	39.88
227.856	45.88
228.09	47.88
228.324	54.88
228.559	49.88
228.793	75.88
229.027	92.88
229.262	106.88
229.496	116.88
229.73	144.88
229.964	164.88
230.199	128.88
230.433	134.88
230.667	118.88
230.901	107.88
231.136	112.88
231.37	111.88
231.604	116.88
231.838	124.88
232.072	121.88
232.306	113.88
232.541	116.88
232.775	131.88
233.009	125.88
233.243	124.88
233.477	128.88
233.711	119.88
233.945	112.88
234.179	133.88
234.413	124.88
234.647	121.88
234.881	127.88
235.115	122.88
235.349	135.88
235.583	125.88
235.817	127.88
236.051	128.88
236.285	144.88
236.519	148.88
236.753	144.88
236.987	148.88
237.221	189.88
237.455	244.88
237.689	191.88
237.922	157.88
238.156	124.88
238.39	132.88
238.624	141.88
238.858	139.88
239.091	133.88
239.325	123.88
239.559	130.88
239.793	131.88
240.027	134.88
240.26	164.88
240.494	161.88
240.728	172.88
240.961	153.88
241.195	162.88
241.429	146.88
241.662	151.88
241.896	159.88
242.13	156.88
242.363	145.88
242.597	159.88
242.83	147.88
243.064	157.88
243.298	154.88
243.531	144.88
243.765	140.88
243.998	158.88
244.232	155.88
244.465	159.88
244.699	157.88
244.932	153.88
245.166	156.88
245.399	156.88
245.633	150.88
245.866	175.88
246.099	163.88
246.333	168.88
246.566	157.88
246.8	163.88
247.033	169.88
247.266	194.88
247.5	175.88
247.733	173.88
247.966	193.88
248.2	171.88
248.433	179.88
248.666	186.88
248.899	196.88
249.133	216.88
249.366	225.88
249.599	204.88
249.832	215.88
250.066	186.88
250.299	202.88
250.532	208.88
250.765	232.88
250.998	247.88
251.231	252.88
251.465	226.88
251.698	225.88
251.931	212.88
252.164	205.88
252.397	220.88
252.63	225.88
252.863	217.88
253.096	250.88
253.329	244.88
253.562	263.88
253.795	237.88
254.028	247.88
254.261	254.88
254.494	251.88
254.727	271.88
254.96	289.88
255.193	307.88
255.426	276.88
255.659	250.88
255.892	259.88
256.124	254.88
256.357	254.88
256.59	241.88
256.823	255.88
257.056	217.88
257.289	233.88
257.521	238.88
257.754	234.88
257.987	224.88
258.22	228.88
258.452	234.88
258.685	234.88
258.918	220.88
259.151	229.88
259.383	232.88
259.616	220.88
259.849	251.88
260.081	262.88
260.314	293.88
260.547	294.88
260.779	276.88
261.012	244.88
261.244	249.88
261.477	250.88
261.71	252.88
261.942	252.88
262.175	262.88
262.407	237.88
262.64	236.88
262.872	227.88
263.105	239.88
263.337	234.88
263.57	221.88
263.802	239.88
264.035	244.88
264.267	230.88
264.499	220.88
264.732	245.88
264.964	232.88
265.197	240.88
265.429	249.88
265.661	232.88
265.894	242.88
266.126	241.88
266.358	233.88
266.591	223.88
266.823	235.88
267.055	249.88
267.287	249.88
267.52	244.88
267.752	253.88
267.984	260.88
268.216	249.88
268.448	240.88
268.681	268.88
268.913	276.88
269.145	275.88
269.377	307.88
269.609	287.88
269.841	296.88
270.073	305.88
270.306	321.88
270.538	331.88
270.77	327.88
271.002	322.88
271.234	323.88
271.466	333.88
271.698	348.88
271.93	334.88
272.162	356.88
272.394	344.88
272.626	337.88
272.858	316.88
273.09	295.88
273.322	298.88
273.553	301.88
273.785	282.88
274.017	303.88
274.249	292.88
274.481	297.88
274.713	301.88
274.945	299.88
275.176	299.88
275.408	300.88
275.64	297.88
275.872	287.88
276.104	295.88
276.335	288.88
276.567	298.88
276.799	310.88
277.031	345.88
277.262	353.88
277.494	360.88
277.726	328.88
277.957	337.88
278.189	299.88
278.421	305.88
278.652	313.88
278.884	301.88
279.115	323.88
279.347	285.88
279.579	291.88
279.81	307.88
280.042	292.88
280.273	292.88
280.505	300.88
280.736	286.88
280.968	286.88
281.199	293.88
281.431	300.88
281.662	308.88
281.894	289.88
282.125	305.88
282.356	322.88
282.588	329.88
282.819	340.88
283.051	309.88
283.282	310.88
283.513	308.88
283.745	299.88
283.976	309.88
284.207	323.88
284.439	296.88
284.67	315.88
284.901	323.88
285.132	330.88
285.364	304.88
285.595	311.88
285.826	316.88
286.057	326.88
286.288	316.88
286.52	335.88
286.751	311.88
286.982	339.88
287.213	311.88
287.444	329.88
287.675	335.88
287.906	324.88
288.138	342.88
288.369	330.88
288.6	346.88
288.831	332.88
289.062	339.88
289.293	338.88
289.524	325.88
289.755	325.88
289.986	324.88
290.217	335.88
290.448	332.88
290.679	329.88
290.91	339.88
291.141	341.88
291.371	325.88
291.602	316.88
291.833	328.88
292.064	332.88
292.295	345.88
292.526	339.88
292.757	334.88
292.987	315.88
293.218	321.88
293.449	343.88
293.68	329.88
293.91	339.88
294.141	315.88
294.372	320.88
294.603	341.88
294.833	315.88
295.064	335.88
295.295	334.88
295.525	331.88
295.756	331.88
295.987	362.88
296.217	363.88
296.448	346.88
296.679	350.88
296.909	345.88
297.14	337.88
297.37	353.88
297.601	348.88
297.831	341.88
298.062	339.88
298.292	333.88
298.523	328.88
298.753	343.88
298.984	340.88
299.214	348.88
299.445	343.88
299.675	383.88
299.905	357.88
300.136	352.88
300.366	337.88
300.597	358.88
300.827	368.88
301.057	381.88
301.288	368.88
301.518	376.88
301.748	373.88
301.979	389.88
302.209	363.88
302.439	353.88
302.669	377.88
302.9	361.88
303.13	379.88
303.36	369.88
303.59	378.88
303.82	381.88
304.051	373.88
304.281	392.88
304.511	372.88
304.741	365.88
304.971	369.88
305.201	383.88
305.431	374.88
305.661	367.88
305.891	371.88
306.121	373.88
306.352	373.88
306.582	384.88
306.812	376.88
307.042	383.88
307.272	368.88
307.502	389.88
307.731	378.88
307.961	383.88
308.191	371.88
308.421	370.88
308.651	384.88
308.881	387.88
309.111	391.88
309.341	385.88
309.571	387.88
309.8	418.88
310.03	409.88
310.26	401.88
310.49	409.88
310.72	412.88
310.949	433.88
311.179	443.88
311.409	416.88
311.639	418.88
311.868	398.88
312.098	427.88
312.328	428.88
312.557	440.88
312.787	431.88
313.017	434.88
313.246	425.88
313.476	418.88
313.706	424.88
313.935	413.88
314.165	427.88
314.394	437.88
314.624	424.88
314.853	420.88
315.083	423.88
315.312	414.88
315.542	402.88
315.771	425.88
316.001	406.88
316.23	415.88
316.46	440.88
316.689	419.88
316.919	437.88
317.148	429.88
317.377	440.88
317.607	437.88
317.836	423.88
318.065	418.88
318.295	441.88
318.524	435.88
318.753	421.88
318.983	426.88
319.212	419.88
319.441	416.88
319.67	422.88
319.9	423.88
320.129	421.88
320.358	421.88
320.587	414.88
320.816	439.88
321.046	441.88
321.275	441.88
321.504	429.88
321.733	449.88
321.962	464.88
322.191	465.88
322.42	448.88
322.649	467.88
322.878	465.88
323.108	480.88
323.337	480.88
323.566	518.88
323.795	549.88
324.024	558.88
324.253	663.88
324.482	897.88
324.71	1376.88
324.939	2057.88
325.168	1801.88
325.397	910.88
325.626	654.88
325.855	546.88
326.084	516.88
326.313	516.88
326.542	522.88
326.77	571.88
326.999	641.88
327.228	860.88
327.457	1266.88
327.686	1574.88
327.914	1038.88
328.143	688.88
328.372	635.88
328.6	610.88
328.829	581.88
329.058	585.88
329.287	589.88
329.515	576.88
329.744	537.88
329.972	539.88
330.201	556.88
330.43	581.88
330.658	617.88
330.887	616.88
331.115	597.88
331.344	571.88
331.572	521.88
331.801	538.88
332.03	548.88
332.258	524.88
332.486	498.88
332.715	508.88
332.943	524.88
333.172	529.88
333.4	540.88
333.629	537.88
333.857	553.88
334.085	537.88
334.314	573.88
334.542	604.88
334.771	618.88
334.999	568.88
335.227	540.88
335.455	522.88
335.684	523.88
335.912	521.88
336.14	509.88
336.369	517.88
336.597	517.88
336.825	513.88
337.053	505.88
337.281	519.88
337.51	499.88
337.738	517.88
337.966	499.88
338.194	483.88
338.422	513.88
338.65	486.88
338.878	499.88
339.106	487.88
339.334	480.88
339.562	477.88
339.79	473.88
340.018	489.88
340.246	476.88
340.474	481.88
340.702	504.88
340.93	479.88
341.158	476.88
341.386	475.88
341.614	491.88
341.842	486.88
342.07	476.88
342.298	487.88
342.526	478.88
342.754	461.88
342.981	461.88
343.209	458.88
343.437	481.88
343.665	515.88
343.893	511.88
344.12	521.88
344.348	492.88
344.576	510.88
344.804	523.88
345.031	516.88
345.259	499.88
345.487	499.88
345.714	504.88
345.942	459.88
346.17	459.88
346.397	464.88
346.625	465.88
346.853	465.88
347.08	467.88
347.308	469.88
347.535	458.88
347.763	467.88
347.99	469.88
348.218	474.88
348.445	483.88
348.673	484.88
348.9	481.88
349.128	467.88
349.355	452.88
349.583	472.88
349.81	461.88
350.037	465.88
350.265	456.88
350.492	467.88
350.72	469.88
350.947	462.88
351.174	459.88
351.402	467.88
351.629	468.88
351.856	480.88
352.083	489.88
352.311	498.88
352.538	487.88
352.765	503.88
352.992	481.88
353.22	481.88
353.447	447.88
353.674	452.88
353.901	478.88
354.128	469.88
354.355	450.88
354.583	444.88
354.81	437.88
355.037	460.88
355.264	435.88
355.491	433.88
355.718	435.88
355.945	445.88
356.172	440.88
356.399	441.88
356.626	457.88
356.853	436.88
357.08	441.88
357.307	441.88
357.534	442.88
357.761	443.88
357.988	453.88
358.215	460.88
358.441	444.88
358.668	457.88
358.895	480.88
359.122	456.88
359.349	457.88
359.576	472.88
359.802	483.88
360.029	519.88
360.256	516.88
360.483	517.88
360.709	493.88
360.936	478.88
361.163	471.88
361.39	458.88
361.616	481.88
361.843	457.88
362.07	476.88
362.296	489.88
362.523	476.88
362.749	468.88
362.976	457.88
363.203	467.88
363.429	471.88
363.656	470.88
363.882	440.88
364.109	462.88
364.335	450.88
364.562	452.88
364.788	458.88
365.015	460.88
365.241	458.88
365.468	478.88
365.694	449.88
365.92	500.88
366.147	455.88
366.373	472.88
366.599	449.88
366.826	436.88
367.052	445.88
367.278	456.88
367.505	474.88
367.731	453.88
367.957	443.88
368.184	471.88
368.41	451.88
368.636	484.88
368.862	482.88
369.089	460.88
369.315	454.88
369.541	451.88
369.767	462.88
369.993	448.88
370.219	453.88
370.445	467.88
370.672	456.88
370.898	447.88
371.124	456.88
371.35	469.88
371.576	475.88
371.802	481.88
372.028	470.88
372.254	486.88
372.48	458.88
372.706	469.88
372.932	474.88
373.158	458.88
373.384	460.88
373.61	459.88
373.835	484.88
374.061	460.88
374.287	478.88
374.513	459.88
374.739	489.88
374.965	487.88
375.191	489.88
375.416	481.88
375.642	488.88
375.868	483.88
376.094	484.88
376.319	463.88
376.545	473.88
376.771	474.88
376.997	467.88
377.222	473.88
377.448	470.88
377.674	469.88
377.899	488.88
378.125	474.88
378.35	472.88
378.576	466.88
378.802	487.88
379.027	462.88
379.253	465.88
379.478	457.88
379.704	459.88
379.929	465.88
380.155	487.88
380.38	478.88
380.606	470.88
380.831	470.88
381.057	469.88
381.282	467.88
381.507	474.88
381.733	473.88
381.958	469.88
382.184	468.88
382.409	496.88
382.634	496.88
382.86	493.88
383.085	491.88
383.31	486.88
383.535	514.88
383.761	486.88
383.986	482.88
384.211	501.88
384.436	506.88
384.662	489.88
384.887	524.88
385.112	502.88
385.337	517.88
385.562	531.88
385.787	525.88
386.013	542.88
386.238	539.88
386.463	525.88
386.688	519.88
386.913	538.88
387.138	520.88
387.363	497.88
387.588	530.88
387.813	508.88
388.038	536.88
388.263	559.88
388.488	507.88
388.713	521.88
388.938	519.88
389.163	515.88
389.387	529.88
389.612	514.88
389.837	517.88
390.062	520.88
390.287	532.88
390.512	523.88
390.736	538.88
390.961	541.88
391.186	541.88
391.411	522.88
391.636	526.88
391.86	545.88
392.085	562.88
392.31	536.88
392.534	553.88
392.759	552.88
392.984	534.88
393.208	539.88
393.433	547.88
393.658	536.88
393.882	513.88
394.107	524.88
394.331	527.88
394.556	554.88
394.78	531.88
395.005	544.88
395.229	554.88
395.454	567.88
395.678	588.88
395.903	593.88
396.127	595.88
396.352	596.88
396.576	563.88
396.801	543.88
397.025	542.88
397.249	557.88
397.474	577.88
397.698	581.88
397.922	586.88
398.147	605.88
398.371	612.88
398.595	604.88
398.82	622.88
399.044	631.88
399.268	637.88
399.492	705.88
399.717	725.88
399.941	782.88
400.165	818.88
400.389	788.88
400.613	691.88
400.837	652.88
401.062	653.88
401.286	627.88
401.51	610.88
401.734	631.88
401.958	623.88
402.182	610.88
402.406	623.88
402.63	639.88
402.854	604.88
403.078	629.88
403.302	643.88
403.526	667.88
403.75	667.88
403.974	650.88
404.198	643.88
404.422	663.88
404.645	641.88
404.869	673.88
405.093	689.88
405.317	743.88
405.541	771.88
405.765	720.88
405.988	669.88
406.212	684.88
406.436	695.88
406.66	707.88
406.883	692.88
407.107	739.88
407.331	793.88
407.555	824.88
407.778	852.88
408.002	773.88
408.226	751.88
408.449	726.88
408.673	710.88
408.896	736.88
409.12	778.88
409.344	731.88
409.567	695.88
409.791	652.88
410.014	668.88
410.238	674.88
410.461	668.88
410.685	659.88
410.908	669.88
411.132	693.88
411.355	737.88
411.578	713.88
411.802	660.88
412.025	643.88
412.249	641.88
412.472	662.88
412.695	715.88
412.919	723.88
413.142	679.88
413.365	645.88
413.589	612.88
413.812	629.88
414.035	605.88
414.258	593.88
414.482	591.88
414.705	620.88
414.928	629.88
415.151	610.88
415.374	599.88
415.597	597.88
415.821	610.88
416.044	610.88
416.267	605.88
416.49	607.88
416.713	601.88
416.936	616.88
417.159	594.88
417.382	609.88
417.605	645.88
417.828	631.88
418.051	624.88
418.274	629.88
418.497	627.88
418.72	629.88
418.943	633.88
419.166	651.88
419.389	668.88
419.611	651.88
419.834	650.88
420.057	660.88
420.28	641.88
420.503	652.88
420.726	639.88
420.948	654.88
421.171	708.88
421.394	742.88
421.617	676.88
421.839	623.88
422.062	605.88
422.285	646.88
422.507	715.88
422.73	798.88
422.953	737.88
423.175	687.88
423.398	670.88
423.621	680.88
423.843	675.88
424.066	700.88
424.288	693.88
424.511	689.88
424.733	773.88
424.956	845.88
425.178	792.88
425.401	807.88
425.623	845.88
425.846	710.88
426.068	677.88
426.291	663.88
426.513	661.88
426.735	688.88
426.958	720.88
427.18	836.88
427.402	964.88
427.625	1035.88
427.847	914.88
428.069	783.88
428.292	689.88
428.514	667.88
428.736	641.88
428.958	631.88
429.181	611.88
429.403	601.88
429.625	604.88
429.847	682.88
430.069	726.88
430.292	723.88
430.514	643.88
430.736	633.88
430.958	627.88
431.18	596.88
431.402	608.88
431.624	600.88
431.846	578.88
432.068	579.88
432.29	610.88
432.512	602.88
432.734	595.88
432.956	592.88
433.178	605.88
433.4	631.88
433.622	601.88
433.844	589.88
434.066	585.88
434.287	610.88
434.509	616.88
434.731	612.88
434.953	602.88
435.175	631.88
435.397	695.88
435.618	682.88
435.84	705.88
436.062	817.88
436.284	881.88
436.505	758.88
436.727	674.88
436.949	629.88
437.17	594.88
437.392	608.88
437.614	655.88
437.835	633.88
438.057	732.88
438.278	881.88
438.5	857.88
438.721	974.88
438.943	940.88
439.165	718.88
439.386	672.88
439.608	684.88
439.829	684.88
440.05	681.88
440.272	732.88
440.493	707.88
440.715	653.88
440.936	635.88
441.158	647.88
441.379	635.88
441.6	644.88
441.822	653.88
442.043	739.88
442.264	819.88
442.486	871.88
442.707	751.88
442.928	703.88
443.149	707.88
443.371	741.88
443.592	756.88
443.813	876.88
444.034	936.88
444.255	794.88
444.476	713.88
444.698	703.88
444.919	696.88
445.14	825.88
445.361	755.88
445.582	697.88
445.803	796.88
446.024	935.88
446.245	897.88
446.466	804.88
446.687	718.88
446.908	663.88
447.129	641.88
447.35	635.88
447.571	623.88
447.792	613.88
448.013	612.88
448.234	648.88
448.455	669.88
448.675	806.88
448.896	949.88
449.117	789.88
449.338	744.88
449.559	897.88
449.779	989.88
450	828.88
450.221	664.88
450.442	627.88
450.662	593.88
450.883	597.88
451.104	603.88
451.324	593.88
451.545	583.88
451.766	567.88
451.986	546.88
452.207	547.88
452.428	555.88
452.648	551.88
452.869	542.88
453.089	541.88
453.31	568.88
453.53	543.88
453.751	533.88
453.971	556.88
454.192	575.88
454.412	523.88
454.633	546.88
454.853	547.88
455.073	533.88
455.294	582.88
455.514	642.88
455.734	649.88
455.955	565.88
456.175	539.88
456.395	516.88
456.616	527.88
456.836	508.88
457.056	506.88
457.276	515.88
457.497	535.88
457.717	513.88
457.937	533.88
458.157	534.88
458.377	541.88
458.598	567.88
458.818	602.88
459.038	667.88
459.258	717.88
459.478	627.88
459.698	587.88
459.918	604.88
460.138	619.88
460.358	615.88
460.578	611.88
460.798	643.88
461.018	616.88
461.238	611.88
461.458	628.88
461.678	605.88
461.898	617.88
462.118	627.88
462.338	643.88
462.558	624.88
462.777	664.88
462.997	691.88
463.217	722.88
463.437	709.88
463.657	710.88
463.876	683.88
464.096	658.88
464.316	683.88
464.536	659.88
464.755	680.88
464.975	668.88
465.195	691.88
465.414	703.88
465.634	655.88
465.854	653.88
466.073	610.88
466.293	604.88
466.512	587.88
466.732	580.88
466.951	588.88
467.171	562.88
467.391	572.88
467.61	551.88
467.829	580.88
468.049	584.88
468.268	577.88
468.488	561.88
468.707	549.88
468.927	555.88
469.146	555.88
469.365	543.88
469.585	552.88
469.804	568.88
470.023	584.88
470.243	575.88
470.462	603.88
470.681	583.88
470.901	585.88
471.12	571.88
471.339	562.88
471.558	587.88
471.777	596.88
471.997	591.88
472.216	573.88
472.435	630.88
472.654	591.88
472.873	571.88
473.092	583.88
473.311	544.88
473.53	581.88
473.749	597.88
473.968	621.88
474.187	743.88
474.406	775.88
474.625	631.88
474.844	606.88
475.063	579.88
475.282	561.88
475.501	581.88
475.72	553.88
475.939	589.88
476.158	611.88
476.377	571.88
476.596	587.88
476.814	607.88
477.033	605.88
477.252	610.88
477.471	613.88
477.69	620.88
477.908	630.88
478.127	649.88
478.346	631.88
478.564	648.88
478.783	682.88
479.002	658.88
479.22	687.88
479.439	659.88
479.658	672.88
479.876	714.88
480.095	695.88
480.313	731.88
480.532	715.88
480.751	723.88
480.969	725.88
481.188	736.88
481.406	796.88
481.624	745.88
481.843	704.88
482.061	695.88
482.28	678.88
482.498	677.88
482.717	654.88
482.935	693.88
483.153	679.88
483.372	661.88
483.59	671.88
483.808	681.88
484.027	663.88
484.245	700.88
484.463	693.88
484.681	696.88
484.9	681.88
485.118	689.88
485.336	691.88
485.554	678.88
485.772	680.88
485.99	722.88
486.209	693.88
486.427	726.88
486.645	708.88
486.863	709.88
487.081	716.88
487.299	719.88
487.517	728.88
487.735	708.88
487.953	736.88
488.171	731.88
488.389	729.88
488.607	706.88
488.825	705.88
489.043	749.88
489.261	752.88
489.479	747.88
489.696	739.88
489.914	748.88
490.132	756.88
490.35	760.88
490.568	773.88
490.786	772.88
491.003	792.88
491.221	793.88
491.439	813.88
491.657	836.88
491.874	834.88
492.092	832.88
492.31	856.88
492.527	839.88
492.745	886.88
492.963	887.88
493.18	842.88
493.398	864.88
493.615	870.88
493.833	886.88
494.05	888.88
494.268	848.88
494.485	857.88
494.703	883.88
494.92	873.88
495.138	872.88
495.355	892.88
495.573	876.88
495.79	863.88
496.008	890.88
496.225	859.88
496.442	859.88
496.66	868.88
496.877	889.88
497.094	873.88
497.312	875.88
497.529	907.88
497.746	923.88
497.963	924.88
498.181	940.88
498.398	961.88
498.615	989.88
498.832	978.88
499.049	1012.88
499.267	1115.88
499.484	1112.88
499.701	1177.88
499.918	1219.88
500.135	1328.88
500.352	1345.88
500.569	1393.88
500.786	1402.88
501.003	1333.88
501.22	1299.88
501.437	1233.88
501.654	1193.88
