Data from 1974.PennyLincolnUp.Lamp.En5.5.200Scan.071719.P1.Changed Mount._HRD10591_15-51-24-856.txt Node
Date: Thu Jul 18 15:51:24 EDT 2019
User: cochatt
Spectrometer: HR+D1059
Trigger mode: 1
Integration Time (sec): 1.000000E-1
Scans to average: 1
Electric dark correction enabled: true
Nonlinearity correction enabled: false
Boxcar width: 0
XAxis mode: Wavelengths
Number of Pixels in Spectrum: 2048
>>>>>Begin Spectral Data<<<<<
223.165	-28.19
223.4	-28.19
223.635	-28.19
223.869	-19.19
224.104	-17.19
224.338	-14.19
224.573	-27.19
224.808	-13.19
225.042	-7.19
225.277	4.81
225.511	-5.19
225.746	0.81
225.98	16.81
226.215	8.81
226.449	14.81
226.683	21.81
226.918	29.81
227.152	33.81
227.387	30.81
227.621	28.81
227.856	24.81
228.09	47.81
228.324	53.81
228.559	60.81
228.793	55.81
229.027	93.81
229.262	97.81
229.496	120.81
229.73	124.81
229.964	139.81
230.199	129.81
230.433	88.81
230.667	96.81
230.901	107.81
231.136	104.81
231.37	117.81
231.604	122.81
231.838	108.81
232.072	115.81
232.306	112.81
232.541	114.81
232.775	124.81
233.009	124.81
233.243	98.81
233.477	119.81
233.711	107.81
233.945	121.81
234.179	125.81
234.413	113.81
234.647	122.81
234.881	117.81
235.115	123.81
235.349	127.81
235.583	116.81
235.817	119.81
236.051	124.81
236.285	128.81
236.519	115.81
236.753	110.81
236.987	132.81
237.221	156.81
237.455	216.81
237.689	157.81
237.922	137.81
238.156	125.81
238.39	140.81
238.624	125.81
238.858	140.81
239.091	121.81
239.325	130.81
239.559	119.81
239.793	127.81
240.027	126.81
240.26	133.81
240.494	141.81
240.728	150.81
240.961	135.81
241.195	130.81
241.429	132.81
241.662	130.81
241.896	140.81
242.13	138.81
242.363	130.81
242.597	130.81
242.83	131.81
243.064	131.81
243.298	142.81
243.531	130.81
243.765	134.81
243.998	143.81
244.232	126.81
244.465	139.81
244.699	162.81
244.932	149.81
245.166	136.81
245.399	144.81
245.633	141.81
245.866	165.81
246.099	144.81
246.333	130.81
246.566	139.81
246.8	157.81
247.033	172.81
247.266	156.81
247.5	151.81
247.733	172.81
247.966	173.81
248.2	174.81
248.433	175.81
248.666	176.81
248.899	179.81
249.133	166.81
249.366	186.81
249.599	182.81
249.832	180.81
250.066	208.81
250.299	155.81
250.532	164.81
250.765	195.81
250.998	208.81
251.231	201.81
251.465	188.81
251.698	189.81
251.931	195.81
252.164	187.81
252.397	180.81
252.63	185.81
252.863	189.81
253.096	211.81
253.329	230.81
253.562	211.81
253.795	217.81
254.028	199.81
254.261	193.81
254.494	204.81
254.727	237.81
254.96	248.81
255.193	248.81
255.426	238.81
255.659	213.81
255.892	216.81
256.124	218.81
256.357	216.81
256.59	230.81
256.823	223.81
257.056	204.81
257.289	205.81
257.521	214.81
257.754	204.81
257.987	214.81
258.22	206.81
258.452	198.81
258.685	199.81
258.918	191.81
259.151	217.81
259.383	218.81
259.616	227.81
259.849	222.81
260.081	240.81
260.314	242.81
260.547	240.81
260.779	235.81
261.012	228.81
261.244	218.81
261.477	220.81
261.71	206.81
261.942	215.81
262.175	209.81
262.407	210.81
262.64	206.81
262.872	209.81
263.105	215.81
263.337	224.81
263.57	225.81
263.802	193.81
264.035	208.81
264.267	219.81
264.499	225.81
264.732	220.81
264.964	205.81
265.197	216.81
265.429	216.81
265.661	223.81
265.894	220.81
266.126	220.81
266.358	216.81
266.591	227.81
266.823	224.81
267.055	233.81
267.287	227.81
267.52	218.81
267.752	231.81
267.984	227.81
268.216	234.81
268.448	226.81
268.681	235.81
268.913	222.81
269.145	246.81
269.377	263.81
269.609	268.81
269.841	245.81
270.073	273.81
270.306	267.81
270.538	291.81
270.77	299.81
271.002	283.81
271.234	275.81
271.466	270.81
271.698	294.81
271.93	290.81
272.162	285.81
272.394	299.81
272.626	301.81
272.858	263.81
273.09	275.81
273.322	267.81
273.553	247.81
273.785	250.81
274.017	255.81
274.249	256.81
274.481	264.81
274.713	234.81
274.945	248.81
275.176	276.81
275.408	256.81
275.64	246.81
275.872	243.81
276.104	255.81
276.335	252.81
276.567	266.81
276.799	266.81
277.031	276.81
277.262	309.81
277.494	292.81
277.726	297.81
277.957	280.81
278.189	288.81
278.421	265.81
278.652	254.81
278.884	269.81
279.115	257.81
279.347	255.81
279.579	280.81
279.81	277.81
280.042	282.81
280.273	274.81
280.505	256.81
280.736	264.81
280.968	245.81
281.199	278.81
281.431	261.81
281.662	257.81
281.894	265.81
282.125	283.81
282.356	264.81
282.588	291.81
282.819	280.81
283.051	272.81
283.282	275.81
283.513	271.81
283.745	289.81
283.976	257.81
284.207	273.81
284.439	301.81
284.67	287.81
284.901	262.81
285.132	292.81
285.364	286.81
285.595	276.81
285.826	273.81
286.057	283.81
286.288	266.81
286.52	292.81
286.751	287.81
286.982	282.81
287.213	274.81
287.444	269.81
287.675	287.81
287.906	271.81
288.138	296.81
288.369	298.81
288.6	307.81
288.831	309.81
289.062	311.81
289.293	275.81
289.524	288.81
289.755	301.81
289.986	291.81
290.217	292.81
290.448	282.81
290.679	288.81
290.91	281.81
291.141	291.81
291.371	295.81
291.602	301.81
291.833	288.81
292.064	299.81
292.295	288.81
292.526	300.81
292.757	297.81
292.987	300.81
293.218	282.81
293.449	285.81
293.68	309.81
293.91	295.81
294.141	291.81
294.372	273.81
294.603	290.81
294.833	294.81
295.064	289.81
295.295	310.81
295.525	278.81
295.756	310.81
295.987	297.81
296.217	309.81
296.448	305.81
296.679	306.81
296.909	293.81
297.14	290.81
297.37	299.81
297.601	303.81
297.831	316.81
298.062	308.81
298.292	327.81
298.523	312.81
298.753	327.81
298.984	305.81
299.214	314.81
299.445	306.81
299.675	325.81
299.905	307.81
300.136	313.81
300.366	315.81
300.597	317.81
300.827	331.81
301.057	306.81
301.288	332.81
301.518	333.81
301.748	316.81
301.979	317.81
302.209	321.81
302.439	335.81
302.669	330.81
302.9	336.81
303.13	341.81
303.36	322.81
303.59	324.81
303.82	345.81
304.051	340.81
304.281	301.81
304.511	336.81
304.741	329.81
304.971	328.81
305.201	297.81
305.431	315.81
305.661	330.81
305.891	323.81
306.121	322.81
306.352	330.81
306.582	316.81
306.812	326.81
307.042	330.81
307.272	347.81
307.502	325.81
307.731	336.81
307.961	342.81
308.191	329.81
308.421	340.81
308.651	331.81
308.881	334.81
309.111	328.81
309.341	326.81
309.571	354.81
309.8	335.81
310.03	357.81
310.26	350.81
310.49	340.81
310.72	349.81
310.949	360.81
311.179	372.81
311.409	350.81
311.639	352.81
311.868	350.81
312.098	351.81
312.328	355.81
312.557	345.81
312.787	372.81
313.017	390.81
313.246	373.81
313.476	376.81
313.706	370.81
313.935	370.81
314.165	358.81
314.394	352.81
314.624	373.81
314.853	370.81
315.083	376.81
315.312	378.81
315.542	355.81
315.771	358.81
316.001	351.81
316.23	343.81
316.46	365.81
316.689	352.81
316.919	370.81
317.148	374.81
317.377	372.81
317.607	363.81
317.836	378.81
318.065	386.81
318.295	364.81
318.524	347.81
318.753	354.81
318.983	381.81
319.212	363.81
319.441	366.81
319.67	364.81
319.9	359.81
320.129	376.81
320.358	347.81
320.587	352.81
320.816	375.81
321.046	394.81
321.275	392.81
321.504	385.81
321.733	397.81
321.962	389.81
322.191	407.81
322.42	398.81
322.649	388.81
322.878	424.81
323.108	397.81
323.337	432.81
323.566	433.81
323.795	469.81
324.024	451.81
324.253	545.81
324.482	697.81
324.71	1034.81
324.939	1574.81
325.168	1400.81
325.397	708.81
325.626	504.81
325.855	440.81
326.084	427.81
326.313	441.81
326.542	436.81
326.77	474.81
326.999	508.81
327.228	636.81
327.457	973.81
327.686	1240.81
327.914	810.81
328.143	566.81
328.372	508.81
328.6	502.81
328.829	462.81
329.058	476.81
329.287	487.81
329.515	469.81
329.744	460.81
329.972	451.81
330.201	474.81
330.43	476.81
330.658	486.81
330.887	502.81
331.115	486.81
331.344	462.81
331.572	430.81
331.801	457.81
332.03	448.81
332.258	454.81
332.486	433.81
332.715	451.81
332.943	441.81
333.172	451.81
333.4	429.81
333.629	471.81
333.857	467.81
334.085	473.81
334.314	480.81
334.542	482.81
334.771	483.81
334.999	470.81
335.227	461.81
335.455	455.81
335.684	456.81
335.912	450.81
336.14	457.81
336.369	439.81
336.597	470.81
336.825	459.81
337.053	432.81
337.281	434.81
337.51	443.81
337.738	411.81
337.966	436.81
338.194	424.81
338.422	432.81
338.65	431.81
338.878	426.81
339.106	432.81
339.334	436.81
339.562	425.81
339.79	430.81
340.018	432.81
340.246	407.81
340.474	452.81
340.702	397.81
340.93	429.81
341.158	419.81
341.386	415.81
341.614	436.81
341.842	395.81
342.07	424.81
342.298	417.81
342.526	415.81
342.754	425.81
342.981	418.81
343.209	404.81
343.437	419.81
343.665	434.81
343.893	455.81
344.12	431.81
344.348	457.81
344.576	449.81
344.804	425.81
345.031	428.81
345.259	442.81
345.487	415.81
345.714	418.81
345.942	418.81
346.17	412.81
346.397	408.81
346.625	418.81
346.853	403.81
347.08	391.81
347.308	409.81
347.535	395.81
347.763	424.81
347.99	410.81
348.218	410.81
348.445	410.81
348.673	412.81
348.9	415.81
349.128	404.81
349.355	403.81
349.583	394.81
349.81	396.81
350.037	422.81
350.265	414.81
350.492	397.81
350.72	396.81
350.947	394.81
351.174	405.81
351.402	401.81
351.629	409.81
351.856	435.81
352.083	419.81
352.311	392.81
352.538	424.81
352.765	434.81
352.992	396.81
353.22	400.81
353.447	402.81
353.674	419.81
353.901	413.81
354.128	382.81
354.355	381.81
354.583	387.81
354.81	382.81
355.037	392.81
355.264	387.81
355.491	414.81
355.718	382.81
355.945	372.81
356.172	385.81
356.399	386.81
356.626	380.81
356.853	402.81
357.08	381.81
357.307	373.81
357.534	398.81
357.761	390.81
357.988	377.81
358.215	380.81
358.441	379.81
358.668	388.81
358.895	402.81
359.122	416.81
359.349	392.81
359.576	407.81
359.802	420.81
360.029	426.81
360.256	441.81
360.483	449.81
360.709	408.81
360.936	428.81
361.163	418.81
361.39	413.81
361.616	399.81
361.843	406.81
362.07	419.81
362.296	414.81
362.523	413.81
362.749	402.81
362.976	405.81
363.203	424.81
363.429	423.81
363.656	416.81
363.882	387.81
364.109	383.81
364.335	394.81
364.562	392.81
364.788	409.81
365.015	405.81
365.241	393.81
365.468	412.81
365.694	415.81
365.92	413.81
366.147	426.81
366.373	390.81
366.599	403.81
366.826	396.81
367.052	389.81
367.278	401.81
367.505	401.81
367.731	408.81
367.957	395.81
368.184	416.81
368.41	429.81
368.636	417.81
368.862	420.81
369.089	413.81
369.315	404.81
369.541	396.81
369.767	426.81
369.993	387.81
370.219	403.81
370.445	422.81
370.672	396.81
370.898	420.81
371.124	428.81
371.35	419.81
371.576	409.81
371.802	420.81
372.028	416.81
372.254	422.81
372.48	426.81
372.706	419.81
372.932	413.81
373.158	421.81
373.384	414.81
373.61	435.81
373.835	416.81
374.061	434.81
374.287	414.81
374.513	436.81
374.739	425.81
374.965	420.81
375.191	437.81
375.416	451.81
375.642	434.81
375.868	423.81
376.094	416.81
376.319	404.81
376.545	435.81
376.771	407.81
376.997	423.81
377.222	402.81
377.448	441.81
377.674	436.81
377.899	398.81
378.125	389.81
378.35	425.81
378.576	419.81
378.802	418.81
379.027	426.81
379.253	392.81
379.478	417.81
379.704	418.81
379.929	405.81
380.155	417.81
380.38	401.81
380.606	447.81
380.831	416.81
381.057	429.81
381.282	424.81
381.507	428.81
381.733	409.81
381.958	432.81
382.184	437.81
382.409	402.81
382.634	438.81
382.86	437.81
383.085	430.81
383.31	439.81
383.535	460.81
383.761	437.81
383.986	440.81
384.211	450.81
384.436	461.81
384.662	451.81
384.887	464.81
385.112	449.81
385.337	452.81
385.562	472.81
385.787	474.81
386.013	471.81
386.238	478.81
386.463	483.81
386.688	472.81
386.913	482.81
387.138	473.81
387.363	477.81
387.588	461.81
387.813	441.81
388.038	470.81
388.263	475.81
388.488	445.81
388.713	471.81
388.938	459.81
389.163	487.81
389.387	492.81
389.612	457.81
389.837	443.81
390.062	463.81
390.287	471.81
390.512	463.81
390.736	471.81
390.961	458.81
391.186	478.81
391.411	475.81
391.636	481.81
391.86	503.81
392.085	498.81
392.31	483.81
392.534	490.81
392.759	494.81
392.984	482.81
393.208	486.81
393.433	493.81
393.658	491.81
393.882	481.81
394.107	472.81
394.331	482.81
394.556	448.81
394.78	469.81
395.005	488.81
395.229	472.81
395.454	485.81
395.678	514.81
395.903	508.81
396.127	526.81
396.352	521.81
396.576	506.81
396.801	497.81
397.025	507.81
397.249	501.81
397.474	497.81
397.698	504.81
397.922	530.81
398.147	523.81
398.371	528.81
398.595	523.81
398.82	542.81
399.044	562.81
399.268	581.81
399.492	607.81
399.717	670.81
399.941	676.81
400.165	682.81
400.389	694.81
400.613	629.81
400.837	579.81
401.062	561.81
401.286	537.81
401.51	560.81
401.734	551.81
401.958	549.81
402.182	557.81
402.406	564.81
402.63	564.81
402.854	550.81
403.078	557.81
403.302	577.81
403.526	565.81
403.75	597.81
403.974	586.81
404.198	565.81
404.422	570.81
404.645	585.81
404.869	572.81
405.093	628.81
405.317	649.81
405.541	652.81
405.765	604.81
405.988	599.81
406.212	585.81
406.436	590.81
406.66	618.81
406.883	605.81
407.107	620.81
407.331	686.81
407.555	731.81
407.778	727.81
408.002	676.81
408.226	632.81
408.449	616.81
408.673	608.81
408.896	637.81
409.12	668.81
409.344	636.81
409.567	593.81
409.791	582.81
410.014	591.81
410.238	584.81
410.461	553.81
410.685	590.81
410.908	579.81
411.132	621.81
411.355	654.81
411.578	630.81
411.802	579.81
412.025	586.81
412.249	571.81
412.472	610.81
412.695	639.81
412.919	624.81
413.142	581.81
413.365	562.81
413.589	552.81
413.812	549.81
414.035	553.81
414.258	551.81
414.482	528.81
414.705	541.81
414.928	530.81
415.151	552.81
415.374	548.81
415.597	552.81
415.821	533.81
416.044	530.81
416.267	515.81
416.49	548.81
416.713	521.81
416.936	549.81
417.159	521.81
417.382	542.81
417.605	532.81
417.828	547.81
418.051	553.81
418.274	557.81
418.497	545.81
418.72	544.81
418.943	549.81
419.166	570.81
419.389	611.81
419.611	588.81
419.834	577.81
420.057	591.81
420.28	568.81
420.503	569.81
420.726	551.81
420.948	568.81
421.171	603.81
421.394	640.81
421.617	581.81
421.839	564.81
422.062	566.81
422.285	582.81
422.507	625.81
422.73	705.81
422.953	659.81
423.175	608.81
423.398	581.81
423.621	582.81
423.843	602.81
424.066	605.81
424.288	583.81
424.511	610.81
424.733	653.81
424.956	747.81
425.178	696.81
425.401	711.81
425.623	724.81
425.846	628.81
426.068	593.81
426.291	594.81
426.513	603.81
426.735	586.81
426.958	632.81
427.18	709.81
427.402	849.81
427.625	920.81
427.847	758.81
428.069	677.81
428.292	603.81
428.514	605.81
428.736	556.81
428.958	537.81
429.181	550.81
429.403	548.81
429.625	568.81
429.847	587.81
430.069	659.81
430.292	644.81
430.514	555.81
430.736	529.81
430.958	523.81
431.18	528.81
431.402	544.81
431.624	514.81
431.846	519.81
432.068	505.81
432.29	498.81
432.512	522.81
432.734	527.81
432.956	516.81
433.178	530.81
433.4	553.81
433.622	522.81
433.844	525.81
434.066	525.81
434.287	524.81
434.509	509.81
434.731	544.81
434.953	530.81
435.175	561.81
435.397	589.81
435.618	616.81
435.84	606.81
436.062	698.81
436.284	765.81
436.505	645.81
436.727	584.81
436.949	573.81
437.17	528.81
437.392	549.81
437.614	534.81
437.835	573.81
438.057	634.81
438.278	772.81
438.5	757.81
438.721	855.81
438.943	786.81
439.165	642.81
439.386	595.81
439.608	572.81
439.829	577.81
440.05	600.81
440.272	644.81
440.493	616.81
440.715	558.81
440.936	549.81
441.158	534.81
441.379	554.81
441.6	590.81
441.822	603.81
442.043	630.81
442.264	729.81
442.486	759.81
442.707	658.81
442.928	608.81
443.149	613.81
443.371	610.81
443.592	674.81
443.813	736.81
444.034	855.81
444.255	691.81
444.476	621.81
444.698	601.81
444.919	609.81
445.14	729.81
445.361	670.81
445.582	661.81
445.803	674.81
446.024	749.81
446.245	793.81
446.466	701.81
446.687	637.81
446.908	576.81
447.129	542.81
447.35	553.81
447.571	534.81
447.792	544.81
448.013	546.81
448.234	553.81
448.455	587.81
448.675	708.81
448.896	854.81
449.117	712.81
449.338	636.81
449.559	746.81
449.779	900.81
450	698.81
450.221	566.81
450.442	546.81
450.662	538.81
450.883	533.81
451.104	514.81
451.324	516.81
451.545	478.81
451.766	474.81
451.986	483.81
452.207	458.81
452.428	482.81
452.648	481.81
452.869	477.81
453.089	471.81
453.31	508.81
453.53	481.81
453.751	464.81
453.971	469.81
454.192	496.81
454.412	468.81
454.633	468.81
454.853	499.81
455.073	477.81
455.294	494.81
455.514	568.81
455.734	538.81
455.955	487.81
456.175	484.81
456.395	462.81
456.616	453.81
456.836	462.81
457.056	456.81
457.276	466.81
457.497	435.81
457.717	472.81
457.937	476.81
458.157	461.81
458.377	461.81
458.598	498.81
458.818	525.81
459.038	597.81
459.258	628.81
459.478	538.81
459.698	541.81
459.918	515.81
460.138	544.81
460.358	554.81
460.578	548.81
460.798	533.81
461.018	566.81
461.238	533.81
461.458	547.81
461.678	540.81
461.898	552.81
462.118	551.81
462.338	555.81
462.558	571.81
462.777	568.81
462.997	606.81
463.217	628.81
463.437	630.81
463.657	617.81
463.876	568.81
464.096	583.81
464.316	571.81
464.536	595.81
464.755	583.81
464.975	576.81
465.195	586.81
465.414	621.81
465.634	586.81
465.854	549.81
466.073	523.81
466.293	542.81
466.512	506.81
466.732	504.81
466.951	506.81
467.171	514.81
467.391	478.81
467.61	506.81
467.829	492.81
468.049	508.81
468.268	482.81
468.488	510.81
468.707	489.81
468.927	476.81
469.146	482.81
469.365	490.81
469.585	498.81
469.804	509.81
470.023	510.81
470.243	502.81
470.462	515.81
470.681	515.81
470.901	515.81
471.12	502.81
471.339	504.81
471.558	512.81
471.777	506.81
471.997	509.81
472.216	484.81
472.435	508.81
472.654	516.81
472.873	506.81
473.092	521.81
473.311	490.81
473.53	496.81
473.749	506.81
473.968	525.81
474.187	630.81
474.406	644.81
474.625	541.81
474.844	489.81
475.063	504.81
475.282	519.81
475.501	508.81
475.72	529.81
475.939	533.81
476.158	538.81
476.377	516.81
476.596	542.81
476.814	539.81
477.033	535.81
477.252	550.81
477.471	532.81
477.69	546.81
477.908	547.81
478.127	549.81
478.346	577.81
478.564	568.81
478.783	585.81
479.002	576.81
479.22	575.81
479.439	584.81
479.658	588.81
479.876	602.81
480.095	600.81
480.313	641.81
480.532	632.81
480.751	634.81
480.969	626.81
481.188	624.81
481.406	650.81
481.624	609.81
481.843	606.81
482.061	609.81
482.28	591.81
482.498	574.81
482.717	603.81
482.935	594.81
483.153	593.81
483.372	608.81
483.59	598.81
483.808	569.81
484.027	581.81
484.245	590.81
484.463	601.81
484.681	599.81
484.9	601.81
485.118	603.81
485.336	597.81
485.554	611.81
485.772	609.81
485.99	632.81
486.209	618.81
486.427	622.81
486.645	622.81
486.863	633.81
487.081	634.81
487.299	676.81
487.517	626.81
487.735	619.81
487.953	624.81
488.171	648.81
488.389	650.81
488.607	637.81
488.825	635.81
489.043	628.81
489.261	630.81
489.479	651.81
489.696	652.81
489.914	641.81
490.132	641.81
490.35	681.81
490.568	682.81
490.786	667.81
491.003	697.81
491.221	710.81
491.439	690.81
491.657	724.81
491.874	743.81
492.092	736.81
492.31	742.81
492.527	752.81
492.745	749.81
492.963	707.81
493.18	762.81
493.398	752.81
493.615	750.81
493.833	749.81
494.05	721.81
494.268	772.81
494.485	733.81
494.703	740.81
494.92	756.81
495.138	739.81
495.355	763.81
495.573	751.81
495.79	760.81
496.008	758.81
496.225	761.81
496.442	757.81
496.66	797.81
496.877	773.81
497.094	758.81
497.312	787.81
497.529	790.81
497.746	817.81
497.963	788.81
498.181	842.81
498.398	845.81
498.615	818.81
498.832	857.81
499.049	912.81
499.267	924.81
499.484	955.81
499.701	1004.81
499.918	1058.81
500.135	1122.81
500.352	1184.81
500.569	1192.81
500.786	1228.81
501.003	1196.81
501.22	1123.81
501.437	1097.81
501.654	1062.81
