Data from 1974.PennyLincolnUp.Lamp.En5.5.200Scan.071719.P1.Changed Mount._HRD10591_15-53-37-857.txt Node
Date: Thu Jul 18 15:53:37 EDT 2019
User: cochatt
Spectrometer: HR+D1059
Trigger mode: 1
Integration Time (sec): 1.000000E-1
Scans to average: 1
Electric dark correction enabled: true
Nonlinearity correction enabled: false
Boxcar width: 0
XAxis mode: Wavelengths
Number of Pixels in Spectrum: 2048
>>>>>Begin Spectral Data<<<<<
223.165	-13.19
223.4	-13.19
223.635	-13.19
223.869	-3.19
224.104	-19.19
224.338	-14.19
224.573	-21.19
224.808	-13.19
225.042	-6.19
225.277	5.81
225.511	1.81
225.746	3.81
225.98	6.81
226.215	3.81
226.449	8.81
226.683	5.81
226.918	33.81
227.152	19.81
227.387	32.81
227.621	46.81
227.856	35.81
228.09	51.81
228.324	49.81
228.559	62.81
228.793	69.81
229.027	100.81
229.262	116.81
229.496	126.81
229.73	132.81
229.964	166.81
230.199	138.81
230.433	129.81
230.667	121.81
230.901	119.81
231.136	120.81
231.37	116.81
231.604	121.81
231.838	123.81
232.072	109.81
232.306	127.81
232.541	118.81
232.775	123.81
233.009	139.81
233.243	134.81
233.477	109.81
233.711	117.81
233.945	120.81
234.179	137.81
234.413	133.81
234.647	120.81
234.881	119.81
235.115	129.81
235.349	118.81
235.583	124.81
235.817	129.81
236.051	120.81
236.285	145.81
236.519	131.81
236.753	141.81
236.987	135.81
237.221	193.81
237.455	258.81
237.689	187.81
237.922	162.81
238.156	129.81
238.39	141.81
238.624	130.81
238.858	122.81
239.091	133.81
239.325	145.81
239.559	122.81
239.793	123.81
240.027	130.81
240.26	143.81
240.494	162.81
240.728	159.81
240.961	159.81
241.195	150.81
241.429	156.81
241.662	146.81
241.896	140.81
242.13	151.81
242.363	137.81
242.597	121.81
242.83	148.81
243.064	157.81
243.298	143.81
243.531	155.81
243.765	149.81
243.998	147.81
244.232	164.81
244.465	149.81
244.699	173.81
244.932	165.81
245.166	155.81
245.399	161.81
245.633	144.81
245.866	153.81
246.099	163.81
246.333	162.81
246.566	157.81
246.8	155.81
247.033	168.81
247.266	174.81
247.5	196.81
247.733	190.81
247.966	185.81
248.2	179.81
248.433	170.81
248.666	193.81
248.899	186.81
249.133	211.81
249.366	232.81
249.599	214.81
249.832	197.81
250.066	202.81
250.299	194.81
250.532	195.81
250.765	230.81
250.998	231.81
251.231	237.81
251.465	226.81
251.698	230.81
251.931	202.81
252.164	217.81
252.397	211.81
252.63	215.81
252.863	225.81
253.096	236.81
253.329	243.81
253.562	247.81
253.795	241.81
254.028	248.81
254.261	249.81
254.494	237.81
254.727	251.81
254.96	297.81
255.193	296.81
255.426	266.81
255.659	268.81
255.892	243.81
256.124	250.81
256.357	242.81
256.59	229.81
256.823	233.81
257.056	222.81
257.289	234.81
257.521	232.81
257.754	233.81
257.987	232.81
258.22	234.81
258.452	217.81
258.685	238.81
258.918	209.81
259.151	213.81
259.383	242.81
259.616	233.81
259.849	221.81
260.081	236.81
260.314	279.81
260.547	277.81
260.779	275.81
261.012	261.81
261.244	265.81
261.477	247.81
261.71	234.81
261.942	247.81
262.175	249.81
262.407	257.81
262.64	231.81
262.872	215.81
263.105	243.81
263.337	242.81
263.57	246.81
263.802	242.81
264.035	227.81
264.267	227.81
264.499	198.81
264.732	221.81
264.964	233.81
265.197	230.81
265.429	234.81
265.661	237.81
265.894	238.81
266.126	227.81
266.358	245.81
266.591	261.81
266.823	250.81
267.055	262.81
267.287	261.81
267.52	257.81
267.752	249.81
267.984	239.81
268.216	243.81
268.448	244.81
268.681	273.81
268.913	270.81
269.145	295.81
269.377	297.81
269.609	293.81
269.841	313.81
270.073	305.81
270.306	329.81
270.538	336.81
270.77	332.81
271.002	303.81
271.234	313.81
271.466	310.81
271.698	347.81
271.93	337.81
272.162	333.81
272.394	327.81
272.626	335.81
272.858	302.81
273.09	321.81
273.322	307.81
273.553	276.81
273.785	294.81
274.017	292.81
274.249	301.81
274.481	300.81
274.713	287.81
274.945	269.81
275.176	300.81
275.408	300.81
275.64	301.81
275.872	289.81
276.104	281.81
276.335	281.81
276.567	302.81
276.799	313.81
277.031	331.81
277.262	353.81
277.494	328.81
277.726	324.81
277.957	324.81
278.189	303.81
278.421	291.81
278.652	312.81
278.884	311.81
279.115	287.81
279.347	310.81
279.579	296.81
279.81	294.81
280.042	301.81
280.273	310.81
280.505	293.81
280.736	286.81
280.968	276.81
281.199	313.81
281.431	316.81
281.662	303.81
281.894	311.81
282.125	306.81
282.356	329.81
282.588	324.81
282.819	324.81
283.051	311.81
283.282	293.81
283.513	299.81
283.745	308.81
283.976	315.81
284.207	293.81
284.439	302.81
284.67	316.81
284.901	296.81
285.132	301.81
285.364	311.81
285.595	305.81
285.826	308.81
286.057	332.81
286.288	332.81
286.52	315.81
286.751	301.81
286.982	303.81
287.213	325.81
287.444	323.81
287.675	313.81
287.906	319.81
288.138	342.81
288.369	330.81
288.6	333.81
288.831	337.81
289.062	342.81
289.293	321.81
289.524	307.81
289.755	326.81
289.986	324.81
290.217	324.81
290.448	315.81
290.679	325.81
290.91	316.81
291.141	323.81
291.371	319.81
291.602	320.81
291.833	321.81
292.064	306.81
292.295	326.81
292.526	327.81
292.757	327.81
292.987	311.81
293.218	333.81
293.449	335.81
293.68	325.81
293.91	325.81
294.141	330.81
294.372	326.81
294.603	356.81
294.833	329.81
295.064	321.81
295.295	327.81
295.525	317.81
295.756	318.81
295.987	334.81
296.217	351.81
296.448	347.81
296.679	325.81
296.909	339.81
297.14	329.81
297.37	326.81
297.601	329.81
297.831	349.81
298.062	351.81
298.292	340.81
298.523	341.81
298.753	334.81
298.984	363.81
299.214	344.81
299.445	361.81
299.675	335.81
299.905	358.81
300.136	351.81
300.366	362.81
300.597	329.81
300.827	348.81
301.057	353.81
301.288	371.81
301.518	367.81
301.748	378.81
301.979	362.81
302.209	370.81
302.439	366.81
302.669	375.81
302.9	359.81
303.13	352.81
303.36	350.81
303.59	371.81
303.82	366.81
304.051	375.81
304.281	377.81
304.511	355.81
304.741	369.81
304.971	365.81
305.201	358.81
305.431	356.81
305.661	357.81
305.891	366.81
306.121	361.81
306.352	361.81
306.582	378.81
306.812	373.81
307.042	371.81
307.272	357.81
307.502	377.81
307.731	369.81
307.961	354.81
308.191	363.81
308.421	372.81
308.651	383.81
308.881	374.81
309.111	350.81
309.341	373.81
309.571	368.81
309.8	387.81
310.03	400.81
310.26	405.81
310.49	408.81
310.72	412.81
310.949	424.81
311.179	427.81
311.409	411.81
311.639	407.81
311.868	409.81
312.098	386.81
312.328	407.81
312.557	422.81
312.787	425.81
313.017	437.81
313.246	424.81
313.476	399.81
313.706	392.81
313.935	398.81
314.165	436.81
314.394	429.81
314.624	433.81
314.853	422.81
315.083	430.81
315.312	393.81
315.542	402.81
315.771	399.81
316.001	391.81
316.23	416.81
316.46	406.81
316.689	399.81
316.919	419.81
317.148	413.81
317.377	447.81
317.607	432.81
317.836	423.81
318.065	433.81
318.295	422.81
318.524	414.81
318.753	420.81
318.983	426.81
319.212	418.81
319.441	415.81
319.67	423.81
319.9	394.81
320.129	403.81
320.358	409.81
320.587	423.81
320.816	406.81
321.046	414.81
321.275	442.81
321.504	420.81
321.733	421.81
321.962	458.81
322.191	444.81
322.42	446.81
322.649	454.81
322.878	466.81
323.108	459.81
323.337	486.81
323.566	510.81
323.795	513.81
324.024	562.81
324.253	637.81
324.482	903.81
324.71	1341.81
324.939	1975.81
325.168	1763.81
325.397	887.81
325.626	639.81
325.855	537.81
326.084	536.81
326.313	517.81
326.542	490.81
326.77	527.81
326.999	634.81
327.228	842.81
327.457	1220.81
327.686	1539.81
327.914	1004.81
328.143	704.81
328.372	614.81
328.6	569.81
328.829	565.81
329.058	590.81
329.287	606.81
329.515	564.81
329.744	531.81
329.972	523.81
330.201	547.81
330.43	575.81
330.658	594.81
330.887	605.81
331.115	591.81
331.344	562.81
331.572	551.81
331.801	521.81
332.03	505.81
332.258	500.81
332.486	472.81
332.715	488.81
332.943	511.81
333.172	511.81
333.4	500.81
333.629	510.81
333.857	521.81
334.085	529.81
334.314	546.81
334.542	586.81
334.771	590.81
334.999	549.81
335.227	525.81
335.455	516.81
335.684	510.81
335.912	518.81
336.14	504.81
336.369	497.81
336.597	523.81
336.825	509.81
337.053	498.81
337.281	498.81
337.51	466.81
337.738	478.81
337.966	495.81
338.194	506.81
338.422	483.81
338.65	482.81
338.878	490.81
339.106	474.81
339.334	480.81
339.562	464.81
339.79	487.81
340.018	499.81
340.246	473.81
340.474	483.81
340.702	508.81
340.93	460.81
341.158	475.81
341.386	493.81
341.614	455.81
341.842	491.81
342.07	472.81
342.298	455.81
342.526	469.81
342.754	467.81
342.981	458.81
343.209	452.81
343.437	475.81
343.665	489.81
343.893	494.81
344.12	498.81
344.348	502.81
344.576	500.81
344.804	466.81
345.031	480.81
345.259	489.81
345.487	474.81
345.714	517.81
345.942	477.81
346.17	465.81
346.397	455.81
346.625	451.81
346.853	436.81
347.08	469.81
347.308	459.81
347.535	471.81
347.763	471.81
347.99	465.81
348.218	479.81
348.445	480.81
348.673	469.81
348.9	456.81
349.128	456.81
349.355	460.81
349.583	455.81
349.81	464.81
350.037	446.81
350.265	444.81
350.492	464.81
350.72	441.81
350.947	482.81
351.174	463.81
351.402	463.81
351.629	468.81
351.856	459.81
352.083	469.81
352.311	463.81
352.538	478.81
352.765	471.81
352.992	447.81
353.22	458.81
353.447	462.81
353.674	448.81
353.901	449.81
354.128	449.81
354.355	447.81
354.583	417.81
354.81	443.81
355.037	428.81
355.264	430.81
355.491	433.81
355.718	403.81
355.945	429.81
356.172	450.81
356.399	425.81
356.626	423.81
356.853	448.81
357.08	449.81
357.307	407.81
357.534	454.81
357.761	439.81
357.988	437.81
358.215	450.81
358.441	450.81
358.668	445.81
358.895	436.81
359.122	463.81
359.349	464.81
359.576	469.81
359.802	468.81
360.029	485.81
360.256	500.81
360.483	514.81
360.709	484.81
360.936	480.81
361.163	472.81
361.39	462.81
361.616	458.81
361.843	473.81
362.07	480.81
362.296	460.81
362.523	461.81
362.749	476.81
362.976	443.81
363.203	461.81
363.429	462.81
363.656	434.81
363.882	463.81
364.109	454.81
364.335	445.81
364.562	446.81
364.788	442.81
365.015	451.81
365.241	447.81
365.468	449.81
365.694	448.81
365.92	475.81
366.147	462.81
366.373	453.81
366.599	455.81
366.826	445.81
367.052	455.81
367.278	435.81
367.505	438.81
367.731	451.81
367.957	465.81
368.184	434.81
368.41	464.81
368.636	469.81
368.862	455.81
369.089	467.81
369.315	451.81
369.541	437.81
369.767	455.81
369.993	454.81
370.219	451.81
370.445	447.81
370.672	448.81
370.898	447.81
371.124	441.81
371.35	449.81
371.576	444.81
371.802	457.81
372.028	459.81
372.254	453.81
372.48	467.81
372.706	471.81
372.932	481.81
373.158	471.81
373.384	454.81
373.61	465.81
373.835	467.81
374.061	467.81
374.287	469.81
374.513	464.81
374.739	473.81
374.965	477.81
375.191	454.81
375.416	480.81
375.642	464.81
375.868	483.81
376.094	478.81
376.319	461.81
376.545	458.81
376.771	470.81
376.997	444.81
377.222	454.81
377.448	474.81
377.674	455.81
377.899	457.81
378.125	459.81
378.35	455.81
378.576	462.81
378.802	472.81
379.027	448.81
379.253	458.81
379.478	478.81
379.704	443.81
379.929	459.81
380.155	475.81
380.38	477.81
380.606	454.81
380.831	454.81
381.057	467.81
381.282	473.81
381.507	457.81
381.733	464.81
381.958	450.81
382.184	482.81
382.409	456.81
382.634	466.81
382.86	472.81
383.085	452.81
383.31	486.81
383.535	481.81
383.761	481.81
383.986	482.81
384.211	486.81
384.436	490.81
384.662	503.81
384.887	521.81
385.112	511.81
385.337	530.81
385.562	513.81
385.787	524.81
386.013	518.81
386.238	526.81
386.463	500.81
386.688	502.81
386.913	489.81
387.138	499.81
387.363	504.81
387.588	509.81
387.813	527.81
388.038	517.81
388.263	526.81
388.488	527.81
388.713	523.81
388.938	538.81
389.163	521.81
389.387	511.81
389.612	506.81
389.837	487.81
390.062	528.81
390.287	535.81
390.512	525.81
390.736	513.81
390.961	522.81
391.186	512.81
391.411	525.81
391.636	532.81
391.86	535.81
392.085	553.81
392.31	538.81
392.534	552.81
392.759	533.81
392.984	535.81
393.208	524.81
393.433	525.81
393.658	535.81
393.882	515.81
394.107	524.81
394.331	509.81
394.556	524.81
394.78	528.81
395.005	506.81
395.229	540.81
395.454	548.81
395.678	565.81
395.903	577.81
396.127	581.81
396.352	572.81
396.576	558.81
396.801	531.81
397.025	557.81
397.249	576.81
397.474	567.81
397.698	557.81
397.922	567.81
398.147	587.81
398.371	599.81
398.595	587.81
398.82	589.81
399.044	603.81
399.268	658.81
399.492	673.81
399.717	732.81
399.941	774.81
400.165	753.81
400.389	768.81
400.613	710.81
400.837	646.81
401.062	626.81
401.286	626.81
401.51	617.81
401.734	602.81
401.958	596.81
402.182	621.81
402.406	615.81
402.63	630.81
402.854	609.81
403.078	630.81
403.302	635.81
403.526	651.81
403.75	634.81
403.974	638.81
404.198	612.81
404.422	633.81
404.645	634.81
404.869	647.81
405.093	655.81
405.317	714.81
405.541	758.81
405.765	703.81
405.988	658.81
406.212	682.81
406.436	666.81
406.66	697.81
406.883	674.81
407.107	702.81
407.331	746.81
407.555	836.81
407.778	822.81
408.002	720.81
408.226	694.81
408.449	666.81
408.673	689.81
408.896	727.81
409.12	772.81
409.344	715.81
409.567	670.81
409.791	650.81
410.014	634.81
410.238	630.81
410.461	633.81
410.685	648.81
410.908	637.81
411.132	682.81
411.355	731.81
411.578	700.81
411.802	643.81
412.025	615.81
412.249	630.81
412.472	674.81
412.695	694.81
412.919	695.81
413.142	638.81
413.365	611.81
413.589	616.81
413.812	602.81
414.035	634.81
414.258	605.81
414.482	600.81
414.705	611.81
414.928	599.81
415.151	594.81
415.374	602.81
415.597	607.81
415.821	576.81
416.044	588.81
416.267	596.81
416.49	582.81
416.713	567.81
416.936	589.81
417.159	595.81
417.382	610.81
417.605	610.81
417.828	613.81
418.051	641.81
418.274	633.81
418.497	616.81
418.72	611.81
418.943	594.81
419.166	620.81
419.389	667.81
419.611	635.81
419.834	648.81
420.057	647.81
420.28	630.81
420.503	620.81
420.726	615.81
420.948	655.81
421.171	686.81
421.394	702.81
421.617	643.81
421.839	609.81
422.062	633.81
422.285	632.81
422.507	708.81
422.73	781.81
422.953	735.81
423.175	662.81
423.398	648.81
423.621	645.81
423.843	670.81
424.066	665.81
424.288	674.81
424.511	691.81
424.733	720.81
424.956	830.81
425.178	781.81
425.401	779.81
425.623	832.81
425.846	709.81
426.068	659.81
426.291	650.81
426.513	671.81
426.735	707.81
426.958	713.81
427.18	774.81
427.402	939.81
427.625	1031.81
427.847	887.81
428.069	762.81
428.292	701.81
428.514	649.81
428.736	642.81
428.958	612.81
429.181	585.81
429.403	597.81
429.625	611.81
429.847	626.81
430.069	713.81
430.292	722.81
430.514	639.81
430.736	613.81
430.958	609.81
431.18	591.81
431.402	570.81
431.624	586.81
431.846	578.81
432.068	583.81
432.29	595.81
432.512	572.81
432.734	605.81
432.956	594.81
433.178	607.81
433.4	602.81
433.622	585.81
433.844	590.81
434.066	586.81
434.287	605.81
434.509	599.81
434.731	630.81
434.953	615.81
435.175	631.81
435.397	667.81
435.618	644.81
435.84	717.81
436.062	825.81
436.284	865.81
436.505	731.81
436.727	666.81
436.949	635.81
437.17	615.81
437.392	614.81
437.614	597.81
437.835	643.81
438.057	750.81
438.278	863.81
438.5	843.81
438.721	933.81
438.943	891.81
439.165	742.81
439.386	661.81
439.608	665.81
439.829	633.81
440.05	687.81
440.272	728.81
440.493	691.81
440.715	639.81
440.936	632.81
441.158	601.81
441.379	623.81
441.6	641.81
441.822	657.81
442.043	690.81
442.264	781.81
442.486	864.81
442.707	718.81
442.928	693.81
443.149	686.81
443.371	676.81
443.592	741.81
443.813	868.81
444.034	932.81
444.255	782.81
444.476	715.81
444.698	701.81
444.919	666.81
445.14	743.81
445.361	719.81
445.582	698.81
445.803	767.81
446.024	847.81
446.245	878.81
446.466	824.81
446.687	697.81
446.908	667.81
447.129	633.81
447.35	609.81
447.571	580.81
447.792	556.81
448.013	593.81
448.234	633.81
448.455	662.81
448.675	753.81
448.896	931.81
449.117	765.81
449.338	746.81
449.559	854.81
449.779	959.81
450	784.81
450.221	659.81
450.442	584.81
450.662	572.81
450.883	587.81
451.104	622.81
451.324	595.81
451.545	573.81
451.766	555.81
451.986	530.81
452.207	537.81
452.428	544.81
452.648	529.81
452.869	519.81
453.089	531.81
453.31	528.81
453.53	547.81
453.751	540.81
453.971	549.81
454.192	542.81
454.412	513.81
454.633	534.81
454.853	535.81
455.073	557.81
455.294	578.81
455.514	628.81
455.734	632.81
455.955	541.81
456.175	509.81
456.395	491.81
456.616	511.81
456.836	507.81
457.056	509.81
457.276	491.81
457.497	511.81
457.717	498.81
457.937	507.81
458.157	538.81
458.377	535.81
458.598	558.81
458.818	589.81
459.038	675.81
459.258	723.81
459.478	621.81
459.698	578.81
459.918	573.81
460.138	577.81
460.358	602.81
460.578	596.81
460.798	633.81
461.018	614.81
461.238	591.81
461.458	593.81
461.678	603.81
461.898	595.81
462.118	581.81
462.338	606.81
462.558	620.81
462.777	613.81
462.997	674.81
463.217	684.81
463.437	686.81
463.657	674.81
463.876	656.81
464.096	645.81
464.316	643.81
464.536	677.81
464.755	638.81
464.975	635.81
465.195	679.81
465.414	715.81
465.634	640.81
465.854	605.81
466.073	587.81
466.293	574.81
466.512	548.81
466.732	565.81
466.951	552.81
467.171	573.81
467.391	565.81
467.61	580.81
467.829	566.81
468.049	536.81
468.268	561.81
468.488	550.81
468.707	561.81
468.927	553.81
469.146	530.81
469.365	539.81
469.585	537.81
469.804	547.81
470.023	571.81
470.243	569.81
470.462	558.81
470.681	579.81
470.901	572.81
471.12	586.81
471.339	561.81
471.558	569.81
471.777	548.81
471.997	558.81
472.216	569.81
472.435	574.81
472.654	582.81
472.873	545.81
473.092	563.81
473.311	544.81
473.53	581.81
473.749	566.81
473.968	622.81
474.187	722.81
474.406	732.81
474.625	619.81
474.844	575.81
475.063	575.81
475.282	577.81
475.501	554.81
475.72	576.81
475.939	574.81
476.158	578.81
476.377	586.81
476.596	574.81
476.814	589.81
477.033	591.81
477.252	602.81
477.471	587.81
477.69	604.81
477.908	591.81
478.127	604.81
478.346	630.81
478.564	628.81
478.783	619.81
479.002	652.81
479.22	658.81
479.439	677.81
479.658	675.81
479.876	659.81
480.095	656.81
480.313	722.81
480.532	701.81
480.751	696.81
480.969	699.81
481.188	750.81
481.406	778.81
481.624	707.81
481.843	683.81
482.061	657.81
482.28	656.81
482.498	654.81
482.717	666.81
482.935	667.81
483.153	666.81
483.372	664.81
483.59	668.81
483.808	660.81
484.027	658.81
484.245	662.81
484.463	656.81
484.681	669.81
484.9	681.81
485.118	677.81
485.336	683.81
485.554	690.81
485.772	668.81
485.99	680.81
486.209	684.81
486.427	682.81
486.645	718.81
486.863	699.81
487.081	721.81
487.299	713.81
487.517	666.81
487.735	707.81
487.953	717.81
488.171	724.81
488.389	707.81
488.607	728.81
488.825	729.81
489.043	711.81
489.261	719.81
489.479	720.81
489.696	737.81
489.914	733.81
490.132	731.81
490.35	750.81
490.568	722.81
490.786	766.81
491.003	773.81
491.221	803.81
491.439	796.81
491.657	820.81
491.874	802.81
492.092	835.81
492.31	795.81
492.527	833.81
492.745	828.81
492.963	808.81
493.18	797.81
493.398	843.81
493.615	857.81
493.833	839.81
494.05	856.81
494.268	853.81
494.485	841.81
494.703	838.81
494.92	869.81
495.138	835.81
495.355	823.81
495.573	847.81
495.79	851.81
496.008	845.81
496.225	840.81
496.442	855.81
496.66	850.81
496.877	834.81
497.094	849.81
497.312	858.81
497.529	873.81
497.746	898.81
497.963	882.81
498.181	923.81
498.398	908.81
498.615	964.81
498.832	988.81
499.049	984.81
499.267	1064.81
499.484	1083.81
499.701	1140.81
499.918	1190.81
500.135	1231.81
500.352	1337.81
500.569	1345.81
500.786	1346.81
501.003	1303.81
501.22	1269.81
501.437	1235.81
501.654	1145.81
