Data from 1974.PennyLincolnUp.Lamp.En5.5.200Scan.071719.P1.Changed Mount._HRD10591_15-53-42-857.txt Node
Date: Thu Jul 18 15:53:42 EDT 2019
User: cochatt
Spectrometer: HR+D1059
Trigger mode: 1
Integration Time (sec): 1.000000E-1
Scans to average: 1
Electric dark correction enabled: true
Nonlinearity correction enabled: false
Boxcar width: 0
XAxis mode: Wavelengths
Number of Pixels in Spectrum: 2048
>>>>>Begin Spectral Data<<<<<
223.165	-23.19
223.4	-23.19
223.635	-23.19
223.869	-11.19
224.104	-22.19
224.338	-10.19
224.573	-14.19
224.808	-11.19
225.042	-0.19
225.277	6.81
225.511	3.81
225.746	-2.19
225.98	-10.19
226.215	-2.19
226.449	22.81
226.683	19.81
226.918	29.81
227.152	23.81
227.387	40.81
227.621	33.81
227.856	36.81
228.09	32.81
228.324	33.81
228.559	37.81
228.793	67.81
229.027	89.81
229.262	121.81
229.496	109.81
229.73	139.81
229.964	165.81
230.199	123.81
230.433	98.81
230.667	128.81
230.901	117.81
231.136	102.81
231.37	116.81
231.604	116.81
231.838	124.81
232.072	116.81
232.306	104.81
232.541	122.81
232.775	125.81
233.009	117.81
233.243	116.81
233.477	118.81
233.711	120.81
233.945	124.81
234.179	122.81
234.413	120.81
234.647	124.81
234.881	122.81
235.115	124.81
235.349	128.81
235.583	132.81
235.817	140.81
236.051	120.81
236.285	134.81
236.519	133.81
236.753	130.81
236.987	139.81
237.221	181.81
237.455	240.81
237.689	180.81
237.922	156.81
238.156	118.81
238.39	135.81
238.624	130.81
238.858	126.81
239.091	131.81
239.325	132.81
239.559	128.81
239.793	146.81
240.027	149.81
240.26	162.81
240.494	144.81
240.728	148.81
240.961	159.81
241.195	154.81
241.429	159.81
241.662	136.81
241.896	138.81
242.13	140.81
242.363	152.81
242.597	139.81
242.83	143.81
243.064	139.81
243.298	148.81
243.531	160.81
243.765	148.81
243.998	142.81
244.232	148.81
244.465	154.81
244.699	159.81
244.932	152.81
245.166	144.81
245.399	153.81
245.633	168.81
245.866	160.81
246.099	164.81
246.333	150.81
246.566	164.81
246.8	161.81
247.033	157.81
247.266	164.81
247.5	168.81
247.733	176.81
247.966	189.81
248.2	174.81
248.433	165.81
248.666	186.81
248.899	199.81
249.133	217.81
249.366	208.81
249.599	212.81
249.832	198.81
250.066	186.81
250.299	198.81
250.532	190.81
250.765	205.81
250.998	231.81
251.231	240.81
251.465	237.81
251.698	225.81
251.931	205.81
252.164	207.81
252.397	216.81
252.63	225.81
252.863	227.81
253.096	225.81
253.329	235.81
253.562	237.81
253.795	235.81
254.028	242.81
254.261	223.81
254.494	243.81
254.727	264.81
254.96	291.81
255.193	286.81
255.426	263.81
255.659	252.81
255.892	249.81
256.124	246.81
256.357	232.81
256.59	220.81
256.823	234.81
257.056	226.81
257.289	240.81
257.521	235.81
257.754	211.81
257.987	232.81
258.22	210.81
258.452	219.81
258.685	220.81
258.918	225.81
259.151	220.81
259.383	240.81
259.616	237.81
259.849	250.81
260.081	259.81
260.314	270.81
260.547	270.81
260.779	254.81
261.012	261.81
261.244	258.81
261.477	238.81
261.71	233.81
261.942	229.81
262.175	250.81
262.407	244.81
262.64	235.81
262.872	231.81
263.105	229.81
263.337	210.81
263.57	230.81
263.802	230.81
264.035	244.81
264.267	229.81
264.499	218.81
264.732	222.81
264.964	228.81
265.197	206.81
265.429	217.81
265.661	231.81
265.894	230.81
266.126	227.81
266.358	244.81
266.591	254.81
266.823	248.81
267.055	237.81
267.287	256.81
267.52	254.81
267.752	232.81
267.984	250.81
268.216	250.81
268.448	260.81
268.681	278.81
268.913	256.81
269.145	273.81
269.377	293.81
269.609	306.81
269.841	288.81
270.073	280.81
270.306	301.81
270.538	337.81
270.77	335.81
271.002	327.81
271.234	302.81
271.466	322.81
271.698	339.81
271.93	342.81
272.162	334.81
272.394	353.81
272.626	320.81
272.858	304.81
273.09	311.81
273.322	286.81
273.553	278.81
273.785	277.81
274.017	284.81
274.249	290.81
274.481	286.81
274.713	296.81
274.945	289.81
275.176	277.81
275.408	289.81
275.64	282.81
275.872	279.81
276.104	297.81
276.335	311.81
276.567	301.81
276.799	310.81
277.031	336.81
277.262	343.81
277.494	349.81
277.726	333.81
277.957	321.81
278.189	317.81
278.421	306.81
278.652	307.81
278.884	288.81
279.115	281.81
279.347	285.81
279.579	279.81
279.81	281.81
280.042	299.81
280.273	294.81
280.505	293.81
280.736	301.81
280.968	300.81
281.199	304.81
281.431	300.81
281.662	304.81
281.894	289.81
282.125	315.81
282.356	308.81
282.588	331.81
282.819	324.81
283.051	314.81
283.282	299.81
283.513	298.81
283.745	313.81
283.976	292.81
284.207	306.81
284.439	280.81
284.67	306.81
284.901	308.81
285.132	304.81
285.364	321.81
285.595	308.81
285.826	299.81
286.057	311.81
286.288	311.81
286.52	314.81
286.751	305.81
286.982	318.81
287.213	293.81
287.444	309.81
287.675	304.81
287.906	331.81
288.138	340.81
288.369	325.81
288.6	324.81
288.831	327.81
289.062	335.81
289.293	315.81
289.524	332.81
289.755	315.81
289.986	325.81
290.217	303.81
290.448	325.81
290.679	330.81
290.91	314.81
291.141	309.81
291.371	310.81
291.602	315.81
291.833	342.81
292.064	314.81
292.295	321.81
292.526	328.81
292.757	331.81
292.987	331.81
293.218	324.81
293.449	349.81
293.68	312.81
293.91	315.81
294.141	324.81
294.372	325.81
294.603	325.81
294.833	325.81
295.064	306.81
295.295	334.81
295.525	338.81
295.756	355.81
295.987	349.81
296.217	356.81
296.448	339.81
296.679	320.81
296.909	326.81
297.14	340.81
297.37	331.81
297.601	340.81
297.831	333.81
298.062	329.81
298.292	344.81
298.523	337.81
298.753	341.81
298.984	324.81
299.214	342.81
299.445	334.81
299.675	356.81
299.905	333.81
300.136	344.81
300.366	352.81
300.597	335.81
300.827	354.81
301.057	345.81
301.288	352.81
301.518	370.81
301.748	364.81
301.979	352.81
302.209	354.81
302.439	382.81
302.669	356.81
302.9	377.81
303.13	361.81
303.36	370.81
303.59	375.81
303.82	366.81
304.051	386.81
304.281	346.81
304.511	346.81
304.741	340.81
304.971	362.81
305.201	370.81
305.431	372.81
305.661	384.81
305.891	356.81
306.121	376.81
306.352	368.81
306.582	357.81
306.812	373.81
307.042	357.81
307.272	365.81
307.502	359.81
307.731	364.81
307.961	366.81
308.191	354.81
308.421	355.81
308.651	381.81
308.881	365.81
309.111	372.81
309.341	375.81
309.571	389.81
309.8	379.81
310.03	377.81
310.26	379.81
310.49	395.81
310.72	408.81
310.949	412.81
311.179	444.81
311.409	419.81
311.639	405.81
311.868	398.81
312.098	406.81
312.328	410.81
312.557	413.81
312.787	449.81
313.017	450.81
313.246	415.81
313.476	414.81
313.706	406.81
313.935	390.81
314.165	421.81
314.394	435.81
314.624	432.81
314.853	410.81
315.083	415.81
315.312	413.81
315.542	396.81
315.771	402.81
316.001	413.81
316.23	406.81
316.46	398.81
316.689	405.81
316.919	391.81
317.148	432.81
317.377	432.81
317.607	427.81
317.836	404.81
318.065	423.81
318.295	419.81
318.524	415.81
318.753	416.81
318.983	420.81
319.212	403.81
319.441	416.81
319.67	404.81
319.9	429.81
320.129	409.81
320.358	420.81
320.587	422.81
320.816	411.81
321.046	411.81
321.275	414.81
321.504	425.81
321.733	430.81
321.962	442.81
322.191	450.81
322.42	448.81
322.649	457.81
322.878	477.81
323.108	471.81
323.337	482.81
323.566	489.81
323.795	526.81
324.024	547.81
324.253	646.81
324.482	872.81
324.71	1334.81
324.939	1971.81
325.168	1712.81
325.397	885.81
325.626	617.81
325.855	552.81
326.084	521.81
326.313	497.81
326.542	508.81
326.77	550.81
326.999	607.81
327.228	832.81
327.457	1207.81
327.686	1509.81
327.914	997.81
328.143	663.81
328.372	594.81
328.6	569.81
328.829	568.81
329.058	578.81
329.287	583.81
329.515	543.81
329.744	542.81
329.972	548.81
330.201	531.81
330.43	579.81
330.658	612.81
330.887	633.81
331.115	576.81
331.344	536.81
331.572	513.81
331.801	545.81
332.03	540.81
332.258	506.81
332.486	503.81
332.715	490.81
332.943	479.81
333.172	501.81
333.4	501.81
333.629	501.81
333.857	541.81
334.085	534.81
334.314	540.81
334.542	578.81
334.771	590.81
334.999	550.81
335.227	537.81
335.455	496.81
335.684	512.81
335.912	503.81
336.14	506.81
336.369	493.81
336.597	491.81
336.825	521.81
337.053	500.81
337.281	492.81
337.51	488.81
337.738	492.81
337.966	453.81
338.194	498.81
338.422	476.81
338.65	470.81
338.878	479.81
339.106	484.81
339.334	486.81
339.562	457.81
339.79	458.81
340.018	490.81
340.246	501.81
340.474	482.81
340.702	473.81
340.93	460.81
341.158	468.81
341.386	471.81
341.614	474.81
341.842	478.81
342.07	481.81
342.298	468.81
342.526	463.81
342.754	441.81
342.981	443.81
343.209	458.81
343.437	459.81
343.665	481.81
343.893	492.81
344.12	503.81
344.348	498.81
344.576	500.81
344.804	499.81
345.031	473.81
345.259	498.81
345.487	482.81
345.714	477.81
345.942	464.81
346.17	453.81
346.397	446.81
346.625	453.81
346.853	452.81
347.08	465.81
347.308	466.81
347.535	480.81
347.763	475.81
347.99	473.81
348.218	493.81
348.445	461.81
348.673	492.81
348.9	455.81
349.128	439.81
349.355	446.81
349.583	439.81
349.81	430.81
350.037	446.81
350.265	442.81
350.492	420.81
350.72	442.81
350.947	442.81
351.174	469.81
351.402	464.81
351.629	466.81
351.856	455.81
352.083	466.81
352.311	467.81
352.538	474.81
352.765	475.81
352.992	463.81
353.22	466.81
353.447	457.81
353.674	444.81
353.901	434.81
354.128	446.81
354.355	438.81
354.583	463.81
354.81	472.81
355.037	434.81
355.264	424.81
355.491	422.81
355.718	444.81
355.945	437.81
356.172	450.81
356.399	436.81
356.626	456.81
356.853	418.81
357.08	435.81
357.307	424.81
357.534	432.81
357.761	448.81
357.988	443.81
358.215	444.81
358.441	431.81
358.668	427.81
358.895	440.81
359.122	439.81
359.349	436.81
359.576	446.81
359.802	451.81
360.029	491.81
360.256	517.81
360.483	492.81
360.709	462.81
360.936	456.81
361.163	456.81
361.39	462.81
361.616	473.81
361.843	473.81
362.07	467.81
362.296	462.81
362.523	450.81
362.749	456.81
362.976	456.81
363.203	463.81
363.429	443.81
363.656	442.81
363.882	450.81
364.109	457.81
364.335	418.81
364.562	452.81
364.788	448.81
365.015	430.81
365.241	446.81
365.468	454.81
365.694	454.81
365.92	453.81
366.147	456.81
366.373	440.81
366.599	421.81
366.826	408.81
367.052	452.81
367.278	455.81
367.505	458.81
367.731	467.81
367.957	464.81
368.184	444.81
368.41	460.81
368.636	452.81
368.862	450.81
369.089	455.81
369.315	453.81
369.541	465.81
369.767	437.81
369.993	453.81
370.219	444.81
370.445	448.81
370.672	461.81
370.898	461.81
371.124	446.81
371.35	466.81
371.576	456.81
371.802	471.81
372.028	464.81
372.254	448.81
372.48	470.81
372.706	452.81
372.932	461.81
373.158	479.81
373.384	461.81
373.61	472.81
373.835	477.81
374.061	447.81
374.287	478.81
374.513	454.81
374.739	475.81
374.965	478.81
375.191	484.81
375.416	472.81
375.642	458.81
375.868	477.81
376.094	444.81
376.319	479.81
376.545	460.81
376.771	459.81
376.997	453.81
377.222	465.81
377.448	453.81
377.674	465.81
377.899	450.81
378.125	446.81
378.35	448.81
378.576	463.81
378.802	438.81
379.027	454.81
379.253	454.81
379.478	451.81
379.704	466.81
379.929	453.81
380.155	446.81
380.38	463.81
380.606	468.81
380.831	456.81
381.057	470.81
381.282	443.81
381.507	436.81
381.733	452.81
381.958	482.81
382.184	462.81
382.409	449.81
382.634	474.81
382.86	472.81
383.085	464.81
383.31	475.81
383.535	450.81
383.761	470.81
383.986	478.81
384.211	475.81
384.436	493.81
384.662	510.81
384.887	512.81
385.112	491.81
385.337	506.81
385.562	503.81
385.787	506.81
386.013	516.81
386.238	524.81
386.463	515.81
386.688	520.81
386.913	526.81
387.138	486.81
387.363	514.81
387.588	506.81
387.813	518.81
388.038	526.81
388.263	512.81
388.488	525.81
388.713	523.81
388.938	520.81
389.163	527.81
389.387	533.81
389.612	504.81
389.837	530.81
390.062	505.81
390.287	500.81
390.512	506.81
390.736	501.81
390.961	498.81
391.186	506.81
391.411	523.81
391.636	532.81
391.86	568.81
392.085	519.81
392.31	534.81
392.534	539.81
392.759	545.81
392.984	513.81
393.208	519.81
393.433	529.81
393.658	520.81
393.882	521.81
394.107	536.81
394.331	523.81
394.556	504.81
394.78	528.81
395.005	522.81
395.229	527.81
395.454	553.81
395.678	545.81
395.903	564.81
396.127	566.81
396.352	573.81
396.576	525.81
396.801	533.81
397.025	534.81
397.249	555.81
397.474	573.81
397.698	533.81
397.922	561.81
398.147	557.81
398.371	594.81
398.595	597.81
398.82	580.81
399.044	608.81
399.268	638.81
399.492	685.81
399.717	712.81
399.941	772.81
400.165	760.81
400.389	739.81
400.613	686.81
400.837	650.81
401.062	606.81
401.286	608.81
401.51	596.81
401.734	584.81
401.958	592.81
402.182	635.81
402.406	618.81
402.63	612.81
402.854	620.81
403.078	601.81
403.302	637.81
403.526	633.81
403.75	630.81
403.974	645.81
404.198	626.81
404.422	629.81
404.645	646.81
404.869	661.81
405.093	684.81
405.317	701.81
405.541	748.81
405.765	716.81
405.988	664.81
406.212	652.81
406.436	698.81
406.66	679.81
406.883	708.81
407.107	722.81
407.331	742.81
407.555	808.81
407.778	825.81
408.002	767.81
408.226	709.81
408.449	712.81
408.673	688.81
408.896	726.81
409.12	756.81
409.344	710.81
409.567	659.81
409.791	630.81
410.014	629.81
410.238	630.81
410.461	620.81
410.685	614.81
410.908	631.81
411.132	676.81
411.355	719.81
411.578	677.81
411.802	645.81
412.025	641.81
412.249	628.81
412.472	628.81
412.695	684.81
412.919	693.81
413.142	643.81
413.365	606.81
413.589	638.81
413.812	586.81
414.035	606.81
414.258	610.81
414.482	587.81
414.705	591.81
414.928	585.81
415.151	576.81
415.374	598.81
415.597	578.81
415.821	571.81
416.044	598.81
416.267	587.81
416.49	580.81
416.713	588.81
416.936	593.81
417.159	586.81
417.382	609.81
417.605	576.81
417.828	594.81
418.051	616.81
418.274	603.81
418.497	588.81
418.72	599.81
418.943	619.81
419.166	626.81
419.389	636.81
419.611	650.81
419.834	620.81
420.057	627.81
420.28	631.81
420.503	620.81
420.726	638.81
420.948	608.81
421.171	666.81
421.394	698.81
421.617	619.81
421.839	606.81
422.062	627.81
422.285	622.81
422.507	672.81
422.73	776.81
422.953	726.81
423.175	672.81
423.398	656.81
423.621	638.81
423.843	681.81
424.066	668.81
424.288	653.81
424.511	673.81
424.733	753.81
424.956	828.81
425.178	780.81
425.401	758.81
425.623	809.81
425.846	699.81
426.068	663.81
426.291	647.81
426.513	640.81
426.735	656.81
426.958	694.81
427.18	790.81
427.402	927.81
427.625	992.81
427.847	845.81
428.069	776.81
428.292	696.81
428.514	626.81
428.736	612.81
428.958	627.81
429.181	594.81
429.403	596.81
429.625	614.81
429.847	621.81
430.069	697.81
430.292	694.81
430.514	652.81
430.736	600.81
430.958	594.81
431.18	563.81
431.402	571.81
431.624	564.81
431.846	578.81
432.068	578.81
432.29	579.81
432.512	576.81
432.734	589.81
432.956	586.81
433.178	589.81
433.4	583.81
433.622	601.81
433.844	598.81
434.066	560.81
434.287	588.81
434.509	575.81
434.731	614.81
434.953	624.81
435.175	625.81
435.397	644.81
435.618	665.81
435.84	685.81
436.062	796.81
436.284	850.81
436.505	733.81
436.727	655.81
436.949	595.81
437.17	618.81
437.392	597.81
437.614	592.81
437.835	644.81
438.057	729.81
438.278	826.81
438.5	851.81
438.721	909.81
438.943	898.81
439.165	723.81
439.386	674.81
439.608	653.81
439.829	657.81
440.05	671.81
440.272	688.81
440.493	688.81
440.715	637.81
440.936	637.81
441.158	619.81
441.379	626.81
441.6	645.81
441.822	643.81
442.043	685.81
442.264	794.81
442.486	828.81
442.707	713.81
442.928	681.81
443.149	700.81
443.371	684.81
443.592	716.81
443.813	877.81
444.034	944.81
444.255	758.81
444.476	713.81
444.698	700.81
444.919	709.81
445.14	761.81
445.361	720.81
445.582	710.81
445.803	748.81
446.024	875.81
446.245	894.81
446.466	810.81
446.687	681.81
446.908	666.81
447.129	608.81
447.35	603.81
447.571	595.81
447.792	580.81
448.013	604.81
448.234	606.81
448.455	690.81
448.675	778.81
448.896	921.81
449.117	786.81
449.338	726.81
449.559	811.81
449.779	956.81
450	745.81
450.221	653.81
450.442	599.81
450.662	565.81
450.883	603.81
451.104	614.81
451.324	579.81
451.545	543.81
451.766	546.81
451.986	551.81
452.207	540.81
452.428	559.81
452.648	526.81
452.869	540.81
453.089	541.81
453.31	554.81
453.53	557.81
453.751	539.81
453.971	533.81
454.192	538.81
454.412	517.81
454.633	531.81
454.853	512.81
455.073	506.81
455.294	554.81
455.514	617.81
455.734	633.81
455.955	532.81
456.175	493.81
456.395	532.81
456.616	491.81
456.836	496.81
457.056	515.81
457.276	485.81
457.497	505.81
457.717	489.81
457.937	510.81
458.157	520.81
458.377	522.81
458.598	525.81
458.818	590.81
459.038	682.81
459.258	667.81
459.478	584.81
459.698	579.81
459.918	600.81
460.138	589.81
460.358	586.81
460.578	632.81
460.798	633.81
461.018	603.81
461.238	608.81
461.458	550.81
461.678	593.81
461.898	586.81
462.118	594.81
462.338	620.81
462.558	646.81
462.777	659.81
462.997	654.81
463.217	683.81
463.437	695.81
463.657	662.81
463.876	644.81
464.096	678.81
464.316	648.81
464.536	644.81
464.755	647.81
464.975	657.81
465.195	635.81
465.414	714.81
465.634	660.81
465.854	595.81
466.073	600.81
466.293	578.81
466.512	551.81
466.732	555.81
466.951	553.81
467.171	558.81
467.391	536.81
467.61	546.81
467.829	580.81
468.049	578.81
468.268	561.81
468.488	537.81
468.707	528.81
468.927	540.81
469.146	542.81
469.365	548.81
469.585	549.81
469.804	552.81
470.023	579.81
470.243	576.81
470.462	545.81
470.681	562.81
470.901	589.81
471.12	555.81
471.339	566.81
471.558	572.81
471.777	554.81
471.997	572.81
472.216	574.81
472.435	598.81
472.654	564.81
472.873	556.81
473.092	545.81
473.311	548.81
473.53	545.81
473.749	555.81
473.968	605.81
474.187	701.81
474.406	729.81
474.625	610.81
474.844	580.81
475.063	549.81
475.282	567.81
475.501	560.81
475.72	572.81
475.939	553.81
476.158	560.81
476.377	573.81
476.596	561.81
476.814	577.81
477.033	574.81
477.252	583.81
477.471	586.81
477.69	600.81
477.908	622.81
478.127	609.81
478.346	619.81
478.564	647.81
478.783	645.81
479.002	638.81
479.22	655.81
479.439	672.81
479.658	663.81
479.876	661.81
480.095	672.81
480.313	704.81
480.532	696.81
480.751	677.81
480.969	690.81
481.188	733.81
481.406	761.81
481.624	712.81
481.843	675.81
482.061	652.81
482.28	675.81
482.498	663.81
482.717	658.81
482.935	674.81
483.153	650.81
483.372	665.81
483.59	653.81
483.808	674.81
484.027	648.81
484.245	680.81
484.463	645.81
484.681	637.81
484.9	679.81
485.118	647.81
485.336	687.81
485.554	662.81
485.772	645.81
485.99	702.81
486.209	682.81
486.427	693.81
486.645	688.81
486.863	684.81
487.081	694.81
487.299	709.81
487.517	704.81
487.735	684.81
487.953	684.81
488.171	699.81
488.389	675.81
488.607	718.81
488.825	721.81
489.043	711.81
489.261	703.81
489.479	701.81
489.696	726.81
489.914	724.81
490.132	718.81
490.35	758.81
490.568	741.81
490.786	748.81
491.003	758.81
491.221	757.81
491.439	785.81
491.657	779.81
491.874	794.81
492.092	806.81
492.31	816.81
492.527	840.81
492.745	829.81
492.963	813.81
493.18	838.81
493.398	844.81
493.615	838.81
493.833	843.81
494.05	860.81
494.268	838.81
494.485	846.81
494.703	850.81
494.92	838.81
495.138	848.81
495.355	844.81
495.573	838.81
495.79	871.81
496.008	858.81
496.225	852.81
496.442	831.81
496.66	842.81
496.877	846.81
497.094	834.81
497.312	867.81
497.529	897.81
497.746	883.81
497.963	896.81
498.181	912.81
498.398	944.81
498.615	941.81
498.832	974.81
499.049	997.81
499.267	1017.81
499.484	1046.81
499.701	1125.81
499.918	1163.81
500.135	1230.81
500.352	1294.81
500.569	1318.81
500.786	1333.81
501.003	1283.81
501.22	1277.81
501.437	1201.81
501.654	1118.81
