Data from 1974.PennyLincolnUp.Lamp.En5.5.200Scan.071719.P1.Changed Mount._HRD10591_15-52-16-856.txt Node
Date: Thu Jul 18 15:52:16 EDT 2019
User: cochatt
Spectrometer: HR+D1059
Trigger mode: 1
Integration Time (sec): 1.000000E-1
Scans to average: 1
Electric dark correction enabled: true
Nonlinearity correction enabled: false
Boxcar width: 0
XAxis mode: Wavelengths
Number of Pixels in Spectrum: 2048
>>>>>Begin Spectral Data<<<<<
223.165	-17.06
223.4	-17.06
223.635	-17.06
223.869	-9.06
224.104	-5.06
224.338	-21.06
224.573	-12.06
224.808	-25.06
225.042	-2.06
225.277	-1.06
225.511	-18.06
225.746	3.94
225.98	10.94
226.215	16.94
226.449	17.94
226.683	15.94
226.918	10.94
227.152	33.94
227.387	28.94
227.621	27.94
227.856	40.94
228.09	32.94
228.324	51.94
228.559	57.94
228.793	55.94
229.027	99.94
229.262	113.94
229.496	117.94
229.73	115.94
229.964	160.94
230.199	123.94
230.433	108.94
230.667	106.94
230.901	94.94
231.136	124.94
231.37	104.94
231.604	105.94
231.838	124.94
232.072	117.94
232.306	110.94
232.541	128.94
232.775	107.94
233.009	124.94
233.243	120.94
233.477	128.94
233.711	131.94
233.945	122.94
234.179	115.94
234.413	102.94
234.647	108.94
234.881	115.94
235.115	123.94
235.349	115.94
235.583	119.94
235.817	132.94
236.051	122.94
236.285	123.94
236.519	132.94
236.753	133.94
236.987	146.94
237.221	178.94
237.455	227.94
237.689	184.94
237.922	152.94
238.156	135.94
238.39	119.94
238.624	130.94
238.858	124.94
239.091	116.94
239.325	121.94
239.559	124.94
239.793	134.94
240.027	148.94
240.26	149.94
240.494	152.94
240.728	148.94
240.961	163.94
241.195	143.94
241.429	141.94
241.662	138.94
241.896	141.94
242.13	127.94
242.363	129.94
242.597	145.94
242.83	142.94
243.064	139.94
243.298	130.94
243.531	156.94
243.765	146.94
243.998	156.94
244.232	162.94
244.465	159.94
244.699	171.94
244.932	141.94
245.166	152.94
245.399	172.94
245.633	157.94
245.866	152.94
246.099	154.94
246.333	152.94
246.566	147.94
246.8	162.94
247.033	170.94
247.266	158.94
247.5	160.94
247.733	175.94
247.966	178.94
248.2	168.94
248.433	178.94
248.666	157.94
248.899	198.94
249.133	206.94
249.366	202.94
249.599	199.94
249.832	187.94
250.066	200.94
250.299	197.94
250.532	206.94
250.765	195.94
250.998	233.94
251.231	237.94
251.465	220.94
251.698	199.94
251.931	207.94
252.164	194.94
252.397	206.94
252.63	210.94
252.863	199.94
253.096	211.94
253.329	236.94
253.562	234.94
253.795	235.94
254.028	205.94
254.261	214.94
254.494	225.94
254.727	237.94
254.96	286.94
255.193	267.94
255.426	249.94
255.659	225.94
255.892	247.94
256.124	242.94
256.357	235.94
256.59	222.94
256.823	217.94
257.056	209.94
257.289	218.94
257.521	210.94
257.754	222.94
257.987	228.94
258.22	219.94
258.452	224.94
258.685	222.94
258.918	208.94
259.151	211.94
259.383	238.94
259.616	212.94
259.849	233.94
260.081	245.94
260.314	251.94
260.547	270.94
260.779	249.94
261.012	237.94
261.244	233.94
261.477	234.94
261.71	223.94
261.942	216.94
262.175	227.94
262.407	230.94
262.64	230.94
262.872	232.94
263.105	218.94
263.337	229.94
263.57	205.94
263.802	223.94
264.035	200.94
264.267	223.94
264.499	218.94
264.732	220.94
264.964	225.94
265.197	242.94
265.429	220.94
265.661	212.94
265.894	228.94
266.126	230.94
266.358	228.94
266.591	240.94
266.823	229.94
267.055	248.94
267.287	226.94
267.52	237.94
267.752	231.94
267.984	250.94
268.216	241.94
268.448	249.94
268.681	266.94
268.913	248.94
269.145	253.94
269.377	267.94
269.609	271.94
269.841	277.94
270.073	281.94
270.306	289.94
270.538	310.94
270.77	314.94
271.002	285.94
271.234	301.94
271.466	307.94
271.698	333.94
271.93	312.94
272.162	318.94
272.394	318.94
272.626	324.94
272.858	289.94
273.09	282.94
273.322	280.94
273.553	268.94
273.785	270.94
274.017	264.94
274.249	267.94
274.481	277.94
274.713	282.94
274.945	268.94
275.176	268.94
275.408	281.94
275.64	274.94
275.872	279.94
276.104	272.94
276.335	282.94
276.567	296.94
276.799	289.94
277.031	312.94
277.262	309.94
277.494	320.94
277.726	301.94
277.957	312.94
278.189	284.94
278.421	274.94
278.652	280.94
278.884	295.94
279.115	281.94
279.347	285.94
279.579	281.94
279.81	303.94
280.042	299.94
280.273	293.94
280.505	285.94
280.736	292.94
280.968	278.94
281.199	280.94
281.431	286.94
281.662	288.94
281.894	298.94
282.125	297.94
282.356	288.94
282.588	297.94
282.819	319.94
283.051	294.94
283.282	298.94
283.513	293.94
283.745	302.94
283.976	305.94
284.207	300.94
284.439	293.94
284.67	291.94
284.901	309.94
285.132	276.94
285.364	300.94
285.595	283.94
285.826	292.94
286.057	318.94
286.288	305.94
286.52	297.94
286.751	307.94
286.982	308.94
287.213	305.94
287.444	301.94
287.675	301.94
287.906	309.94
288.138	314.94
288.369	312.94
288.6	314.94
288.831	318.94
289.062	321.94
289.293	329.94
289.524	290.94
289.755	311.94
289.986	305.94
290.217	284.94
290.448	299.94
290.679	316.94
290.91	320.94
291.141	315.94
291.371	314.94
291.602	321.94
291.833	289.94
292.064	309.94
292.295	293.94
292.526	320.94
292.757	304.94
292.987	312.94
293.218	308.94
293.449	314.94
293.68	293.94
293.91	318.94
294.141	306.94
294.372	316.94
294.603	300.94
294.833	302.94
295.064	310.94
295.295	305.94
295.525	307.94
295.756	331.94
295.987	326.94
296.217	331.94
296.448	349.94
296.679	314.94
296.909	336.94
297.14	296.94
297.37	332.94
297.601	309.94
297.831	312.94
298.062	314.94
298.292	326.94
298.523	322.94
298.753	331.94
298.984	346.94
299.214	331.94
299.445	325.94
299.675	338.94
299.905	323.94
300.136	322.94
300.366	333.94
300.597	339.94
300.827	339.94
301.057	348.94
301.288	339.94
301.518	343.94
301.748	353.94
301.979	340.94
302.209	348.94
302.439	355.94
302.669	342.94
302.9	339.94
303.13	347.94
303.36	346.94
303.59	366.94
303.82	358.94
304.051	363.94
304.281	344.94
304.511	354.94
304.741	351.94
304.971	329.94
305.201	346.94
305.431	356.94
305.661	338.94
305.891	350.94
306.121	342.94
306.352	339.94
306.582	341.94
306.812	363.94
307.042	344.94
307.272	349.94
307.502	344.94
307.731	363.94
307.961	352.94
308.191	346.94
308.421	355.94
308.651	364.94
308.881	355.94
309.111	367.94
309.341	353.94
309.571	368.94
309.8	374.94
310.03	362.94
310.26	378.94
310.49	388.94
310.72	381.94
310.949	404.94
311.179	404.94
311.409	381.94
311.639	395.94
311.868	382.94
312.098	386.94
312.328	394.94
312.557	386.94
312.787	392.94
313.017	408.94
313.246	407.94
313.476	386.94
313.706	398.94
313.935	384.94
314.165	401.94
314.394	419.94
314.624	416.94
314.853	393.94
315.083	384.94
315.312	385.94
315.542	380.94
315.771	378.94
316.001	370.94
316.23	391.94
316.46	380.94
316.689	388.94
316.919	406.94
317.148	382.94
317.377	386.94
317.607	401.94
317.836	393.94
318.065	393.94
318.295	399.94
318.524	386.94
318.753	377.94
318.983	388.94
319.212	380.94
319.441	399.94
319.67	391.94
319.9	386.94
320.129	365.94
320.358	406.94
320.587	382.94
320.816	381.94
321.046	398.94
321.275	394.94
321.504	407.94
321.733	402.94
321.962	402.94
322.191	413.94
322.42	412.94
322.649	423.94
322.878	436.94
323.108	436.94
323.337	461.94
323.566	467.94
323.795	520.94
324.024	512.94
324.253	590.94
324.482	813.94
324.71	1189.94
324.939	1768.94
325.168	1552.94
325.397	794.94
325.626	600.94
325.855	495.94
326.084	473.94
326.313	465.94
326.542	457.94
326.77	525.94
326.999	600.94
327.228	747.94
327.457	1103.94
327.686	1324.94
327.914	921.94
328.143	646.94
328.372	546.94
328.6	540.94
328.829	522.94
329.058	564.94
329.287	546.94
329.515	516.94
329.744	507.94
329.972	507.94
330.201	501.94
330.43	514.94
330.658	541.94
330.887	565.94
331.115	565.94
331.344	519.94
331.572	486.94
331.801	487.94
332.03	503.94
332.258	501.94
332.486	471.94
332.715	472.94
332.943	485.94
333.172	488.94
333.4	489.94
333.629	475.94
333.857	533.94
334.085	520.94
334.314	514.94
334.542	547.94
334.771	542.94
334.999	537.94
335.227	512.94
335.455	474.94
335.684	478.94
335.912	470.94
336.14	470.94
336.369	469.94
336.597	477.94
336.825	485.94
337.053	467.94
337.281	477.94
337.51	462.94
337.738	479.94
337.966	446.94
338.194	477.94
338.422	464.94
338.65	453.94
338.878	465.94
339.106	452.94
339.334	443.94
339.562	440.94
339.79	433.94
340.018	475.94
340.246	438.94
340.474	450.94
340.702	444.94
340.93	434.94
341.158	439.94
341.386	434.94
341.614	422.94
341.842	465.94
342.07	449.94
342.298	455.94
342.526	456.94
342.754	459.94
342.981	438.94
343.209	452.94
343.437	444.94
343.665	460.94
343.893	484.94
344.12	487.94
344.348	483.94
344.576	466.94
344.804	465.94
345.031	453.94
345.259	480.94
345.487	460.94
345.714	465.94
345.942	436.94
346.17	449.94
346.397	462.94
346.625	427.94
346.853	432.94
347.08	432.94
347.308	432.94
347.535	453.94
347.763	456.94
347.99	442.94
348.218	436.94
348.445	443.94
348.673	448.94
348.9	448.94
349.128	445.94
349.355	420.94
349.583	441.94
349.81	418.94
350.037	420.94
350.265	430.94
350.492	428.94
350.72	416.94
350.947	423.94
351.174	440.94
351.402	432.94
351.629	424.94
351.856	428.94
352.083	434.94
352.311	436.94
352.538	446.94
352.765	445.94
352.992	460.94
353.22	414.94
353.447	438.94
353.674	426.94
353.901	413.94
354.128	412.94
354.355	429.94
354.583	423.94
354.81	423.94
355.037	415.94
355.264	412.94
355.491	421.94
355.718	402.94
355.945	435.94
356.172	417.94
356.399	424.94
356.626	403.94
356.853	410.94
357.08	427.94
357.307	402.94
357.534	422.94
357.761	426.94
357.988	416.94
358.215	419.94
358.441	447.94
358.668	429.94
358.895	424.94
359.122	424.94
359.349	441.94
359.576	461.94
359.802	451.94
360.029	447.94
360.256	462.94
360.483	457.94
360.709	438.94
360.936	426.94
361.163	448.94
361.39	448.94
361.616	458.94
361.843	425.94
362.07	441.94
362.296	436.94
362.523	422.94
362.749	434.94
362.976	423.94
363.203	438.94
363.429	424.94
363.656	427.94
363.882	426.94
364.109	437.94
364.335	432.94
364.562	402.94
364.788	424.94
365.015	419.94
365.241	414.94
365.468	433.94
365.694	437.94
365.92	443.94
366.147	417.94
366.373	427.94
366.599	429.94
366.826	434.94
367.052	441.94
367.278	417.94
367.505	448.94
367.731	440.94
367.957	432.94
368.184	419.94
368.41	416.94
368.636	456.94
368.862	436.94
369.089	440.94
369.315	429.94
369.541	418.94
369.767	429.94
369.993	465.94
370.219	420.94
370.445	423.94
370.672	429.94
370.898	432.94
371.124	453.94
371.35	432.94
371.576	429.94
371.802	429.94
372.028	455.94
372.254	453.94
372.48	462.94
372.706	442.94
372.932	436.94
373.158	437.94
373.384	450.94
373.61	459.94
373.835	454.94
374.061	441.94
374.287	441.94
374.513	437.94
374.739	445.94
374.965	459.94
375.191	451.94
375.416	457.94
375.642	472.94
375.868	465.94
376.094	444.94
376.319	443.94
376.545	429.94
376.771	430.94
376.997	444.94
377.222	437.94
377.448	446.94
377.674	441.94
377.899	452.94
378.125	446.94
378.35	444.94
378.576	448.94
378.802	425.94
379.027	448.94
379.253	448.94
379.478	434.94
379.704	447.94
379.929	443.94
380.155	444.94
380.38	454.94
380.606	457.94
380.831	436.94
381.057	448.94
381.282	448.94
381.507	455.94
381.733	439.94
381.958	451.94
382.184	454.94
382.409	435.94
382.634	456.94
382.86	457.94
383.085	462.94
383.31	456.94
383.535	475.94
383.761	458.94
383.986	494.94
384.211	477.94
384.436	464.94
384.662	476.94
384.887	482.94
385.112	503.94
385.337	494.94
385.562	524.94
385.787	480.94
386.013	504.94
386.238	500.94
386.463	476.94
386.688	492.94
386.913	482.94
387.138	486.94
387.363	498.94
387.588	485.94
387.813	481.94
388.038	491.94
388.263	490.94
388.488	481.94
388.713	485.94
388.938	482.94
389.163	516.94
389.387	515.94
389.612	502.94
389.837	497.94
390.062	508.94
390.287	497.94
390.512	480.94
390.736	512.94
390.961	519.94
391.186	496.94
391.411	515.94
391.636	496.94
391.86	509.94
392.085	503.94
392.31	517.94
392.534	530.94
392.759	519.94
392.984	525.94
393.208	501.94
393.433	529.94
393.658	493.94
393.882	524.94
394.107	501.94
394.331	518.94
394.556	511.94
394.78	504.94
395.005	506.94
395.229	520.94
395.454	537.94
395.678	517.94
395.903	539.94
396.127	561.94
396.352	556.94
396.576	520.94
396.801	534.94
397.025	556.94
397.249	527.94
397.474	528.94
397.698	528.94
397.922	545.94
398.147	560.94
398.371	573.94
398.595	570.94
398.82	565.94
399.044	585.94
399.268	612.94
399.492	661.94
399.717	719.94
399.941	752.94
400.165	737.94
400.389	729.94
400.613	650.94
400.837	634.94
401.062	595.94
401.286	588.94
401.51	573.94
401.734	562.94
401.958	577.94
402.182	572.94
402.406	594.94
402.63	604.94
402.854	610.94
403.078	589.94
403.302	592.94
403.526	638.94
403.75	622.94
403.974	603.94
404.198	600.94
404.422	614.94
404.645	608.94
404.869	629.94
405.093	642.94
405.317	704.94
405.541	699.94
405.765	663.94
405.988	644.94
406.212	611.94
406.436	619.94
406.66	679.94
406.883	672.94
407.107	647.94
407.331	712.94
407.555	808.94
407.778	796.94
408.002	714.94
408.226	702.94
408.449	673.94
408.673	664.94
408.896	666.94
409.12	712.94
409.344	708.94
409.567	653.94
409.791	616.94
410.014	610.94
410.238	611.94
410.461	608.94
410.685	627.94
410.908	608.94
411.132	669.94
411.355	698.94
411.578	668.94
411.802	625.94
412.025	613.94
412.249	598.94
412.472	644.94
412.695	669.94
412.919	662.94
413.142	629.94
413.365	598.94
413.589	602.94
413.812	593.94
414.035	598.94
414.258	597.94
414.482	579.94
414.705	563.94
414.928	589.94
415.151	585.94
415.374	557.94
415.597	568.94
415.821	561.94
416.044	564.94
416.267	586.94
416.49	558.94
416.713	569.94
416.936	564.94
417.159	560.94
417.382	567.94
417.605	581.94
417.828	581.94
418.051	589.94
418.274	581.94
418.497	585.94
418.72	581.94
418.943	576.94
419.166	588.94
419.389	614.94
419.611	619.94
419.834	616.94
420.057	600.94
420.28	617.94
420.503	611.94
420.726	585.94
420.948	622.94
421.171	626.94
421.394	676.94
421.617	626.94
421.839	594.94
422.062	609.94
422.285	597.94
422.507	657.94
422.73	759.94
422.953	720.94
423.175	666.94
423.398	613.94
423.621	633.94
423.843	624.94
424.066	636.94
424.288	638.94
424.511	658.94
424.733	676.94
424.956	796.94
425.178	756.94
425.401	740.94
425.623	772.94
425.846	692.94
426.068	642.94
426.291	593.94
426.513	617.94
426.735	644.94
426.958	670.94
427.18	732.94
427.402	876.94
427.625	951.94
427.847	830.94
428.069	736.94
428.292	651.94
428.514	597.94
428.736	584.94
428.958	596.94
429.181	576.94
429.403	564.94
429.625	589.94
429.847	644.94
430.069	688.94
430.292	680.94
430.514	573.94
430.736	548.94
430.958	571.94
431.18	563.94
431.402	554.94
431.624	546.94
431.846	546.94
432.068	531.94
432.29	562.94
432.512	541.94
432.734	579.94
432.956	585.94
433.178	548.94
433.4	554.94
433.622	562.94
433.844	559.94
434.066	541.94
434.287	548.94
434.509	588.94
434.731	597.94
434.953	604.94
435.175	574.94
435.397	640.94
435.618	627.94
435.84	677.94
436.062	768.94
436.284	838.94
436.505	675.94
436.727	621.94
436.949	602.94
437.17	594.94
437.392	588.94
437.614	589.94
437.835	592.94
438.057	716.94
438.278	801.94
438.5	817.94
438.721	856.94
438.943	844.94
439.165	684.94
439.386	634.94
439.608	617.94
439.829	633.94
440.05	633.94
440.272	682.94
440.493	668.94
440.715	618.94
440.936	603.94
441.158	586.94
441.379	579.94
441.6	584.94
441.822	649.94
442.043	667.94
442.264	752.94
442.486	772.94
442.707	665.94
442.928	645.94
443.149	673.94
443.371	666.94
443.592	719.94
443.813	792.94
444.034	865.94
444.255	740.94
444.476	673.94
444.698	646.94
444.919	667.94
445.14	762.94
445.361	700.94
445.582	682.94
445.803	717.94
446.024	846.94
446.245	819.94
446.466	738.94
446.687	646.94
446.908	618.94
447.129	591.94
447.35	571.94
447.571	605.94
447.792	571.94
448.013	561.94
448.234	574.94
448.455	627.94
448.675	770.94
448.896	852.94
449.117	732.94
449.338	694.94
449.559	794.94
449.779	946.94
450	719.94
450.221	612.94
450.442	547.94
450.662	553.94
450.883	571.94
451.104	574.94
451.324	554.94
451.545	537.94
451.766	524.94
451.986	508.94
452.207	533.94
452.428	492.94
452.648	490.94
452.869	521.94
453.089	534.94
453.31	536.94
453.53	505.94
453.751	514.94
453.971	518.94
454.192	504.94
454.412	501.94
454.633	496.94
454.853	522.94
455.073	507.94
455.294	515.94
455.514	597.94
455.734	571.94
455.955	518.94
456.175	522.94
456.395	496.94
456.616	476.94
456.836	472.94
457.056	474.94
457.276	472.94
457.497	477.94
457.717	486.94
457.937	481.94
458.157	479.94
458.377	489.94
458.598	525.94
458.818	571.94
459.038	636.94
459.258	657.94
459.478	580.94
459.698	574.94
459.918	560.94
460.138	559.94
460.358	561.94
460.578	584.94
460.798	579.94
461.018	592.94
461.238	603.94
461.458	580.94
461.678	584.94
461.898	558.94
462.118	562.94
462.338	589.94
462.558	590.94
462.777	629.94
462.997	660.94
463.217	655.94
463.437	647.94
463.657	643.94
463.876	626.94
464.096	636.94
464.316	630.94
464.536	616.94
464.755	614.94
464.975	633.94
465.195	609.94
465.414	650.94
465.634	628.94
465.854	595.94
466.073	547.94
466.293	532.94
466.512	554.94
466.732	531.94
466.951	534.94
467.171	535.94
467.391	531.94
467.61	535.94
467.829	534.94
468.049	532.94
468.268	542.94
468.488	531.94
468.707	517.94
468.927	518.94
469.146	499.94
469.365	512.94
469.585	509.94
469.804	542.94
470.023	545.94
470.243	536.94
470.462	566.94
470.681	553.94
470.901	544.94
471.12	541.94
471.339	570.94
471.558	553.94
471.777	543.94
471.997	541.94
472.216	546.94
472.435	553.94
472.654	553.94
472.873	529.94
473.092	527.94
473.311	522.94
473.53	522.94
473.749	553.94
473.968	576.94
474.187	669.94
474.406	710.94
474.625	599.94
474.844	560.94
475.063	542.94
475.282	533.94
475.501	540.94
475.72	554.94
475.939	537.94
476.158	544.94
476.377	553.94
476.596	560.94
476.814	548.94
477.033	580.94
477.252	575.94
477.471	566.94
477.69	579.94
477.908	582.94
478.127	597.94
478.346	610.94
478.564	605.94
478.783	614.94
479.002	647.94
479.22	634.94
479.439	620.94
479.658	642.94
479.876	653.94
480.095	636.94
480.313	683.94
480.532	648.94
480.751	661.94
480.969	663.94
481.188	693.94
481.406	716.94
481.624	654.94
481.843	647.94
482.061	656.94
482.28	644.94
482.498	633.94
482.717	654.94
482.935	636.94
483.153	611.94
483.372	643.94
483.59	626.94
483.808	625.94
484.027	625.94
484.245	611.94
484.463	648.94
484.681	636.94
484.9	654.94
485.118	625.94
485.336	644.94
485.554	637.94
485.772	638.94
485.99	661.94
486.209	674.94
486.427	661.94
486.645	677.94
486.863	677.94
487.081	680.94
487.299	677.94
487.517	683.94
487.735	680.94
487.953	663.94
488.171	660.94
488.389	684.94
488.607	669.94
488.825	674.94
489.043	689.94
489.261	669.94
489.479	672.94
489.696	690.94
489.914	695.94
490.132	682.94
490.35	691.94
490.568	720.94
490.786	737.94
491.003	733.94
491.221	739.94
491.439	772.94
491.657	778.94
491.874	774.94
492.092	778.94
492.31	757.94
492.527	798.94
492.745	800.94
492.963	801.94
493.18	803.94
493.398	783.94
493.615	788.94
493.833	812.94
494.05	806.94
494.268	793.94
494.485	799.94
494.703	789.94
494.92	825.94
495.138	830.94
495.355	801.94
495.573	776.94
495.79	800.94
496.008	839.94
496.225	820.94
496.442	836.94
496.66	839.94
496.877	810.94
497.094	832.94
497.312	832.94
497.529	849.94
497.746	838.94
497.963	858.94
498.181	882.94
498.398	884.94
498.615	932.94
498.832	942.94
499.049	948.94
499.267	1001.94
499.484	1044.94
499.701	1091.94
499.918	1109.94
500.135	1163.94
500.352	1266.94
500.569	1260.94
500.786	1289.94
501.003	1288.94
501.22	1228.94
501.437	1147.94
501.654	1124.94
