Data from 1974.PennyLincolnUp.Lamp.En5.5.200Scan.071719.P1.Changed Mount._HRD10591_15-51-26-856.txt Node
Date: Thu Jul 18 15:51:26 EDT 2019
User: cochatt
Spectrometer: HR+D1059
Trigger mode: 1
Integration Time (sec): 1.000000E-1
Scans to average: 1
Electric dark correction enabled: true
Nonlinearity correction enabled: false
Boxcar width: 0
XAxis mode: Wavelengths
Number of Pixels in Spectrum: 2048
>>>>>Begin Spectral Data<<<<<
223.165	-22.12
223.4	-22.12
223.635	-22.12
223.869	-25.12
224.104	-26.12
224.338	-16.12
224.573	-14.12
224.808	-4.12
225.042	-6.12
225.277	4.88
225.511	-1.12
225.746	-0.12
225.98	9.88
226.215	16.88
226.449	14.88
226.683	19.88
226.918	18.88
227.152	29.88
227.387	54.88
227.621	41.88
227.856	37.88
228.09	47.88
228.324	57.88
228.559	49.88
228.793	75.88
229.027	88.88
229.262	100.88
229.496	109.88
229.73	127.88
229.964	137.88
230.199	118.88
230.433	118.88
230.667	116.88
230.901	116.88
231.136	100.88
231.37	119.88
231.604	104.88
231.838	113.88
232.072	106.88
232.306	117.88
232.541	128.88
232.775	131.88
233.009	117.88
233.243	124.88
233.477	124.88
233.711	107.88
233.945	119.88
234.179	127.88
234.413	133.88
234.647	126.88
234.881	135.88
235.115	134.88
235.349	122.88
235.583	130.88
235.817	136.88
236.051	131.88
236.285	121.88
236.519	119.88
236.753	122.88
236.987	135.88
237.221	171.88
237.455	222.88
237.689	172.88
237.922	136.88
238.156	125.88
238.39	127.88
238.624	157.88
238.858	117.88
239.091	131.88
239.325	111.88
239.559	133.88
239.793	129.88
240.027	135.88
240.26	145.88
240.494	155.88
240.728	136.88
240.961	142.88
241.195	145.88
241.429	159.88
241.662	155.88
241.896	137.88
242.13	145.88
242.363	133.88
242.597	137.88
242.83	140.88
243.064	149.88
243.298	143.88
243.531	127.88
243.765	150.88
243.998	151.88
244.232	148.88
244.465	156.88
244.699	158.88
244.932	150.88
245.166	156.88
245.399	156.88
245.633	151.88
245.866	149.88
246.099	159.88
246.333	159.88
246.566	159.88
246.8	156.88
247.033	167.88
247.266	160.88
247.5	167.88
247.733	173.88
247.966	183.88
248.2	176.88
248.433	163.88
248.666	166.88
248.899	181.88
249.133	190.88
249.366	209.88
249.599	196.88
249.832	199.88
250.066	176.88
250.299	184.88
250.532	191.88
250.765	199.88
250.998	222.88
251.231	217.88
251.465	211.88
251.698	202.88
251.931	219.88
252.164	185.88
252.397	195.88
252.63	208.88
252.863	212.88
253.096	214.88
253.329	214.88
253.562	223.88
253.795	224.88
254.028	211.88
254.261	215.88
254.494	217.88
254.727	230.88
254.96	268.88
255.193	247.88
255.426	231.88
255.659	229.88
255.892	223.88
256.124	221.88
256.357	218.88
256.59	218.88
256.823	204.88
257.056	215.88
257.289	220.88
257.521	205.88
257.754	201.88
257.987	212.88
258.22	223.88
258.452	200.88
258.685	213.88
258.918	216.88
259.151	202.88
259.383	221.88
259.616	211.88
259.849	231.88
260.081	248.88
260.314	233.88
260.547	241.88
260.779	226.88
261.012	223.88
261.244	217.88
261.477	207.88
261.71	226.88
261.942	215.88
262.175	224.88
262.407	229.88
262.64	209.88
262.872	205.88
263.105	225.88
263.337	213.88
263.57	211.88
263.802	203.88
264.035	218.88
264.267	217.88
264.499	209.88
264.732	220.88
264.964	209.88
265.197	217.88
265.429	216.88
265.661	212.88
265.894	231.88
266.126	219.88
266.358	205.88
266.591	208.88
266.823	216.88
267.055	215.88
267.287	231.88
267.52	227.88
267.752	231.88
267.984	248.88
268.216	233.88
268.448	232.88
268.681	236.88
268.913	238.88
269.145	267.88
269.377	264.88
269.609	266.88
269.841	240.88
270.073	256.88
270.306	279.88
270.538	309.88
270.77	301.88
271.002	287.88
271.234	278.88
271.466	301.88
271.698	277.88
271.93	303.88
272.162	313.88
272.394	309.88
272.626	276.88
272.858	286.88
273.09	271.88
273.322	260.88
273.553	239.88
273.785	265.88
274.017	261.88
274.249	248.88
274.481	251.88
274.713	251.88
274.945	262.88
275.176	254.88
275.408	283.88
275.64	269.88
275.872	251.88
276.104	273.88
276.335	259.88
276.567	273.88
276.799	275.88
277.031	270.88
277.262	321.88
277.494	309.88
277.726	275.88
277.957	282.88
278.189	271.88
278.421	272.88
278.652	264.88
278.884	284.88
279.115	288.88
279.347	278.88
279.579	273.88
279.81	270.88
280.042	254.88
280.273	253.88
280.505	264.88
280.736	275.88
280.968	243.88
281.199	262.88
281.431	275.88
281.662	268.88
281.894	238.88
282.125	261.88
282.356	283.88
282.588	279.88
282.819	284.88
283.051	284.88
283.282	269.88
283.513	298.88
283.745	270.88
283.976	280.88
284.207	278.88
284.439	282.88
284.67	288.88
284.901	286.88
285.132	273.88
285.364	262.88
285.595	286.88
285.826	279.88
286.057	276.88
286.288	278.88
286.52	285.88
286.751	291.88
286.982	288.88
287.213	287.88
287.444	277.88
287.675	281.88
287.906	286.88
288.138	307.88
288.369	289.88
288.6	293.88
288.831	292.88
289.062	302.88
289.293	295.88
289.524	285.88
289.755	279.88
289.986	285.88
290.217	287.88
290.448	308.88
290.679	319.88
290.91	301.88
291.141	310.88
291.371	291.88
291.602	309.88
291.833	303.88
292.064	277.88
292.295	314.88
292.526	304.88
292.757	309.88
292.987	287.88
293.218	307.88
293.449	324.88
293.68	292.88
293.91	317.88
294.141	293.88
294.372	289.88
294.603	295.88
294.833	302.88
295.064	295.88
295.295	295.88
295.525	303.88
295.756	308.88
295.987	301.88
296.217	316.88
296.448	334.88
296.679	320.88
296.909	299.88
297.14	316.88
297.37	321.88
297.601	287.88
297.831	307.88
298.062	294.88
298.292	302.88
298.523	313.88
298.753	312.88
298.984	315.88
299.214	321.88
299.445	310.88
299.675	314.88
299.905	322.88
300.136	323.88
300.366	334.88
300.597	317.88
300.827	336.88
301.057	324.88
301.288	323.88
301.518	334.88
301.748	320.88
301.979	322.88
302.209	347.88
302.439	324.88
302.669	326.88
302.9	339.88
303.13	333.88
303.36	327.88
303.59	346.88
303.82	321.88
304.051	349.88
304.281	344.88
304.511	346.88
304.741	328.88
304.971	340.88
305.201	328.88
305.431	318.88
305.661	342.88
305.891	340.88
306.121	330.88
306.352	309.88
306.582	316.88
306.812	334.88
307.042	337.88
307.272	327.88
307.502	328.88
307.731	352.88
307.961	321.88
308.191	327.88
308.421	327.88
308.651	352.88
308.881	335.88
309.111	348.88
309.341	341.88
309.571	343.88
309.8	371.88
310.03	353.88
310.26	366.88
310.49	376.88
310.72	363.88
310.949	361.88
311.179	375.88
311.409	371.88
311.639	360.88
311.868	361.88
312.098	365.88
312.328	355.88
312.557	379.88
312.787	372.88
313.017	387.88
313.246	380.88
313.476	352.88
313.706	359.88
313.935	372.88
314.165	367.88
314.394	377.88
314.624	380.88
314.853	366.88
315.083	363.88
315.312	352.88
315.542	375.88
315.771	379.88
316.001	375.88
316.23	367.88
316.46	372.88
316.689	379.88
316.919	360.88
317.148	379.88
317.377	364.88
317.607	393.88
317.836	378.88
318.065	379.88
318.295	382.88
318.524	343.88
318.753	359.88
318.983	390.88
319.212	378.88
319.441	371.88
319.67	363.88
319.9	357.88
320.129	374.88
320.358	364.88
320.587	375.88
320.816	395.88
321.046	390.88
321.275	392.88
321.504	353.88
321.733	373.88
321.962	384.88
322.191	409.88
322.42	405.88
322.649	409.88
322.878	430.88
323.108	445.88
323.337	422.88
323.566	455.88
323.795	455.88
324.024	463.88
324.253	544.88
324.482	715.88
324.71	1054.88
324.939	1527.88
325.168	1369.88
325.397	714.88
325.626	529.88
325.855	457.88
326.084	463.88
326.313	444.88
326.542	455.88
326.77	457.88
326.999	520.88
327.228	667.88
327.457	957.88
327.686	1165.88
327.914	829.88
328.143	574.88
328.372	499.88
328.6	507.88
328.829	484.88
329.058	451.88
329.287	508.88
329.515	456.88
329.744	437.88
329.972	449.88
330.201	464.88
330.43	476.88
330.658	493.88
330.887	504.88
331.115	492.88
331.344	474.88
331.572	456.88
331.801	449.88
332.03	457.88
332.258	449.88
332.486	455.88
332.715	451.88
332.943	461.88
333.172	473.88
333.4	447.88
333.629	469.88
333.857	471.88
334.085	466.88
334.314	497.88
334.542	517.88
334.771	524.88
334.999	477.88
335.227	497.88
335.455	472.88
335.684	479.88
335.912	432.88
336.14	456.88
336.369	446.88
336.597	447.88
336.825	460.88
337.053	433.88
337.281	422.88
337.51	436.88
337.738	443.88
337.966	427.88
338.194	426.88
338.422	440.88
338.65	454.88
338.878	445.88
339.106	423.88
339.334	425.88
339.562	429.88
339.79	429.88
340.018	418.88
340.246	409.88
340.474	430.88
340.702	432.88
340.93	425.88
341.158	429.88
341.386	430.88
341.614	429.88
341.842	417.88
342.07	420.88
342.298	399.88
342.526	431.88
342.754	412.88
342.981	422.88
343.209	431.88
343.437	437.88
343.665	445.88
343.893	455.88
344.12	457.88
344.348	456.88
344.576	449.88
344.804	443.88
345.031	461.88
345.259	454.88
345.487	442.88
345.714	441.88
345.942	414.88
346.17	425.88
346.397	417.88
346.625	422.88
346.853	398.88
347.08	401.88
347.308	401.88
347.535	439.88
347.763	435.88
347.99	415.88
348.218	426.88
348.445	419.88
348.673	409.88
348.9	415.88
349.128	405.88
349.355	416.88
349.583	404.88
349.81	408.88
350.037	390.88
350.265	404.88
350.492	408.88
350.72	398.88
350.947	407.88
351.174	421.88
351.402	400.88
351.629	404.88
351.856	409.88
352.083	425.88
352.311	420.88
352.538	425.88
352.765	397.88
352.992	415.88
353.22	393.88
353.447	407.88
353.674	425.88
353.901	421.88
354.128	412.88
354.355	400.88
354.583	400.88
354.81	408.88
355.037	394.88
355.264	400.88
355.491	399.88
355.718	386.88
355.945	385.88
356.172	382.88
356.399	388.88
356.626	400.88
356.853	408.88
357.08	408.88
357.307	402.88
357.534	426.88
357.761	409.88
357.988	389.88
358.215	396.88
358.441	387.88
358.668	411.88
358.895	417.88
359.122	384.88
359.349	406.88
359.576	423.88
359.802	408.88
360.029	457.88
360.256	456.88
360.483	430.88
360.709	427.88
360.936	408.88
361.163	416.88
361.39	422.88
361.616	415.88
361.843	420.88
362.07	413.88
362.296	424.88
362.523	389.88
362.749	416.88
362.976	428.88
363.203	415.88
363.429	427.88
363.656	415.88
363.882	420.88
364.109	413.88
364.335	402.88
364.562	404.88
364.788	398.88
365.015	409.88
365.241	401.88
365.468	423.88
365.694	417.88
365.92	421.88
366.147	394.88
366.373	429.88
366.599	396.88
366.826	441.88
367.052	419.88
367.278	415.88
367.505	407.88
367.731	401.88
367.957	381.88
368.184	428.88
368.41	439.88
368.636	422.88
368.862	429.88
369.089	422.88
369.315	396.88
369.541	406.88
369.767	424.88
369.993	411.88
370.219	415.88
370.445	422.88
370.672	420.88
370.898	424.88
371.124	420.88
371.35	422.88
371.576	414.88
371.802	422.88
372.028	427.88
372.254	421.88
372.48	411.88
372.706	423.88
372.932	415.88
373.158	436.88
373.384	417.88
373.61	433.88
373.835	448.88
374.061	436.88
374.287	417.88
374.513	433.88
374.739	439.88
374.965	431.88
375.191	445.88
375.416	449.88
375.642	404.88
375.868	418.88
376.094	416.88
376.319	441.88
376.545	421.88
376.771	441.88
376.997	432.88
377.222	428.88
377.448	413.88
377.674	442.88
377.899	432.88
378.125	423.88
378.35	416.88
378.576	438.88
378.802	422.88
379.027	425.88
379.253	429.88
379.478	421.88
379.704	428.88
379.929	432.88
380.155	406.88
380.38	422.88
380.606	437.88
380.831	439.88
381.057	443.88
381.282	432.88
381.507	423.88
381.733	421.88
381.958	435.88
382.184	438.88
382.409	432.88
382.634	442.88
382.86	453.88
383.085	462.88
383.31	452.88
383.535	452.88
383.761	460.88
383.986	446.88
384.211	457.88
384.436	452.88
384.662	466.88
384.887	466.88
385.112	466.88
385.337	471.88
385.562	480.88
385.787	475.88
386.013	475.88
386.238	479.88
386.463	488.88
386.688	496.88
386.913	479.88
387.138	459.88
387.363	477.88
387.588	479.88
387.813	465.88
388.038	474.88
388.263	463.88
388.488	475.88
388.713	483.88
388.938	473.88
389.163	470.88
389.387	461.88
389.612	472.88
389.837	475.88
390.062	472.88
390.287	476.88
390.512	471.88
390.736	489.88
390.961	467.88
391.186	493.88
391.411	476.88
391.636	480.88
391.86	505.88
392.085	498.88
392.31	494.88
392.534	528.88
392.759	495.88
392.984	476.88
393.208	504.88
393.433	490.88
393.658	508.88
393.882	499.88
394.107	503.88
394.331	479.88
394.556	503.88
394.78	488.88
395.005	479.88
395.229	494.88
395.454	486.88
395.678	515.88
395.903	499.88
396.127	502.88
396.352	526.88
396.576	506.88
396.801	515.88
397.025	508.88
397.249	504.88
397.474	502.88
397.698	518.88
397.922	534.88
398.147	553.88
398.371	567.88
398.595	539.88
398.82	542.88
399.044	584.88
399.268	555.88
399.492	636.88
399.717	679.88
399.941	697.88
400.165	726.88
400.389	695.88
400.613	633.88
400.837	586.88
401.062	587.88
401.286	540.88
401.51	567.88
401.734	565.88
401.958	579.88
402.182	582.88
402.406	593.88
402.63	550.88
402.854	545.88
403.078	569.88
403.302	572.88
403.526	584.88
403.75	615.88
403.974	594.88
404.198	595.88
404.422	605.88
404.645	574.88
404.869	601.88
405.093	628.88
405.317	665.88
405.541	683.88
405.765	623.88
405.988	599.88
406.212	602.88
406.436	610.88
406.66	624.88
406.883	606.88
407.107	650.88
407.331	664.88
407.555	759.88
407.778	773.88
408.002	684.88
408.226	659.88
408.449	637.88
408.673	647.88
408.896	648.88
409.12	695.88
409.344	655.88
409.567	615.88
409.791	585.88
410.014	575.88
410.238	581.88
410.461	576.88
410.685	585.88
410.908	610.88
411.132	641.88
411.355	671.88
411.578	643.88
411.802	586.88
412.025	567.88
412.249	602.88
412.472	591.88
412.695	635.88
412.919	617.88
413.142	594.88
413.365	571.88
413.589	573.88
413.812	570.88
414.035	569.88
414.258	563.88
414.482	561.88
414.705	560.88
414.928	552.88
415.151	577.88
415.374	543.88
415.597	573.88
415.821	563.88
416.044	547.88
416.267	565.88
416.49	539.88
416.713	549.88
416.936	564.88
417.159	537.88
417.382	574.88
417.605	576.88
417.828	557.88
418.051	567.88
418.274	560.88
418.497	542.88
418.72	533.88
418.943	576.88
419.166	559.88
419.389	597.88
419.611	571.88
419.834	616.88
420.057	606.88
420.28	585.88
420.503	578.88
420.726	590.88
420.948	585.88
421.171	596.88
421.394	653.88
421.617	599.88
421.839	583.88
422.062	557.88
422.285	568.88
422.507	612.88
422.73	685.88
422.953	687.88
423.175	606.88
423.398	591.88
423.621	597.88
423.843	612.88
424.066	604.88
424.288	588.88
424.511	622.88
424.733	657.88
424.956	759.88
425.178	710.88
425.401	720.88
425.623	721.88
425.846	619.88
426.068	597.88
426.291	587.88
426.513	589.88
426.735	600.88
426.958	612.88
427.18	704.88
427.402	813.88
427.625	910.88
427.847	771.88
428.069	674.88
428.292	620.88
428.514	584.88
428.736	561.88
428.958	573.88
429.181	563.88
429.403	566.88
429.625	552.88
429.847	578.88
430.069	643.88
430.292	633.88
430.514	579.88
430.736	565.88
430.958	548.88
431.18	550.88
431.402	519.88
431.624	501.88
431.846	531.88
432.068	531.88
432.29	532.88
432.512	534.88
432.734	527.88
432.956	560.88
433.178	544.88
433.4	548.88
433.622	537.88
433.844	548.88
434.066	557.88
434.287	536.88
434.509	533.88
434.731	559.88
434.953	523.88
435.175	558.88
435.397	616.88
435.618	614.88
435.84	587.88
436.062	710.88
436.284	781.88
436.505	667.88
436.727	621.88
436.949	560.88
437.17	553.88
437.392	555.88
437.614	576.88
437.835	567.88
438.057	656.88
438.278	738.88
438.5	769.88
438.721	851.88
438.943	812.88
439.165	634.88
439.386	610.88
439.608	591.88
439.829	588.88
440.05	596.88
440.272	639.88
440.493	602.88
440.715	586.88
440.936	542.88
441.158	573.88
441.379	563.88
441.6	589.88
441.822	593.88
442.043	636.88
442.264	705.88
442.486	721.88
442.707	627.88
442.928	614.88
443.149	606.88
443.371	648.88
443.592	650.88
443.813	769.88
444.034	816.88
444.255	728.88
444.476	639.88
444.698	616.88
444.919	623.88
445.14	755.88
445.361	669.88
445.582	641.88
445.803	678.88
446.024	783.88
446.245	804.88
446.466	698.88
446.687	624.88
446.908	580.88
447.129	544.88
447.35	556.88
447.571	535.88
447.792	528.88
448.013	538.88
448.234	551.88
448.455	589.88
448.675	689.88
448.896	805.88
449.117	675.88
449.338	644.88
449.559	748.88
449.779	863.88
450	688.88
450.221	596.88
450.442	562.88
450.662	525.88
450.883	512.88
451.104	504.88
451.324	517.88
451.545	502.88
451.766	507.88
451.986	511.88
452.207	508.88
452.428	466.88
452.648	496.88
452.869	484.88
453.089	512.88
453.31	496.88
453.53	487.88
453.751	490.88
453.971	496.88
454.192	485.88
454.412	478.88
454.633	488.88
454.853	485.88
455.073	482.88
455.294	493.88
455.514	544.88
455.734	569.88
455.955	504.88
456.175	474.88
456.395	445.88
456.616	459.88
456.836	448.88
457.056	456.88
457.276	456.88
457.497	459.88
457.717	476.88
457.937	469.88
458.157	484.88
458.377	468.88
458.598	518.88
458.818	525.88
459.038	567.88
459.258	621.88
459.478	558.88
459.698	534.88
459.918	515.88
460.138	537.88
460.358	549.88
460.578	549.88
460.798	569.88
461.018	545.88
461.238	565.88
461.458	564.88
461.678	540.88
461.898	571.88
462.118	569.88
462.338	553.88
462.558	582.88
462.777	585.88
462.997	613.88
463.217	627.88
463.437	647.88
463.657	615.88
463.876	611.88
464.096	598.88
464.316	589.88
464.536	601.88
464.755	598.88
464.975	600.88
465.195	595.88
465.414	635.88
465.634	589.88
465.854	530.88
466.073	526.88
466.293	525.88
466.512	517.88
466.732	523.88
466.951	489.88
467.171	512.88
467.391	515.88
467.61	519.88
467.829	519.88
468.049	519.88
468.268	516.88
468.488	511.88
468.707	499.88
468.927	488.88
469.146	504.88
469.365	520.88
469.585	507.88
469.804	517.88
470.023	510.88
470.243	526.88
470.462	518.88
470.681	534.88
470.901	523.88
471.12	540.88
471.339	530.88
471.558	526.88
471.777	517.88
471.997	511.88
472.216	517.88
472.435	506.88
472.654	503.88
472.873	497.88
473.092	511.88
473.311	492.88
473.53	494.88
473.749	506.88
473.968	543.88
474.187	643.88
474.406	679.88
474.625	563.88
474.844	500.88
475.063	500.88
475.282	525.88
475.501	521.88
475.72	529.88
475.939	516.88
476.158	547.88
476.377	533.88
476.596	502.88
476.814	530.88
477.033	514.88
477.252	559.88
477.471	577.88
477.69	566.88
477.908	573.88
478.127	582.88
478.346	585.88
478.564	593.88
478.783	583.88
479.002	584.88
479.22	605.88
479.439	616.88
479.658	640.88
479.876	611.88
480.095	611.88
480.313	640.88
480.532	662.88
480.751	647.88
480.969	641.88
481.188	668.88
481.406	657.88
481.624	628.88
481.843	622.88
482.061	623.88
482.28	601.88
482.498	612.88
482.717	589.88
482.935	592.88
483.153	605.88
483.372	590.88
483.59	592.88
483.808	594.88
484.027	592.88
484.245	627.88
484.463	599.88
484.681	617.88
484.9	606.88
485.118	596.88
485.336	617.88
485.554	598.88
485.772	599.88
485.99	640.88
486.209	627.88
486.427	625.88
486.645	619.88
486.863	640.88
487.081	639.88
487.299	648.88
487.517	635.88
487.735	631.88
487.953	671.88
488.171	644.88
488.389	655.88
488.607	650.88
488.825	649.88
489.043	633.88
489.261	637.88
489.479	648.88
489.696	653.88
489.914	675.88
490.132	647.88
490.35	673.88
490.568	653.88
490.786	672.88
491.003	658.88
491.221	710.88
491.439	707.88
491.657	724.88
491.874	735.88
492.092	738.88
492.31	762.88
492.527	742.88
492.745	741.88
492.963	751.88
493.18	735.88
493.398	772.88
493.615	774.88
493.833	765.88
494.05	760.88
494.268	748.88
494.485	740.88
494.703	723.88
494.92	771.88
495.138	740.88
495.355	750.88
495.573	782.88
495.79	755.88
496.008	777.88
496.225	775.88
496.442	799.88
496.66	789.88
496.877	787.88
497.094	765.88
497.312	792.88
497.529	782.88
497.746	803.88
497.963	806.88
498.181	841.88
498.398	837.88
498.615	880.88
498.832	878.88
499.049	931.88
499.267	942.88
499.484	986.88
499.701	1007.88
499.918	1098.88
500.135	1144.88
500.352	1196.88
500.569	1244.88
500.786	1239.88
501.003	1169.88
501.22	1141.88
501.437	1109.88
501.654	1079.88
