Data from 1974.PennyLincolnUp.Lamp.En5.5.200Scan.071719.P1.Changed Mount._HRD10591_15-51-31-855.txt Node
Date: Thu Jul 18 15:51:31 EDT 2019
User: cochatt
Spectrometer: HR+D1059
Trigger mode: 1
Integration Time (sec): 1.000000E-1
Scans to average: 1
Electric dark correction enabled: true
Nonlinearity correction enabled: false
Boxcar width: 0
XAxis mode: Wavelengths
Number of Pixels in Spectrum: 2048
>>>>>Begin Spectral Data<<<<<
223.165	-26.25
223.4	-26.25
223.635	-26.25
223.869	-8.25
224.104	-27.25
224.338	-7.25
224.573	-6.25
224.808	-17.25
225.042	-2.25
225.277	3.75
225.511	-0.25
225.746	-0.25
225.98	8.75
226.215	-1.25
226.449	12.75
226.683	30.75
226.918	11.75
227.152	28.75
227.387	30.75
227.621	35.75
227.856	39.75
228.09	44.75
228.324	63.75
228.559	60.75
228.793	73.75
229.027	108.75
229.262	97.75
229.496	120.75
229.73	115.75
229.964	157.75
230.199	122.75
230.433	117.75
230.667	99.75
230.901	111.75
231.136	131.75
231.37	115.75
231.604	101.75
231.838	115.75
232.072	119.75
232.306	93.75
232.541	104.75
232.775	114.75
233.009	110.75
233.243	119.75
233.477	119.75
233.711	115.75
233.945	119.75
234.179	127.75
234.413	113.75
234.647	129.75
234.881	119.75
235.115	115.75
235.349	117.75
235.583	129.75
235.817	120.75
236.051	127.75
236.285	141.75
236.519	124.75
236.753	130.75
236.987	144.75
237.221	168.75
237.455	223.75
237.689	194.75
237.922	142.75
238.156	143.75
238.39	139.75
238.624	134.75
238.858	121.75
239.091	128.75
239.325	125.75
239.559	113.75
239.793	124.75
240.027	140.75
240.26	140.75
240.494	161.75
240.728	156.75
240.961	155.75
241.195	146.75
241.429	141.75
241.662	133.75
241.896	136.75
242.13	141.75
242.363	140.75
242.597	143.75
242.83	146.75
243.064	143.75
243.298	137.75
243.531	143.75
243.765	146.75
243.998	163.75
244.232	161.75
244.465	151.75
244.699	150.75
244.932	147.75
245.166	140.75
245.399	158.75
245.633	151.75
245.866	150.75
246.099	148.75
246.333	153.75
246.566	158.75
246.8	154.75
247.033	153.75
247.266	161.75
247.5	172.75
247.733	179.75
247.966	194.75
248.2	163.75
248.433	159.75
248.666	169.75
248.899	184.75
249.133	189.75
249.366	196.75
249.599	194.75
249.832	188.75
250.066	206.75
250.299	191.75
250.532	189.75
250.765	199.75
250.998	221.75
251.231	221.75
251.465	203.75
251.698	209.75
251.931	206.75
252.164	193.75
252.397	205.75
252.63	195.75
252.863	208.75
253.096	190.75
253.329	200.75
253.562	222.75
253.795	219.75
254.028	227.75
254.261	224.75
254.494	225.75
254.727	246.75
254.96	249.75
255.193	251.75
255.426	260.75
255.659	218.75
255.892	216.75
256.124	214.75
256.357	224.75
256.59	214.75
256.823	218.75
257.056	205.75
257.289	213.75
257.521	212.75
257.754	207.75
257.987	198.75
258.22	191.75
258.452	211.75
258.685	211.75
258.918	206.75
259.151	211.75
259.383	215.75
259.616	216.75
259.849	227.75
260.081	228.75
260.314	239.75
260.547	258.75
260.779	243.75
261.012	250.75
261.244	238.75
261.477	234.75
261.71	212.75
261.942	213.75
262.175	231.75
262.407	238.75
262.64	215.75
262.872	228.75
263.105	220.75
263.337	209.75
263.57	230.75
263.802	224.75
264.035	215.75
264.267	214.75
264.499	219.75
264.732	215.75
264.964	218.75
265.197	215.75
265.429	204.75
265.661	221.75
265.894	221.75
266.126	229.75
266.358	230.75
266.591	227.75
266.823	215.75
267.055	234.75
267.287	215.75
267.52	224.75
267.752	241.75
267.984	244.75
268.216	220.75
268.448	222.75
268.681	240.75
268.913	241.75
269.145	268.75
269.377	264.75
269.609	270.75
269.841	265.75
270.073	259.75
270.306	268.75
270.538	303.75
270.77	285.75
271.002	272.75
271.234	283.75
271.466	282.75
271.698	298.75
271.93	288.75
272.162	297.75
272.394	290.75
272.626	272.75
272.858	280.75
273.09	245.75
273.322	277.75
273.553	269.75
273.785	247.75
274.017	267.75
274.249	282.75
274.481	268.75
274.713	261.75
274.945	288.75
275.176	255.75
275.408	275.75
275.64	277.75
275.872	261.75
276.104	275.75
276.335	264.75
276.567	271.75
276.799	278.75
277.031	277.75
277.262	308.75
277.494	317.75
277.726	301.75
277.957	280.75
278.189	273.75
278.421	280.75
278.652	285.75
278.884	265.75
279.115	274.75
279.347	262.75
279.579	260.75
279.81	269.75
280.042	258.75
280.273	275.75
280.505	260.75
280.736	268.75
280.968	272.75
281.199	283.75
281.431	282.75
281.662	271.75
281.894	275.75
282.125	269.75
282.356	293.75
282.588	305.75
282.819	301.75
283.051	285.75
283.282	270.75
283.513	274.75
283.745	270.75
283.976	291.75
284.207	285.75
284.439	287.75
284.67	293.75
284.901	292.75
285.132	271.75
285.364	299.75
285.595	310.75
285.826	286.75
286.057	282.75
286.288	272.75
286.52	286.75
286.751	295.75
286.982	283.75
287.213	298.75
287.444	288.75
287.675	279.75
287.906	287.75
288.138	280.75
288.369	320.75
288.6	303.75
288.831	283.75
289.062	292.75
289.293	311.75
289.524	291.75
289.755	297.75
289.986	301.75
290.217	291.75
290.448	291.75
290.679	300.75
290.91	299.75
291.141	300.75
291.371	308.75
291.602	305.75
291.833	279.75
292.064	300.75
292.295	299.75
292.526	302.75
292.757	301.75
292.987	310.75
293.218	301.75
293.449	295.75
293.68	287.75
293.91	307.75
294.141	316.75
294.372	286.75
294.603	299.75
294.833	328.75
295.064	300.75
295.295	308.75
295.525	292.75
295.756	307.75
295.987	323.75
296.217	314.75
296.448	304.75
296.679	308.75
296.909	298.75
297.14	318.75
297.37	320.75
297.601	294.75
297.831	294.75
298.062	300.75
298.292	319.75
298.523	319.75
298.753	325.75
298.984	318.75
299.214	296.75
299.445	327.75
299.675	319.75
299.905	312.75
300.136	341.75
300.366	326.75
300.597	326.75
300.827	327.75
301.057	320.75
301.288	329.75
301.518	330.75
301.748	327.75
301.979	337.75
302.209	333.75
302.439	332.75
302.669	339.75
302.9	310.75
303.13	321.75
303.36	343.75
303.59	332.75
303.82	337.75
304.051	352.75
304.281	352.75
304.511	341.75
304.741	352.75
304.971	330.75
305.201	354.75
305.431	340.75
305.661	357.75
305.891	344.75
306.121	326.75
306.352	332.75
306.582	344.75
306.812	342.75
307.042	334.75
307.272	328.75
307.502	341.75
307.731	327.75
307.961	320.75
308.191	330.75
308.421	324.75
308.651	338.75
308.881	357.75
309.111	327.75
309.341	343.75
309.571	374.75
309.8	361.75
310.03	354.75
310.26	357.75
310.49	380.75
310.72	365.75
310.949	377.75
311.179	364.75
311.409	375.75
311.639	373.75
311.868	367.75
312.098	357.75
312.328	364.75
312.557	382.75
312.787	366.75
313.017	380.75
313.246	383.75
313.476	347.75
313.706	359.75
313.935	373.75
314.165	389.75
314.394	384.75
314.624	396.75
314.853	368.75
315.083	384.75
315.312	379.75
315.542	373.75
315.771	360.75
316.001	365.75
316.23	358.75
316.46	371.75
316.689	378.75
316.919	376.75
317.148	378.75
317.377	387.75
317.607	379.75
317.836	377.75
318.065	384.75
318.295	373.75
318.524	367.75
318.753	400.75
318.983	368.75
319.212	361.75
319.441	364.75
319.67	367.75
319.9	373.75
320.129	387.75
320.358	392.75
320.587	382.75
320.816	394.75
321.046	390.75
321.275	395.75
321.504	384.75
321.733	370.75
321.962	389.75
322.191	389.75
322.42	406.75
322.649	429.75
322.878	417.75
323.108	428.75
323.337	450.75
323.566	445.75
323.795	459.75
324.024	486.75
324.253	566.75
324.482	714.75
324.71	1108.75
324.939	1587.75
325.168	1417.75
325.397	756.75
325.626	539.75
325.855	471.75
326.084	465.75
326.313	471.75
326.542	463.75
326.77	472.75
326.999	544.75
327.228	688.75
327.457	996.75
327.686	1205.75
327.914	831.75
328.143	563.75
328.372	528.75
328.6	495.75
328.829	491.75
329.058	500.75
329.287	520.75
329.515	480.75
329.744	473.75
329.972	461.75
330.201	451.75
330.43	477.75
330.658	514.75
330.887	533.75
331.115	522.75
331.344	505.75
331.572	472.75
331.801	459.75
332.03	437.75
332.258	440.75
332.486	438.75
332.715	444.75
332.943	444.75
333.172	458.75
333.4	478.75
333.629	470.75
333.857	479.75
334.085	481.75
334.314	485.75
334.542	502.75
334.771	509.75
334.999	491.75
335.227	474.75
335.455	457.75
335.684	481.75
335.912	463.75
336.14	454.75
336.369	452.75
336.597	445.75
336.825	451.75
337.053	465.75
337.281	441.75
337.51	417.75
337.738	450.75
337.966	457.75
338.194	437.75
338.422	433.75
338.65	444.75
338.878	445.75
339.106	448.75
339.334	446.75
339.562	440.75
339.79	423.75
340.018	415.75
340.246	445.75
340.474	439.75
340.702	449.75
340.93	447.75
341.158	443.75
341.386	426.75
341.614	435.75
341.842	442.75
342.07	430.75
342.298	432.75
342.526	428.75
342.754	413.75
342.981	426.75
343.209	425.75
343.437	430.75
343.665	452.75
343.893	455.75
344.12	470.75
344.348	467.75
344.576	454.75
344.804	481.75
345.031	468.75
345.259	455.75
345.487	420.75
345.714	444.75
345.942	440.75
346.17	453.75
346.397	408.75
346.625	423.75
346.853	403.75
347.08	411.75
347.308	411.75
347.535	417.75
347.763	441.75
347.99	431.75
348.218	429.75
348.445	429.75
348.673	422.75
348.9	432.75
349.128	414.75
349.355	401.75
349.583	402.75
349.81	415.75
350.037	420.75
350.265	401.75
350.492	401.75
350.72	402.75
350.947	407.75
351.174	421.75
351.402	417.75
351.629	414.75
351.856	433.75
352.083	435.75
352.311	403.75
352.538	426.75
352.765	431.75
352.992	412.75
353.22	418.75
353.447	413.75
353.674	431.75
353.901	398.75
354.128	421.75
354.355	403.75
354.583	409.75
354.81	392.75
355.037	381.75
355.264	396.75
355.491	375.75
355.718	398.75
355.945	399.75
356.172	397.75
356.399	411.75
356.626	380.75
356.853	407.75
357.08	422.75
357.307	410.75
357.534	417.75
357.761	411.75
357.988	409.75
358.215	408.75
358.441	423.75
358.668	416.75
358.895	414.75
359.122	409.75
359.349	397.75
359.576	428.75
359.802	403.75
360.029	429.75
360.256	461.75
360.483	461.75
360.709	431.75
360.936	401.75
361.163	416.75
361.39	417.75
361.616	413.75
361.843	426.75
362.07	416.75
362.296	428.75
362.523	439.75
362.749	424.75
362.976	440.75
363.203	429.75
363.429	404.75
363.656	428.75
363.882	404.75
364.109	407.75
364.335	395.75
364.562	418.75
364.788	425.75
365.015	433.75
365.241	431.75
365.468	428.75
365.694	414.75
365.92	414.75
366.147	414.75
366.373	405.75
366.599	407.75
366.826	419.75
367.052	401.75
367.278	432.75
367.505	415.75
367.731	427.75
367.957	399.75
368.184	432.75
368.41	439.75
368.636	412.75
368.862	454.75
369.089	433.75
369.315	389.75
369.541	420.75
369.767	409.75
369.993	398.75
370.219	423.75
370.445	411.75
370.672	412.75
370.898	430.75
371.124	444.75
371.35	445.75
371.576	439.75
371.802	422.75
372.028	425.75
372.254	431.75
372.48	418.75
372.706	433.75
372.932	424.75
373.158	421.75
373.384	448.75
373.61	435.75
373.835	432.75
374.061	431.75
374.287	450.75
374.513	452.75
374.739	423.75
374.965	451.75
375.191	460.75
375.416	455.75
375.642	448.75
375.868	454.75
376.094	427.75
376.319	419.75
376.545	435.75
376.771	455.75
376.997	428.75
377.222	438.75
377.448	424.75
377.674	416.75
377.899	432.75
378.125	402.75
378.35	399.75
378.576	447.75
378.802	414.75
379.027	423.75
379.253	421.75
379.478	416.75
379.704	433.75
379.929	422.75
380.155	451.75
380.38	445.75
380.606	435.75
380.831	443.75
381.057	429.75
381.282	405.75
381.507	438.75
381.733	439.75
381.958	422.75
382.184	430.75
382.409	455.75
382.634	435.75
382.86	422.75
383.085	454.75
383.31	452.75
383.535	440.75
383.761	464.75
383.986	449.75
384.211	451.75
384.436	453.75
384.662	468.75
384.887	475.75
385.112	475.75
385.337	486.75
385.562	492.75
385.787	480.75
386.013	479.75
386.238	471.75
386.463	478.75
386.688	474.75
386.913	517.75
387.138	472.75
387.363	500.75
387.588	482.75
387.813	475.75
388.038	482.75
388.263	501.75
388.488	494.75
388.713	472.75
388.938	479.75
389.163	476.75
389.387	472.75
389.612	463.75
389.837	477.75
390.062	497.75
390.287	486.75
390.512	477.75
390.736	460.75
390.961	469.75
391.186	483.75
391.411	492.75
391.636	513.75
391.86	492.75
392.085	492.75
392.31	512.75
392.534	490.75
392.759	491.75
392.984	494.75
393.208	495.75
393.433	489.75
393.658	509.75
393.882	485.75
394.107	480.75
394.331	476.75
394.556	487.75
394.78	503.75
395.005	506.75
395.229	498.75
395.454	492.75
395.678	505.75
395.903	508.75
396.127	523.75
396.352	520.75
396.576	519.75
396.801	519.75
397.025	519.75
397.249	525.75
397.474	525.75
397.698	509.75
397.922	548.75
398.147	552.75
398.371	561.75
398.595	530.75
398.82	575.75
399.044	590.75
399.268	618.75
399.492	617.75
399.717	660.75
399.941	696.75
400.165	701.75
400.389	697.75
400.613	632.75
400.837	598.75
401.062	579.75
401.286	565.75
401.51	581.75
401.734	553.75
401.958	571.75
402.182	557.75
402.406	571.75
402.63	569.75
402.854	582.75
403.078	594.75
403.302	578.75
403.526	593.75
403.75	593.75
403.974	596.75
404.198	558.75
404.422	584.75
404.645	593.75
404.869	605.75
405.093	627.75
405.317	648.75
405.541	693.75
405.765	635.75
405.988	610.75
406.212	622.75
406.436	608.75
406.66	636.75
406.883	623.75
407.107	656.75
407.331	697.75
407.555	791.75
407.778	748.75
408.002	687.75
408.226	668.75
408.449	625.75
408.673	633.75
408.896	672.75
409.12	721.75
409.344	675.75
409.567	609.75
409.791	596.75
410.014	582.75
410.238	575.75
410.461	568.75
410.685	589.75
410.908	606.75
411.132	603.75
411.355	640.75
411.578	624.75
411.802	587.75
412.025	582.75
412.249	606.75
412.472	591.75
412.695	622.75
412.919	628.75
413.142	599.75
413.365	559.75
413.589	597.75
413.812	563.75
414.035	557.75
414.258	568.75
414.482	551.75
414.705	570.75
414.928	551.75
415.151	571.75
415.374	571.75
415.597	558.75
415.821	550.75
416.044	580.75
416.267	555.75
416.49	558.75
416.713	546.75
416.936	558.75
417.159	572.75
417.382	565.75
417.605	547.75
417.828	546.75
418.051	566.75
418.274	572.75
418.497	554.75
418.72	569.75
418.943	568.75
419.166	592.75
419.389	608.75
419.611	597.75
419.834	574.75
420.057	580.75
420.28	597.75
420.503	563.75
420.726	575.75
420.948	588.75
421.171	602.75
421.394	662.75
421.617	601.75
421.839	573.75
422.062	579.75
422.285	589.75
422.507	637.75
422.73	718.75
422.953	713.75
423.175	636.75
423.398	605.75
423.621	617.75
423.843	598.75
424.066	615.75
424.288	625.75
424.511	640.75
424.733	696.75
424.956	768.75
425.178	724.75
425.401	719.75
425.623	735.75
425.846	656.75
426.068	592.75
426.291	585.75
426.513	590.75
426.735	602.75
426.958	636.75
427.18	720.75
427.402	855.75
427.625	935.75
427.847	773.75
428.069	709.75
428.292	653.75
428.514	592.75
428.736	583.75
428.958	551.75
429.181	539.75
429.403	537.75
429.625	571.75
429.847	594.75
430.069	622.75
430.292	647.75
430.514	564.75
430.736	571.75
430.958	544.75
431.18	531.75
431.402	543.75
431.624	530.75
431.846	548.75
432.068	501.75
432.29	534.75
432.512	561.75
432.734	547.75
432.956	531.75
433.178	554.75
433.4	552.75
433.622	572.75
433.844	549.75
434.066	535.75
434.287	536.75
434.509	559.75
434.731	555.75
434.953	565.75
435.175	567.75
435.397	610.75
435.618	609.75
435.84	638.75
436.062	705.75
436.284	779.75
436.505	685.75
436.727	611.75
436.949	598.75
437.17	560.75
437.392	564.75
437.614	553.75
437.835	592.75
438.057	671.75
438.278	776.75
438.5	760.75
438.721	864.75
438.943	809.75
439.165	643.75
439.386	628.75
439.608	618.75
439.829	592.75
440.05	599.75
440.272	669.75
440.493	630.75
440.715	657.75
440.936	579.75
441.158	569.75
441.379	568.75
441.6	575.75
441.822	613.75
442.043	647.75
442.264	713.75
442.486	757.75
442.707	638.75
442.928	624.75
443.149	635.75
443.371	655.75
443.592	665.75
443.813	776.75
444.034	832.75
444.255	686.75
444.476	632.75
444.698	619.75
444.919	619.75
445.14	751.75
445.361	685.75
445.582	664.75
445.803	703.75
446.024	781.75
446.245	810.75
446.466	720.75
446.687	601.75
446.908	606.75
447.129	573.75
447.35	569.75
447.571	551.75
447.792	556.75
448.013	529.75
448.234	544.75
448.455	622.75
448.675	696.75
448.896	808.75
449.117	694.75
449.338	660.75
449.559	771.75
449.779	891.75
450	686.75
450.221	578.75
450.442	543.75
450.662	499.75
450.883	513.75
451.104	566.75
451.324	536.75
451.545	515.75
451.766	508.75
451.986	488.75
452.207	523.75
452.428	481.75
452.648	480.75
452.869	482.75
453.089	491.75
453.31	512.75
453.53	495.75
453.751	492.75
453.971	491.75
454.192	524.75
454.412	490.75
454.633	493.75
454.853	455.75
455.073	458.75
455.294	491.75
455.514	573.75
455.734	563.75
455.955	516.75
456.175	473.75
456.395	473.75
456.616	468.75
456.836	492.75
457.056	462.75
457.276	466.75
457.497	480.75
457.717	473.75
457.937	478.75
458.157	468.75
458.377	471.75
458.598	480.75
458.818	538.75
459.038	600.75
459.258	638.75
459.478	562.75
459.698	533.75
459.918	534.75
460.138	555.75
460.358	556.75
460.578	567.75
460.798	565.75
461.018	566.75
461.238	547.75
461.458	567.75
461.678	571.75
461.898	564.75
462.118	565.75
462.338	583.75
462.558	601.75
462.777	608.75
462.997	601.75
463.217	631.75
463.437	615.75
463.657	591.75
463.876	599.75
464.096	617.75
464.316	597.75
464.536	614.75
464.755	607.75
464.975	591.75
465.195	611.75
465.414	633.75
465.634	598.75
465.854	577.75
466.073	554.75
466.293	514.75
466.512	527.75
466.732	515.75
466.951	519.75
467.171	508.75
467.391	515.75
467.61	525.75
467.829	507.75
468.049	519.75
468.268	532.75
468.488	495.75
468.707	485.75
468.927	515.75
469.146	503.75
469.365	515.75
469.585	496.75
469.804	513.75
470.023	538.75
470.243	523.75
470.462	520.75
470.681	528.75
470.901	534.75
471.12	505.75
471.339	527.75
471.558	516.75
471.777	517.75
471.997	516.75
472.216	519.75
472.435	539.75
472.654	520.75
472.873	507.75
473.092	519.75
473.311	509.75
473.53	513.75
473.749	499.75
473.968	542.75
474.187	654.75
474.406	654.75
474.625	560.75
474.844	522.75
475.063	524.75
475.282	529.75
475.501	515.75
475.72	525.75
475.939	522.75
476.158	541.75
476.377	553.75
476.596	513.75
476.814	560.75
477.033	532.75
477.252	546.75
477.471	574.75
477.69	553.75
477.908	555.75
478.127	582.75
478.346	549.75
478.564	584.75
478.783	587.75
479.002	594.75
479.22	619.75
479.439	601.75
479.658	602.75
479.876	634.75
480.095	652.75
480.313	659.75
480.532	682.75
480.751	646.75
480.969	617.75
481.188	655.75
481.406	665.75
481.624	647.75
481.843	622.75
482.061	605.75
482.28	641.75
482.498	618.75
482.717	603.75
482.935	609.75
483.153	604.75
483.372	618.75
483.59	591.75
483.808	587.75
484.027	585.75
484.245	617.75
484.463	627.75
484.681	604.75
484.9	601.75
485.118	637.75
485.336	616.75
485.554	640.75
485.772	650.75
485.99	617.75
486.209	645.75
486.427	612.75
486.645	656.75
486.863	645.75
487.081	645.75
487.299	653.75
487.517	647.75
487.735	630.75
487.953	647.75
488.171	625.75
488.389	659.75
488.607	651.75
488.825	650.75
489.043	661.75
489.261	667.75
489.479	646.75
489.696	651.75
489.914	676.75
490.132	679.75
490.35	668.75
490.568	691.75
490.786	686.75
491.003	698.75
491.221	747.75
491.439	742.75
491.657	745.75
491.874	727.75
492.092	727.75
492.31	744.75
492.527	744.75
492.745	745.75
492.963	753.75
493.18	763.75
493.398	751.75
493.615	768.75
493.833	746.75
494.05	766.75
494.268	771.75
494.485	755.75
494.703	749.75
494.92	777.75
495.138	786.75
495.355	752.75
495.573	775.75
495.79	773.75
496.008	761.75
496.225	780.75
496.442	766.75
496.66	789.75
496.877	763.75
497.094	769.75
497.312	779.75
497.529	806.75
497.746	806.75
497.963	829.75
498.181	817.75
498.398	854.75
498.615	869.75
498.832	894.75
499.049	921.75
499.267	938.75
499.484	990.75
499.701	1035.75
499.918	1083.75
500.135	1156.75
500.352	1214.75
500.569	1229.75
500.786	1239.75
501.003	1254.75
501.22	1173.75
501.437	1105.75
501.654	1063.75
