Data from 1974.PennyLincolnUp.Lamp.En5.5.200Scan.071719.P1.Changed Mount._HRD10591_15-52-55-857.txt Node
Date: Thu Jul 18 15:52:55 EDT 2019
User: cochatt
Spectrometer: HR+D1059
Trigger mode: 1
Integration Time (sec): 1.000000E-1
Scans to average: 1
Electric dark correction enabled: true
Nonlinearity correction enabled: false
Boxcar width: 0
XAxis mode: Wavelengths
Number of Pixels in Spectrum: 2048
>>>>>Begin Spectral Data<<<<<
223.165	-6.69
223.4	-6.69
223.635	-6.69
223.869	-18.69
224.104	-14.69
224.338	-8.69
224.573	-8.69
224.808	-17.69
225.042	-11.69
225.277	-0.69
225.511	-0.69
225.746	-7.69
225.98	-6.69
226.215	10.31
226.449	9.31
226.683	13.31
226.918	35.31
227.152	34.31
227.387	38.31
227.621	53.31
227.856	51.31
228.09	47.31
228.324	42.31
228.559	48.31
228.793	81.31
229.027	118.31
229.262	109.31
229.496	124.31
229.73	142.31
229.964	167.31
230.199	135.31
230.433	117.31
230.667	118.31
230.901	115.31
231.136	103.31
231.37	119.31
231.604	141.31
231.838	105.31
232.072	102.31
232.306	122.31
232.541	111.31
232.775	104.31
233.009	138.31
233.243	133.31
233.477	114.31
233.711	135.31
233.945	131.31
234.179	125.31
234.413	108.31
234.647	115.31
234.881	119.31
235.115	129.31
235.349	134.31
235.583	124.31
235.817	129.31
236.051	129.31
236.285	125.31
236.519	125.31
236.753	135.31
236.987	161.31
237.221	177.31
237.455	229.31
237.689	200.31
237.922	153.31
238.156	156.31
238.39	149.31
238.624	125.31
238.858	145.31
239.091	127.31
239.325	129.31
239.559	144.31
239.793	143.31
240.027	137.31
240.26	154.31
240.494	173.31
240.728	162.31
240.961	178.31
241.195	155.31
241.429	145.31
241.662	145.31
241.896	152.31
242.13	151.31
242.363	141.31
242.597	151.31
242.83	157.31
243.064	150.31
243.298	139.31
243.531	142.31
243.765	145.31
243.998	144.31
244.232	143.31
244.465	160.31
244.699	168.31
244.932	165.31
245.166	154.31
245.399	146.31
245.633	173.31
245.866	165.31
246.099	160.31
246.333	178.31
246.566	167.31
246.8	174.31
247.033	173.31
247.266	171.31
247.5	178.31
247.733	193.31
247.966	181.31
248.2	186.31
248.433	189.31
248.666	205.31
248.899	195.31
249.133	209.31
249.366	210.31
249.599	207.31
249.832	194.31
250.066	203.31
250.299	209.31
250.532	203.31
250.765	221.31
250.998	229.31
251.231	241.31
251.465	210.31
251.698	222.31
251.931	216.31
252.164	213.31
252.397	225.31
252.63	219.31
252.863	217.31
253.096	232.31
253.329	237.31
253.562	239.31
253.795	232.31
254.028	238.31
254.261	238.31
254.494	238.31
254.727	268.31
254.96	274.31
255.193	286.31
255.426	266.31
255.659	251.31
255.892	258.31
256.124	242.31
256.357	250.31
256.59	240.31
256.823	229.31
257.056	236.31
257.289	219.31
257.521	229.31
257.754	234.31
257.987	230.31
258.22	222.31
258.452	206.31
258.685	228.31
258.918	225.31
259.151	237.31
259.383	235.31
259.616	240.31
259.849	252.31
260.081	269.31
260.314	282.31
260.547	291.31
260.779	265.31
261.012	239.31
261.244	257.31
261.477	225.31
261.71	238.31
261.942	228.31
262.175	238.31
262.407	227.31
262.64	251.31
262.872	224.31
263.105	241.31
263.337	223.31
263.57	234.31
263.802	223.31
264.035	228.31
264.267	215.31
264.499	219.31
264.732	245.31
264.964	218.31
265.197	242.31
265.429	233.31
265.661	233.31
265.894	227.31
266.126	245.31
266.358	238.31
266.591	227.31
266.823	231.31
267.055	240.31
267.287	243.31
267.52	237.31
267.752	241.31
267.984	241.31
268.216	239.31
268.448	258.31
268.681	269.31
268.913	261.31
269.145	288.31
269.377	293.31
269.609	291.31
269.841	281.31
270.073	305.31
270.306	320.31
270.538	334.31
270.77	322.31
271.002	315.31
271.234	298.31
271.466	308.31
271.698	331.31
271.93	328.31
272.162	330.31
272.394	347.31
272.626	315.31
272.858	316.31
273.09	310.31
273.322	307.31
273.553	284.31
273.785	273.31
274.017	281.31
274.249	295.31
274.481	299.31
274.713	302.31
274.945	302.31
275.176	299.31
275.408	317.31
275.64	279.31
275.872	278.31
276.104	288.31
276.335	276.31
276.567	293.31
276.799	288.31
277.031	325.31
277.262	333.31
277.494	347.31
277.726	343.31
277.957	317.31
278.189	306.31
278.421	301.31
278.652	300.31
278.884	287.31
279.115	285.31
279.347	297.31
279.579	300.31
279.81	296.31
280.042	313.31
280.273	300.31
280.505	301.31
280.736	296.31
280.968	300.31
281.199	295.31
281.431	313.31
281.662	285.31
281.894	312.31
282.125	298.31
282.356	318.31
282.588	311.31
282.819	331.31
283.051	307.31
283.282	295.31
283.513	318.31
283.745	329.31
283.976	299.31
284.207	306.31
284.439	330.31
284.67	303.31
284.901	303.31
285.132	312.31
285.364	318.31
285.595	320.31
285.826	329.31
286.057	309.31
286.288	312.31
286.52	286.31
286.751	326.31
286.982	317.31
287.213	323.31
287.444	315.31
287.675	320.31
287.906	311.31
288.138	328.31
288.369	329.31
288.6	330.31
288.831	360.31
289.062	335.31
289.293	313.31
289.524	316.31
289.755	307.31
289.986	327.31
290.217	322.31
290.448	336.31
290.679	334.31
290.91	336.31
291.141	330.31
291.371	329.31
291.602	339.31
291.833	321.31
292.064	340.31
292.295	322.31
292.526	345.31
292.757	307.31
292.987	320.31
293.218	336.31
293.449	325.31
293.68	320.31
293.91	332.31
294.141	328.31
294.372	304.31
294.603	340.31
294.833	332.31
295.064	328.31
295.295	343.31
295.525	331.31
295.756	326.31
295.987	330.31
296.217	338.31
296.448	353.31
296.679	335.31
296.909	359.31
297.14	344.31
297.37	357.31
297.601	330.31
297.831	326.31
298.062	314.31
298.292	339.31
298.523	333.31
298.753	342.31
298.984	331.31
299.214	345.31
299.445	339.31
299.675	342.31
299.905	352.31
300.136	348.31
300.366	353.31
300.597	345.31
300.827	369.31
301.057	353.31
301.288	359.31
301.518	375.31
301.748	360.31
301.979	353.31
302.209	356.31
302.439	367.31
302.669	363.31
302.9	373.31
303.13	349.31
303.36	381.31
303.59	363.31
303.82	361.31
304.051	365.31
304.281	381.31
304.511	379.31
304.741	374.31
304.971	385.31
305.201	350.31
305.431	357.31
305.661	382.31
305.891	369.31
306.121	365.31
306.352	351.31
306.582	363.31
306.812	360.31
307.042	374.31
307.272	362.31
307.502	349.31
307.731	350.31
307.961	369.31
308.191	356.31
308.421	370.31
308.651	377.31
308.881	387.31
309.111	383.31
309.341	384.31
309.571	358.31
309.8	395.31
310.03	407.31
310.26	402.31
310.49	378.31
310.72	429.31
310.949	433.31
311.179	427.31
311.409	397.31
311.639	400.31
311.868	395.31
312.098	398.31
312.328	400.31
312.557	403.31
312.787	414.31
313.017	423.31
313.246	442.31
313.476	415.31
313.706	416.31
313.935	411.31
314.165	404.31
314.394	411.31
314.624	426.31
314.853	429.31
315.083	407.31
315.312	405.31
315.542	403.31
315.771	433.31
316.001	407.31
316.23	421.31
316.46	410.31
316.689	419.31
316.919	415.31
317.148	408.31
317.377	418.31
317.607	442.31
317.836	411.31
318.065	398.31
318.295	427.31
318.524	406.31
318.753	404.31
318.983	422.31
319.212	418.31
319.441	417.31
319.67	433.31
319.9	433.31
320.129	399.31
320.358	404.31
320.587	418.31
320.816	407.31
321.046	432.31
321.275	429.31
321.504	411.31
321.733	425.31
321.962	444.31
322.191	442.31
322.42	432.31
322.649	450.31
322.878	471.31
323.108	466.31
323.337	467.31
323.566	499.31
323.795	536.31
324.024	560.31
324.253	659.31
324.482	876.31
324.71	1287.31
324.939	1901.31
325.168	1655.31
325.397	870.31
325.626	622.31
325.855	545.31
326.084	507.31
326.313	520.31
326.542	482.31
326.77	551.31
326.999	629.31
327.228	801.31
327.457	1167.31
327.686	1455.31
327.914	989.31
328.143	663.31
328.372	583.31
328.6	567.31
328.829	575.31
329.058	570.31
329.287	546.31
329.515	554.31
329.744	520.31
329.972	498.31
330.201	525.31
330.43	560.31
330.658	592.31
330.887	595.31
331.115	583.31
331.344	523.31
331.572	504.31
331.801	512.31
332.03	530.31
332.258	492.31
332.486	489.31
332.715	491.31
332.943	472.31
333.172	496.31
333.4	497.31
333.629	495.31
333.857	535.31
334.085	543.31
334.314	523.31
334.542	579.31
334.771	601.31
334.999	550.31
335.227	525.31
335.455	515.31
335.684	499.31
335.912	506.31
336.14	476.31
336.369	492.31
336.597	514.31
336.825	489.31
337.053	499.31
337.281	495.31
337.51	505.31
337.738	513.31
337.966	489.31
338.194	488.31
338.422	474.31
338.65	501.31
338.878	501.31
339.106	477.31
339.334	475.31
339.562	449.31
339.79	464.31
340.018	481.31
340.246	479.31
340.474	480.31
340.702	473.31
340.93	486.31
341.158	466.31
341.386	475.31
341.614	473.31
341.842	467.31
342.07	457.31
342.298	470.31
342.526	481.31
342.754	465.31
342.981	458.31
343.209	477.31
343.437	481.31
343.665	475.31
343.893	514.31
344.12	488.31
344.348	505.31
344.576	494.31
344.804	486.31
345.031	493.31
345.259	502.31
345.487	488.31
345.714	466.31
345.942	470.31
346.17	455.31
346.397	475.31
346.625	457.31
346.853	466.31
347.08	437.31
347.308	438.31
347.535	472.31
347.763	456.31
347.99	482.31
348.218	442.31
348.445	464.31
348.673	461.31
348.9	456.31
349.128	449.31
349.355	454.31
349.583	458.31
349.81	436.31
350.037	461.31
350.265	448.31
350.492	461.31
350.72	460.31
350.947	445.31
351.174	460.31
351.402	453.31
351.629	479.31
351.856	460.31
352.083	447.31
352.311	470.31
352.538	467.31
352.765	465.31
352.992	454.31
353.22	439.31
353.447	448.31
353.674	457.31
353.901	433.31
354.128	457.31
354.355	441.31
354.583	441.31
354.81	429.31
355.037	455.31
355.264	427.31
355.491	424.31
355.718	439.31
355.945	432.31
356.172	445.31
356.399	441.31
356.626	432.31
356.853	456.31
357.08	454.31
357.307	455.31
357.534	427.31
357.761	433.31
357.988	434.31
358.215	435.31
358.441	441.31
358.668	463.31
358.895	458.31
359.122	434.31
359.349	471.31
359.576	474.31
359.802	454.31
360.029	473.31
360.256	482.31
360.483	482.31
360.709	478.31
360.936	471.31
361.163	450.31
361.39	475.31
361.616	458.31
361.843	472.31
362.07	460.31
362.296	470.31
362.523	467.31
362.749	477.31
362.976	441.31
363.203	463.31
363.429	452.31
363.656	452.31
363.882	450.31
364.109	441.31
364.335	440.31
364.562	461.31
364.788	449.31
365.015	446.31
365.241	449.31
365.468	446.31
365.694	442.31
365.92	472.31
366.147	436.31
366.373	447.31
366.599	451.31
366.826	437.31
367.052	439.31
367.278	438.31
367.505	443.31
367.731	453.31
367.957	448.31
368.184	433.31
368.41	459.31
368.636	473.31
368.862	464.31
369.089	459.31
369.315	449.31
369.541	449.31
369.767	466.31
369.993	444.31
370.219	443.31
370.445	462.31
370.672	449.31
370.898	448.31
371.124	463.31
371.35	477.31
371.576	460.31
371.802	445.31
372.028	452.31
372.254	430.31
372.48	466.31
372.706	437.31
372.932	470.31
373.158	472.31
373.384	483.31
373.61	492.31
373.835	461.31
374.061	473.31
374.287	468.31
374.513	474.31
374.739	470.31
374.965	488.31
375.191	479.31
375.416	477.31
375.642	467.31
375.868	490.31
376.094	476.31
376.319	472.31
376.545	460.31
376.771	465.31
376.997	463.31
377.222	451.31
377.448	476.31
377.674	459.31
377.899	469.31
378.125	457.31
378.35	454.31
378.576	446.31
378.802	450.31
379.027	477.31
379.253	457.31
379.478	484.31
379.704	456.31
379.929	470.31
380.155	456.31
380.38	430.31
380.606	474.31
380.831	447.31
381.057	467.31
381.282	473.31
381.507	476.31
381.733	480.31
381.958	462.31
382.184	489.31
382.409	458.31
382.634	480.31
382.86	475.31
383.085	467.31
383.31	486.31
383.535	496.31
383.761	485.31
383.986	481.31
384.211	491.31
384.436	495.31
384.662	492.31
384.887	506.31
385.112	494.31
385.337	506.31
385.562	530.31
385.787	510.31
386.013	531.31
386.238	522.31
386.463	558.31
386.688	531.31
386.913	519.31
387.138	536.31
387.363	526.31
387.588	503.31
387.813	520.31
388.038	520.31
388.263	508.31
388.488	517.31
388.713	524.31
388.938	512.31
389.163	524.31
389.387	523.31
389.612	519.31
389.837	525.31
390.062	514.31
390.287	523.31
390.512	513.31
390.736	531.31
390.961	546.31
391.186	536.31
391.411	525.31
391.636	523.31
391.86	561.31
392.085	535.31
392.31	532.31
392.534	545.31
392.759	535.31
392.984	508.31
393.208	526.31
393.433	497.31
393.658	528.31
393.882	518.31
394.107	513.31
394.331	538.31
394.556	544.31
394.78	522.31
395.005	541.31
395.229	516.31
395.454	537.31
395.678	558.31
395.903	553.31
396.127	571.31
396.352	554.31
396.576	551.31
396.801	552.31
397.025	553.31
397.249	576.31
397.474	546.31
397.698	547.31
397.922	593.31
398.147	578.31
398.371	583.31
398.595	608.31
398.82	612.31
399.044	629.31
399.268	637.31
399.492	693.31
399.717	722.31
399.941	762.31
400.165	749.31
400.389	741.31
400.613	702.31
400.837	667.31
401.062	636.31
401.286	612.31
401.51	616.31
401.734	613.31
401.958	646.31
402.182	599.31
402.406	610.31
402.63	601.31
402.854	623.31
403.078	636.31
403.302	642.31
403.526	643.31
403.75	649.31
403.974	659.31
404.198	623.31
404.422	627.31
404.645	653.31
404.869	653.31
405.093	678.31
405.317	707.31
405.541	751.31
405.765	701.31
405.988	658.31
406.212	651.31
406.436	658.31
406.66	691.31
406.883	667.31
407.107	719.31
407.331	761.31
407.555	830.31
407.778	817.31
408.002	765.31
408.226	733.31
408.449	694.31
408.673	695.31
408.896	726.31
409.12	775.31
409.344	727.31
409.567	653.31
409.791	659.31
410.014	649.31
410.238	644.31
410.461	635.31
410.685	633.31
410.908	675.31
411.132	707.31
411.355	706.31
411.578	662.31
411.802	655.31
412.025	603.31
412.249	633.31
412.472	693.31
412.695	687.31
412.919	671.31
413.142	622.31
413.365	600.31
413.589	633.31
413.812	621.31
414.035	621.31
414.258	601.31
414.482	609.31
414.705	608.31
414.928	604.31
415.151	583.31
415.374	593.31
415.597	598.31
415.821	576.31
416.044	583.31
416.267	617.31
416.49	616.31
416.713	606.31
416.936	603.31
417.159	601.31
417.382	609.31
417.605	611.31
417.828	609.31
418.051	626.31
418.274	634.31
418.497	617.31
418.72	616.31
418.943	594.31
419.166	636.31
419.389	665.31
419.611	645.31
419.834	643.31
420.057	634.31
420.28	651.31
420.503	634.31
420.726	613.31
420.948	649.31
421.171	670.31
421.394	714.31
421.617	625.31
421.839	638.31
422.062	633.31
422.285	627.31
422.507	723.31
422.73	755.31
422.953	732.31
423.175	655.31
423.398	629.31
423.621	645.31
423.843	665.31
424.066	696.31
424.288	679.31
424.511	675.31
424.733	742.31
424.956	820.31
425.178	813.31
425.401	786.31
425.623	813.31
425.846	719.31
426.068	654.31
426.291	643.31
426.513	624.31
426.735	688.31
426.958	710.31
427.18	774.31
427.402	938.31
427.625	1011.31
427.847	866.31
428.069	757.31
428.292	697.31
428.514	642.31
428.736	641.31
428.958	626.31
429.181	585.31
429.403	607.31
429.625	601.31
429.847	629.31
430.069	720.31
430.292	717.31
430.514	607.31
430.736	573.31
430.958	617.31
431.18	574.31
431.402	577.31
431.624	582.31
431.846	585.31
432.068	585.31
432.29	594.31
432.512	575.31
432.734	612.31
432.956	589.31
433.178	601.31
433.4	587.31
433.622	604.31
433.844	587.31
434.066	583.31
434.287	582.31
434.509	589.31
434.731	606.31
434.953	600.31
435.175	637.31
435.397	633.31
435.618	652.31
435.84	709.31
436.062	787.31
436.284	855.31
436.505	714.31
436.727	658.31
436.949	619.31
437.17	621.31
437.392	606.31
437.614	604.31
437.835	651.31
438.057	753.31
438.278	837.31
438.5	836.31
438.721	937.31
438.943	901.31
439.165	728.31
439.386	668.31
439.608	663.31
439.829	675.31
440.05	669.31
440.272	707.31
440.493	701.31
440.715	624.31
440.936	616.31
441.158	615.31
441.379	605.31
441.6	660.31
441.822	654.31
442.043	703.31
442.264	759.31
442.486	837.31
442.707	728.31
442.928	673.31
443.149	689.31
443.371	697.31
443.592	724.31
443.813	821.31
444.034	922.31
444.255	757.31
444.476	705.31
444.698	723.31
444.919	686.31
445.14	788.31
445.361	735.31
445.582	699.31
445.803	760.31
446.024	838.31
446.245	877.31
446.466	781.31
446.687	696.31
446.908	667.31
447.129	615.31
447.35	622.31
447.571	601.31
447.792	591.31
448.013	594.31
448.234	621.31
448.455	664.31
448.675	781.31
448.896	891.31
449.117	757.31
449.338	717.31
449.559	823.31
449.779	969.31
450	779.31
450.221	652.31
450.442	611.31
450.662	594.31
450.883	578.31
451.104	586.31
451.324	583.31
451.545	568.31
451.766	537.31
451.986	540.31
452.207	535.31
452.428	534.31
452.648	543.31
452.869	521.31
453.089	553.31
453.31	541.31
453.53	531.31
453.751	546.31
453.971	530.31
454.192	542.31
454.412	539.31
454.633	545.31
454.853	531.31
455.073	522.31
455.294	537.31
455.514	640.31
455.734	609.31
455.955	534.31
456.175	513.31
456.395	508.31
456.616	477.31
456.836	493.31
457.056	505.31
457.276	505.31
457.497	513.31
457.717	495.31
457.937	513.31
458.157	546.31
458.377	527.31
458.598	554.31
458.818	599.31
459.038	647.31
459.258	696.31
459.478	629.31
459.698	587.31
459.918	594.31
460.138	587.31
460.358	593.31
460.578	610.31
460.798	598.31
461.018	598.31
461.238	617.31
461.458	581.31
461.678	590.31
461.898	609.31
462.118	605.31
462.338	615.31
462.558	650.31
462.777	634.31
462.997	667.31
463.217	684.31
463.437	695.31
463.657	647.31
463.876	682.31
464.096	648.31
464.316	643.31
464.536	649.31
464.755	651.31
464.975	640.31
465.195	648.31
465.414	696.31
465.634	645.31
465.854	597.31
466.073	565.31
466.293	585.31
466.512	565.31
466.732	569.31
466.951	571.31
467.171	553.31
467.391	567.31
467.61	561.31
467.829	594.31
468.049	569.31
468.268	552.31
468.488	555.31
468.707	554.31
468.927	553.31
469.146	545.31
469.365	555.31
469.585	565.31
469.804	556.31
470.023	586.31
470.243	573.31
470.462	581.31
470.681	561.31
470.901	586.31
471.12	603.31
471.339	546.31
471.558	576.31
471.777	557.31
471.997	559.31
472.216	561.31
472.435	573.31
472.654	573.31
472.873	557.31
473.092	546.31
473.311	566.31
473.53	559.31
473.749	567.31
473.968	611.31
474.187	718.31
474.406	706.31
474.625	615.31
474.844	580.31
475.063	567.31
475.282	562.31
475.501	557.31
475.72	587.31
475.939	568.31
476.158	589.31
476.377	584.31
476.596	595.31
476.814	564.31
477.033	589.31
477.252	590.31
477.471	582.31
477.69	598.31
477.908	595.31
478.127	626.31
478.346	644.31
478.564	636.31
478.783	614.31
479.002	649.31
479.22	639.31
479.439	647.31
479.658	653.31
479.876	697.31
480.095	682.31
480.313	723.31
480.532	717.31
480.751	689.31
480.969	699.31
481.188	730.31
481.406	765.31
481.624	705.31
481.843	681.31
482.061	659.31
482.28	639.31
482.498	680.31
482.717	653.31
482.935	666.31
483.153	630.31
483.372	678.31
483.59	667.31
483.808	658.31
484.027	647.31
484.245	666.31
484.463	654.31
484.681	659.31
484.9	682.31
485.118	682.31
485.336	677.31
485.554	713.31
485.772	702.31
485.99	670.31
486.209	675.31
486.427	690.31
486.645	692.31
486.863	702.31
487.081	688.31
487.299	676.31
487.517	720.31
487.735	700.31
487.953	738.31
488.171	699.31
488.389	690.31
488.607	736.31
488.825	717.31
489.043	701.31
489.261	715.31
489.479	700.31
489.696	714.31
489.914	688.31
490.132	735.31
490.35	721.31
490.568	736.31
490.786	735.31
491.003	796.31
491.221	778.31
491.439	793.31
491.657	794.31
491.874	797.31
492.092	803.31
492.31	838.31
492.527	806.31
492.745	784.31
492.963	823.31
493.18	836.31
493.398	827.31
493.615	841.31
493.833	831.31
494.05	854.31
494.268	827.31
494.485	823.31
494.703	851.31
494.92	815.31
495.138	815.31
495.355	849.31
495.573	799.31
495.79	837.31
496.008	837.31
496.225	834.31
496.442	838.31
496.66	834.31
496.877	840.31
497.094	878.31
497.312	885.31
497.529	891.31
497.746	907.31
497.963	884.31
498.181	928.31
498.398	923.31
498.615	944.31
498.832	982.31
499.049	987.31
499.267	1038.31
499.484	1075.31
499.701	1144.31
499.918	1197.31
500.135	1246.31
500.352	1335.31
500.569	1405.31
500.786	1346.31
501.003	1289.31
501.22	1249.31
501.437	1223.31
501.654	1161.31
