Data from 1974.PennyLincolnUp.Lamp.En5.5.200Scan.071719.P1.Changed Mount._HRD10591_15-51-46-857.txt Node
Date: Thu Jul 18 15:51:46 EDT 2019
User: cochatt
Spectrometer: HR+D1059
Trigger mode: 1
Integration Time (sec): 1.000000E-1
Scans to average: 1
Electric dark correction enabled: true
Nonlinearity correction enabled: false
Boxcar width: 0
XAxis mode: Wavelengths
Number of Pixels in Spectrum: 2048
>>>>>Begin Spectral Data<<<<<
223.165	-20.88
223.4	-20.88
223.635	-20.88
223.869	-11.88
224.104	-15.88
224.338	-14.88
224.573	-20.88
224.808	-15.88
225.042	3.12
225.277	2.12
225.511	2.12
225.746	12.12
225.98	8.12
226.215	5.12
226.449	10.12
226.683	6.12
226.918	21.12
227.152	30.12
227.387	26.12
227.621	38.12
227.856	44.12
228.09	63.12
228.324	33.12
228.559	37.12
228.793	81.12
229.027	91.12
229.262	105.12
229.496	102.12
229.73	123.12
229.964	164.12
230.199	126.12
230.433	101.12
230.667	113.12
230.901	108.12
231.136	118.12
231.37	103.12
231.604	118.12
231.838	95.12
232.072	107.12
232.306	116.12
232.541	99.12
232.775	111.12
233.009	116.12
233.243	99.12
233.477	120.12
233.711	101.12
233.945	113.12
234.179	115.12
234.413	113.12
234.647	123.12
234.881	131.12
235.115	128.12
235.349	111.12
235.583	121.12
235.817	124.12
236.051	125.12
236.285	122.12
236.519	111.12
236.753	127.12
236.987	127.12
237.221	155.12
237.455	214.12
237.689	180.12
237.922	142.12
238.156	132.12
238.39	114.12
238.624	138.12
238.858	130.12
239.091	127.12
239.325	134.12
239.559	99.12
239.793	126.12
240.027	130.12
240.26	142.12
240.494	166.12
240.728	144.12
240.961	149.12
241.195	138.12
241.429	143.12
241.662	132.12
241.896	150.12
242.13	138.12
242.363	138.12
242.597	128.12
242.83	139.12
243.064	138.12
243.298	140.12
243.531	148.12
243.765	152.12
243.998	146.12
244.232	159.12
244.465	146.12
244.699	150.12
244.932	168.12
245.166	137.12
245.399	142.12
245.633	136.12
245.866	138.12
246.099	134.12
246.333	156.12
246.566	158.12
246.8	144.12
247.033	161.12
247.266	160.12
247.5	156.12
247.733	170.12
247.966	174.12
248.2	180.12
248.433	186.12
248.666	178.12
248.899	168.12
249.133	181.12
249.366	208.12
249.599	188.12
249.832	183.12
250.066	172.12
250.299	185.12
250.532	171.12
250.765	204.12
250.998	231.12
251.231	232.12
251.465	222.12
251.698	215.12
251.931	195.12
252.164	199.12
252.397	190.12
252.63	196.12
252.863	192.12
253.096	207.12
253.329	236.12
253.562	234.12
253.795	218.12
254.028	216.12
254.261	205.12
254.494	233.12
254.727	256.12
254.96	272.12
255.193	263.12
255.426	250.12
255.659	233.12
255.892	225.12
256.124	247.12
256.357	256.12
256.59	221.12
256.823	225.12
257.056	235.12
257.289	221.12
257.521	220.12
257.754	215.12
257.987	211.12
258.22	208.12
258.452	210.12
258.685	216.12
258.918	227.12
259.151	225.12
259.383	227.12
259.616	217.12
259.849	215.12
260.081	238.12
260.314	260.12
260.547	252.12
260.779	244.12
261.012	225.12
261.244	213.12
261.477	229.12
261.71	228.12
261.942	228.12
262.175	221.12
262.407	219.12
262.64	212.12
262.872	215.12
263.105	216.12
263.337	218.12
263.57	236.12
263.802	222.12
264.035	227.12
264.267	207.12
264.499	218.12
264.732	218.12
264.964	239.12
265.197	225.12
265.429	241.12
265.661	208.12
265.894	228.12
266.126	226.12
266.358	215.12
266.591	234.12
266.823	214.12
267.055	232.12
267.287	243.12
267.52	233.12
267.752	229.12
267.984	236.12
268.216	239.12
268.448	233.12
268.681	237.12
268.913	238.12
269.145	256.12
269.377	283.12
269.609	278.12
269.841	280.12
270.073	291.12
270.306	282.12
270.538	315.12
270.77	308.12
271.002	297.12
271.234	285.12
271.466	286.12
271.698	299.12
271.93	301.12
272.162	319.12
272.394	308.12
272.626	298.12
272.858	283.12
273.09	277.12
273.322	264.12
273.553	260.12
273.785	287.12
274.017	262.12
274.249	240.12
274.481	267.12
274.713	278.12
274.945	283.12
275.176	255.12
275.408	273.12
275.64	266.12
275.872	283.12
276.104	274.12
276.335	264.12
276.567	274.12
276.799	259.12
277.031	267.12
277.262	303.12
277.494	317.12
277.726	306.12
277.957	295.12
278.189	264.12
278.421	266.12
278.652	263.12
278.884	282.12
279.115	265.12
279.347	285.12
279.579	275.12
279.81	266.12
280.042	280.12
280.273	273.12
280.505	272.12
280.736	275.12
280.968	274.12
281.199	285.12
281.431	288.12
281.662	285.12
281.894	265.12
282.125	279.12
282.356	286.12
282.588	308.12
282.819	293.12
283.051	283.12
283.282	282.12
283.513	294.12
283.745	297.12
283.976	307.12
284.207	265.12
284.439	293.12
284.67	299.12
284.901	300.12
285.132	286.12
285.364	263.12
285.595	288.12
285.826	298.12
286.057	294.12
286.288	294.12
286.52	288.12
286.751	304.12
286.982	302.12
287.213	281.12
287.444	274.12
287.675	311.12
287.906	287.12
288.138	288.12
288.369	302.12
288.6	298.12
288.831	286.12
289.062	309.12
289.293	319.12
289.524	290.12
289.755	321.12
289.986	324.12
290.217	299.12
290.448	311.12
290.679	316.12
290.91	314.12
291.141	305.12
291.371	290.12
291.602	286.12
291.833	305.12
292.064	318.12
292.295	295.12
292.526	292.12
292.757	318.12
292.987	304.12
293.218	284.12
293.449	297.12
293.68	313.12
293.91	293.12
294.141	321.12
294.372	310.12
294.603	290.12
294.833	302.12
295.064	312.12
295.295	309.12
295.525	314.12
295.756	335.12
295.987	318.12
296.217	313.12
296.448	350.12
296.679	327.12
296.909	306.12
297.14	286.12
297.37	312.12
297.601	306.12
297.831	295.12
298.062	310.12
298.292	291.12
298.523	308.12
298.753	318.12
298.984	318.12
299.214	324.12
299.445	316.12
299.675	316.12
299.905	324.12
300.136	336.12
300.366	348.12
300.597	330.12
300.827	323.12
301.057	339.12
301.288	328.12
301.518	342.12
301.748	328.12
301.979	335.12
302.209	326.12
302.439	327.12
302.669	324.12
302.9	336.12
303.13	342.12
303.36	315.12
303.59	353.12
303.82	336.12
304.051	356.12
304.281	341.12
304.511	344.12
304.741	315.12
304.971	338.12
305.201	324.12
305.431	337.12
305.661	343.12
305.891	345.12
306.121	336.12
306.352	354.12
306.582	346.12
306.812	341.12
307.042	346.12
307.272	351.12
307.502	335.12
307.731	329.12
307.961	338.12
308.191	338.12
308.421	345.12
308.651	344.12
308.881	345.12
309.111	336.12
309.341	338.12
309.571	357.12
309.8	360.12
310.03	351.12
310.26	367.12
310.49	352.12
310.72	372.12
310.949	377.12
311.179	392.12
311.409	380.12
311.639	363.12
311.868	375.12
312.098	375.12
312.328	361.12
312.557	378.12
312.787	388.12
313.017	403.12
313.246	402.12
313.476	368.12
313.706	368.12
313.935	377.12
314.165	378.12
314.394	389.12
314.624	373.12
314.853	383.12
315.083	364.12
315.312	380.12
315.542	372.12
315.771	374.12
316.001	370.12
316.23	377.12
316.46	383.12
316.689	392.12
316.919	393.12
317.148	382.12
317.377	393.12
317.607	376.12
317.836	370.12
318.065	376.12
318.295	378.12
318.524	361.12
318.753	378.12
318.983	380.12
319.212	390.12
319.441	377.12
319.67	386.12
319.9	370.12
320.129	367.12
320.358	384.12
320.587	371.12
320.816	390.12
321.046	404.12
321.275	387.12
321.504	398.12
321.733	390.12
321.962	396.12
322.191	406.12
322.42	414.12
322.649	412.12
322.878	418.12
323.108	411.12
323.337	457.12
323.566	443.12
323.795	464.12
324.024	486.12
324.253	578.12
324.482	769.12
324.71	1122.12
324.939	1639.12
325.168	1463.12
325.397	769.12
325.626	546.12
325.855	487.12
326.084	458.12
326.313	470.12
326.542	459.12
326.77	473.12
326.999	564.12
327.228	730.12
327.457	993.12
327.686	1288.12
327.914	867.12
328.143	602.12
328.372	545.12
328.6	540.12
328.829	508.12
329.058	524.12
329.287	518.12
329.515	496.12
329.744	462.12
329.972	474.12
330.201	479.12
330.43	493.12
330.658	538.12
330.887	544.12
331.115	530.12
331.344	504.12
331.572	463.12
331.801	470.12
332.03	471.12
332.258	467.12
332.486	447.12
332.715	462.12
332.943	461.12
333.172	451.12
333.4	479.12
333.629	474.12
333.857	498.12
334.085	503.12
334.314	504.12
334.542	531.12
334.771	534.12
334.999	484.12
335.227	484.12
335.455	469.12
335.684	468.12
335.912	467.12
336.14	454.12
336.369	452.12
336.597	481.12
336.825	470.12
337.053	440.12
337.281	450.12
337.51	456.12
337.738	453.12
337.966	453.12
338.194	445.12
338.422	437.12
338.65	455.12
338.878	440.12
339.106	450.12
339.334	420.12
339.562	420.12
339.79	447.12
340.018	452.12
340.246	414.12
340.474	448.12
340.702	426.12
340.93	434.12
341.158	431.12
341.386	454.12
341.614	425.12
341.842	451.12
342.07	438.12
342.298	422.12
342.526	440.12
342.754	424.12
342.981	432.12
343.209	439.12
343.437	448.12
343.665	438.12
343.893	462.12
344.12	469.12
344.348	460.12
344.576	453.12
344.804	468.12
345.031	461.12
345.259	459.12
345.487	440.12
345.714	440.12
345.942	420.12
346.17	440.12
346.397	424.12
346.625	423.12
346.853	444.12
347.08	404.12
347.308	406.12
347.535	421.12
347.763	415.12
347.99	422.12
348.218	407.12
348.445	436.12
348.673	415.12
348.9	433.12
349.128	446.12
349.355	406.12
349.583	407.12
349.81	421.12
350.037	424.12
350.265	411.12
350.492	420.12
350.72	425.12
350.947	425.12
351.174	411.12
351.402	419.12
351.629	433.12
351.856	419.12
352.083	440.12
352.311	439.12
352.538	444.12
352.765	425.12
352.992	422.12
353.22	444.12
353.447	421.12
353.674	416.12
353.901	394.12
354.128	418.12
354.355	416.12
354.583	421.12
354.81	420.12
355.037	414.12
355.264	417.12
355.491	414.12
355.718	406.12
355.945	416.12
356.172	411.12
356.399	399.12
356.626	401.12
356.853	411.12
357.08	419.12
357.307	411.12
357.534	409.12
357.761	411.12
357.988	395.12
358.215	399.12
358.441	394.12
358.668	410.12
358.895	397.12
359.122	416.12
359.349	397.12
359.576	432.12
359.802	412.12
360.029	455.12
360.256	459.12
360.483	447.12
360.709	429.12
360.936	439.12
361.163	435.12
361.39	420.12
361.616	424.12
361.843	421.12
362.07	436.12
362.296	438.12
362.523	438.12
362.749	416.12
362.976	410.12
363.203	433.12
363.429	419.12
363.656	420.12
363.882	424.12
364.109	409.12
364.335	400.12
364.562	402.12
364.788	403.12
365.015	427.12
365.241	422.12
365.468	403.12
365.694	421.12
365.92	415.12
366.147	404.12
366.373	417.12
366.599	418.12
366.826	414.12
367.052	427.12
367.278	417.12
367.505	411.12
367.731	411.12
367.957	426.12
368.184	423.12
368.41	416.12
368.636	432.12
368.862	438.12
369.089	424.12
369.315	418.12
369.541	422.12
369.767	421.12
369.993	425.12
370.219	409.12
370.445	419.12
370.672	421.12
370.898	430.12
371.124	419.12
371.35	435.12
371.576	422.12
371.802	434.12
372.028	450.12
372.254	432.12
372.48	416.12
372.706	409.12
372.932	408.12
373.158	424.12
373.384	424.12
373.61	451.12
373.835	438.12
374.061	445.12
374.287	443.12
374.513	424.12
374.739	449.12
374.965	440.12
375.191	459.12
375.416	433.12
375.642	440.12
375.868	447.12
376.094	408.12
376.319	432.12
376.545	432.12
376.771	432.12
376.997	426.12
377.222	441.12
377.448	438.12
377.674	416.12
377.899	425.12
378.125	425.12
378.35	426.12
378.576	431.12
378.802	427.12
379.027	439.12
379.253	416.12
379.478	446.12
379.704	461.12
379.929	420.12
380.155	418.12
380.38	434.12
380.606	432.12
380.831	435.12
381.057	445.12
381.282	432.12
381.507	448.12
381.733	442.12
381.958	425.12
382.184	425.12
382.409	435.12
382.634	450.12
382.86	438.12
383.085	463.12
383.31	464.12
383.535	458.12
383.761	438.12
383.986	462.12
384.211	483.12
384.436	447.12
384.662	455.12
384.887	473.12
385.112	468.12
385.337	467.12
385.562	478.12
385.787	464.12
386.013	497.12
386.238	500.12
386.463	485.12
386.688	502.12
386.913	480.12
387.138	487.12
387.363	481.12
387.588	471.12
387.813	478.12
388.038	452.12
388.263	460.12
388.488	486.12
388.713	462.12
388.938	468.12
389.163	476.12
389.387	479.12
389.612	470.12
389.837	472.12
390.062	458.12
390.287	495.12
390.512	482.12
390.736	475.12
390.961	487.12
391.186	496.12
391.411	482.12
391.636	486.12
391.86	495.12
392.085	528.12
392.31	511.12
392.534	524.12
392.759	491.12
392.984	484.12
393.208	491.12
393.433	479.12
393.658	499.12
393.882	483.12
394.107	473.12
394.331	487.12
394.556	500.12
394.78	502.12
395.005	492.12
395.229	483.12
395.454	504.12
395.678	508.12
395.903	520.12
396.127	524.12
396.352	538.12
396.576	511.12
396.801	501.12
397.025	489.12
397.249	532.12
397.474	531.12
397.698	532.12
397.922	542.12
398.147	540.12
398.371	551.12
398.595	539.12
398.82	539.12
399.044	568.12
399.268	635.12
399.492	666.12
399.717	680.12
399.941	693.12
400.165	704.12
400.389	711.12
400.613	631.12
400.837	609.12
401.062	598.12
401.286	563.12
401.51	576.12
401.734	595.12
401.958	564.12
402.182	567.12
402.406	564.12
402.63	592.12
402.854	570.12
403.078	601.12
403.302	617.12
403.526	584.12
403.75	590.12
403.974	600.12
404.198	576.12
404.422	594.12
404.645	597.12
404.869	594.12
405.093	662.12
405.317	650.12
405.541	715.12
405.765	672.12
405.988	623.12
406.212	616.12
406.436	611.12
406.66	665.12
406.883	626.12
407.107	633.12
407.331	699.12
407.555	786.12
407.778	778.12
408.002	704.12
408.226	661.12
408.449	661.12
408.673	630.12
408.896	667.12
409.12	720.12
409.344	663.12
409.567	615.12
409.791	596.12
410.014	612.12
410.238	583.12
410.461	601.12
410.685	593.12
410.908	588.12
411.132	656.12
411.355	657.12
411.578	643.12
411.802	608.12
412.025	576.12
412.249	609.12
412.472	617.12
412.695	660.12
412.919	635.12
413.142	605.12
413.365	591.12
413.589	562.12
413.812	585.12
414.035	594.12
414.258	566.12
414.482	556.12
414.705	551.12
414.928	585.12
415.151	541.12
415.374	547.12
415.597	561.12
415.821	567.12
416.044	562.12
416.267	561.12
416.49	551.12
416.713	542.12
416.936	568.12
417.159	550.12
417.382	579.12
417.605	567.12
417.828	579.12
418.051	586.12
418.274	578.12
418.497	568.12
418.72	565.12
418.943	559.12
419.166	587.12
419.389	641.12
419.611	613.12
419.834	593.12
420.057	585.12
420.28	584.12
420.503	581.12
420.726	585.12
420.948	589.12
421.171	617.12
421.394	652.12
421.617	608.12
421.839	576.12
422.062	596.12
422.285	563.12
422.507	645.12
422.73	729.12
422.953	685.12
423.175	628.12
423.398	607.12
423.621	624.12
423.843	649.12
424.066	636.12
424.288	609.12
424.511	642.12
424.733	680.12
424.956	768.12
425.178	744.12
425.401	710.12
425.623	734.12
425.846	673.12
426.068	622.12
426.291	595.12
426.513	596.12
426.735	604.12
426.958	650.12
427.18	700.12
427.402	841.12
427.625	936.12
427.847	795.12
428.069	712.12
428.292	642.12
428.514	586.12
428.736	562.12
428.958	574.12
429.181	571.12
429.403	544.12
429.625	566.12
429.847	613.12
430.069	656.12
430.292	653.12
430.514	568.12
430.736	572.12
430.958	565.12
431.18	527.12
431.402	537.12
431.624	522.12
431.846	536.12
432.068	513.12
432.29	541.12
432.512	541.12
432.734	571.12
432.956	552.12
433.178	560.12
433.4	554.12
433.622	558.12
433.844	548.12
434.066	552.12
434.287	529.12
434.509	550.12
434.731	545.12
434.953	581.12
435.175	596.12
435.397	622.12
435.618	594.12
435.84	643.12
436.062	750.12
436.284	800.12
436.505	649.12
436.727	609.12
436.949	582.12
437.17	574.12
437.392	535.12
437.614	578.12
437.835	607.12
438.057	656.12
438.278	812.12
438.5	768.12
438.721	888.12
438.943	835.12
439.165	657.12
439.386	637.12
439.608	606.12
439.829	606.12
440.05	632.12
440.272	663.12
440.493	626.12
440.715	558.12
440.936	562.12
441.158	569.12
441.379	574.12
441.6	606.12
441.822	591.12
442.043	640.12
442.264	736.12
442.486	771.12
442.707	672.12
442.928	631.12
443.149	611.12
443.371	657.12
443.592	684.12
443.813	783.12
444.034	846.12
444.255	716.12
444.476	650.12
444.698	643.12
444.919	631.12
445.14	728.12
445.361	695.12
445.582	669.12
445.803	696.12
446.024	779.12
446.245	823.12
446.466	743.12
446.687	622.12
446.908	611.12
447.129	573.12
447.35	582.12
447.571	548.12
447.792	552.12
448.013	553.12
448.234	576.12
448.455	621.12
448.675	700.12
448.896	861.12
449.117	710.12
449.338	669.12
449.559	774.12
449.779	897.12
450	714.12
450.221	587.12
450.442	565.12
450.662	533.12
450.883	533.12
451.104	560.12
451.324	524.12
451.545	535.12
451.766	514.12
451.986	497.12
452.207	481.12
452.428	496.12
452.648	498.12
452.869	480.12
453.089	484.12
453.31	522.12
453.53	509.12
453.751	476.12
453.971	503.12
454.192	499.12
454.412	510.12
454.633	525.12
454.853	504.12
455.073	494.12
455.294	535.12
455.514	596.12
455.734	542.12
455.955	510.12
456.175	490.12
456.395	479.12
456.616	479.12
456.836	456.12
457.056	468.12
457.276	465.12
457.497	483.12
457.717	492.12
457.937	498.12
458.157	463.12
458.377	491.12
458.598	514.12
458.818	544.12
459.038	615.12
459.258	657.12
459.478	542.12
459.698	547.12
459.918	524.12
460.138	545.12
460.358	526.12
460.578	568.12
460.798	567.12
461.018	569.12
461.238	561.12
461.458	564.12
461.678	569.12
461.898	559.12
462.118	547.12
462.338	578.12
462.558	579.12
462.777	611.12
462.997	635.12
463.217	665.12
463.437	659.12
463.657	641.12
463.876	600.12
464.096	610.12
464.316	647.12
464.536	602.12
464.755	588.12
464.975	626.12
465.195	606.12
465.414	674.12
465.634	614.12
465.854	597.12
466.073	551.12
466.293	524.12
466.512	538.12
466.732	540.12
466.951	517.12
467.171	535.12
467.391	525.12
467.61	531.12
467.829	529.12
468.049	528.12
468.268	508.12
468.488	521.12
468.707	508.12
468.927	512.12
469.146	502.12
469.365	498.12
469.585	510.12
469.804	507.12
470.023	519.12
470.243	523.12
470.462	516.12
470.681	552.12
470.901	559.12
471.12	522.12
471.339	516.12
471.558	538.12
471.777	544.12
471.997	508.12
472.216	516.12
472.435	535.12
472.654	555.12
472.873	523.12
473.092	509.12
473.311	511.12
473.53	539.12
473.749	537.12
473.968	576.12
474.187	640.12
474.406	657.12
474.625	564.12
474.844	538.12
475.063	532.12
475.282	523.12
475.501	538.12
475.72	545.12
475.939	548.12
476.158	515.12
476.377	540.12
476.596	535.12
476.814	566.12
477.033	566.12
477.252	562.12
477.471	542.12
477.69	559.12
477.908	584.12
478.127	586.12
478.346	585.12
478.564	599.12
478.783	588.12
479.002	627.12
479.22	610.12
479.439	606.12
479.658	597.12
479.876	610.12
480.095	629.12
480.313	654.12
480.532	658.12
480.751	668.12
480.969	655.12
481.188	693.12
481.406	709.12
481.624	643.12
481.843	656.12
482.061	635.12
482.28	631.12
482.498	590.12
482.717	586.12
482.935	601.12
483.153	616.12
483.372	627.12
483.59	615.12
483.808	636.12
484.027	592.12
484.245	611.12
484.463	611.12
484.681	635.12
484.9	632.12
485.118	619.12
485.336	648.12
485.554	601.12
485.772	646.12
485.99	644.12
486.209	633.12
486.427	646.12
486.645	647.12
486.863	652.12
487.081	650.12
487.299	667.12
487.517	675.12
487.735	657.12
487.953	642.12
488.171	636.12
488.389	668.12
488.607	655.12
488.825	675.12
489.043	670.12
489.261	667.12
489.479	643.12
489.696	665.12
489.914	692.12
490.132	678.12
490.35	702.12
490.568	714.12
490.786	709.12
491.003	707.12
491.221	732.12
491.439	723.12
491.657	759.12
491.874	780.12
492.092	757.12
492.31	766.12
492.527	793.12
492.745	769.12
492.963	776.12
493.18	777.12
493.398	778.12
493.615	773.12
493.833	774.12
494.05	796.12
494.268	772.12
494.485	755.12
494.703	786.12
494.92	758.12
495.138	800.12
495.355	794.12
495.573	793.12
495.79	770.12
496.008	792.12
496.225	790.12
496.442	804.12
496.66	812.12
496.877	782.12
497.094	772.12
497.312	822.12
497.529	805.12
497.746	827.12
497.963	840.12
498.181	863.12
498.398	867.12
498.615	898.12
498.832	918.12
499.049	933.12
499.267	978.12
499.484	1022.12
499.701	1043.12
499.918	1123.12
500.135	1173.12
500.352	1227.12
500.569	1288.12
500.786	1250.12
501.003	1259.12
501.22	1198.12
501.437	1160.12
501.654	1110.12
