Data from 1974.PennyLincolnUp.Lamp.En5.5.200Scan.071719.P1.Changed Mount._HRD10591_15-53-31-857.txt Node
Date: Thu Jul 18 15:53:31 EDT 2019
User: cochatt
Spectrometer: HR+D1059
Trigger mode: 1
Integration Time (sec): 1.000000E-1
Scans to average: 1
Electric dark correction enabled: true
Nonlinearity correction enabled: false
Boxcar width: 0
XAxis mode: Wavelengths
Number of Pixels in Spectrum: 2048
>>>>>Begin Spectral Data<<<<<
223.165	-12.31
223.4	-12.31
223.635	-12.31
223.869	-29.31
224.104	-11.31
224.338	-22.31
224.573	-13.31
224.808	-19.31
225.042	-10.31
225.277	-10.31
225.511	-3.31
225.746	7.69
225.98	6.69
226.215	19.69
226.449	23.69
226.683	21.69
226.918	32.69
227.152	19.69
227.387	32.69
227.621	40.69
227.856	42.69
228.09	42.69
228.324	67.69
228.559	59.69
228.793	73.69
229.027	87.69
229.262	113.69
229.496	116.69
229.73	129.69
229.964	157.69
230.199	135.69
230.433	140.69
230.667	123.69
230.901	108.69
231.136	113.69
231.37	108.69
231.604	103.69
231.838	121.69
232.072	123.69
232.306	114.69
232.541	125.69
232.775	123.69
233.009	115.69
233.243	107.69
233.477	122.69
233.711	105.69
233.945	111.69
234.179	114.69
234.413	139.69
234.647	116.69
234.881	114.69
235.115	112.69
235.349	127.69
235.583	125.69
235.817	130.69
236.051	124.69
236.285	123.69
236.519	127.69
236.753	129.69
236.987	144.69
237.221	186.69
237.455	225.69
237.689	184.69
237.922	165.69
238.156	128.69
238.39	135.69
238.624	133.69
238.858	124.69
239.091	127.69
239.325	133.69
239.559	146.69
239.793	125.69
240.027	129.69
240.26	140.69
240.494	149.69
240.728	155.69
240.961	167.69
241.195	154.69
241.429	153.69
241.662	143.69
241.896	148.69
242.13	148.69
242.363	147.69
242.597	133.69
242.83	149.69
243.064	127.69
243.298	151.69
243.531	139.69
243.765	149.69
243.998	136.69
244.232	169.69
244.465	149.69
244.699	154.69
244.932	161.69
245.166	153.69
245.399	149.69
245.633	159.69
245.866	140.69
246.099	157.69
246.333	150.69
246.566	153.69
246.8	149.69
247.033	178.69
247.266	177.69
247.5	181.69
247.733	155.69
247.966	183.69
248.2	179.69
248.433	204.69
248.666	190.69
248.899	187.69
249.133	224.69
249.366	209.69
249.599	197.69
249.832	188.69
250.066	189.69
250.299	175.69
250.532	190.69
250.765	196.69
250.998	235.69
251.231	247.69
251.465	227.69
251.698	222.69
251.931	220.69
252.164	196.69
252.397	217.69
252.63	196.69
252.863	200.69
253.096	216.69
253.329	236.69
253.562	239.69
253.795	223.69
254.028	217.69
254.261	227.69
254.494	241.69
254.727	251.69
254.96	282.69
255.193	267.69
255.426	258.69
255.659	221.69
255.892	255.69
256.124	243.69
256.357	243.69
256.59	237.69
256.823	250.69
257.056	248.69
257.289	219.69
257.521	235.69
257.754	232.69
257.987	219.69
258.22	232.69
258.452	227.69
258.685	217.69
258.918	203.69
259.151	218.69
259.383	227.69
259.616	224.69
259.849	223.69
260.081	253.69
260.314	261.69
260.547	268.69
260.779	255.69
261.012	243.69
261.244	247.69
261.477	226.69
261.71	238.69
261.942	238.69
262.175	248.69
262.407	263.69
262.64	230.69
262.872	215.69
263.105	229.69
263.337	226.69
263.57	255.69
263.802	230.69
264.035	210.69
264.267	223.69
264.499	228.69
264.732	241.69
264.964	217.69
265.197	219.69
265.429	228.69
265.661	212.69
265.894	242.69
266.126	255.69
266.358	239.69
266.591	242.69
266.823	229.69
267.055	240.69
267.287	222.69
267.52	255.69
267.752	256.69
267.984	249.69
268.216	259.69
268.448	251.69
268.681	260.69
268.913	261.69
269.145	281.69
269.377	277.69
269.609	320.69
269.841	295.69
270.073	299.69
270.306	307.69
270.538	317.69
270.77	339.69
271.002	317.69
271.234	301.69
271.466	309.69
271.698	333.69
271.93	328.69
272.162	326.69
272.394	355.69
272.626	309.69
272.858	291.69
273.09	300.69
273.322	281.69
273.553	283.69
273.785	268.69
274.017	265.69
274.249	274.69
274.481	268.69
274.713	277.69
274.945	282.69
275.176	285.69
275.408	287.69
275.64	291.69
275.872	275.69
276.104	284.69
276.335	294.69
276.567	275.69
276.799	310.69
277.031	319.69
277.262	320.69
277.494	344.69
277.726	319.69
277.957	311.69
278.189	310.69
278.421	301.69
278.652	291.69
278.884	303.69
279.115	274.69
279.347	290.69
279.579	285.69
279.81	301.69
280.042	276.69
280.273	304.69
280.505	279.69
280.736	283.69
280.968	284.69
281.199	290.69
281.431	288.69
281.662	289.69
281.894	293.69
282.125	281.69
282.356	321.69
282.588	315.69
282.819	325.69
283.051	295.69
283.282	289.69
283.513	307.69
283.745	292.69
283.976	295.69
284.207	305.69
284.439	312.69
284.67	298.69
284.901	307.69
285.132	294.69
285.364	303.69
285.595	330.69
285.826	306.69
286.057	313.69
286.288	299.69
286.52	323.69
286.751	292.69
286.982	310.69
287.213	305.69
287.444	331.69
287.675	312.69
287.906	324.69
288.138	331.69
288.369	330.69
288.6	345.69
288.831	317.69
289.062	311.69
289.293	309.69
289.524	325.69
289.755	338.69
289.986	325.69
290.217	325.69
290.448	319.69
290.679	312.69
290.91	323.69
291.141	325.69
291.371	340.69
291.602	321.69
291.833	301.69
292.064	306.69
292.295	324.69
292.526	310.69
292.757	327.69
292.987	303.69
293.218	326.69
293.449	324.69
293.68	321.69
293.91	331.69
294.141	316.69
294.372	323.69
294.603	305.69
294.833	351.69
295.064	333.69
295.295	319.69
295.525	323.69
295.756	319.69
295.987	341.69
296.217	347.69
296.448	332.69
296.679	327.69
296.909	339.69
297.14	343.69
297.37	335.69
297.601	329.69
297.831	325.69
298.062	330.69
298.292	336.69
298.523	335.69
298.753	338.69
298.984	348.69
299.214	348.69
299.445	340.69
299.675	348.69
299.905	329.69
300.136	344.69
300.366	339.69
300.597	343.69
300.827	346.69
301.057	358.69
301.288	370.69
301.518	347.69
301.748	349.69
301.979	352.69
302.209	368.69
302.439	352.69
302.669	356.69
302.9	343.69
303.13	349.69
303.36	373.69
303.59	375.69
303.82	362.69
304.051	369.69
304.281	369.69
304.511	352.69
304.741	351.69
304.971	356.69
305.201	353.69
305.431	363.69
305.661	348.69
305.891	358.69
306.121	377.69
306.352	357.69
306.582	358.69
306.812	356.69
307.042	383.69
307.272	367.69
307.502	371.69
307.731	357.69
307.961	348.69
308.191	362.69
308.421	365.69
308.651	371.69
308.881	377.69
309.111	365.69
309.341	375.69
309.571	383.69
309.8	377.69
310.03	383.69
310.26	387.69
310.49	375.69
310.72	403.69
310.949	411.69
311.179	412.69
311.409	412.69
311.639	388.69
311.868	405.69
312.098	405.69
312.328	416.69
312.557	404.69
312.787	422.69
313.017	431.69
313.246	418.69
313.476	410.69
313.706	417.69
313.935	414.69
314.165	417.69
314.394	431.69
314.624	401.69
314.853	403.69
315.083	408.69
315.312	417.69
315.542	400.69
315.771	389.69
316.001	412.69
316.23	390.69
316.46	394.69
316.689	408.69
316.919	391.69
317.148	422.69
317.377	404.69
317.607	407.69
317.836	407.69
318.065	389.69
318.295	397.69
318.524	401.69
318.753	419.69
318.983	423.69
319.212	414.69
319.441	420.69
319.67	415.69
319.9	413.69
320.129	421.69
320.358	419.69
320.587	417.69
320.816	431.69
321.046	412.69
321.275	453.69
321.504	422.69
321.733	431.69
321.962	439.69
322.191	451.69
322.42	455.69
322.649	474.69
322.878	482.69
323.108	457.69
323.337	493.69
323.566	490.69
323.795	498.69
324.024	542.69
324.253	636.69
324.482	873.69
324.71	1305.69
324.939	1929.69
325.168	1707.69
325.397	913.69
325.626	631.69
325.855	545.69
326.084	503.69
326.313	516.69
326.542	519.69
326.77	535.69
326.999	632.69
327.228	793.69
327.457	1156.69
327.686	1469.69
327.914	994.69
328.143	664.69
328.372	602.69
328.6	563.69
328.829	559.69
329.058	556.69
329.287	567.69
329.515	559.69
329.744	544.69
329.972	533.69
330.201	544.69
330.43	576.69
330.658	589.69
330.887	607.69
331.115	616.69
331.344	536.69
331.572	535.69
331.801	512.69
332.03	509.69
332.258	508.69
332.486	505.69
332.715	479.69
332.943	507.69
333.172	500.69
333.4	521.69
333.629	518.69
333.857	515.69
334.085	519.69
334.314	556.69
334.542	547.69
334.771	559.69
334.999	540.69
335.227	528.69
335.455	495.69
335.684	495.69
335.912	489.69
336.14	507.69
336.369	480.69
336.597	486.69
336.825	506.69
337.053	507.69
337.281	492.69
337.51	473.69
337.738	477.69
337.966	482.69
338.194	482.69
338.422	491.69
338.65	495.69
338.878	482.69
339.106	465.69
339.334	475.69
339.562	470.69
339.79	469.69
340.018	467.69
340.246	474.69
340.474	481.69
340.702	480.69
340.93	485.69
341.158	482.69
341.386	482.69
341.614	482.69
341.842	464.69
342.07	482.69
342.298	466.69
342.526	454.69
342.754	457.69
342.981	462.69
343.209	448.69
343.437	487.69
343.665	482.69
343.893	485.69
344.12	486.69
344.348	469.69
344.576	483.69
344.804	490.69
345.031	495.69
345.259	489.69
345.487	488.69
345.714	474.69
345.942	473.69
346.17	460.69
346.397	470.69
346.625	464.69
346.853	445.69
347.08	452.69
347.308	446.69
347.535	487.69
347.763	480.69
347.99	440.69
348.218	458.69
348.445	462.69
348.673	472.69
348.9	453.69
349.128	465.69
349.355	456.69
349.583	465.69
349.81	436.69
350.037	441.69
350.265	454.69
350.492	454.69
350.72	431.69
350.947	408.69
351.174	443.69
351.402	464.69
351.629	468.69
351.856	438.69
352.083	470.69
352.311	491.69
352.538	452.69
352.765	477.69
352.992	451.69
353.22	456.69
353.447	474.69
353.674	446.69
353.901	427.69
354.128	441.69
354.355	428.69
354.583	441.69
354.81	442.69
355.037	419.69
355.264	431.69
355.491	415.69
355.718	442.69
355.945	449.69
356.172	424.69
356.399	421.69
356.626	445.69
356.853	416.69
357.08	440.69
357.307	425.69
357.534	431.69
357.761	425.69
357.988	421.69
358.215	449.69
358.441	447.69
358.668	442.69
358.895	433.69
359.122	439.69
359.349	460.69
359.576	454.69
359.802	445.69
360.029	507.69
360.256	518.69
360.483	484.69
360.709	457.69
360.936	465.69
361.163	461.69
361.39	447.69
361.616	473.69
361.843	460.69
362.07	462.69
362.296	471.69
362.523	468.69
362.749	459.69
362.976	443.69
363.203	476.69
363.429	472.69
363.656	438.69
363.882	446.69
364.109	444.69
364.335	438.69
364.562	447.69
364.788	448.69
365.015	433.69
365.241	437.69
365.468	449.69
365.694	456.69
365.92	460.69
366.147	423.69
366.373	454.69
366.599	426.69
366.826	442.69
367.052	439.69
367.278	457.69
367.505	460.69
367.731	438.69
367.957	439.69
368.184	429.69
368.41	448.69
368.636	460.69
368.862	464.69
369.089	438.69
369.315	434.69
369.541	436.69
369.767	464.69
369.993	467.69
370.219	448.69
370.445	460.69
370.672	448.69
370.898	453.69
371.124	471.69
371.35	436.69
371.576	455.69
371.802	466.69
372.028	449.69
372.254	429.69
372.48	446.69
372.706	467.69
372.932	445.69
373.158	443.69
373.384	462.69
373.61	455.69
373.835	448.69
374.061	449.69
374.287	451.69
374.513	466.69
374.739	480.69
374.965	491.69
375.191	451.69
375.416	488.69
375.642	475.69
375.868	478.69
376.094	450.69
376.319	436.69
376.545	475.69
376.771	452.69
376.997	456.69
377.222	445.69
377.448	440.69
377.674	438.69
377.899	449.69
378.125	443.69
378.35	468.69
378.576	443.69
378.802	450.69
379.027	439.69
379.253	450.69
379.478	456.69
379.704	471.69
379.929	455.69
380.155	460.69
380.38	451.69
380.606	446.69
380.831	437.69
381.057	492.69
381.282	458.69
381.507	480.69
381.733	469.69
381.958	472.69
382.184	447.69
382.409	460.69
382.634	461.69
382.86	459.69
383.085	469.69
383.31	483.69
383.535	467.69
383.761	488.69
383.986	482.69
384.211	512.69
384.436	467.69
384.662	518.69
384.887	492.69
385.112	500.69
385.337	523.69
385.562	502.69
385.787	504.69
386.013	512.69
386.238	528.69
386.463	509.69
386.688	513.69
386.913	514.69
387.138	482.69
387.363	502.69
387.588	499.69
387.813	517.69
388.038	528.69
388.263	520.69
388.488	517.69
388.713	509.69
388.938	515.69
389.163	515.69
389.387	504.69
389.612	522.69
389.837	503.69
390.062	514.69
390.287	513.69
390.512	509.69
390.736	511.69
390.961	519.69
391.186	533.69
391.411	521.69
391.636	519.69
391.86	533.69
392.085	529.69
392.31	532.69
392.534	533.69
392.759	541.69
392.984	529.69
393.208	518.69
393.433	530.69
393.658	520.69
393.882	517.69
394.107	510.69
394.331	521.69
394.556	533.69
394.78	537.69
395.005	545.69
395.229	529.69
395.454	539.69
395.678	535.69
395.903	563.69
396.127	571.69
396.352	560.69
396.576	544.69
396.801	543.69
397.025	547.69
397.249	555.69
397.474	565.69
397.698	573.69
397.922	567.69
398.147	579.69
398.371	576.69
398.595	591.69
398.82	597.69
399.044	596.69
399.268	627.69
399.492	681.69
399.717	705.69
399.941	745.69
400.165	741.69
400.389	748.69
400.613	682.69
400.837	632.69
401.062	633.69
401.286	605.69
401.51	611.69
401.734	618.69
401.958	604.69
402.182	625.69
402.406	624.69
402.63	637.69
402.854	603.69
403.078	620.69
403.302	613.69
403.526	643.69
403.75	649.69
403.974	605.69
404.198	635.69
404.422	648.69
404.645	617.69
404.869	657.69
405.093	675.69
405.317	716.69
405.541	730.69
405.765	673.69
405.988	670.69
406.212	660.69
406.436	683.69
406.66	691.69
406.883	664.69
407.107	709.69
407.331	759.69
407.555	843.69
407.778	835.69
408.002	754.69
408.226	712.69
408.449	733.69
408.673	658.69
408.896	707.69
409.12	770.69
409.344	720.69
409.567	663.69
409.791	663.69
410.014	639.69
410.238	612.69
410.461	633.69
410.685	619.69
410.908	645.69
411.132	681.69
411.355	726.69
411.578	694.69
411.802	629.69
412.025	606.69
412.249	631.69
412.472	654.69
412.695	682.69
412.919	665.69
413.142	609.69
413.365	625.69
413.589	613.69
413.812	605.69
414.035	593.69
414.258	609.69
414.482	577.69
414.705	594.69
414.928	585.69
415.151	595.69
415.374	582.69
415.597	591.69
415.821	600.69
416.044	586.69
416.267	599.69
416.49	572.69
416.713	583.69
416.936	555.69
417.159	587.69
417.382	605.69
417.605	600.69
417.828	607.69
418.051	612.69
418.274	614.69
418.497	602.69
418.72	621.69
418.943	578.69
419.166	601.69
419.389	675.69
419.611	655.69
419.834	639.69
420.057	639.69
420.28	639.69
420.503	603.69
420.726	613.69
420.948	644.69
421.171	672.69
421.394	700.69
421.617	634.69
421.839	618.69
422.062	615.69
422.285	630.69
422.507	682.69
422.73	755.69
422.953	740.69
423.175	648.69
423.398	671.69
423.621	621.69
423.843	660.69
424.066	685.69
424.288	668.69
424.511	681.69
424.733	709.69
424.956	825.69
425.178	779.69
425.401	742.69
425.623	811.69
425.846	675.69
426.068	635.69
426.291	624.69
426.513	639.69
426.735	672.69
426.958	706.69
427.18	773.69
427.402	911.69
427.625	995.69
427.847	863.69
428.069	725.69
428.292	691.69
428.514	623.69
428.736	623.69
428.958	618.69
429.181	588.69
429.403	602.69
429.625	613.69
429.847	630.69
430.069	716.69
430.292	721.69
430.514	634.69
430.736	598.69
430.958	573.69
431.18	609.69
431.402	572.69
431.624	564.69
431.846	547.69
432.068	580.69
432.29	599.69
432.512	581.69
432.734	592.69
432.956	603.69
433.178	588.69
433.4	585.69
433.622	586.69
433.844	575.69
434.066	580.69
434.287	586.69
434.509	599.69
434.731	596.69
434.953	584.69
435.175	634.69
435.397	662.69
435.618	671.69
435.84	675.69
436.062	775.69
436.284	856.69
436.505	720.69
436.727	685.69
436.949	630.69
437.17	617.69
437.392	567.69
437.614	588.69
437.835	638.69
438.057	741.69
438.278	848.69
438.5	812.69
438.721	894.69
438.943	886.69
439.165	728.69
439.386	661.69
439.608	676.69
439.829	634.69
440.05	680.69
440.272	725.69
440.493	675.69
440.715	648.69
440.936	636.69
441.158	605.69
441.379	595.69
441.6	656.69
441.822	617.69
442.043	675.69
442.264	791.69
442.486	833.69
442.707	707.69
442.928	668.69
443.149	678.69
443.371	670.69
443.592	731.69
443.813	852.69
444.034	913.69
444.255	760.69
444.476	693.69
444.698	683.69
444.919	687.69
445.14	763.69
445.361	704.69
445.582	696.69
445.803	751.69
446.024	857.69
446.245	844.69
446.466	768.69
446.687	683.69
446.908	641.69
447.129	623.69
447.35	614.69
447.571	611.69
447.792	595.69
448.013	602.69
448.234	613.69
448.455	679.69
448.675	801.69
448.896	910.69
449.117	770.69
449.338	716.69
449.559	832.69
449.779	920.69
450	752.69
450.221	645.69
450.442	600.69
450.662	569.69
450.883	591.69
451.104	597.69
451.324	575.69
451.545	559.69
451.766	571.69
451.986	539.69
452.207	540.69
452.428	528.69
452.648	538.69
452.869	557.69
453.089	516.69
453.31	559.69
453.53	546.69
453.751	529.69
453.971	533.69
454.192	570.69
454.412	532.69
454.633	529.69
454.853	522.69
455.073	519.69
455.294	547.69
455.514	603.69
455.734	597.69
455.955	523.69
456.175	506.69
456.395	491.69
456.616	510.69
456.836	497.69
457.056	501.69
457.276	492.69
457.497	508.69
457.717	513.69
457.937	502.69
458.157	513.69
458.377	521.69
458.598	538.69
458.818	594.69
459.038	660.69
459.258	710.69
459.478	604.69
459.698	579.69
459.918	578.69
460.138	581.69
460.358	581.69
460.578	593.69
460.798	593.69
461.018	593.69
461.238	594.69
461.458	594.69
461.678	588.69
461.898	597.69
462.118	599.69
462.338	603.69
462.558	615.69
462.777	641.69
462.997	657.69
463.217	680.69
463.437	672.69
463.657	669.69
463.876	636.69
464.096	661.69
464.316	628.69
464.536	635.69
464.755	648.69
464.975	627.69
465.195	627.69
465.414	711.69
465.634	644.69
465.854	607.69
466.073	571.69
466.293	569.69
466.512	564.69
466.732	583.69
466.951	563.69
467.171	580.69
467.391	553.69
467.61	555.69
467.829	583.69
468.049	573.69
468.268	521.69
468.488	544.69
468.707	533.69
468.927	541.69
469.146	549.69
469.365	547.69
469.585	544.69
469.804	562.69
470.023	551.69
470.243	545.69
470.462	575.69
470.681	591.69
470.901	599.69
471.12	552.69
471.339	559.69
471.558	562.69
471.777	573.69
471.997	554.69
472.216	544.69
472.435	575.69
472.654	556.69
472.873	555.69
473.092	538.69
473.311	543.69
473.53	528.69
473.749	554.69
473.968	612.69
474.187	677.69
474.406	707.69
474.625	624.69
474.844	575.69
475.063	556.69
475.282	555.69
475.501	572.69
475.72	582.69
475.939	569.69
476.158	573.69
476.377	592.69
476.596	579.69
476.814	567.69
477.033	569.69
477.252	568.69
477.471	586.69
477.69	596.69
477.908	607.69
478.127	604.69
478.346	623.69
478.564	627.69
478.783	643.69
479.002	643.69
479.22	629.69
479.439	669.69
479.658	656.69
479.876	700.69
480.095	664.69
480.313	706.69
480.532	706.69
480.751	704.69
480.969	664.69
481.188	722.69
481.406	750.69
481.624	671.69
481.843	695.69
482.061	661.69
482.28	655.69
482.498	660.69
482.717	655.69
482.935	643.69
483.153	670.69
483.372	640.69
483.59	674.69
483.808	645.69
484.027	647.69
484.245	653.69
484.463	658.69
484.681	662.69
484.9	680.69
485.118	673.69
485.336	689.69
485.554	677.69
485.772	668.69
485.99	669.69
486.209	663.69
486.427	680.69
486.645	689.69
486.863	716.69
487.081	695.69
487.299	720.69
487.517	694.69
487.735	684.69
487.953	703.69
488.171	688.69
488.389	720.69
488.607	716.69
488.825	696.69
489.043	707.69
489.261	716.69
489.479	718.69
489.696	696.69
489.914	745.69
490.132	737.69
490.35	744.69
490.568	768.69
490.786	725.69
491.003	769.69
491.221	787.69
491.439	800.69
491.657	778.69
491.874	819.69
492.092	801.69
492.31	805.69
492.527	818.69
492.745	799.69
492.963	812.69
493.18	827.69
493.398	828.69
493.615	859.69
493.833	831.69
494.05	817.69
494.268	812.69
494.485	853.69
494.703	854.69
494.92	832.69
495.138	812.69
495.355	829.69
495.573	857.69
495.79	850.69
496.008	853.69
496.225	856.69
496.442	827.69
496.66	845.69
496.877	867.69
497.094	863.69
497.312	856.69
497.529	851.69
497.746	867.69
497.963	910.69
498.181	909.69
498.398	923.69
498.615	959.69
498.832	978.69
499.049	986.69
499.267	1041.69
499.484	1063.69
499.701	1151.69
499.918	1197.69
500.135	1220.69
500.352	1328.69
500.569	1345.69
500.786	1346.69
501.003	1322.69
501.22	1238.69
501.437	1192.69
501.654	1137.69
