Data from 1974.PennyLincolnUp.Lamp.En5.5.200Scan.071719.P1.Changed Mount._HRD10591_15-52-33-857.txt Node
Date: Thu Jul 18 15:52:33 EDT 2019
User: cochatt
Spectrometer: HR+D1059
Trigger mode: 1
Integration Time (sec): 1.000000E-1
Scans to average: 1
Electric dark correction enabled: true
Nonlinearity correction enabled: false
Boxcar width: 0
XAxis mode: Wavelengths
Number of Pixels in Spectrum: 2048
>>>>>Begin Spectral Data<<<<<
223.165	-16.44
223.4	-16.44
223.635	-16.44
223.869	-8.44
224.104	-10.44
224.338	-10.44
224.573	-19.44
224.808	-13.44
225.042	-2.44
225.277	0.56
225.511	-1.44
225.746	-7.44
225.98	-14.44
226.215	22.56
226.449	16.56
226.683	22.56
226.918	16.56
227.152	25.56
227.387	45.56
227.621	32.56
227.856	24.56
228.09	43.56
228.324	44.56
228.559	51.56
228.793	60.56
229.027	97.56
229.262	104.56
229.496	113.56
229.73	127.56
229.964	160.56
230.199	148.56
230.433	122.56
230.667	121.56
230.901	107.56
231.136	116.56
231.37	112.56
231.604	115.56
231.838	112.56
232.072	120.56
232.306	119.56
232.541	111.56
232.775	116.56
233.009	110.56
233.243	122.56
233.477	140.56
233.711	114.56
233.945	115.56
234.179	121.56
234.413	129.56
234.647	114.56
234.881	122.56
235.115	123.56
235.349	131.56
235.583	128.56
235.817	127.56
236.051	124.56
236.285	122.56
236.519	125.56
236.753	126.56
236.987	143.56
237.221	179.56
237.455	218.56
237.689	205.56
237.922	138.56
238.156	142.56
238.39	137.56
238.624	127.56
238.858	132.56
239.091	126.56
239.325	115.56
239.559	120.56
239.793	125.56
240.027	153.56
240.26	133.56
240.494	155.56
240.728	167.56
240.961	174.56
241.195	133.56
241.429	140.56
241.662	137.56
241.896	117.56
242.13	146.56
242.363	136.56
242.597	134.56
242.83	147.56
243.064	141.56
243.298	135.56
243.531	153.56
243.765	142.56
243.998	139.56
244.232	140.56
244.465	148.56
244.699	158.56
244.932	155.56
245.166	163.56
245.399	170.56
245.633	160.56
245.866	154.56
246.099	154.56
246.333	155.56
246.566	154.56
246.8	148.56
247.033	163.56
247.266	162.56
247.5	170.56
247.733	186.56
247.966	181.56
248.2	178.56
248.433	167.56
248.666	176.56
248.899	194.56
249.133	209.56
249.366	225.56
249.599	218.56
249.832	168.56
250.066	184.56
250.299	196.56
250.532	208.56
250.765	220.56
250.998	219.56
251.231	235.56
251.465	224.56
251.698	211.56
251.931	210.56
252.164	200.56
252.397	191.56
252.63	216.56
252.863	199.56
253.096	216.56
253.329	244.56
253.562	224.56
253.795	220.56
254.028	238.56
254.261	226.56
254.494	226.56
254.727	277.56
254.96	305.56
255.193	292.56
255.426	263.56
255.659	251.56
255.892	239.56
256.124	239.56
256.357	240.56
256.59	225.56
256.823	234.56
257.056	230.56
257.289	232.56
257.521	208.56
257.754	230.56
257.987	228.56
258.22	240.56
258.452	204.56
258.685	223.56
258.918	224.56
259.151	216.56
259.383	244.56
259.616	236.56
259.849	257.56
260.081	262.56
260.314	266.56
260.547	267.56
260.779	278.56
261.012	254.56
261.244	247.56
261.477	233.56
261.71	220.56
261.942	217.56
262.175	240.56
262.407	243.56
262.64	227.56
262.872	212.56
263.105	225.56
263.337	248.56
263.57	217.56
263.802	238.56
264.035	238.56
264.267	205.56
264.499	226.56
264.732	253.56
264.964	239.56
265.197	228.56
265.429	237.56
265.661	234.56
265.894	216.56
266.126	234.56
266.358	243.56
266.591	233.56
266.823	245.56
267.055	231.56
267.287	234.56
267.52	228.56
267.752	231.56
267.984	240.56
268.216	230.56
268.448	254.56
268.681	263.56
268.913	247.56
269.145	276.56
269.377	317.56
269.609	318.56
269.841	291.56
270.073	302.56
270.306	306.56
270.538	338.56
270.77	343.56
271.002	316.56
271.234	299.56
271.466	302.56
271.698	319.56
271.93	328.56
272.162	330.56
272.394	330.56
272.626	297.56
272.858	314.56
273.09	296.56
273.322	281.56
273.553	280.56
273.785	265.56
274.017	270.56
274.249	270.56
274.481	281.56
274.713	282.56
274.945	305.56
275.176	290.56
275.408	298.56
275.64	268.56
275.872	274.56
276.104	292.56
276.335	293.56
276.567	271.56
276.799	302.56
277.031	326.56
277.262	335.56
277.494	332.56
277.726	329.56
277.957	305.56
278.189	307.56
278.421	285.56
278.652	308.56
278.884	295.56
279.115	281.56
279.347	297.56
279.579	288.56
279.81	282.56
280.042	292.56
280.273	276.56
280.505	293.56
280.736	270.56
280.968	290.56
281.199	297.56
281.431	308.56
281.662	294.56
281.894	286.56
282.125	280.56
282.356	303.56
282.588	328.56
282.819	323.56
283.051	308.56
283.282	294.56
283.513	308.56
283.745	314.56
283.976	274.56
284.207	306.56
284.439	302.56
284.67	324.56
284.901	290.56
285.132	302.56
285.364	303.56
285.595	308.56
285.826	311.56
286.057	314.56
286.288	311.56
286.52	309.56
286.751	307.56
286.982	308.56
287.213	307.56
287.444	302.56
287.675	314.56
287.906	323.56
288.138	330.56
288.369	323.56
288.6	324.56
288.831	332.56
289.062	330.56
289.293	311.56
289.524	308.56
289.755	322.56
289.986	319.56
290.217	319.56
290.448	315.56
290.679	318.56
290.91	331.56
291.141	333.56
291.371	311.56
291.602	323.56
291.833	327.56
292.064	309.56
292.295	304.56
292.526	304.56
292.757	334.56
292.987	316.56
293.218	325.56
293.449	325.56
293.68	307.56
293.91	316.56
294.141	318.56
294.372	338.56
294.603	311.56
294.833	318.56
295.064	316.56
295.295	321.56
295.525	308.56
295.756	331.56
295.987	333.56
296.217	335.56
296.448	343.56
296.679	343.56
296.909	334.56
297.14	315.56
297.37	339.56
297.601	324.56
297.831	337.56
298.062	338.56
298.292	329.56
298.523	351.56
298.753	344.56
298.984	336.56
299.214	345.56
299.445	346.56
299.675	350.56
299.905	364.56
300.136	346.56
300.366	343.56
300.597	342.56
300.827	345.56
301.057	358.56
301.288	356.56
301.518	369.56
301.748	353.56
301.979	349.56
302.209	348.56
302.439	354.56
302.669	361.56
302.9	329.56
303.13	347.56
303.36	361.56
303.59	351.56
303.82	375.56
304.051	379.56
304.281	356.56
304.511	347.56
304.741	363.56
304.971	345.56
305.201	366.56
305.431	361.56
305.661	343.56
305.891	374.56
306.121	355.56
306.352	355.56
306.582	350.56
306.812	366.56
307.042	361.56
307.272	363.56
307.502	360.56
307.731	359.56
307.961	366.56
308.191	369.56
308.421	357.56
308.651	371.56
308.881	368.56
309.111	374.56
309.341	371.56
309.571	380.56
309.8	376.56
310.03	392.56
310.26	404.56
310.49	400.56
310.72	407.56
310.949	411.56
311.179	411.56
311.409	420.56
311.639	384.56
311.868	377.56
312.098	394.56
312.328	408.56
312.557	412.56
312.787	422.56
313.017	407.56
313.246	404.56
313.476	401.56
313.706	415.56
313.935	425.56
314.165	422.56
314.394	424.56
314.624	407.56
314.853	415.56
315.083	412.56
315.312	431.56
315.542	417.56
315.771	410.56
316.001	400.56
316.23	414.56
316.46	391.56
316.689	403.56
316.919	400.56
317.148	403.56
317.377	409.56
317.607	400.56
317.836	407.56
318.065	420.56
318.295	422.56
318.524	380.56
318.753	387.56
318.983	407.56
319.212	405.56
319.441	386.56
319.67	409.56
319.9	412.56
320.129	399.56
320.358	386.56
320.587	408.56
320.816	426.56
321.046	423.56
321.275	419.56
321.504	423.56
321.733	415.56
321.962	426.56
322.191	430.56
322.42	442.56
322.649	458.56
322.878	465.56
323.108	470.56
323.337	470.56
323.566	484.56
323.795	515.56
324.024	543.56
324.253	631.56
324.482	858.56
324.71	1286.56
324.939	1870.56
325.168	1682.56
325.397	819.56
325.626	595.56
325.855	528.56
326.084	513.56
326.313	524.56
326.542	497.56
326.77	536.56
326.999	597.56
327.228	793.56
327.457	1166.56
327.686	1438.56
327.914	1006.56
328.143	654.56
328.372	621.56
328.6	564.56
328.829	545.56
329.058	544.56
329.287	565.56
329.515	538.56
329.744	514.56
329.972	495.56
330.201	497.56
330.43	570.56
330.658	585.56
330.887	598.56
331.115	583.56
331.344	508.56
331.572	497.56
331.801	521.56
332.03	532.56
332.258	519.56
332.486	490.56
332.715	487.56
332.943	491.56
333.172	507.56
333.4	531.56
333.629	530.56
333.857	540.56
334.085	531.56
334.314	546.56
334.542	578.56
334.771	591.56
334.999	540.56
335.227	552.56
335.455	520.56
335.684	492.56
335.912	489.56
336.14	486.56
336.369	486.56
336.597	487.56
336.825	515.56
337.053	480.56
337.281	472.56
337.51	483.56
337.738	483.56
337.966	499.56
338.194	494.56
338.422	468.56
338.65	452.56
338.878	481.56
339.106	465.56
339.334	452.56
339.562	477.56
339.79	454.56
340.018	465.56
340.246	487.56
340.474	473.56
340.702	478.56
340.93	485.56
341.158	486.56
341.386	472.56
341.614	469.56
341.842	471.56
342.07	473.56
342.298	455.56
342.526	453.56
342.754	452.56
342.981	460.56
343.209	460.56
343.437	464.56
343.665	442.56
343.893	487.56
344.12	483.56
344.348	461.56
344.576	494.56
344.804	473.56
345.031	488.56
345.259	464.56
345.487	481.56
345.714	449.56
345.942	456.56
346.17	449.56
346.397	448.56
346.625	459.56
346.853	442.56
347.08	443.56
347.308	473.56
347.535	450.56
347.763	470.56
347.99	476.56
348.218	457.56
348.445	461.56
348.673	450.56
348.9	449.56
349.128	448.56
349.355	437.56
349.583	450.56
349.81	459.56
350.037	432.56
350.265	448.56
350.492	443.56
350.72	432.56
350.947	431.56
351.174	458.56
351.402	467.56
351.629	446.56
351.856	453.56
352.083	460.56
352.311	460.56
352.538	464.56
352.765	462.56
352.992	447.56
353.22	457.56
353.447	461.56
353.674	433.56
353.901	427.56
354.128	440.56
354.355	446.56
354.583	442.56
354.81	440.56
355.037	428.56
355.264	433.56
355.491	432.56
355.718	431.56
355.945	426.56
356.172	424.56
356.399	435.56
356.626	426.56
356.853	427.56
357.08	446.56
357.307	424.56
357.534	447.56
357.761	418.56
357.988	439.56
358.215	434.56
358.441	426.56
358.668	461.56
358.895	450.56
359.122	446.56
359.349	441.56
359.576	459.56
359.802	458.56
360.029	505.56
360.256	504.56
360.483	490.56
360.709	473.56
360.936	465.56
361.163	472.56
361.39	462.56
361.616	450.56
361.843	457.56
362.07	449.56
362.296	452.56
362.523	442.56
362.749	467.56
362.976	451.56
363.203	444.56
363.429	437.56
363.656	418.56
363.882	426.56
364.109	431.56
364.335	438.56
364.562	418.56
364.788	427.56
365.015	436.56
365.241	430.56
365.468	452.56
365.694	453.56
365.92	448.56
366.147	450.56
366.373	438.56
366.599	440.56
366.826	460.56
367.052	453.56
367.278	452.56
367.505	433.56
367.731	444.56
367.957	457.56
368.184	473.56
368.41	434.56
368.636	452.56
368.862	448.56
369.089	442.56
369.315	432.56
369.541	442.56
369.767	444.56
369.993	452.56
370.219	465.56
370.445	441.56
370.672	426.56
370.898	454.56
371.124	449.56
371.35	442.56
371.576	455.56
371.802	422.56
372.028	445.56
372.254	438.56
372.48	452.56
372.706	462.56
372.932	449.56
373.158	470.56
373.384	474.56
373.61	467.56
373.835	472.56
374.061	463.56
374.287	462.56
374.513	455.56
374.739	477.56
374.965	449.56
375.191	492.56
375.416	478.56
375.642	455.56
375.868	466.56
376.094	487.56
376.319	468.56
376.545	458.56
376.771	468.56
376.997	468.56
377.222	453.56
377.448	464.56
377.674	443.56
377.899	444.56
378.125	450.56
378.35	449.56
378.576	466.56
378.802	453.56
379.027	446.56
379.253	444.56
379.478	458.56
379.704	462.56
379.929	455.56
380.155	435.56
380.38	436.56
380.606	460.56
380.831	441.56
381.057	451.56
381.282	463.56
381.507	442.56
381.733	480.56
381.958	470.56
382.184	451.56
382.409	454.56
382.634	451.56
382.86	452.56
383.085	452.56
383.31	445.56
383.535	483.56
383.761	478.56
383.986	491.56
384.211	475.56
384.436	485.56
384.662	499.56
384.887	508.56
385.112	488.56
385.337	504.56
385.562	508.56
385.787	510.56
386.013	510.56
386.238	521.56
386.463	517.56
386.688	540.56
386.913	497.56
387.138	504.56
387.363	524.56
387.588	487.56
387.813	516.56
388.038	512.56
388.263	499.56
388.488	508.56
388.713	496.56
388.938	519.56
389.163	506.56
389.387	509.56
389.612	500.56
389.837	531.56
390.062	492.56
390.287	484.56
390.512	514.56
390.736	525.56
390.961	513.56
391.186	483.56
391.411	527.56
391.636	527.56
391.86	509.56
392.085	553.56
392.31	550.56
392.534	538.56
392.759	518.56
392.984	523.56
393.208	510.56
393.433	507.56
393.658	525.56
393.882	524.56
394.107	516.56
394.331	516.56
394.556	515.56
394.78	528.56
395.005	526.56
395.229	530.56
395.454	543.56
395.678	534.56
395.903	553.56
396.127	572.56
396.352	585.56
396.576	558.56
396.801	529.56
397.025	533.56
397.249	549.56
397.474	565.56
397.698	536.56
397.922	572.56
398.147	575.56
398.371	592.56
398.595	585.56
398.82	588.56
399.044	619.56
399.268	646.56
399.492	692.56
399.717	702.56
399.941	720.56
400.165	739.56
400.389	754.56
400.613	696.56
400.837	646.56
401.062	626.56
401.286	624.56
401.51	602.56
401.734	585.56
401.958	598.56
402.182	602.56
402.406	598.56
402.63	623.56
402.854	598.56
403.078	611.56
403.302	633.56
403.526	624.56
403.75	629.56
403.974	648.56
404.198	634.56
404.422	622.56
404.645	622.56
404.869	635.56
405.093	698.56
405.317	702.56
405.541	738.56
405.765	686.56
405.988	654.56
406.212	663.56
406.436	681.56
406.66	694.56
406.883	692.56
407.107	704.56
407.331	751.56
407.555	818.56
407.778	838.56
408.002	766.56
408.226	696.56
408.449	690.56
408.673	689.56
408.896	692.56
409.12	754.56
409.344	719.56
409.567	670.56
409.791	638.56
410.014	649.56
410.238	642.56
410.461	639.56
410.685	625.56
410.908	640.56
411.132	678.56
411.355	692.56
411.578	716.56
411.802	633.56
412.025	630.56
412.249	625.56
412.472	653.56
412.695	697.56
412.919	681.56
413.142	642.56
413.365	619.56
413.589	623.56
413.812	593.56
414.035	605.56
414.258	603.56
414.482	611.56
414.705	591.56
414.928	591.56
415.151	587.56
415.374	583.56
415.597	592.56
415.821	591.56
416.044	588.56
416.267	587.56
416.49	590.56
416.713	570.56
416.936	592.56
417.159	589.56
417.382	603.56
417.605	584.56
417.828	599.56
418.051	614.56
418.274	631.56
418.497	587.56
418.72	612.56
418.943	597.56
419.166	650.56
419.389	638.56
419.611	652.56
419.834	639.56
420.057	639.56
420.28	636.56
420.503	635.56
420.726	641.56
420.948	636.56
421.171	683.56
421.394	708.56
421.617	640.56
421.839	627.56
422.062	611.56
422.285	655.56
422.507	698.56
422.73	792.56
422.953	736.56
423.175	692.56
423.398	664.56
423.621	618.56
423.843	664.56
424.066	680.56
424.288	658.56
424.511	660.56
424.733	708.56
424.956	798.56
425.178	807.56
425.401	776.56
425.623	806.56
425.846	710.56
426.068	653.56
426.291	648.56
426.513	634.56
426.735	636.56
426.958	684.56
427.18	757.56
427.402	935.56
427.625	969.56
427.847	834.56
428.069	755.56
428.292	676.56
428.514	631.56
428.736	620.56
428.958	587.56
429.181	595.56
429.403	594.56
429.625	601.56
429.847	632.56
430.069	716.56
430.292	732.56
430.514	615.56
430.736	567.56
430.958	603.56
431.18	584.56
431.402	579.56
431.624	584.56
431.846	580.56
432.068	571.56
432.29	573.56
432.512	568.56
432.734	576.56
432.956	579.56
433.178	594.56
433.4	595.56
433.622	594.56
433.844	591.56
434.066	555.56
434.287	572.56
434.509	572.56
434.731	602.56
434.953	614.56
435.175	618.56
435.397	656.56
435.618	644.56
435.84	687.56
436.062	783.56
436.284	859.56
436.505	738.56
436.727	656.56
436.949	605.56
437.17	613.56
437.392	616.56
437.614	611.56
437.835	634.56
438.057	722.56
438.278	841.56
438.5	848.56
438.721	946.56
438.943	896.56
439.165	712.56
439.386	638.56
439.608	653.56
439.829	642.56
440.05	656.56
440.272	699.56
440.493	686.56
440.715	655.56
440.936	614.56
441.158	625.56
441.379	624.56
441.6	641.56
441.822	655.56
442.043	686.56
442.264	820.56
442.486	822.56
442.707	743.56
442.928	688.56
443.149	670.56
443.371	697.56
443.592	728.56
443.813	817.56
444.034	894.56
444.255	770.56
444.476	713.56
444.698	682.56
444.919	680.56
445.14	775.56
445.361	726.56
445.582	681.56
445.803	738.56
446.024	832.56
446.245	840.56
446.466	785.56
446.687	731.56
446.908	676.56
447.129	627.56
447.35	609.56
447.571	606.56
447.792	585.56
448.013	596.56
448.234	614.56
448.455	673.56
448.675	781.56
448.896	908.56
449.117	778.56
449.338	700.56
449.559	816.56
449.779	939.56
450	788.56
450.221	654.56
450.442	573.56
450.662	553.56
450.883	564.56
451.104	614.56
451.324	560.56
451.545	577.56
451.766	544.56
451.986	537.56
452.207	526.56
452.428	529.56
452.648	518.56
452.869	538.56
453.089	535.56
453.31	542.56
453.53	523.56
453.751	544.56
453.971	537.56
454.192	532.56
454.412	524.56
454.633	507.56
454.853	536.56
455.073	533.56
455.294	563.56
455.514	625.56
455.734	585.56
455.955	531.56
456.175	515.56
456.395	492.56
456.616	500.56
456.836	526.56
457.056	530.56
457.276	494.56
457.497	516.56
457.717	522.56
457.937	499.56
458.157	521.56
458.377	495.56
458.598	550.56
458.818	582.56
459.038	692.56
459.258	708.56
459.478	584.56
459.698	542.56
459.918	562.56
460.138	567.56
460.358	595.56
460.578	602.56
460.798	594.56
461.018	630.56
461.238	625.56
461.458	612.56
461.678	594.56
461.898	576.56
462.118	610.56
462.338	625.56
462.558	629.56
462.777	638.56
462.997	652.56
463.217	706.56
463.437	676.56
463.657	664.56
463.876	644.56
464.096	655.56
464.316	634.56
464.536	634.56
464.755	636.56
464.975	645.56
465.195	679.56
465.414	721.56
465.634	645.56
465.854	624.56
466.073	568.56
466.293	567.56
466.512	561.56
466.732	542.56
466.951	562.56
467.171	571.56
467.391	540.56
467.61	538.56
467.829	548.56
468.049	558.56
468.268	564.56
468.488	535.56
468.707	535.56
468.927	551.56
469.146	519.56
469.365	523.56
469.585	546.56
469.804	567.56
470.023	569.56
470.243	562.56
470.462	573.56
470.681	577.56
470.901	596.56
471.12	561.56
471.339	560.56
471.558	555.56
471.777	554.56
471.997	551.56
472.216	576.56
472.435	590.56
472.654	562.56
472.873	571.56
473.092	554.56
473.311	533.56
473.53	568.56
473.749	568.56
473.968	597.56
474.187	692.56
474.406	701.56
474.625	613.56
474.844	596.56
475.063	535.56
475.282	567.56
475.501	555.56
475.72	571.56
475.939	571.56
476.158	578.56
476.377	576.56
476.596	566.56
476.814	597.56
477.033	578.56
477.252	561.56
477.471	588.56
477.69	606.56
477.908	626.56
478.127	617.56
478.346	602.56
478.564	616.56
478.783	624.56
479.002	632.56
479.22	656.56
479.439	664.56
479.658	681.56
479.876	675.56
480.095	669.56
480.313	707.56
480.532	698.56
480.751	692.56
480.969	698.56
481.188	754.56
481.406	750.56
481.624	702.56
481.843	690.56
482.061	638.56
482.28	643.56
482.498	650.56
482.717	653.56
482.935	660.56
483.153	652.56
483.372	664.56
483.59	657.56
483.808	666.56
484.027	657.56
484.245	659.56
484.463	679.56
484.681	684.56
484.9	649.56
485.118	688.56
485.336	678.56
485.554	668.56
485.772	677.56
485.99	680.56
486.209	666.56
486.427	686.56
486.645	680.56
486.863	699.56
487.081	700.56
487.299	682.56
487.517	680.56
487.735	707.56
487.953	713.56
488.171	688.56
488.389	719.56
488.607	710.56
488.825	687.56
489.043	729.56
489.261	744.56
489.479	731.56
489.696	712.56
489.914	729.56
490.132	734.56
490.35	736.56
490.568	778.56
490.786	763.56
491.003	763.56
491.221	770.56
491.439	797.56
491.657	804.56
491.874	805.56
492.092	794.56
492.31	797.56
492.527	804.56
492.745	825.56
492.963	821.56
493.18	852.56
493.398	824.56
493.615	826.56
493.833	830.56
494.05	825.56
494.268	840.56
494.485	835.56
494.703	829.56
494.92	864.56
495.138	822.56
495.355	802.56
495.573	850.56
495.79	810.56
496.008	848.56
496.225	849.56
496.442	824.56
496.66	850.56
496.877	869.56
497.094	855.56
497.312	879.56
497.529	882.56
497.746	868.56
497.963	901.56
498.181	916.56
498.398	906.56
498.615	955.56
498.832	962.56
499.049	1003.56
499.267	1053.56
499.484	1087.56
499.701	1122.56
499.918	1167.56
500.135	1279.56
500.352	1330.56
500.569	1349.56
500.786	1322.56
501.003	1312.56
501.22	1247.56
501.437	1232.56
