Data from 1974.PennyLincolnUp.Lamp.En5.5.200Scan.071719.P1.Changed Mount._HRD10591_15-51-28-856.txt Node
Date: Thu Jul 18 15:51:28 EDT 2019
User: cochatt
Spectrometer: HR+D1059
Trigger mode: 1
Integration Time (sec): 1.000000E-1
Scans to average: 1
Electric dark correction enabled: true
Nonlinearity correction enabled: false
Boxcar width: 0
XAxis mode: Wavelengths
Number of Pixels in Spectrum: 2048
>>>>>Begin Spectral Data<<<<<
223.165	-16.88
223.4	-16.88
223.635	-16.88
223.869	-14.88
224.104	-11.88
224.338	-11.88
224.573	-18.88
224.808	-11.88
225.042	-3.88
225.277	-6.88
225.511	-8.88
225.746	-10.88
225.98	24.12
226.215	11.12
226.449	4.12
226.683	30.12
226.918	26.12
227.152	21.12
227.387	28.12
227.621	38.12
227.856	45.12
228.09	42.12
228.324	72.12
228.559	56.12
228.793	73.12
229.027	100.12
229.262	101.12
229.496	120.12
229.73	130.12
229.964	136.12
230.199	121.12
230.433	109.12
230.667	121.12
230.901	107.12
231.136	124.12
231.37	132.12
231.604	101.12
231.838	110.12
232.072	118.12
232.306	128.12
232.541	111.12
232.775	122.12
233.009	116.12
233.243	113.12
233.477	120.12
233.711	120.12
233.945	115.12
234.179	122.12
234.413	133.12
234.647	127.12
234.881	140.12
235.115	104.12
235.349	121.12
235.583	122.12
235.817	140.12
236.051	140.12
236.285	131.12
236.519	122.12
236.753	130.12
236.987	143.12
237.221	148.12
237.455	214.12
237.689	175.12
237.922	130.12
238.156	128.12
238.39	133.12
238.624	138.12
238.858	124.12
239.091	133.12
239.325	129.12
239.559	124.12
239.793	133.12
240.027	150.12
240.26	146.12
240.494	130.12
240.728	157.12
240.961	156.12
241.195	142.12
241.429	152.12
241.662	142.12
241.896	134.12
242.13	137.12
242.363	143.12
242.597	146.12
242.83	145.12
243.064	139.12
243.298	145.12
243.531	134.12
243.765	154.12
243.998	144.12
244.232	158.12
244.465	152.12
244.699	157.12
244.932	140.12
245.166	141.12
245.399	155.12
245.633	162.12
245.866	143.12
246.099	142.12
246.333	160.12
246.566	157.12
246.8	158.12
247.033	162.12
247.266	181.12
247.5	172.12
247.733	177.12
247.966	176.12
248.2	180.12
248.433	172.12
248.666	182.12
248.899	190.12
249.133	188.12
249.366	196.12
249.599	207.12
249.832	172.12
250.066	184.12
250.299	188.12
250.532	185.12
250.765	202.12
250.998	229.12
251.231	241.12
251.465	223.12
251.698	205.12
251.931	194.12
252.164	208.12
252.397	208.12
252.63	203.12
252.863	204.12
253.096	220.12
253.329	221.12
253.562	231.12
253.795	211.12
254.028	216.12
254.261	208.12
254.494	220.12
254.727	236.12
254.96	265.12
255.193	260.12
255.426	241.12
255.659	209.12
255.892	222.12
256.124	233.12
256.357	217.12
256.59	230.12
256.823	197.12
257.056	207.12
257.289	205.12
257.521	203.12
257.754	215.12
257.987	206.12
258.22	211.12
258.452	223.12
258.685	223.12
258.918	208.12
259.151	224.12
259.383	210.12
259.616	220.12
259.849	234.12
260.081	230.12
260.314	257.12
260.547	252.12
260.779	243.12
261.012	233.12
261.244	210.12
261.477	226.12
261.71	220.12
261.942	220.12
262.175	225.12
262.407	224.12
262.64	201.12
262.872	207.12
263.105	215.12
263.337	199.12
263.57	209.12
263.802	207.12
264.035	222.12
264.267	204.12
264.499	222.12
264.732	229.12
264.964	218.12
265.197	201.12
265.429	208.12
265.661	221.12
265.894	216.12
266.126	213.12
266.358	214.12
266.591	225.12
266.823	236.12
267.055	232.12
267.287	233.12
267.52	221.12
267.752	236.12
267.984	232.12
268.216	235.12
268.448	241.12
268.681	236.12
268.913	245.12
269.145	254.12
269.377	278.12
269.609	255.12
269.841	259.12
270.073	278.12
270.306	282.12
270.538	301.12
270.77	293.12
271.002	300.12
271.234	289.12
271.466	303.12
271.698	293.12
271.93	297.12
272.162	299.12
272.394	311.12
272.626	282.12
272.858	279.12
273.09	279.12
273.322	277.12
273.553	261.12
273.785	270.12
274.017	243.12
274.249	265.12
274.481	250.12
274.713	279.12
274.945	264.12
275.176	263.12
275.408	250.12
275.64	272.12
275.872	272.12
276.104	276.12
276.335	264.12
276.567	263.12
276.799	277.12
277.031	297.12
277.262	313.12
277.494	302.12
277.726	288.12
277.957	280.12
278.189	280.12
278.421	265.12
278.652	269.12
278.884	249.12
279.115	281.12
279.347	269.12
279.579	253.12
279.81	262.12
280.042	268.12
280.273	269.12
280.505	270.12
280.736	269.12
280.968	274.12
281.199	272.12
281.431	250.12
281.662	273.12
281.894	282.12
282.125	261.12
282.356	280.12
282.588	293.12
282.819	298.12
283.051	281.12
283.282	251.12
283.513	297.12
283.745	292.12
283.976	265.12
284.207	289.12
284.439	293.12
284.67	284.12
284.901	266.12
285.132	287.12
285.364	294.12
285.595	277.12
285.826	289.12
286.057	278.12
286.288	278.12
286.52	302.12
286.751	298.12
286.982	291.12
287.213	280.12
287.444	297.12
287.675	289.12
287.906	287.12
288.138	302.12
288.369	320.12
288.6	302.12
288.831	293.12
289.062	306.12
289.293	312.12
289.524	289.12
289.755	302.12
289.986	281.12
290.217	302.12
290.448	312.12
290.679	290.12
290.91	288.12
291.141	297.12
291.371	292.12
291.602	308.12
291.833	285.12
292.064	295.12
292.295	302.12
292.526	303.12
292.757	316.12
292.987	299.12
293.218	290.12
293.449	302.12
293.68	286.12
293.91	298.12
294.141	283.12
294.372	303.12
294.603	316.12
294.833	308.12
295.064	328.12
295.295	293.12
295.525	298.12
295.756	295.12
295.987	308.12
296.217	306.12
296.448	332.12
296.679	300.12
296.909	314.12
297.14	301.12
297.37	309.12
297.601	320.12
297.831	305.12
298.062	302.12
298.292	318.12
298.523	321.12
298.753	320.12
298.984	310.12
299.214	293.12
299.445	328.12
299.675	326.12
299.905	315.12
300.136	338.12
300.366	318.12
300.597	312.12
300.827	336.12
301.057	330.12
301.288	352.12
301.518	335.12
301.748	308.12
301.979	328.12
302.209	326.12
302.439	324.12
302.669	337.12
302.9	337.12
303.13	337.12
303.36	310.12
303.59	320.12
303.82	340.12
304.051	335.12
304.281	347.12
304.511	324.12
304.741	338.12
304.971	330.12
305.201	334.12
305.431	333.12
305.661	340.12
305.891	316.12
306.121	326.12
306.352	322.12
306.582	344.12
306.812	334.12
307.042	349.12
307.272	328.12
307.502	332.12
307.731	346.12
307.961	317.12
308.191	341.12
308.421	338.12
308.651	334.12
308.881	343.12
309.111	350.12
309.341	333.12
309.571	342.12
309.8	359.12
310.03	364.12
310.26	368.12
310.49	362.12
310.72	363.12
310.949	377.12
311.179	352.12
311.409	357.12
311.639	365.12
311.868	382.12
312.098	388.12
312.328	383.12
312.557	406.12
312.787	378.12
313.017	383.12
313.246	365.12
313.476	356.12
313.706	361.12
313.935	382.12
314.165	366.12
314.394	390.12
314.624	392.12
314.853	372.12
315.083	373.12
315.312	365.12
315.542	370.12
315.771	374.12
316.001	359.12
316.23	375.12
316.46	373.12
316.689	364.12
316.919	384.12
317.148	369.12
317.377	372.12
317.607	360.12
317.836	380.12
318.065	370.12
318.295	368.12
318.524	354.12
318.753	385.12
318.983	380.12
319.212	372.12
319.441	369.12
319.67	378.12
319.9	376.12
320.129	376.12
320.358	357.12
320.587	380.12
320.816	375.12
321.046	365.12
321.275	375.12
321.504	369.12
321.733	390.12
321.962	405.12
322.191	406.12
322.42	403.12
322.649	404.12
322.878	413.12
323.108	404.12
323.337	431.12
323.566	427.12
323.795	442.12
324.024	463.12
324.253	527.12
324.482	735.12
324.71	1049.12
324.939	1544.12
325.168	1387.12
325.397	748.12
325.626	522.12
325.855	481.12
326.084	444.12
326.313	422.12
326.542	428.12
326.77	478.12
326.999	529.12
327.228	652.12
327.457	973.12
327.686	1210.12
327.914	820.12
328.143	575.12
328.372	512.12
328.6	484.12
328.829	464.12
329.058	477.12
329.287	493.12
329.515	461.12
329.744	493.12
329.972	448.12
330.201	470.12
330.43	492.12
330.658	481.12
330.887	530.12
331.115	509.12
331.344	457.12
331.572	455.12
331.801	448.12
332.03	456.12
332.258	444.12
332.486	449.12
332.715	457.12
332.943	463.12
333.172	458.12
333.4	456.12
333.629	456.12
333.857	476.12
334.085	468.12
334.314	496.12
334.542	502.12
334.771	514.12
334.999	473.12
335.227	461.12
335.455	458.12
335.684	461.12
335.912	467.12
336.14	428.12
336.369	447.12
336.597	446.12
336.825	461.12
337.053	448.12
337.281	440.12
337.51	445.12
337.738	427.12
337.966	438.12
338.194	445.12
338.422	449.12
338.65	432.12
338.878	423.12
339.106	441.12
339.334	430.12
339.562	420.12
339.79	425.12
340.018	409.12
340.246	429.12
340.474	408.12
340.702	430.12
340.93	424.12
341.158	428.12
341.386	429.12
341.614	442.12
341.842	427.12
342.07	432.12
342.298	422.12
342.526	423.12
342.754	424.12
342.981	420.12
343.209	405.12
343.437	439.12
343.665	426.12
343.893	453.12
344.12	474.12
344.348	444.12
344.576	424.12
344.804	459.12
345.031	436.12
345.259	450.12
345.487	445.12
345.714	433.12
345.942	418.12
346.17	433.12
346.397	402.12
346.625	415.12
346.853	422.12
347.08	413.12
347.308	389.12
347.535	417.12
347.763	415.12
347.99	426.12
348.218	431.12
348.445	417.12
348.673	400.12
348.9	431.12
349.128	394.12
349.355	397.12
349.583	419.12
349.81	417.12
350.037	408.12
350.265	399.12
350.492	444.12
350.72	416.12
350.947	418.12
351.174	430.12
351.402	419.12
351.629	421.12
351.856	411.12
352.083	409.12
352.311	417.12
352.538	412.12
352.765	434.12
352.992	416.12
353.22	412.12
353.447	407.12
353.674	412.12
353.901	401.12
354.128	385.12
354.355	393.12
354.583	399.12
354.81	424.12
355.037	408.12
355.264	415.12
355.491	395.12
355.718	397.12
355.945	391.12
356.172	410.12
356.399	408.12
356.626	391.12
356.853	411.12
357.08	395.12
357.307	403.12
357.534	407.12
357.761	381.12
357.988	396.12
358.215	402.12
358.441	395.12
358.668	404.12
358.895	411.12
359.122	396.12
359.349	425.12
359.576	420.12
359.802	413.12
360.029	444.12
360.256	433.12
360.483	443.12
360.709	436.12
360.936	433.12
361.163	394.12
361.39	409.12
361.616	455.12
361.843	424.12
362.07	429.12
362.296	413.12
362.523	389.12
362.749	398.12
362.976	411.12
363.203	400.12
363.429	388.12
363.656	407.12
363.882	390.12
364.109	410.12
364.335	412.12
364.562	398.12
364.788	399.12
365.015	420.12
365.241	404.12
365.468	402.12
365.694	411.12
365.92	442.12
366.147	403.12
366.373	418.12
366.599	413.12
366.826	421.12
367.052	417.12
367.278	412.12
367.505	388.12
367.731	396.12
367.957	410.12
368.184	425.12
368.41	423.12
368.636	425.12
368.862	414.12
369.089	416.12
369.315	420.12
369.541	430.12
369.767	409.12
369.993	418.12
370.219	422.12
370.445	407.12
370.672	400.12
370.898	418.12
371.124	419.12
371.35	406.12
371.576	426.12
371.802	419.12
372.028	416.12
372.254	432.12
372.48	420.12
372.706	425.12
372.932	417.12
373.158	411.12
373.384	428.12
373.61	431.12
373.835	430.12
374.061	432.12
374.287	438.12
374.513	433.12
374.739	455.12
374.965	441.12
375.191	436.12
375.416	433.12
375.642	426.12
375.868	424.12
376.094	427.12
376.319	431.12
376.545	422.12
376.771	427.12
376.997	431.12
377.222	420.12
377.448	418.12
377.674	418.12
377.899	426.12
378.125	404.12
378.35	408.12
378.576	432.12
378.802	426.12
379.027	426.12
379.253	424.12
379.478	413.12
379.704	437.12
379.929	407.12
380.155	426.12
380.38	395.12
380.606	438.12
380.831	424.12
381.057	452.12
381.282	426.12
381.507	425.12
381.733	416.12
381.958	426.12
382.184	447.12
382.409	427.12
382.634	443.12
382.86	440.12
383.085	439.12
383.31	452.12
383.535	452.12
383.761	455.12
383.986	462.12
384.211	466.12
384.436	450.12
384.662	470.12
384.887	461.12
385.112	456.12
385.337	472.12
385.562	470.12
385.787	466.12
386.013	478.12
386.238	481.12
386.463	471.12
386.688	478.12
386.913	459.12
387.138	464.12
387.363	470.12
387.588	462.12
387.813	466.12
388.038	483.12
388.263	485.12
388.488	478.12
388.713	466.12
388.938	480.12
389.163	466.12
389.387	476.12
389.612	467.12
389.837	455.12
390.062	460.12
390.287	476.12
390.512	475.12
390.736	474.12
390.961	487.12
391.186	474.12
391.411	511.12
391.636	495.12
391.86	489.12
392.085	473.12
392.31	497.12
392.534	521.12
392.759	489.12
392.984	516.12
393.208	471.12
393.433	493.12
393.658	488.12
393.882	480.12
394.107	491.12
394.331	483.12
394.556	471.12
394.78	472.12
395.005	484.12
395.229	489.12
395.454	501.12
395.678	496.12
395.903	520.12
396.127	524.12
396.352	515.12
396.576	492.12
396.801	495.12
397.025	514.12
397.249	500.12
397.474	522.12
397.698	522.12
397.922	514.12
398.147	545.12
398.371	549.12
398.595	541.12
398.82	560.12
399.044	544.12
399.268	578.12
399.492	653.12
399.717	668.12
399.941	696.12
400.165	685.12
400.389	681.12
400.613	618.12
400.837	586.12
401.062	566.12
401.286	557.12
401.51	556.12
401.734	557.12
401.958	547.12
402.182	538.12
402.406	561.12
402.63	559.12
402.854	546.12
403.078	578.12
403.302	574.12
403.526	588.12
403.75	566.12
403.974	602.12
404.198	572.12
404.422	552.12
404.645	572.12
404.869	593.12
405.093	615.12
405.317	641.12
405.541	686.12
405.765	640.12
405.988	604.12
406.212	581.12
406.436	618.12
406.66	622.12
406.883	612.12
407.107	657.12
407.331	671.12
407.555	735.12
407.778	733.12
408.002	689.12
408.226	630.12
408.449	636.12
408.673	618.12
408.896	644.12
409.12	684.12
409.344	630.12
409.567	601.12
409.791	578.12
410.014	578.12
410.238	569.12
410.461	589.12
410.685	578.12
410.908	593.12
411.132	634.12
411.355	673.12
411.578	610.12
411.802	582.12
412.025	558.12
412.249	580.12
412.472	593.12
412.695	628.12
412.919	644.12
413.142	577.12
413.365	568.12
413.589	574.12
413.812	523.12
414.035	561.12
414.258	548.12
414.482	563.12
414.705	561.12
414.928	539.12
415.151	549.12
415.374	541.12
415.597	550.12
415.821	546.12
416.044	561.12
416.267	567.12
416.49	542.12
416.713	538.12
416.936	564.12
417.159	543.12
417.382	549.12
417.605	562.12
417.828	537.12
418.051	545.12
418.274	547.12
418.497	577.12
418.72	593.12
418.943	564.12
419.166	557.12
419.389	570.12
419.611	603.12
419.834	573.12
420.057	573.12
420.28	586.12
420.503	561.12
420.726	568.12
420.948	554.12
421.171	605.12
421.394	638.12
421.617	593.12
421.839	570.12
422.062	547.12
422.285	599.12
422.507	651.12
422.73	704.12
422.953	682.12
423.175	610.12
423.398	595.12
423.621	569.12
423.843	604.12
424.066	605.12
424.288	604.12
424.511	613.12
424.733	672.12
424.956	757.12
425.178	718.12
425.401	696.12
425.623	706.12
425.846	646.12
426.068	610.12
426.291	596.12
426.513	586.12
426.735	609.12
426.958	652.12
427.18	706.12
427.402	827.12
427.625	904.12
427.847	778.12
428.069	670.12
428.292	620.12
428.514	588.12
428.736	540.12
428.958	567.12
429.181	552.12
429.403	538.12
429.625	578.12
429.847	562.12
430.069	629.12
430.292	649.12
430.514	558.12
430.736	549.12
430.958	543.12
431.18	537.12
431.402	527.12
431.624	518.12
431.846	523.12
432.068	536.12
432.29	514.12
432.512	525.12
432.734	537.12
432.956	531.12
433.178	536.12
433.4	528.12
433.622	527.12
433.844	529.12
434.066	519.12
434.287	524.12
434.509	533.12
434.731	534.12
434.953	560.12
435.175	580.12
435.397	578.12
435.618	579.12
435.84	630.12
436.062	692.12
436.284	778.12
436.505	642.12
436.727	596.12
436.949	566.12
437.17	542.12
437.392	544.12
437.614	573.12
437.835	549.12
438.057	666.12
438.278	763.12
438.5	763.12
438.721	841.12
438.943	817.12
439.165	625.12
439.386	605.12
439.608	603.12
439.829	566.12
440.05	596.12
440.272	620.12
440.493	616.12
440.715	575.12
440.936	564.12
441.158	559.12
441.379	551.12
441.6	603.12
441.822	580.12
442.043	625.12
442.264	689.12
442.486	746.12
442.707	645.12
442.928	625.12
443.149	614.12
443.371	633.12
443.592	675.12
443.813	761.12
444.034	805.12
444.255	699.12
444.476	641.12
444.698	604.12
444.919	618.12
445.14	747.12
445.361	689.12
445.582	647.12
445.803	678.12
446.024	784.12
446.245	778.12
446.466	720.12
446.687	614.12
446.908	583.12
447.129	572.12
447.35	544.12
447.571	553.12
447.792	533.12
448.013	526.12
448.234	541.12
448.455	601.12
448.675	704.12
448.896	818.12
449.117	700.12
449.338	652.12
449.559	752.12
449.779	863.12
450	685.12
450.221	572.12
450.442	530.12
450.662	511.12
450.883	534.12
451.104	537.12
451.324	500.12
451.545	506.12
451.766	489.12
451.986	478.12
452.207	488.12
452.428	507.12
452.648	484.12
452.869	489.12
453.089	485.12
453.31	482.12
453.53	501.12
453.751	474.12
453.971	494.12
454.192	492.12
454.412	465.12
454.633	476.12
454.853	490.12
455.073	464.12
455.294	499.12
455.514	572.12
455.734	556.12
455.955	460.12
456.175	477.12
456.395	460.12
456.616	441.12
456.836	474.12
457.056	464.12
457.276	437.12
457.497	447.12
457.717	444.12
457.937	462.12
458.157	494.12
458.377	462.12
458.598	501.12
458.818	522.12
459.038	628.12
459.258	613.12
459.478	566.12
459.698	512.12
459.918	530.12
460.138	533.12
460.358	553.12
460.578	540.12
460.798	531.12
461.018	552.12
461.238	555.12
461.458	548.12
461.678	540.12
461.898	555.12
462.118	542.12
462.338	578.12
462.558	584.12
462.777	585.12
462.997	613.12
463.217	627.12
463.437	630.12
463.657	592.12
463.876	598.12
464.096	596.12
464.316	596.12
464.536	594.12
464.755	597.12
464.975	571.12
465.195	606.12
465.414	632.12
465.634	589.12
465.854	544.12
466.073	536.12
466.293	531.12
466.512	521.12
466.732	496.12
466.951	507.12
467.171	501.12
467.391	505.12
467.61	528.12
467.829	500.12
468.049	490.12
468.268	490.12
468.488	482.12
468.707	476.12
468.927	505.12
469.146	470.12
469.365	503.12
469.585	504.12
469.804	503.12
470.023	501.12
470.243	516.12
470.462	505.12
470.681	543.12
470.901	511.12
471.12	522.12
471.339	521.12
471.558	515.12
471.777	506.12
471.997	496.12
472.216	504.12
472.435	513.12
472.654	522.12
472.873	505.12
473.092	477.12
473.311	494.12
473.53	506.12
473.749	505.12
473.968	559.12
474.187	638.12
474.406	679.12
474.625	585.12
474.844	516.12
475.063	527.12
475.282	495.12
475.501	509.12
475.72	522.12
475.939	527.12
476.158	524.12
476.377	549.12
476.596	514.12
476.814	536.12
477.033	568.12
477.252	543.12
477.471	537.12
477.69	549.12
477.908	552.12
478.127	579.12
478.346	586.12
478.564	574.12
478.783	604.12
479.002	594.12
479.22	586.12
479.439	610.12
479.658	610.12
479.876	600.12
480.095	607.12
480.313	637.12
480.532	633.12
480.751	646.12
480.969	621.12
481.188	636.12
481.406	674.12
481.624	624.12
481.843	618.12
482.061	612.12
482.28	607.12
482.498	582.12
482.717	598.12
482.935	592.12
483.153	590.12
483.372	573.12
483.59	582.12
483.808	613.12
484.027	604.12
484.245	592.12
484.463	584.12
484.681	609.12
484.9	598.12
485.118	628.12
485.336	644.12
485.554	637.12
485.772	628.12
485.99	632.12
486.209	618.12
486.427	604.12
486.645	613.12
486.863	638.12
487.081	629.12
487.299	649.12
487.517	617.12
487.735	654.12
487.953	640.12
488.171	641.12
488.389	639.12
488.607	632.12
488.825	630.12
489.043	640.12
489.261	632.12
489.479	646.12
489.696	641.12
489.914	647.12
490.132	661.12
490.35	680.12
490.568	677.12
490.786	700.12
491.003	680.12
491.221	704.12
491.439	716.12
491.657	719.12
491.874	711.12
492.092	725.12
492.31	754.12
492.527	725.12
492.745	753.12
492.963	748.12
493.18	757.12
493.398	750.12
493.615	736.12
493.833	779.12
494.05	758.12
494.268	743.12
494.485	740.12
494.703	733.12
494.92	759.12
495.138	784.12
495.355	764.12
495.573	751.12
495.79	769.12
496.008	780.12
496.225	761.12
496.442	765.12
496.66	752.12
496.877	750.12
497.094	784.12
497.312	783.12
497.529	798.12
497.746	805.12
497.963	817.12
498.181	827.12
498.398	812.12
498.615	858.12
498.832	896.12
499.049	880.12
499.267	920.12
499.484	983.12
499.701	1000.12
499.918	1063.12
500.135	1135.12
500.352	1200.12
500.569	1210.12
500.786	1231.12
501.003	1194.12
501.22	1133.12
501.437	1112.12
501.654	1055.12
