Data from 1974.PennyLincolnUp.Lamp.En5.5.200Scan.071719.P1.Changed Mount._HRD10591_15-54-18-857.txt Node
Date: Thu Jul 18 15:54:18 EDT 2019
User: cochatt
Spectrometer: HR+D1059
Trigger mode: 1
Integration Time (sec): 1.000000E-1
Scans to average: 1
Electric dark correction enabled: true
Nonlinearity correction enabled: false
Boxcar width: 0
XAxis mode: Wavelengths
Number of Pixels in Spectrum: 2048
>>>>>Begin Spectral Data<<<<<
223.165	-17.62
223.4	-17.62
223.635	-17.62
223.869	-11.62
224.104	-18.62
224.338	-14.62
224.573	-29.62
224.808	-10.62
225.042	-10.62
225.277	-2.62
225.511	0.38
225.746	1.38
225.98	5.38
226.215	6.38
226.449	16.38
226.683	16.38
226.918	22.38
227.152	47.38
227.387	24.38
227.621	36.38
227.856	34.38
228.09	42.38
228.324	58.38
228.559	52.38
228.793	53.38
229.027	89.38
229.262	101.38
229.496	112.38
229.73	122.38
229.964	151.38
230.199	139.38
230.433	122.38
230.667	122.38
230.901	117.38
231.136	118.38
231.37	118.38
231.604	109.38
231.838	110.38
232.072	113.38
232.306	112.38
232.541	122.38
232.775	115.38
233.009	126.38
233.243	127.38
233.477	125.38
233.711	118.38
233.945	115.38
234.179	125.38
234.413	124.38
234.647	128.38
234.881	109.38
235.115	130.38
235.349	124.38
235.583	134.38
235.817	128.38
236.051	114.38
236.285	137.38
236.519	132.38
236.753	144.38
236.987	161.38
237.221	194.38
237.455	228.38
237.689	184.38
237.922	150.38
238.156	140.38
238.39	132.38
238.624	122.38
238.858	152.38
239.091	126.38
239.325	124.38
239.559	134.38
239.793	142.38
240.027	133.38
240.26	151.38
240.494	168.38
240.728	165.38
240.961	147.38
241.195	150.38
241.429	149.38
241.662	158.38
241.896	146.38
242.13	155.38
242.363	146.38
242.597	148.38
242.83	141.38
243.064	150.38
243.298	156.38
243.531	161.38
243.765	144.38
243.998	144.38
244.232	155.38
244.465	149.38
244.699	152.38
244.932	136.38
245.166	157.38
245.399	154.38
245.633	148.38
245.866	158.38
246.099	159.38
246.333	164.38
246.566	160.38
246.8	164.38
247.033	170.38
247.266	171.38
247.5	173.38
247.733	178.38
247.966	191.38
248.2	188.38
248.433	189.38
248.666	173.38
248.899	195.38
249.133	200.38
249.366	223.38
249.599	204.38
249.832	190.38
250.066	201.38
250.299	194.38
250.532	205.38
250.765	216.38
250.998	237.38
251.231	242.38
251.465	247.38
251.698	211.38
251.931	241.38
252.164	217.38
252.397	206.38
252.63	220.38
252.863	227.38
253.096	234.38
253.329	221.38
253.562	232.38
253.795	217.38
254.028	239.38
254.261	208.38
254.494	240.38
254.727	272.38
254.96	291.38
255.193	291.38
255.426	255.38
255.659	265.38
255.892	245.38
256.124	257.38
256.357	238.38
256.59	234.38
256.823	220.38
257.056	233.38
257.289	232.38
257.521	216.38
257.754	253.38
257.987	218.38
258.22	227.38
258.452	215.38
258.685	224.38
258.918	230.38
259.151	226.38
259.383	222.38
259.616	225.38
259.849	236.38
260.081	256.38
260.314	273.38
260.547	282.38
260.779	269.38
261.012	263.38
261.244	248.38
261.477	222.38
261.71	219.38
261.942	258.38
262.175	257.38
262.407	257.38
262.64	240.38
262.872	234.38
263.105	239.38
263.337	212.38
263.57	216.38
263.802	246.38
264.035	237.38
264.267	230.38
264.499	226.38
264.732	245.38
264.964	236.38
265.197	222.38
265.429	210.38
265.661	236.38
265.894	226.38
266.126	238.38
266.358	249.38
266.591	242.38
266.823	240.38
267.055	263.38
267.287	261.38
267.52	244.38
267.752	242.38
267.984	261.38
268.216	232.38
268.448	263.38
268.681	255.38
268.913	256.38
269.145	290.38
269.377	308.38
269.609	310.38
269.841	281.38
270.073	291.38
270.306	312.38
270.538	336.38
270.77	326.38
271.002	325.38
271.234	307.38
271.466	308.38
271.698	329.38
271.93	349.38
272.162	348.38
272.394	341.38
272.626	331.38
272.858	317.38
273.09	297.38
273.322	284.38
273.553	285.38
273.785	304.38
274.017	284.38
274.249	291.38
274.481	288.38
274.713	284.38
274.945	297.38
275.176	301.38
275.408	283.38
275.64	288.38
275.872	290.38
276.104	279.38
276.335	282.38
276.567	291.38
276.799	290.38
277.031	321.38
277.262	332.38
277.494	333.38
277.726	332.38
277.957	329.38
278.189	318.38
278.421	290.38
278.652	304.38
278.884	290.38
279.115	296.38
279.347	285.38
279.579	287.38
279.81	295.38
280.042	285.38
280.273	287.38
280.505	274.38
280.736	293.38
280.968	295.38
281.199	296.38
281.431	301.38
281.662	318.38
281.894	311.38
282.125	278.38
282.356	297.38
282.588	342.38
282.819	332.38
283.051	332.38
283.282	300.38
283.513	316.38
283.745	309.38
283.976	309.38
284.207	326.38
284.439	313.38
284.67	315.38
284.901	324.38
285.132	300.38
285.364	316.38
285.595	312.38
285.826	323.38
286.057	317.38
286.288	307.38
286.52	299.38
286.751	302.38
286.982	310.38
287.213	322.38
287.444	325.38
287.675	333.38
287.906	321.38
288.138	344.38
288.369	338.38
288.6	348.38
288.831	326.38
289.062	326.38
289.293	319.38
289.524	321.38
289.755	327.38
289.986	323.38
290.217	328.38
290.448	319.38
290.679	333.38
290.91	320.38
291.141	330.38
291.371	312.38
291.602	341.38
291.833	322.38
292.064	326.38
292.295	321.38
292.526	318.38
292.757	326.38
292.987	328.38
293.218	293.38
293.449	328.38
293.68	335.38
293.91	316.38
294.141	335.38
294.372	315.38
294.603	311.38
294.833	323.38
295.064	328.38
295.295	346.38
295.525	352.38
295.756	332.38
295.987	345.38
296.217	356.38
296.448	362.38
296.679	350.38
296.909	338.38
297.14	340.38
297.37	349.38
297.601	346.38
297.831	351.38
298.062	343.38
298.292	340.38
298.523	348.38
298.753	331.38
298.984	345.38
299.214	350.38
299.445	362.38
299.675	351.38
299.905	333.38
300.136	359.38
300.366	363.38
300.597	353.38
300.827	349.38
301.057	360.38
301.288	359.38
301.518	366.38
301.748	362.38
301.979	351.38
302.209	382.38
302.439	370.38
302.669	357.38
302.9	361.38
303.13	386.38
303.36	392.38
303.59	373.38
303.82	386.38
304.051	378.38
304.281	366.38
304.511	352.38
304.741	348.38
304.971	366.38
305.201	375.38
305.431	355.38
305.661	372.38
305.891	377.38
306.121	374.38
306.352	367.38
306.582	370.38
306.812	376.38
307.042	359.38
307.272	382.38
307.502	372.38
307.731	380.38
307.961	376.38
308.191	363.38
308.421	375.38
308.651	382.38
308.881	383.38
309.111	375.38
309.341	392.38
309.571	401.38
309.8	387.38
310.03	391.38
310.26	404.38
310.49	408.38
310.72	417.38
310.949	414.38
311.179	410.38
311.409	417.38
311.639	414.38
311.868	416.38
312.098	424.38
312.328	404.38
312.557	441.38
312.787	457.38
313.017	441.38
313.246	404.38
313.476	429.38
313.706	410.38
313.935	427.38
314.165	429.38
314.394	448.38
314.624	432.38
314.853	420.38
315.083	428.38
315.312	421.38
315.542	428.38
315.771	420.38
316.001	412.38
316.23	406.38
316.46	400.38
316.689	419.38
316.919	413.38
317.148	420.38
317.377	396.38
317.607	419.38
317.836	424.38
318.065	422.38
318.295	436.38
318.524	410.38
318.753	406.38
318.983	442.38
319.212	430.38
319.441	443.38
319.67	429.38
319.9	431.38
320.129	417.38
320.358	434.38
320.587	429.38
320.816	428.38
321.046	435.38
321.275	442.38
321.504	448.38
321.733	426.38
321.962	439.38
322.191	448.38
322.42	446.38
322.649	466.38
322.878	475.38
323.108	484.38
323.337	501.38
323.566	510.38
323.795	521.38
324.024	560.38
324.253	636.38
324.482	866.38
324.71	1372.38
324.939	2032.38
325.168	1746.38
325.397	906.38
325.626	635.38
325.855	540.38
326.084	520.38
326.313	540.38
326.542	524.38
326.77	577.38
326.999	647.38
327.228	837.38
327.457	1253.38
327.686	1531.38
327.914	1024.38
328.143	664.38
328.372	613.38
328.6	602.38
328.829	571.38
329.058	578.38
329.287	605.38
329.515	557.38
329.744	544.38
329.972	531.38
330.201	543.38
330.43	558.38
330.658	604.38
330.887	624.38
331.115	595.38
331.344	533.38
331.572	520.38
331.801	536.38
332.03	521.38
332.258	491.38
332.486	500.38
332.715	512.38
332.943	526.38
333.172	505.38
333.4	523.38
333.629	521.38
333.857	540.38
334.085	560.38
334.314	543.38
334.542	582.38
334.771	602.38
334.999	573.38
335.227	532.38
335.455	490.38
335.684	512.38
335.912	501.38
336.14	505.38
336.369	525.38
336.597	535.38
336.825	523.38
337.053	518.38
337.281	504.38
337.51	500.38
337.738	498.38
337.966	487.38
338.194	464.38
338.422	494.38
338.65	496.38
338.878	482.38
339.106	483.38
339.334	462.38
339.562	489.38
339.79	501.38
340.018	476.38
340.246	491.38
340.474	487.38
340.702	498.38
340.93	464.38
341.158	463.38
341.386	471.38
341.614	492.38
341.842	499.38
342.07	474.38
342.298	471.38
342.526	454.38
342.754	454.38
342.981	461.38
343.209	463.38
343.437	467.38
343.665	496.38
343.893	487.38
344.12	523.38
344.348	500.38
344.576	497.38
344.804	497.38
345.031	512.38
345.259	504.38
345.487	483.38
345.714	490.38
345.942	465.38
346.17	464.38
346.397	480.38
346.625	467.38
346.853	453.38
347.08	451.38
347.308	465.38
347.535	467.38
347.763	486.38
347.99	474.38
348.218	484.38
348.445	470.38
348.673	469.38
348.9	467.38
349.128	467.38
349.355	465.38
349.583	471.38
349.81	449.38
350.037	432.38
350.265	450.38
350.492	460.38
350.72	455.38
350.947	451.38
351.174	468.38
351.402	484.38
351.629	474.38
351.856	472.38
352.083	464.38
352.311	472.38
352.538	459.38
352.765	480.38
352.992	454.38
353.22	471.38
353.447	440.38
353.674	461.38
353.901	452.38
354.128	436.38
354.355	449.38
354.583	438.38
354.81	460.38
355.037	458.38
355.264	444.38
355.491	454.38
355.718	440.38
355.945	438.38
356.172	422.38
356.399	428.38
356.626	445.38
356.853	443.38
357.08	446.38
357.307	450.38
357.534	427.38
357.761	442.38
357.988	451.38
358.215	433.38
358.441	442.38
358.668	463.38
358.895	442.38
359.122	427.38
359.349	447.38
359.576	481.38
359.802	483.38
360.029	540.38
360.256	517.38
360.483	509.38
360.709	489.38
360.936	465.38
361.163	461.38
361.39	480.38
361.616	458.38
361.843	468.38
362.07	468.38
362.296	472.38
362.523	473.38
362.749	469.38
362.976	467.38
363.203	477.38
363.429	452.38
363.656	464.38
363.882	451.38
364.109	462.38
364.335	466.38
364.562	471.38
364.788	424.38
365.015	440.38
365.241	463.38
365.468	462.38
365.694	437.38
365.92	468.38
366.147	458.38
366.373	445.38
366.599	447.38
366.826	443.38
367.052	450.38
367.278	449.38
367.505	446.38
367.731	458.38
367.957	454.38
368.184	460.38
368.41	460.38
368.636	464.38
368.862	486.38
369.089	452.38
369.315	467.38
369.541	456.38
369.767	476.38
369.993	453.38
370.219	469.38
370.445	455.38
370.672	477.38
370.898	456.38
371.124	449.38
371.35	477.38
371.576	455.38
371.802	479.38
372.028	466.38
372.254	458.38
372.48	466.38
372.706	469.38
372.932	459.38
373.158	471.38
373.384	469.38
373.61	466.38
373.835	494.38
374.061	447.38
374.287	474.38
374.513	458.38
374.739	476.38
374.965	482.38
375.191	473.38
375.416	480.38
375.642	482.38
375.868	451.38
376.094	459.38
376.319	466.38
376.545	454.38
376.771	462.38
376.997	450.38
377.222	457.38
377.448	457.38
377.674	477.38
377.899	462.38
378.125	452.38
378.35	482.38
378.576	464.38
378.802	456.38
379.027	466.38
379.253	454.38
379.478	468.38
379.704	455.38
379.929	467.38
380.155	448.38
380.38	475.38
380.606	484.38
380.831	498.38
381.057	473.38
381.282	466.38
381.507	454.38
381.733	472.38
381.958	464.38
382.184	489.38
382.409	461.38
382.634	483.38
382.86	496.38
383.085	498.38
383.31	473.38
383.535	496.38
383.761	508.38
383.986	476.38
384.211	491.38
384.436	488.38
384.662	478.38
384.887	504.38
385.112	504.38
385.337	535.38
385.562	522.38
385.787	518.38
386.013	522.38
386.238	541.38
386.463	530.38
386.688	529.38
386.913	522.38
387.138	512.38
387.363	510.38
387.588	514.38
387.813	508.38
388.038	512.38
388.263	518.38
388.488	530.38
388.713	515.38
388.938	536.38
389.163	518.38
389.387	542.38
389.612	526.38
389.837	526.38
390.062	517.38
390.287	531.38
390.512	522.38
390.736	528.38
390.961	526.38
391.186	503.38
391.411	527.38
391.636	528.38
391.86	540.38
392.085	549.38
392.31	548.38
392.534	541.38
392.759	524.38
392.984	548.38
393.208	544.38
393.433	539.38
393.658	526.38
393.882	502.38
394.107	523.38
394.331	551.38
394.556	523.38
394.78	525.38
395.005	549.38
395.229	507.38
395.454	552.38
395.678	546.38
395.903	565.38
396.127	587.38
396.352	581.38
396.576	562.38
396.801	563.38
397.025	566.38
397.249	550.38
397.474	565.38
397.698	574.38
397.922	587.38
398.147	572.38
398.371	601.38
398.595	596.38
398.82	610.38
399.044	628.38
399.268	642.38
399.492	699.38
399.717	730.38
399.941	756.38
400.165	743.38
400.389	757.38
400.613	690.38
400.837	658.38
401.062	605.38
401.286	638.38
401.51	619.38
401.734	604.38
401.958	643.38
402.182	627.38
402.406	637.38
402.63	635.38
402.854	609.38
403.078	636.38
403.302	644.38
403.526	653.38
403.75	645.38
403.974	632.38
404.198	658.38
404.422	648.38
404.645	644.38
404.869	661.38
405.093	685.38
405.317	720.38
405.541	765.38
405.765	718.38
405.988	690.38
406.212	680.38
406.436	714.38
406.66	720.38
406.883	702.38
407.107	733.38
407.331	774.38
407.555	858.38
407.778	842.38
408.002	747.38
408.226	714.38
408.449	696.38
408.673	692.38
408.896	723.38
409.12	770.38
409.344	705.38
409.567	659.38
409.791	658.38
410.014	652.38
410.238	634.38
410.461	648.38
410.685	660.38
410.908	653.38
411.132	696.38
411.355	736.38
411.578	702.38
411.802	658.38
412.025	635.38
412.249	678.38
412.472	676.38
412.695	702.38
412.919	700.38
413.142	648.38
413.365	648.38
413.589	625.38
413.812	613.38
414.035	613.38
414.258	621.38
414.482	612.38
414.705	616.38
414.928	616.38
415.151	605.38
415.374	613.38
415.597	615.38
415.821	590.38
416.044	588.38
416.267	626.38
416.49	630.38
416.713	589.38
416.936	590.38
417.159	587.38
417.382	585.38
417.605	606.38
417.828	629.38
418.051	617.38
418.274	619.38
418.497	593.38
418.72	608.38
418.943	600.38
419.166	639.38
419.389	684.38
419.611	662.38
419.834	654.38
420.057	662.38
420.28	665.38
420.503	630.38
420.726	630.38
420.948	637.38
421.171	661.38
421.394	736.38
421.617	668.38
421.839	619.38
422.062	626.38
422.285	644.38
422.507	698.38
422.73	766.38
422.953	755.38
423.175	706.38
423.398	664.38
423.621	648.38
423.843	678.38
424.066	681.38
424.288	701.38
424.511	692.38
424.733	743.38
424.956	827.38
425.178	804.38
425.401	775.38
425.623	819.38
425.846	704.38
426.068	676.38
426.291	680.38
426.513	665.38
426.735	658.38
426.958	714.38
427.18	779.38
427.402	937.38
427.625	1025.38
427.847	888.38
428.069	766.38
428.292	685.38
428.514	648.38
428.736	642.38
428.958	629.38
429.181	610.38
429.403	605.38
429.625	622.38
429.847	667.38
430.069	706.38
430.292	718.38
430.514	643.38
430.736	597.38
430.958	596.38
431.18	620.38
431.402	593.38
431.624	590.38
431.846	583.38
432.068	581.38
432.29	577.38
432.512	597.38
432.734	595.38
432.956	596.38
433.178	608.38
433.4	606.38
433.622	578.38
433.844	597.38
434.066	588.38
434.287	576.38
434.509	603.38
434.731	605.38
434.953	617.38
435.175	634.38
435.397	650.38
435.618	643.38
435.84	699.38
436.062	801.38
436.284	887.38
436.505	698.38
436.727	652.38
436.949	624.38
437.17	641.38
437.392	620.38
437.614	586.38
437.835	640.38
438.057	736.38
438.278	860.38
438.5	874.38
438.721	936.38
438.943	918.38
439.165	726.38
439.386	665.38
439.608	658.38
439.829	672.38
440.05	683.38
440.272	749.38
440.493	695.38
440.715	650.38
440.936	614.38
441.158	600.38
441.379	615.38
441.6	621.38
441.822	657.38
442.043	714.38
442.264	796.38
442.486	844.38
442.707	726.38
442.928	695.38
443.149	696.38
443.371	721.38
443.592	742.38
443.813	864.38
444.034	933.38
444.255	772.38
444.476	730.38
444.698	660.38
444.919	682.38
445.14	762.38
445.361	739.38
445.582	714.38
445.803	778.38
446.024	885.38
446.245	902.38
446.466	807.38
446.687	692.38
446.908	670.38
447.129	629.38
447.35	596.38
447.571	600.38
447.792	601.38
448.013	609.38
448.234	624.38
448.455	676.38
448.675	780.38
448.896	903.38
449.117	777.38
449.338	735.38
449.559	874.38
449.779	960.38
450	761.38
450.221	670.38
450.442	630.38
450.662	603.38
450.883	563.38
451.104	605.38
451.324	593.38
451.545	581.38
451.766	543.38
451.986	538.38
452.207	546.38
452.428	560.38
452.648	553.38
452.869	549.38
453.089	549.38
453.31	553.38
453.53	570.38
453.751	543.38
453.971	546.38
454.192	549.38
454.412	546.38
454.633	518.38
454.853	537.38
455.073	547.38
455.294	551.38
455.514	628.38
455.734	618.38
455.955	556.38
456.175	506.38
456.395	528.38
456.616	513.38
456.836	501.38
457.056	512.38
457.276	477.38
457.497	516.38
457.717	541.38
457.937	533.38
458.157	533.38
458.377	547.38
458.598	532.38
458.818	584.38
459.038	681.38
459.258	693.38
459.478	644.38
459.698	594.38
459.918	576.38
460.138	581.38
460.358	601.38
460.578	606.38
460.798	595.38
461.018	611.38
461.238	590.38
461.458	604.38
461.678	610.38
461.898	627.38
462.118	631.38
462.338	621.38
462.558	635.38
462.777	640.38
462.997	682.38
463.217	685.38
463.437	704.38
463.657	664.38
463.876	671.38
464.096	656.38
464.316	659.38
464.536	667.38
464.755	667.38
464.975	650.38
465.195	671.38
465.414	726.38
465.634	663.38
465.854	632.38
466.073	584.38
466.293	596.38
466.512	574.38
466.732	568.38
466.951	571.38
467.171	551.38
467.391	561.38
467.61	597.38
467.829	598.38
468.049	566.38
468.268	576.38
468.488	567.38
468.707	545.38
468.927	542.38
469.146	552.38
469.365	553.38
469.585	541.38
469.804	561.38
470.023	580.38
470.243	576.38
470.462	567.38
470.681	593.38
470.901	587.38
471.12	577.38
471.339	576.38
471.558	578.38
471.777	578.38
471.997	562.38
472.216	573.38
472.435	613.38
472.654	608.38
472.873	562.38
473.092	558.38
473.311	572.38
473.53	573.38
473.749	597.38
473.968	608.38
474.187	697.38
474.406	743.38
474.625	605.38
474.844	580.38
475.063	581.38
475.282	574.38
475.501	569.38
475.72	575.38
475.939	580.38
476.158	579.38
476.377	574.38
476.596	584.38
476.814	590.38
477.033	600.38
477.252	628.38
477.471	613.38
477.69	606.38
477.908	602.38
478.127	635.38
478.346	645.38
478.564	637.38
478.783	659.38
479.002	655.38
479.22	673.38
479.439	684.38
479.658	660.38
479.876	671.38
480.095	678.38
480.313	714.38
480.532	732.38
480.751	692.38
480.969	701.38
481.188	761.38
481.406	756.38
481.624	704.38
481.843	682.38
482.061	677.38
482.28	681.38
482.498	669.38
482.717	667.38
482.935	665.38
483.153	672.38
483.372	674.38
483.59	694.38
483.808	672.38
484.027	660.38
484.245	685.38
484.463	665.38
484.681	684.38
484.9	685.38
485.118	679.38
485.336	676.38
485.554	694.38
485.772	695.38
485.99	691.38
486.209	677.38
486.427	710.38
486.645	716.38
486.863	705.38
487.081	695.38
487.299	697.38
487.517	723.38
487.735	728.38
487.953	721.38
488.171	703.38
488.389	724.38
488.607	728.38
488.825	739.38
489.043	716.38
489.261	724.38
489.479	730.38
489.696	718.38
489.914	761.38
490.132	757.38
490.35	734.38
490.568	766.38
490.786	763.38
491.003	759.38
491.221	797.38
491.439	801.38
491.657	816.38
491.874	825.38
492.092	826.38
492.31	846.38
492.527	849.38
492.745	835.38
492.963	855.38
493.18	853.38
493.398	844.38
493.615	864.38
493.833	843.38
494.05	875.38
494.268	841.38
494.485	858.38
494.703	856.38
494.92	870.38
495.138	858.38
495.355	852.38
495.573	836.38
495.79	868.38
496.008	853.38
496.225	861.38
496.442	858.38
496.66	878.38
496.877	845.38
497.094	844.38
497.312	872.38
497.529	888.38
497.746	896.38
497.963	907.38
498.181	933.38
498.398	961.38
498.615	939.38
498.832	997.38
499.049	1005.38
499.267	1051.38
499.484	1094.38
499.701	1166.38
499.918	1168.38
500.135	1300.38
500.352	1373.38
500.569	1387.38
500.786	1372.38
501.003	1370.38
501.22	1329.38
501.437	1219.38
501.654	1164.38
