Data from 1974.PennyLincolnUp.Lamp.En5.5.200Scan.071719.P1.Changed Mount._HRD10591_15-52-44-856.txt Node
Date: Thu Jul 18 15:52:44 EDT 2019
User: cochatt
Spectrometer: HR+D1059
Trigger mode: 1
Integration Time (sec): 1.000000E-1
Scans to average: 1
Electric dark correction enabled: true
Nonlinearity correction enabled: false
Boxcar width: 0
XAxis mode: Wavelengths
Number of Pixels in Spectrum: 2048
>>>>>Begin Spectral Data<<<<<
223.165	-7.69
223.4	-7.69
223.635	-7.69
223.869	-11.69
224.104	-33.69
224.338	-9.69
224.573	-14.69
224.808	-13.69
225.042	0.31
225.277	2.31
225.511	5.31
225.746	3.31
225.98	-1.69
226.215	-0.69
226.449	18.31
226.683	12.31
226.918	24.31
227.152	27.31
227.387	27.31
227.621	41.31
227.856	35.31
228.09	46.31
228.324	60.31
228.559	51.31
228.793	66.31
229.027	101.31
229.262	107.31
229.496	111.31
229.73	128.31
229.964	151.31
230.199	134.31
230.433	122.31
230.667	118.31
230.901	114.31
231.136	121.31
231.37	118.31
231.604	102.31
231.838	124.31
232.072	120.31
232.306	113.31
232.541	122.31
232.775	117.31
233.009	105.31
233.243	107.31
233.477	122.31
233.711	120.31
233.945	118.31
234.179	123.31
234.413	116.31
234.647	131.31
234.881	123.31
235.115	126.31
235.349	112.31
235.583	100.31
235.817	122.31
236.051	142.31
236.285	138.31
236.519	121.31
236.753	132.31
236.987	152.31
237.221	186.31
237.455	219.31
237.689	193.31
237.922	142.31
238.156	127.31
238.39	132.31
238.624	133.31
238.858	148.31
239.091	124.31
239.325	122.31
239.559	137.31
239.793	135.31
240.027	141.31
240.26	153.31
240.494	166.31
240.728	142.31
240.961	154.31
241.195	156.31
241.429	157.31
241.662	150.31
241.896	148.31
242.13	129.31
242.363	152.31
242.597	165.31
242.83	149.31
243.064	157.31
243.298	138.31
243.531	140.31
243.765	149.31
243.998	150.31
244.232	146.31
244.465	148.31
244.699	153.31
244.932	157.31
245.166	159.31
245.399	169.31
245.633	150.31
245.866	144.31
246.099	168.31
246.333	177.31
246.566	162.31
246.8	154.31
247.033	169.31
247.266	173.31
247.5	180.31
247.733	179.31
247.966	182.31
248.2	184.31
248.433	200.31
248.666	165.31
248.899	205.31
249.133	216.31
249.366	206.31
249.599	212.31
249.832	203.31
250.066	182.31
250.299	182.31
250.532	198.31
250.765	211.31
250.998	217.31
251.231	234.31
251.465	236.31
251.698	208.31
251.931	207.31
252.164	205.31
252.397	205.31
252.63	209.31
252.863	204.31
253.096	230.31
253.329	236.31
253.562	246.31
253.795	235.31
254.028	237.31
254.261	227.31
254.494	229.31
254.727	267.31
254.96	278.31
255.193	304.31
255.426	270.31
255.659	245.31
255.892	257.31
256.124	248.31
256.357	247.31
256.59	242.31
256.823	216.31
257.056	217.31
257.289	219.31
257.521	222.31
257.754	231.31
257.987	232.31
258.22	215.31
258.452	212.31
258.685	221.31
258.918	207.31
259.151	224.31
259.383	232.31
259.616	217.31
259.849	225.31
260.081	242.31
260.314	253.31
260.547	266.31
260.779	274.31
261.012	237.31
261.244	234.31
261.477	236.31
261.71	229.31
261.942	253.31
262.175	270.31
262.407	240.31
262.64	230.31
262.872	211.31
263.105	232.31
263.337	229.31
263.57	215.31
263.802	240.31
264.035	245.31
264.267	234.31
264.499	226.31
264.732	220.31
264.964	227.31
265.197	244.31
265.429	233.31
265.661	249.31
265.894	252.31
266.126	238.31
266.358	244.31
266.591	216.31
266.823	240.31
267.055	231.31
267.287	238.31
267.52	226.31
267.752	253.31
267.984	249.31
268.216	247.31
268.448	261.31
268.681	261.31
268.913	247.31
269.145	272.31
269.377	278.31
269.609	293.31
269.841	293.31
270.073	285.31
270.306	287.31
270.538	319.31
270.77	322.31
271.002	312.31
271.234	287.31
271.466	317.31
271.698	325.31
271.93	325.31
272.162	347.31
272.394	311.31
272.626	315.31
272.858	299.31
273.09	283.31
273.322	290.31
273.553	288.31
273.785	291.31
274.017	288.31
274.249	282.31
274.481	264.31
274.713	260.31
274.945	287.31
275.176	277.31
275.408	266.31
275.64	286.31
275.872	281.31
276.104	291.31
276.335	286.31
276.567	298.31
276.799	297.31
277.031	301.31
277.262	329.31
277.494	341.31
277.726	332.31
277.957	308.31
278.189	291.31
278.421	310.31
278.652	319.31
278.884	286.31
279.115	284.31
279.347	288.31
279.579	295.31
279.81	286.31
280.042	268.31
280.273	285.31
280.505	288.31
280.736	287.31
280.968	281.31
281.199	288.31
281.431	307.31
281.662	284.31
281.894	302.31
282.125	302.31
282.356	310.31
282.588	317.31
282.819	321.31
283.051	297.31
283.282	304.31
283.513	313.31
283.745	290.31
283.976	321.31
284.207	297.31
284.439	290.31
284.67	305.31
284.901	297.31
285.132	291.31
285.364	309.31
285.595	310.31
285.826	312.31
286.057	314.31
286.288	289.31
286.52	332.31
286.751	308.31
286.982	309.31
287.213	305.31
287.444	309.31
287.675	298.31
287.906	321.31
288.138	341.31
288.369	325.31
288.6	326.31
288.831	305.31
289.062	325.31
289.293	315.31
289.524	309.31
289.755	319.31
289.986	313.31
290.217	325.31
290.448	320.31
290.679	321.31
290.91	335.31
291.141	328.31
291.371	296.31
291.602	314.31
291.833	314.31
292.064	297.31
292.295	325.31
292.526	316.31
292.757	306.31
292.987	307.31
293.218	300.31
293.449	326.31
293.68	324.31
293.91	333.31
294.141	318.31
294.372	302.31
294.603	328.31
294.833	335.31
295.064	324.31
295.295	327.31
295.525	328.31
295.756	321.31
295.987	353.31
296.217	348.31
296.448	340.31
296.679	340.31
296.909	344.31
297.14	325.31
297.37	316.31
297.601	341.31
297.831	329.31
298.062	329.31
298.292	337.31
298.523	345.31
298.753	346.31
298.984	351.31
299.214	341.31
299.445	330.31
299.675	326.31
299.905	361.31
300.136	346.31
300.366	348.31
300.597	342.31
300.827	347.31
301.057	358.31
301.288	357.31
301.518	361.31
301.748	344.31
301.979	344.31
302.209	358.31
302.439	364.31
302.669	349.31
302.9	346.31
303.13	342.31
303.36	349.31
303.59	369.31
303.82	356.31
304.051	373.31
304.281	368.31
304.511	360.31
304.741	352.31
304.971	365.31
305.201	351.31
305.431	364.31
305.661	364.31
305.891	366.31
306.121	355.31
306.352	380.31
306.582	384.31
306.812	373.31
307.042	372.31
307.272	376.31
307.502	357.31
307.731	361.31
307.961	361.31
308.191	364.31
308.421	383.31
308.651	370.31
308.881	350.31
309.111	355.31
309.341	365.31
309.571	373.31
309.8	396.31
310.03	366.31
310.26	375.31
310.49	390.31
310.72	394.31
310.949	411.31
311.179	410.31
311.409	405.31
311.639	413.31
311.868	369.31
312.098	389.31
312.328	398.31
312.557	407.31
312.787	409.31
313.017	443.31
313.246	415.31
313.476	412.31
313.706	393.31
313.935	384.31
314.165	425.31
314.394	401.31
314.624	414.31
314.853	409.31
315.083	419.31
315.312	388.31
315.542	393.31
315.771	408.31
316.001	402.31
316.23	385.31
316.46	391.31
316.689	429.31
316.919	398.31
317.148	414.31
317.377	418.31
317.607	419.31
317.836	405.31
318.065	397.31
318.295	398.31
318.524	396.31
318.753	398.31
318.983	410.31
319.212	390.31
319.441	412.31
319.67	429.31
319.9	418.31
320.129	414.31
320.358	422.31
320.587	427.31
320.816	424.31
321.046	418.31
321.275	437.31
321.504	432.31
321.733	421.31
321.962	416.31
322.191	441.31
322.42	436.31
322.649	450.31
322.878	457.31
323.108	477.31
323.337	491.31
323.566	511.31
323.795	497.31
324.024	551.31
324.253	634.31
324.482	843.31
324.71	1254.31
324.939	1816.31
325.168	1610.31
325.397	836.31
325.626	607.31
325.855	536.31
326.084	503.31
326.313	488.31
326.542	502.31
326.77	540.31
326.999	627.31
327.228	774.31
327.457	1138.31
327.686	1380.31
327.914	965.31
328.143	670.31
328.372	582.31
328.6	566.31
328.829	550.31
329.058	537.31
329.287	565.31
329.515	533.31
329.744	507.31
329.972	516.31
330.201	544.31
330.43	564.31
330.658	563.31
330.887	597.31
331.115	581.31
331.344	525.31
331.572	500.31
331.801	503.31
332.03	506.31
332.258	522.31
332.486	504.31
332.715	504.31
332.943	484.31
333.172	514.31
333.4	485.31
333.629	509.31
333.857	509.31
334.085	526.31
334.314	531.31
334.542	567.31
334.771	579.31
334.999	517.31
335.227	502.31
335.455	493.31
335.684	500.31
335.912	511.31
336.14	473.31
336.369	500.31
336.597	489.31
336.825	496.31
337.053	506.31
337.281	501.31
337.51	493.31
337.738	469.31
337.966	479.31
338.194	474.31
338.422	490.31
338.65	471.31
338.878	468.31
339.106	443.31
339.334	474.31
339.562	456.31
339.79	461.31
340.018	472.31
340.246	456.31
340.474	463.31
340.702	465.31
340.93	455.31
341.158	458.31
341.386	487.31
341.614	457.31
341.842	461.31
342.07	484.31
342.298	464.31
342.526	450.31
342.754	458.31
342.981	464.31
343.209	466.31
343.437	473.31
343.665	471.31
343.893	504.31
344.12	501.31
344.348	514.31
344.576	482.31
344.804	481.31
345.031	485.31
345.259	473.31
345.487	467.31
345.714	466.31
345.942	460.31
346.17	454.31
346.397	477.31
346.625	475.31
346.853	459.31
347.08	437.31
347.308	458.31
347.535	464.31
347.763	471.31
347.99	454.31
348.218	451.31
348.445	474.31
348.673	473.31
348.9	444.31
349.128	461.31
349.355	443.31
349.583	438.31
349.81	445.31
350.037	435.31
350.265	437.31
350.492	454.31
350.72	437.31
350.947	462.31
351.174	454.31
351.402	458.31
351.629	460.31
351.856	474.31
352.083	455.31
352.311	460.31
352.538	472.31
352.765	466.31
352.992	463.31
353.22	454.31
353.447	450.31
353.674	459.31
353.901	464.31
354.128	441.31
354.355	450.31
354.583	441.31
354.81	437.31
355.037	428.31
355.264	426.31
355.491	415.31
355.718	450.31
355.945	429.31
356.172	434.31
356.399	443.31
356.626	447.31
356.853	434.31
357.08	445.31
357.307	426.31
357.534	421.31
357.761	426.31
357.988	437.31
358.215	432.31
358.441	423.31
358.668	418.31
358.895	448.31
359.122	429.31
359.349	470.31
359.576	446.31
359.802	466.31
360.029	493.31
360.256	512.31
360.483	473.31
360.709	456.31
360.936	464.31
361.163	456.31
361.39	464.31
361.616	472.31
361.843	466.31
362.07	470.31
362.296	443.31
362.523	437.31
362.749	460.31
362.976	438.31
363.203	455.31
363.429	432.31
363.656	445.31
363.882	440.31
364.109	460.31
364.335	455.31
364.562	443.31
364.788	430.31
365.015	452.31
365.241	441.31
365.468	434.31
365.694	448.31
365.92	465.31
366.147	430.31
366.373	438.31
366.599	424.31
366.826	449.31
367.052	452.31
367.278	440.31
367.505	454.31
367.731	436.31
367.957	456.31
368.184	436.31
368.41	479.31
368.636	475.31
368.862	471.31
369.089	457.31
369.315	445.31
369.541	438.31
369.767	462.31
369.993	453.31
370.219	442.31
370.445	453.31
370.672	455.31
370.898	465.31
371.124	458.31
371.35	448.31
371.576	473.31
371.802	456.31
372.028	463.31
372.254	452.31
372.48	450.31
372.706	462.31
372.932	462.31
373.158	490.31
373.384	475.31
373.61	486.31
373.835	472.31
374.061	448.31
374.287	462.31
374.513	445.31
374.739	465.31
374.965	498.31
375.191	462.31
375.416	476.31
375.642	478.31
375.868	464.31
376.094	472.31
376.319	466.31
376.545	474.31
376.771	457.31
376.997	461.31
377.222	456.31
377.448	462.31
377.674	454.31
377.899	445.31
378.125	437.31
378.35	460.31
378.576	449.31
378.802	449.31
379.027	451.31
379.253	463.31
379.478	433.31
379.704	489.31
379.929	448.31
380.155	442.31
380.38	450.31
380.606	457.31
380.831	462.31
381.057	466.31
381.282	464.31
381.507	449.31
381.733	455.31
381.958	468.31
382.184	474.31
382.409	480.31
382.634	494.31
382.86	466.31
383.085	477.31
383.31	465.31
383.535	477.31
383.761	484.31
383.986	491.31
384.211	477.31
384.436	483.31
384.662	484.31
384.887	478.31
385.112	504.31
385.337	500.31
385.562	506.31
385.787	531.31
386.013	512.31
386.238	493.31
386.463	520.31
386.688	499.31
386.913	512.31
387.138	525.31
387.363	520.31
387.588	501.31
387.813	514.31
388.038	512.31
388.263	520.31
388.488	526.31
388.713	500.31
388.938	506.31
389.163	506.31
389.387	530.31
389.612	484.31
389.837	514.31
390.062	521.31
390.287	519.31
390.512	514.31
390.736	496.31
390.961	530.31
391.186	522.31
391.411	520.31
391.636	533.31
391.86	532.31
392.085	557.31
392.31	532.31
392.534	550.31
392.759	520.31
392.984	496.31
393.208	532.31
393.433	522.31
393.658	511.31
393.882	538.31
394.107	528.31
394.331	525.31
394.556	531.31
394.78	516.31
395.005	544.31
395.229	526.31
395.454	566.31
395.678	562.31
395.903	569.31
396.127	553.31
396.352	578.31
396.576	534.31
396.801	567.31
397.025	544.31
397.249	566.31
397.474	544.31
397.698	528.31
397.922	560.31
398.147	574.31
398.371	594.31
398.595	575.31
398.82	586.31
399.044	619.31
399.268	632.31
399.492	711.31
399.717	760.31
399.941	768.31
400.165	769.31
400.389	737.31
400.613	650.31
400.837	658.31
401.062	623.31
401.286	633.31
401.51	614.31
401.734	595.31
401.958	614.31
402.182	600.31
402.406	571.31
402.63	596.31
402.854	632.31
403.078	611.31
403.302	616.31
403.526	624.31
403.75	648.31
403.974	606.31
404.198	642.31
404.422	640.31
404.645	659.31
404.869	660.31
405.093	669.31
405.317	705.31
405.541	769.31
405.765	707.31
405.988	679.31
406.212	677.31
406.436	678.31
406.66	681.31
406.883	701.31
407.107	704.31
407.331	749.31
407.555	836.31
407.778	840.31
408.002	752.31
408.226	702.31
408.449	687.31
408.673	674.31
408.896	706.31
409.12	741.31
409.344	710.31
409.567	640.31
409.791	679.31
410.014	621.31
410.238	621.31
410.461	635.31
410.685	617.31
410.908	643.31
411.132	676.31
411.355	705.31
411.578	692.31
411.802	634.31
412.025	620.31
412.249	629.31
412.472	666.31
412.695	710.31
412.919	681.31
413.142	626.31
413.365	614.31
413.589	612.31
413.812	613.31
414.035	594.31
414.258	598.31
414.482	595.31
414.705	586.31
414.928	600.31
415.151	612.31
415.374	561.31
415.597	590.31
415.821	567.31
416.044	588.31
416.267	581.31
416.49	583.31
416.713	579.31
416.936	592.31
417.159	581.31
417.382	611.31
417.605	576.31
417.828	580.31
418.051	616.31
418.274	639.31
418.497	596.31
418.72	598.31
418.943	605.31
419.166	616.31
419.389	630.31
419.611	636.31
419.834	635.31
420.057	652.31
420.28	647.31
420.503	620.31
420.726	618.31
420.948	600.31
421.171	678.31
421.394	706.31
421.617	653.31
421.839	617.31
422.062	621.31
422.285	624.31
422.507	690.31
422.73	758.31
422.953	762.31
423.175	660.31
423.398	638.31
423.621	664.31
423.843	673.31
424.066	671.31
424.288	654.31
424.511	677.31
424.733	723.31
424.956	824.31
425.178	794.31
425.401	750.31
425.623	807.31
425.846	681.31
426.068	668.31
426.291	672.31
426.513	637.31
426.735	649.31
426.958	684.31
427.18	773.31
427.402	890.31
427.625	1005.31
427.847	853.31
428.069	730.31
428.292	696.31
428.514	630.31
428.736	594.31
428.958	612.31
429.181	600.31
429.403	596.31
429.625	620.31
429.847	620.31
430.069	706.31
430.292	707.31
430.514	641.31
430.736	596.31
430.958	596.31
431.18	599.31
431.402	588.31
431.624	568.31
431.846	562.31
432.068	578.31
432.29	565.31
432.512	588.31
432.734	599.31
432.956	580.31
433.178	590.31
433.4	591.31
433.622	584.31
433.844	599.31
434.066	598.31
434.287	575.31
434.509	596.31
434.731	586.31
434.953	604.31
435.175	622.31
435.397	644.31
435.618	646.31
435.84	676.31
436.062	768.31
436.284	860.31
436.505	696.31
436.727	653.31
436.949	618.31
437.17	600.31
437.392	599.31
437.614	621.31
437.835	632.31
438.057	724.31
438.278	812.31
438.5	856.31
438.721	909.31
438.943	878.31
439.165	702.31
439.386	651.31
439.608	645.31
439.829	659.31
440.05	657.31
440.272	698.31
440.493	670.31
440.715	641.31
440.936	599.31
441.158	613.31
441.379	620.31
441.6	624.31
441.822	637.31
442.043	705.31
442.264	781.31
442.486	854.31
442.707	712.31
442.928	680.31
443.149	667.31
443.371	691.31
443.592	716.31
443.813	829.31
444.034	894.31
444.255	759.31
444.476	670.31
444.698	666.31
444.919	676.31
445.14	796.31
445.361	723.31
445.582	702.31
445.803	746.31
446.024	864.31
446.245	868.31
446.466	799.31
446.687	664.31
446.908	652.31
447.129	630.31
447.35	612.31
447.571	590.31
447.792	588.31
448.013	608.31
448.234	606.31
448.455	647.31
448.675	772.31
448.896	889.31
449.117	764.31
449.338	704.31
449.559	830.31
449.779	909.31
450	723.31
450.221	648.31
450.442	593.31
450.662	551.31
450.883	598.31
451.104	579.31
451.324	560.31
451.545	555.31
451.766	536.31
451.986	525.31
452.207	530.31
452.428	539.31
452.648	545.31
452.869	541.31
453.089	540.31
453.31	537.31
453.53	541.31
453.751	514.31
453.971	522.31
454.192	546.31
454.412	540.31
454.633	530.31
454.853	521.31
455.073	533.31
455.294	557.31
455.514	620.31
455.734	613.31
455.955	562.31
456.175	504.31
456.395	502.31
456.616	502.31
456.836	504.31
457.056	498.31
457.276	500.31
457.497	514.31
457.717	493.31
457.937	500.31
458.157	517.31
458.377	519.31
458.598	544.31
458.818	585.31
459.038	643.31
459.258	684.31
459.478	625.31
459.698	578.31
459.918	566.31
460.138	567.31
460.358	599.31
460.578	590.31
460.798	610.31
461.018	627.31
461.238	579.31
461.458	588.31
461.678	572.31
461.898	595.31
462.118	591.31
462.338	628.31
462.558	610.31
462.777	658.31
462.997	632.31
463.217	684.31
463.437	696.31
463.657	640.31
463.876	651.31
464.096	641.31
464.316	666.31
464.536	676.31
464.755	673.31
464.975	634.31
465.195	647.31
465.414	680.31
465.634	620.31
465.854	616.31
466.073	602.31
466.293	580.31
466.512	587.31
466.732	546.31
466.951	542.31
467.171	535.31
467.391	548.31
467.61	553.31
467.829	559.31
468.049	557.31
468.268	564.31
468.488	549.31
468.707	530.31
468.927	528.31
469.146	523.31
469.365	522.31
469.585	556.31
469.804	557.31
470.023	560.31
470.243	565.31
470.462	559.31
470.681	588.31
470.901	570.31
471.12	569.31
471.339	560.31
471.558	552.31
471.777	570.31
471.997	564.31
472.216	563.31
472.435	589.31
472.654	565.31
472.873	567.31
473.092	531.31
473.311	556.31
473.53	548.31
473.749	552.31
473.968	590.31
474.187	710.31
474.406	744.31
474.625	596.31
474.844	557.31
475.063	564.31
475.282	575.31
475.501	549.31
475.72	569.31
475.939	568.31
476.158	583.31
476.377	580.31
476.596	550.31
476.814	558.31
477.033	588.31
477.252	574.31
477.471	563.31
477.69	586.31
477.908	603.31
478.127	596.31
478.346	614.31
478.564	632.31
478.783	640.31
479.002	633.31
479.22	668.31
479.439	683.31
479.658	665.31
479.876	691.31
480.095	699.31
480.313	692.31
480.532	703.31
480.751	695.31
480.969	701.31
481.188	735.31
481.406	752.31
481.624	695.31
481.843	653.31
482.061	655.31
482.28	666.31
482.498	674.31
482.717	654.31
482.935	663.31
483.153	650.31
483.372	676.31
483.59	640.31
483.808	638.31
484.027	649.31
484.245	668.31
484.463	673.31
484.681	680.31
484.9	671.31
485.118	684.31
485.336	676.31
485.554	663.31
485.772	657.31
485.99	677.31
486.209	681.31
486.427	669.31
486.645	704.31
486.863	705.31
487.081	713.31
487.299	680.31
487.517	706.31
487.735	711.31
487.953	715.31
488.171	677.31
488.389	693.31
488.607	717.31
488.825	698.31
489.043	722.31
489.261	743.31
489.479	717.31
489.696	714.31
489.914	726.31
490.132	749.31
490.35	728.31
490.568	760.31
490.786	745.31
491.003	760.31
491.221	750.31
491.439	776.31
491.657	790.31
491.874	820.31
492.092	790.31
492.31	828.31
492.527	838.31
492.745	822.31
492.963	814.31
493.18	811.31
493.398	837.31
493.615	856.31
493.833	822.31
494.05	845.31
494.268	845.31
494.485	840.31
494.703	845.31
494.92	843.31
495.138	836.31
495.355	846.31
495.573	828.31
495.79	814.31
496.008	835.31
496.225	837.31
496.442	823.31
496.66	865.31
496.877	857.31
497.094	845.31
497.312	865.31
497.529	876.31
497.746	884.31
497.963	888.31
498.181	905.31
498.398	923.31
498.615	955.31
498.832	996.31
499.049	987.31
499.267	1030.31
499.484	1058.31
499.701	1121.31
499.918	1193.31
500.135	1234.31
500.352	1308.31
500.569	1336.31
500.786	1361.31
501.003	1306.31
501.22	1302.31
501.437	1176.31
501.654	1134.31
