Data from 1974.PennyLincolnUp.Lamp.En5.5.200Scan.071719.P1.Changed Mount._HRD10591_15-53-57-857.txt Node
Date: Thu Jul 18 15:53:57 EDT 2019
User: cochatt
Spectrometer: HR+D1059
Trigger mode: 1
Integration Time (sec): 1.000000E-1
Scans to average: 1
Electric dark correction enabled: true
Nonlinearity correction enabled: false
Boxcar width: 0
XAxis mode: Wavelengths
Number of Pixels in Spectrum: 2048
>>>>>Begin Spectral Data<<<<<
223.165	-7.5
223.4	-7.5
223.635	-7.5
223.869	-15.5
224.104	-17.5
224.338	0.5
224.573	-20.5
224.808	-23.5
225.042	-8.5
225.277	-9.5
225.511	-0.5
225.746	-4.5
225.98	3.5
226.215	19.5
226.449	24.5
226.683	4.5
226.918	23.5
227.152	31.5
227.387	28.5
227.621	33.5
227.856	53.5
228.09	50.5
228.324	52.5
228.559	52.5
228.793	71.5
229.027	108.5
229.262	105.5
229.496	114.5
229.73	138.5
229.964	157.5
230.199	130.5
230.433	118.5
230.667	119.5
230.901	124.5
231.136	119.5
231.37	118.5
231.604	127.5
231.838	123.5
232.072	98.5
232.306	114.5
232.541	117.5
232.775	114.5
233.009	104.5
233.243	126.5
233.477	116.5
233.711	120.5
233.945	114.5
234.179	122.5
234.413	112.5
234.647	129.5
234.881	137.5
235.115	126.5
235.349	116.5
235.583	117.5
235.817	134.5
236.051	140.5
236.285	134.5
236.519	123.5
236.753	134.5
236.987	155.5
237.221	192.5
237.455	253.5
237.689	200.5
237.922	140.5
238.156	150.5
238.39	144.5
238.624	121.5
238.858	119.5
239.091	124.5
239.325	122.5
239.559	132.5
239.793	143.5
240.027	154.5
240.26	141.5
240.494	172.5
240.728	156.5
240.961	155.5
241.195	152.5
241.429	135.5
241.662	143.5
241.896	144.5
242.13	138.5
242.363	128.5
242.597	141.5
242.83	150.5
243.064	143.5
243.298	145.5
243.531	147.5
243.765	163.5
243.998	157.5
244.232	134.5
244.465	147.5
244.699	159.5
244.932	145.5
245.166	149.5
245.399	145.5
245.633	149.5
245.866	158.5
246.099	153.5
246.333	162.5
246.566	160.5
246.8	162.5
247.033	173.5
247.266	170.5
247.5	181.5
247.733	186.5
247.966	182.5
248.2	193.5
248.433	197.5
248.666	191.5
248.899	200.5
249.133	193.5
249.366	214.5
249.599	216.5
249.832	210.5
250.066	190.5
250.299	196.5
250.532	198.5
250.765	220.5
250.998	245.5
251.231	243.5
251.465	239.5
251.698	223.5
251.931	219.5
252.164	219.5
252.397	216.5
252.63	211.5
252.863	209.5
253.096	231.5
253.329	263.5
253.562	237.5
253.795	239.5
254.028	245.5
254.261	243.5
254.494	251.5
254.727	268.5
254.96	308.5
255.193	295.5
255.426	274.5
255.659	214.5
255.892	265.5
256.124	250.5
256.357	253.5
256.59	238.5
256.823	234.5
257.056	227.5
257.289	225.5
257.521	217.5
257.754	226.5
257.987	237.5
258.22	231.5
258.452	218.5
258.685	208.5
258.918	224.5
259.151	235.5
259.383	222.5
259.616	243.5
259.849	257.5
260.081	255.5
260.314	267.5
260.547	281.5
260.779	268.5
261.012	244.5
261.244	242.5
261.477	229.5
261.71	238.5
261.942	256.5
262.175	250.5
262.407	244.5
262.64	220.5
262.872	235.5
263.105	230.5
263.337	226.5
263.57	228.5
263.802	238.5
264.035	243.5
264.267	240.5
264.499	239.5
264.732	236.5
264.964	230.5
265.197	226.5
265.429	232.5
265.661	237.5
265.894	225.5
266.126	246.5
266.358	237.5
266.591	236.5
266.823	230.5
267.055	249.5
267.287	256.5
267.52	265.5
267.752	253.5
267.984	237.5
268.216	269.5
268.448	264.5
268.681	262.5
268.913	260.5
269.145	278.5
269.377	315.5
269.609	295.5
269.841	306.5
270.073	307.5
270.306	308.5
270.538	345.5
270.77	343.5
271.002	338.5
271.234	322.5
271.466	324.5
271.698	328.5
271.93	342.5
272.162	331.5
272.394	349.5
272.626	319.5
272.858	299.5
273.09	309.5
273.322	299.5
273.553	266.5
273.785	262.5
274.017	303.5
274.249	300.5
274.481	294.5
274.713	268.5
274.945	286.5
275.176	297.5
275.408	300.5
275.64	290.5
275.872	286.5
276.104	282.5
276.335	309.5
276.567	301.5
276.799	315.5
277.031	304.5
277.262	336.5
277.494	339.5
277.726	338.5
277.957	316.5
278.189	314.5
278.421	287.5
278.652	286.5
278.884	310.5
279.115	301.5
279.347	286.5
279.579	294.5
279.81	297.5
280.042	295.5
280.273	294.5
280.505	284.5
280.736	295.5
280.968	286.5
281.199	287.5
281.431	293.5
281.662	281.5
281.894	268.5
282.125	277.5
282.356	322.5
282.588	324.5
282.819	299.5
283.051	298.5
283.282	322.5
283.513	317.5
283.745	315.5
283.976	320.5
284.207	323.5
284.439	328.5
284.67	318.5
284.901	306.5
285.132	308.5
285.364	299.5
285.595	321.5
285.826	329.5
286.057	328.5
286.288	314.5
286.52	306.5
286.751	322.5
286.982	311.5
287.213	308.5
287.444	310.5
287.675	321.5
287.906	321.5
288.138	339.5
288.369	332.5
288.6	319.5
288.831	315.5
289.062	330.5
289.293	328.5
289.524	315.5
289.755	327.5
289.986	333.5
290.217	330.5
290.448	328.5
290.679	312.5
290.91	333.5
291.141	319.5
291.371	312.5
291.602	320.5
291.833	313.5
292.064	320.5
292.295	320.5
292.526	337.5
292.757	333.5
292.987	310.5
293.218	334.5
293.449	326.5
293.68	334.5
293.91	313.5
294.141	318.5
294.372	310.5
294.603	331.5
294.833	330.5
295.064	320.5
295.295	332.5
295.525	317.5
295.756	330.5
295.987	332.5
296.217	354.5
296.448	379.5
296.679	348.5
296.909	331.5
297.14	327.5
297.37	359.5
297.601	343.5
297.831	344.5
298.062	340.5
298.292	353.5
298.523	339.5
298.753	336.5
298.984	321.5
299.214	322.5
299.445	346.5
299.675	363.5
299.905	335.5
300.136	362.5
300.366	340.5
300.597	346.5
300.827	348.5
301.057	343.5
301.288	350.5
301.518	356.5
301.748	340.5
301.979	383.5
302.209	346.5
302.439	363.5
302.669	356.5
302.9	352.5
303.13	353.5
303.36	366.5
303.59	367.5
303.82	390.5
304.051	376.5
304.281	377.5
304.511	376.5
304.741	359.5
304.971	378.5
305.201	361.5
305.431	348.5
305.661	363.5
305.891	372.5
306.121	380.5
306.352	372.5
306.582	393.5
306.812	360.5
307.042	364.5
307.272	363.5
307.502	372.5
307.731	370.5
307.961	349.5
308.191	347.5
308.421	358.5
308.651	366.5
308.881	382.5
309.111	367.5
309.341	378.5
309.571	382.5
309.8	379.5
310.03	385.5
310.26	413.5
310.49	396.5
310.72	407.5
310.949	416.5
311.179	431.5
311.409	409.5
311.639	421.5
311.868	377.5
312.098	411.5
312.328	392.5
312.557	428.5
312.787	423.5
313.017	428.5
313.246	399.5
313.476	409.5
313.706	411.5
313.935	412.5
314.165	423.5
314.394	394.5
314.624	426.5
314.853	431.5
315.083	403.5
315.312	386.5
315.542	397.5
315.771	419.5
316.001	400.5
316.23	401.5
316.46	413.5
316.689	408.5
316.919	405.5
317.148	395.5
317.377	421.5
317.607	426.5
317.836	409.5
318.065	408.5
318.295	415.5
318.524	434.5
318.753	399.5
318.983	412.5
319.212	409.5
319.441	418.5
319.67	407.5
319.9	410.5
320.129	424.5
320.358	425.5
320.587	394.5
320.816	427.5
321.046	435.5
321.275	414.5
321.504	424.5
321.733	445.5
321.962	438.5
322.191	441.5
322.42	451.5
322.649	463.5
322.878	467.5
323.108	479.5
323.337	482.5
323.566	509.5
323.795	536.5
324.024	586.5
324.253	642.5
324.482	882.5
324.71	1345.5
324.939	2011.5
325.168	1786.5
325.397	902.5
325.626	619.5
325.855	550.5
326.084	513.5
326.313	490.5
326.542	509.5
326.77	535.5
326.999	612.5
327.228	804.5
327.457	1218.5
327.686	1520.5
327.914	1015.5
328.143	664.5
328.372	626.5
328.6	580.5
328.829	559.5
329.058	582.5
329.287	591.5
329.515	569.5
329.744	539.5
329.972	534.5
330.201	540.5
330.43	566.5
330.658	572.5
330.887	608.5
331.115	622.5
331.344	538.5
331.572	517.5
331.801	522.5
332.03	516.5
332.258	530.5
332.486	488.5
332.715	500.5
332.943	490.5
333.172	514.5
333.4	508.5
333.629	526.5
333.857	540.5
334.085	529.5
334.314	572.5
334.542	590.5
334.771	576.5
334.999	528.5
335.227	527.5
335.455	511.5
335.684	511.5
335.912	495.5
336.14	485.5
336.369	503.5
336.597	498.5
336.825	486.5
337.053	486.5
337.281	456.5
337.51	464.5
337.738	489.5
337.966	504.5
338.194	483.5
338.422	495.5
338.65	469.5
338.878	488.5
339.106	470.5
339.334	492.5
339.562	493.5
339.79	469.5
340.018	463.5
340.246	455.5
340.474	473.5
340.702	471.5
340.93	458.5
341.158	486.5
341.386	465.5
341.614	472.5
341.842	464.5
342.07	472.5
342.298	460.5
342.526	465.5
342.754	465.5
342.981	469.5
343.209	441.5
343.437	455.5
343.665	482.5
343.893	508.5
344.12	511.5
344.348	503.5
344.576	502.5
344.804	490.5
345.031	493.5
345.259	484.5
345.487	466.5
345.714	482.5
345.942	448.5
346.17	471.5
346.397	464.5
346.625	453.5
346.853	440.5
347.08	461.5
347.308	466.5
347.535	468.5
347.763	472.5
347.99	448.5
348.218	476.5
348.445	457.5
348.673	479.5
348.9	438.5
349.128	458.5
349.355	445.5
349.583	446.5
349.81	444.5
350.037	439.5
350.265	461.5
350.492	448.5
350.72	453.5
350.947	460.5
351.174	458.5
351.402	469.5
351.629	468.5
351.856	466.5
352.083	437.5
352.311	459.5
352.538	470.5
352.765	475.5
352.992	464.5
353.22	428.5
353.447	452.5
353.674	455.5
353.901	454.5
354.128	438.5
354.355	428.5
354.583	427.5
354.81	458.5
355.037	424.5
355.264	428.5
355.491	437.5
355.718	429.5
355.945	414.5
356.172	420.5
356.399	429.5
356.626	441.5
356.853	448.5
357.08	434.5
357.307	457.5
357.534	456.5
357.761	458.5
357.988	438.5
358.215	436.5
358.441	440.5
358.668	450.5
358.895	437.5
359.122	452.5
359.349	466.5
359.576	465.5
359.802	473.5
360.029	503.5
360.256	507.5
360.483	484.5
360.709	473.5
360.936	466.5
361.163	454.5
361.39	455.5
361.616	459.5
361.843	461.5
362.07	470.5
362.296	476.5
362.523	461.5
362.749	450.5
362.976	429.5
363.203	458.5
363.429	444.5
363.656	456.5
363.882	435.5
364.109	442.5
364.335	440.5
364.562	452.5
364.788	442.5
365.015	473.5
365.241	450.5
365.468	454.5
365.694	463.5
365.92	458.5
366.147	445.5
366.373	416.5
366.599	434.5
366.826	450.5
367.052	447.5
367.278	446.5
367.505	456.5
367.731	443.5
367.957	457.5
368.184	451.5
368.41	457.5
368.636	455.5
368.862	483.5
369.089	450.5
369.315	443.5
369.541	439.5
369.767	459.5
369.993	443.5
370.219	442.5
370.445	442.5
370.672	428.5
370.898	445.5
371.124	451.5
371.35	442.5
371.576	453.5
371.802	450.5
372.028	464.5
372.254	450.5
372.48	471.5
372.706	466.5
372.932	457.5
373.158	469.5
373.384	452.5
373.61	452.5
373.835	458.5
374.061	457.5
374.287	457.5
374.513	478.5
374.739	480.5
374.965	493.5
375.191	468.5
375.416	476.5
375.642	451.5
375.868	476.5
376.094	460.5
376.319	446.5
376.545	448.5
376.771	456.5
376.997	472.5
377.222	460.5
377.448	449.5
377.674	451.5
377.899	447.5
378.125	464.5
378.35	467.5
378.576	450.5
378.802	456.5
379.027	471.5
379.253	452.5
379.478	454.5
379.704	453.5
379.929	450.5
380.155	462.5
380.38	466.5
380.606	454.5
380.831	440.5
381.057	484.5
381.282	462.5
381.507	467.5
381.733	450.5
381.958	458.5
382.184	446.5
382.409	454.5
382.634	463.5
382.86	464.5
383.085	477.5
383.31	462.5
383.535	489.5
383.761	478.5
383.986	500.5
384.211	493.5
384.436	491.5
384.662	508.5
384.887	505.5
385.112	477.5
385.337	516.5
385.562	514.5
385.787	507.5
386.013	516.5
386.238	489.5
386.463	506.5
386.688	518.5
386.913	509.5
387.138	504.5
387.363	524.5
387.588	484.5
387.813	506.5
388.038	498.5
388.263	510.5
388.488	502.5
388.713	501.5
388.938	501.5
389.163	483.5
389.387	501.5
389.612	510.5
389.837	499.5
390.062	494.5
390.287	524.5
390.512	520.5
390.736	527.5
390.961	507.5
391.186	519.5
391.411	514.5
391.636	529.5
391.86	534.5
392.085	535.5
392.31	554.5
392.534	523.5
392.759	552.5
392.984	522.5
393.208	524.5
393.433	513.5
393.658	516.5
393.882	495.5
394.107	498.5
394.331	533.5
394.556	508.5
394.78	530.5
395.005	547.5
395.229	526.5
395.454	538.5
395.678	549.5
395.903	562.5
396.127	575.5
396.352	566.5
396.576	548.5
396.801	534.5
397.025	533.5
397.249	532.5
397.474	547.5
397.698	569.5
397.922	554.5
398.147	617.5
398.371	581.5
398.595	606.5
398.82	612.5
399.044	591.5
399.268	631.5
399.492	702.5
399.717	722.5
399.941	736.5
400.165	743.5
400.389	736.5
400.613	694.5
400.837	640.5
401.062	626.5
401.286	633.5
401.51	614.5
401.734	609.5
401.958	591.5
402.182	627.5
402.406	620.5
402.63	631.5
402.854	608.5
403.078	625.5
403.302	616.5
403.526	644.5
403.75	626.5
403.974	613.5
404.198	646.5
404.422	666.5
404.645	644.5
404.869	619.5
405.093	666.5
405.317	702.5
405.541	734.5
405.765	683.5
405.988	668.5
406.212	664.5
406.436	694.5
406.66	702.5
406.883	684.5
407.107	683.5
407.331	732.5
407.555	828.5
407.778	807.5
408.002	744.5
408.226	711.5
408.449	713.5
408.673	705.5
408.896	695.5
409.12	762.5
409.344	740.5
409.567	654.5
409.791	646.5
410.014	630.5
410.238	624.5
410.461	642.5
410.685	657.5
410.908	644.5
411.132	682.5
411.355	717.5
411.578	676.5
411.802	614.5
412.025	615.5
412.249	639.5
412.472	645.5
412.695	714.5
412.919	712.5
413.142	652.5
413.365	649.5
413.589	610.5
413.812	593.5
414.035	602.5
414.258	595.5
414.482	596.5
414.705	596.5
414.928	596.5
415.151	579.5
415.374	573.5
415.597	574.5
415.821	566.5
416.044	581.5
416.267	586.5
416.49	586.5
416.713	596.5
416.936	568.5
417.159	574.5
417.382	578.5
417.605	589.5
417.828	605.5
418.051	619.5
418.274	605.5
418.497	600.5
418.72	607.5
418.943	593.5
419.166	626.5
419.389	656.5
419.611	640.5
419.834	633.5
420.057	643.5
420.28	615.5
420.503	634.5
420.726	618.5
420.948	637.5
421.171	631.5
421.394	696.5
421.617	665.5
421.839	610.5
422.062	616.5
422.285	638.5
422.507	730.5
422.73	776.5
422.953	735.5
423.175	682.5
423.398	616.5
423.621	652.5
423.843	684.5
424.066	687.5
424.288	647.5
424.511	702.5
424.733	731.5
424.956	831.5
425.178	792.5
425.401	765.5
425.623	812.5
425.846	685.5
426.068	642.5
426.291	648.5
426.513	647.5
426.735	652.5
426.958	692.5
427.18	756.5
427.402	932.5
427.625	991.5
427.847	846.5
428.069	754.5
428.292	699.5
428.514	613.5
428.736	583.5
428.958	616.5
429.181	617.5
429.403	597.5
429.625	610.5
429.847	642.5
430.069	710.5
430.292	718.5
430.514	623.5
430.736	610.5
430.958	566.5
431.18	582.5
431.402	566.5
431.624	584.5
431.846	588.5
432.068	569.5
432.29	593.5
432.512	579.5
432.734	581.5
432.956	575.5
433.178	606.5
433.4	611.5
433.622	590.5
433.844	576.5
434.066	562.5
434.287	601.5
434.509	588.5
434.731	619.5
434.953	604.5
435.175	630.5
435.397	663.5
435.618	663.5
435.84	690.5
436.062	805.5
436.284	856.5
436.505	697.5
436.727	660.5
436.949	618.5
437.17	598.5
437.392	598.5
437.614	589.5
437.835	656.5
438.057	738.5
438.278	834.5
438.5	848.5
438.721	948.5
438.943	892.5
439.165	725.5
439.386	667.5
439.608	655.5
439.829	654.5
440.05	671.5
440.272	729.5
440.493	678.5
440.715	662.5
440.936	641.5
441.158	609.5
441.379	603.5
441.6	646.5
441.822	645.5
442.043	671.5
442.264	778.5
442.486	836.5
442.707	731.5
442.928	646.5
443.149	695.5
443.371	715.5
443.592	747.5
443.813	866.5
444.034	922.5
444.255	768.5
444.476	702.5
444.698	695.5
444.919	683.5
445.14	780.5
445.361	720.5
445.582	707.5
445.803	760.5
446.024	873.5
446.245	850.5
446.466	803.5
446.687	689.5
446.908	646.5
447.129	623.5
447.35	609.5
447.571	579.5
447.792	598.5
448.013	573.5
448.234	620.5
448.455	670.5
448.675	784.5
448.896	904.5
449.117	798.5
449.338	744.5
449.559	840.5
449.779	951.5
450	772.5
450.221	644.5
450.442	607.5
450.662	602.5
450.883	582.5
451.104	610.5
451.324	578.5
451.545	564.5
451.766	555.5
451.986	510.5
452.207	520.5
452.428	545.5
452.648	532.5
452.869	552.5
453.089	542.5
453.31	568.5
453.53	543.5
453.751	551.5
453.971	527.5
454.192	537.5
454.412	540.5
454.633	516.5
454.853	540.5
455.073	510.5
455.294	540.5
455.514	637.5
455.734	624.5
455.955	548.5
456.175	539.5
456.395	495.5
456.616	498.5
456.836	520.5
457.056	495.5
457.276	501.5
457.497	518.5
457.717	477.5
457.937	523.5
458.157	527.5
458.377	519.5
458.598	544.5
458.818	591.5
459.038	672.5
459.258	715.5
459.478	635.5
459.698	566.5
459.918	566.5
460.138	568.5
460.358	587.5
460.578	606.5
460.798	595.5
461.018	614.5
461.238	592.5
461.458	606.5
461.678	596.5
461.898	615.5
462.118	598.5
462.338	610.5
462.558	640.5
462.777	638.5
462.997	656.5
463.217	687.5
463.437	660.5
463.657	639.5
463.876	650.5
464.096	657.5
464.316	656.5
464.536	652.5
464.755	649.5
464.975	663.5
465.195	668.5
465.414	700.5
465.634	665.5
465.854	600.5
466.073	607.5
466.293	563.5
466.512	581.5
466.732	547.5
466.951	563.5
467.171	530.5
467.391	549.5
467.61	572.5
467.829	572.5
468.049	573.5
468.268	555.5
468.488	542.5
468.707	519.5
468.927	551.5
469.146	538.5
469.365	536.5
469.585	552.5
469.804	528.5
470.023	570.5
470.243	577.5
470.462	553.5
470.681	589.5
470.901	561.5
471.12	578.5
471.339	587.5
471.558	586.5
471.777	563.5
471.997	571.5
472.216	536.5
472.435	590.5
472.654	579.5
472.873	575.5
473.092	559.5
473.311	526.5
473.53	562.5
473.749	576.5
473.968	596.5
474.187	669.5
474.406	735.5
474.625	614.5
474.844	593.5
475.063	562.5
475.282	567.5
475.501	559.5
475.72	589.5
475.939	566.5
476.158	582.5
476.377	588.5
476.596	591.5
476.814	580.5
477.033	585.5
477.252	617.5
477.471	613.5
477.69	587.5
477.908	604.5
478.127	621.5
478.346	640.5
478.564	634.5
478.783	639.5
479.002	631.5
479.22	648.5
479.439	642.5
479.658	671.5
479.876	686.5
480.095	679.5
480.313	731.5
480.532	711.5
480.751	691.5
480.969	712.5
481.188	734.5
481.406	756.5
481.624	681.5
481.843	666.5
482.061	667.5
482.28	643.5
482.498	642.5
482.717	654.5
482.935	631.5
483.153	642.5
483.372	645.5
483.59	647.5
483.808	662.5
484.027	666.5
484.245	653.5
484.463	648.5
484.681	672.5
484.9	653.5
485.118	662.5
485.336	664.5
485.554	675.5
485.772	681.5
485.99	680.5
486.209	685.5
486.427	679.5
486.645	678.5
486.863	687.5
487.081	709.5
487.299	690.5
487.517	679.5
487.735	719.5
487.953	677.5
488.171	712.5
488.389	683.5
488.607	700.5
488.825	733.5
489.043	731.5
489.261	715.5
489.479	713.5
489.696	708.5
489.914	738.5
490.132	745.5
490.35	770.5
490.568	755.5
490.786	760.5
491.003	770.5
491.221	783.5
491.439	786.5
491.657	810.5
491.874	815.5
492.092	823.5
492.31	814.5
492.527	811.5
492.745	819.5
492.963	829.5
493.18	815.5
493.398	843.5
493.615	836.5
493.833	856.5
494.05	846.5
494.268	821.5
494.485	823.5
494.703	829.5
494.92	844.5
495.138	836.5
495.355	803.5
495.573	826.5
495.79	830.5
496.008	852.5
496.225	822.5
496.442	850.5
496.66	849.5
496.877	846.5
497.094	861.5
497.312	846.5
497.529	877.5
497.746	888.5
497.963	888.5
498.181	917.5
498.398	923.5
498.615	958.5
498.832	960.5
499.049	1003.5
499.267	1036.5
499.484	1102.5
499.701	1107.5
499.918	1164.5
500.135	1266.5
500.352	1298.5
500.569	1309.5
500.786	1352.5
501.003	1320.5
501.22	1238.5
501.437	1184.5
501.654	1134.5
501.871	1092.5
502.088	1048.5
502.305	986.5
502.522	970.5
502.739	970.5
502.956	918.5
503.172	900.5
503.389	904.5
503.606	881.5
503.823	888.5
504.04	854.5
504.256	852.5
504.473	896.5
504.69	847.5
504.907	868.5
505.123	836.5
505.34	806.5
505.557	784.5
505.773	797.5
505.99	822.5
506.207	803.5
506.423	800.5
506.64	780.5
506.856	780.5
507.073	775.5
507.289	739.5
507.506	759.5
507.722	778.5
507.939	778.5
508.155	774.5
508.372	748.5
508.588	774.5
508.805	754.5
509.021	732.5
509.238	752.5
509.454	743.5
509.67	763.5
509.887	742.5
510.103	727.5
510.319	729.5
510.536	815.5
510.752	1198.5
510.968	974.5
511.184	715.5
511.401	697.5
511.617	712.5
511.833	669.5
512.049	696.5
512.265	688.5
512.481	714.5
512.698	702.5
512.914	672.5
513.13	683.5
513.346	674.5
513.562	668.5
513.778	692.5
513.994	706.5
514.21	691.5
514.426	752.5
514.642	737.5
514.858	761.5
515.074	799.5
515.29	919.5
515.506	1199.5
515.721	1050.5
515.937	795.5
516.153	740.5
516.369	735.5
516.585	726.5
516.801	740.5
517.016	731.5
517.232	715.5
517.448	756.5
517.664	750.5
517.879	755.5
518.095	761.5
518.311	749.5
518.527	711.5
518.742	729.5
518.958	722.5
519.173	684.5
519.389	704.5
