Data from 1974.PennyLincolnUp.Lamp.En5.5.200Scan.071719.P1.Changed Mount._HRD10591_15-51-21-856.txt Node
Date: Thu Jul 18 15:51:21 EDT 2019
User: cochatt
Spectrometer: HR+D1059
Trigger mode: 1
Integration Time (sec): 1.000000E-1
Scans to average: 1
Electric dark correction enabled: true
Nonlinearity correction enabled: false
Boxcar width: 0
XAxis mode: Wavelengths
Number of Pixels in Spectrum: 2048
>>>>>Begin Spectral Data<<<<<
223.165	-9.31
223.4	-9.31
223.635	-9.31
223.869	-9.31
224.104	-31.31
224.338	-22.31
224.573	-26.31
224.808	-4.31
225.042	-5.31
225.277	-10.31
225.511	-2.31
225.746	1.69
225.98	-4.31
226.215	0.69
226.449	37.69
226.683	26.69
226.918	27.69
227.152	30.69
227.387	33.69
227.621	42.69
227.856	51.69
228.09	45.69
228.324	49.69
228.559	39.69
228.793	66.69
229.027	102.69
229.262	117.69
229.496	113.69
229.73	119.69
229.964	148.69
230.199	124.69
230.433	108.69
230.667	121.69
230.901	105.69
231.136	122.69
231.37	109.69
231.604	118.69
231.838	120.69
232.072	119.69
232.306	108.69
232.541	119.69
232.775	97.69
233.009	97.69
233.243	124.69
233.477	118.69
233.711	119.69
233.945	113.69
234.179	102.69
234.413	103.69
234.647	109.69
234.881	124.69
235.115	114.69
235.349	116.69
235.583	129.69
235.817	125.69
236.051	100.69
236.285	135.69
236.519	125.69
236.753	121.69
236.987	122.69
237.221	177.69
237.455	213.69
237.689	171.69
237.922	141.69
238.156	152.69
238.39	132.69
238.624	141.69
238.858	122.69
239.091	117.69
239.325	119.69
239.559	131.69
239.793	134.69
240.027	133.69
240.26	129.69
240.494	151.69
240.728	146.69
240.961	148.69
241.195	137.69
241.429	151.69
241.662	128.69
241.896	135.69
242.13	141.69
242.363	122.69
242.597	139.69
242.83	140.69
243.064	146.69
243.298	131.69
243.531	149.69
243.765	134.69
243.998	132.69
244.232	137.69
244.465	130.69
244.699	148.69
244.932	141.69
245.166	153.69
245.399	153.69
245.633	138.69
245.866	161.69
246.099	139.69
246.333	150.69
246.566	158.69
246.8	165.69
247.033	150.69
247.266	155.69
247.5	153.69
247.733	168.69
247.966	188.69
248.2	160.69
248.433	189.69
248.666	166.69
248.899	179.69
249.133	183.69
249.366	200.69
249.599	213.69
249.832	180.69
250.066	177.69
250.299	177.69
250.532	190.69
250.765	185.69
250.998	189.69
251.231	212.69
251.465	197.69
251.698	188.69
251.931	213.69
252.164	197.69
252.397	177.69
252.63	190.69
252.863	193.69
253.096	202.69
253.329	220.69
253.562	218.69
253.795	220.69
254.028	231.69
254.261	201.69
254.494	218.69
254.727	215.69
254.96	266.69
255.193	256.69
255.426	247.69
255.659	207.69
255.892	220.69
256.124	218.69
256.357	232.69
256.59	205.69
256.823	213.69
257.056	207.69
257.289	196.69
257.521	203.69
257.754	202.69
257.987	202.69
258.22	202.69
258.452	209.69
258.685	200.69
258.918	199.69
259.151	196.69
259.383	210.69
259.616	218.69
259.849	208.69
260.081	220.69
260.314	237.69
260.547	237.69
260.779	228.69
261.012	237.69
261.244	225.69
261.477	226.69
261.71	212.69
261.942	226.69
262.175	209.69
262.407	225.69
262.64	204.69
262.872	206.69
263.105	234.69
263.337	204.69
263.57	225.69
263.802	222.69
264.035	195.69
264.267	197.69
264.499	220.69
264.732	199.69
264.964	197.69
265.197	206.69
265.429	214.69
265.661	198.69
265.894	219.69
266.126	236.69
266.358	227.69
266.591	217.69
266.823	217.69
267.055	227.69
267.287	235.69
267.52	242.69
267.752	229.69
267.984	218.69
268.216	209.69
268.448	238.69
268.681	239.69
268.913	213.69
269.145	260.69
269.377	259.69
269.609	259.69
269.841	255.69
270.073	269.69
270.306	278.69
270.538	312.69
270.77	299.69
271.002	293.69
271.234	289.69
271.466	263.69
271.698	286.69
271.93	292.69
272.162	289.69
272.394	296.69
272.626	295.69
272.858	275.69
273.09	250.69
273.322	274.69
273.553	255.69
273.785	245.69
274.017	255.69
274.249	253.69
274.481	266.69
274.713	263.69
274.945	268.69
275.176	253.69
275.408	272.69
275.64	275.69
275.872	250.69
276.104	234.69
276.335	266.69
276.567	254.69
276.799	267.69
277.031	277.69
277.262	284.69
277.494	295.69
277.726	287.69
277.957	289.69
278.189	261.69
278.421	269.69
278.652	259.69
278.884	270.69
279.115	269.69
279.347	261.69
279.579	265.69
279.81	262.69
280.042	264.69
280.273	249.69
280.505	281.69
280.736	266.69
280.968	263.69
281.199	257.69
281.431	264.69
281.662	278.69
281.894	275.69
282.125	262.69
282.356	280.69
282.588	291.69
282.819	276.69
283.051	275.69
283.282	278.69
283.513	277.69
283.745	277.69
283.976	285.69
284.207	288.69
284.439	271.69
284.67	297.69
284.901	261.69
285.132	266.69
285.364	274.69
285.595	281.69
285.826	281.69
286.057	278.69
286.288	278.69
286.52	308.69
286.751	283.69
286.982	276.69
287.213	282.69
287.444	306.69
287.675	286.69
287.906	295.69
288.138	302.69
288.369	290.69
288.6	309.69
288.831	295.69
289.062	289.69
289.293	292.69
289.524	277.69
289.755	290.69
289.986	309.69
290.217	294.69
290.448	305.69
290.679	309.69
290.91	303.69
291.141	299.69
291.371	316.69
291.602	287.69
291.833	287.69
292.064	301.69
292.295	290.69
292.526	314.69
292.757	293.69
292.987	284.69
293.218	283.69
293.449	298.69
293.68	297.69
293.91	295.69
294.141	311.69
294.372	295.69
294.603	314.69
294.833	300.69
295.064	296.69
295.295	297.69
295.525	303.69
295.756	314.69
295.987	309.69
296.217	306.69
296.448	315.69
296.679	297.69
296.909	299.69
297.14	302.69
297.37	318.69
297.601	317.69
297.831	306.69
298.062	320.69
298.292	321.69
298.523	310.69
298.753	295.69
298.984	302.69
299.214	313.69
299.445	278.69
299.675	298.69
299.905	312.69
300.136	318.69
300.366	302.69
300.597	298.69
300.827	331.69
301.057	313.69
301.288	324.69
301.518	321.69
301.748	308.69
301.979	318.69
302.209	323.69
302.439	326.69
302.669	338.69
302.9	310.69
303.13	326.69
303.36	340.69
303.59	339.69
303.82	330.69
304.051	327.69
304.281	316.69
304.511	315.69
304.741	310.69
304.971	324.69
305.201	318.69
305.431	310.69
305.661	315.69
305.891	331.69
306.121	325.69
306.352	329.69
306.582	317.69
306.812	322.69
307.042	343.69
307.272	322.69
307.502	329.69
307.731	331.69
307.961	342.69
308.191	319.69
308.421	318.69
308.651	329.69
308.881	314.69
309.111	350.69
309.341	336.69
309.571	339.69
309.8	321.69
310.03	354.69
310.26	354.69
310.49	343.69
310.72	364.69
310.949	381.69
311.179	332.69
311.409	358.69
311.639	337.69
311.868	361.69
312.098	353.69
312.328	370.69
312.557	377.69
312.787	393.69
313.017	352.69
313.246	372.69
313.476	347.69
313.706	359.69
313.935	369.69
314.165	371.69
314.394	367.69
314.624	377.69
314.853	353.69
315.083	360.69
315.312	337.69
315.542	363.69
315.771	373.69
316.001	364.69
316.23	359.69
316.46	353.69
316.689	367.69
316.919	365.69
317.148	381.69
317.377	375.69
317.607	371.69
317.836	355.69
318.065	371.69
318.295	356.69
318.524	374.69
318.753	362.69
318.983	346.69
319.212	355.69
319.441	364.69
319.67	366.69
319.9	369.69
320.129	359.69
320.358	384.69
320.587	372.69
320.816	380.69
321.046	390.69
321.275	371.69
321.504	386.69
321.733	367.69
321.962	364.69
322.191	377.69
322.42	380.69
322.649	389.69
322.878	395.69
323.108	401.69
323.337	401.69
323.566	425.69
323.795	449.69
324.024	468.69
324.253	533.69
324.482	684.69
324.71	1031.69
324.939	1571.69
325.168	1359.69
325.397	705.69
325.626	508.69
325.855	454.69
326.084	428.69
326.313	441.69
326.542	451.69
326.77	451.69
326.999	513.69
327.228	651.69
327.457	964.69
327.686	1207.69
327.914	788.69
328.143	553.69
328.372	489.69
328.6	463.69
328.829	470.69
329.058	485.69
329.287	494.69
329.515	479.69
329.744	448.69
329.972	439.69
330.201	445.69
330.43	474.69
330.658	479.69
330.887	489.69
331.115	514.69
331.344	479.69
331.572	453.69
331.801	445.69
332.03	466.69
332.258	449.69
332.486	452.69
332.715	434.69
332.943	440.69
333.172	460.69
333.4	447.69
333.629	469.69
333.857	477.69
334.085	461.69
334.314	473.69
334.542	485.69
334.771	501.69
334.999	483.69
335.227	451.69
335.455	468.69
335.684	455.69
335.912	435.69
336.14	449.69
336.369	426.69
336.597	443.69
336.825	445.69
337.053	452.69
337.281	434.69
337.51	413.69
337.738	446.69
337.966	433.69
338.194	452.69
338.422	437.69
338.65	440.69
338.878	434.69
339.106	417.69
339.334	441.69
339.562	444.69
339.79	398.69
340.018	414.69
340.246	390.69
340.474	430.69
340.702	433.69
340.93	414.69
341.158	419.69
341.386	402.69
341.614	418.69
341.842	423.69
342.07	404.69
342.298	419.69
342.526	420.69
342.754	420.69
342.981	411.69
343.209	387.69
343.437	421.69
343.665	425.69
343.893	456.69
344.12	439.69
344.348	451.69
344.576	435.69
344.804	445.69
345.031	452.69
345.259	444.69
345.487	419.69
345.714	399.69
345.942	398.69
346.17	414.69
346.397	430.69
346.625	413.69
346.853	417.69
347.08	404.69
347.308	389.69
347.535	418.69
347.763	426.69
347.99	406.69
348.218	407.69
348.445	393.69
348.673	420.69
348.9	423.69
349.128	403.69
349.355	415.69
349.583	413.69
349.81	397.69
350.037	414.69
350.265	403.69
350.492	413.69
350.72	393.69
350.947	418.69
351.174	406.69
351.402	410.69
351.629	407.69
351.856	410.69
352.083	393.69
352.311	407.69
352.538	417.69
352.765	403.69
352.992	403.69
353.22	405.69
353.447	404.69
353.674	411.69
353.901	418.69
354.128	394.69
354.355	389.69
354.583	395.69
354.81	406.69
355.037	403.69
355.264	412.69
355.491	412.69
355.718	390.69
355.945	396.69
356.172	391.69
356.399	384.69
356.626	405.69
356.853	389.69
357.08	377.69
357.307	409.69
357.534	388.69
357.761	375.69
357.988	375.69
358.215	382.69
358.441	388.69
358.668	397.69
358.895	404.69
359.122	403.69
359.349	394.69
359.576	407.69
359.802	404.69
360.029	441.69
360.256	454.69
360.483	413.69
360.709	412.69
360.936	437.69
361.163	413.69
361.39	414.69
361.616	422.69
361.843	398.69
362.07	417.69
362.296	408.69
362.523	405.69
362.749	413.69
362.976	396.69
363.203	389.69
363.429	407.69
363.656	435.69
363.882	392.69
364.109	405.69
364.335	381.69
364.562	411.69
364.788	404.69
365.015	405.69
365.241	381.69
365.468	398.69
365.694	403.69
365.92	407.69
366.147	411.69
366.373	408.69
366.599	406.69
366.826	387.69
367.052	395.69
367.278	422.69
367.505	405.69
367.731	404.69
367.957	410.69
368.184	404.69
368.41	414.69
368.636	398.69
368.862	431.69
369.089	408.69
369.315	437.69
369.541	398.69
369.767	420.69
369.993	422.69
370.219	392.69
370.445	400.69
370.672	419.69
370.898	407.69
371.124	400.69
371.35	412.69
371.576	416.69
371.802	402.69
372.028	406.69
372.254	417.69
372.48	435.69
372.706	414.69
372.932	423.69
373.158	424.69
373.384	413.69
373.61	437.69
373.835	417.69
374.061	412.69
374.287	408.69
374.513	433.69
374.739	430.69
374.965	429.69
375.191	433.69
375.416	413.69
375.642	429.69
375.868	443.69
376.094	436.69
376.319	423.69
376.545	429.69
376.771	418.69
376.997	407.69
377.222	430.69
377.448	413.69
377.674	443.69
377.899	425.69
378.125	427.69
378.35	410.69
378.576	419.69
378.802	406.69
379.027	424.69
379.253	417.69
379.478	395.69
379.704	430.69
379.929	420.69
380.155	422.69
380.38	419.69
380.606	413.69
380.831	422.69
381.057	425.69
381.282	422.69
381.507	411.69
381.733	426.69
381.958	409.69
382.184	428.69
382.409	434.69
382.634	437.69
382.86	438.69
383.085	438.69
383.31	443.69
383.535	443.69
383.761	448.69
383.986	464.69
384.211	452.69
384.436	443.69
384.662	465.69
384.887	453.69
385.112	468.69
385.337	471.69
385.562	458.69
385.787	474.69
386.013	482.69
386.238	478.69
386.463	494.69
386.688	464.69
386.913	471.69
387.138	468.69
387.363	475.69
387.588	463.69
387.813	481.69
388.038	455.69
388.263	490.69
388.488	457.69
388.713	473.69
388.938	471.69
389.163	464.69
389.387	493.69
389.612	468.69
389.837	460.69
390.062	465.69
390.287	473.69
390.512	466.69
390.736	475.69
390.961	468.69
391.186	470.69
391.411	490.69
391.636	478.69
391.86	491.69
392.085	475.69
392.31	498.69
392.534	499.69
392.759	477.69
392.984	493.69
393.208	477.69
393.433	480.69
393.658	497.69
393.882	493.69
394.107	490.69
394.331	466.69
394.556	461.69
394.78	481.69
395.005	484.69
395.229	503.69
395.454	486.69
395.678	508.69
395.903	503.69
396.127	518.69
396.352	529.69
396.576	499.69
396.801	489.69
397.025	475.69
397.249	494.69
397.474	485.69
397.698	507.69
397.922	513.69
398.147	551.69
398.371	537.69
398.595	521.69
398.82	526.69
399.044	543.69
399.268	565.69
399.492	611.69
399.717	663.69
399.941	670.69
400.165	691.69
400.389	675.69
400.613	609.69
400.837	569.69
401.062	558.69
401.286	555.69
401.51	569.69
401.734	544.69
401.958	562.69
402.182	556.69
402.406	577.69
402.63	567.69
402.854	575.69
403.078	571.69
403.302	557.69
403.526	580.69
403.75	577.69
403.974	581.69
404.198	562.69
404.422	585.69
404.645	584.69
404.869	596.69
405.093	614.69
405.317	652.69
405.541	659.69
405.765	637.69
405.988	580.69
406.212	625.69
406.436	615.69
406.66	642.69
406.883	619.69
407.107	648.69
407.331	642.69
407.555	741.69
407.778	743.69
408.002	685.69
408.226	647.69
408.449	625.69
408.673	618.69
408.896	661.69
409.12	705.69
409.344	659.69
409.567	615.69
409.791	574.69
410.014	574.69
410.238	564.69
410.461	564.69
410.685	571.69
410.908	586.69
411.132	619.69
411.355	655.69
411.578	638.69
411.802	576.69
412.025	547.69
412.249	586.69
412.472	604.69
412.695	643.69
412.919	605.69
413.142	570.69
413.365	555.69
413.589	541.69
413.812	543.69
414.035	540.69
414.258	533.69
414.482	566.69
414.705	525.69
414.928	534.69
415.151	537.69
415.374	539.69
415.597	524.69
415.821	533.69
416.044	537.69
416.267	552.69
416.49	556.69
416.713	519.69
416.936	522.69
417.159	555.69
417.382	526.69
417.605	558.69
417.828	574.69
418.051	569.69
418.274	574.69
418.497	530.69
418.72	539.69
418.943	542.69
419.166	571.69
419.389	575.69
419.611	589.69
419.834	581.69
420.057	575.69
420.28	578.69
420.503	552.69
420.726	567.69
420.948	581.69
421.171	619.69
421.394	636.69
421.617	589.69
421.839	561.69
422.062	566.69
422.285	569.69
422.507	628.69
422.73	679.69
422.953	691.69
423.175	577.69
423.398	582.69
423.621	577.69
423.843	613.69
424.066	614.69
424.288	592.69
424.511	616.69
424.733	686.69
424.956	725.69
425.178	737.69
425.401	717.69
425.623	722.69
425.846	625.69
426.068	603.69
426.291	567.69
426.513	571.69
426.735	586.69
426.958	627.69
427.18	711.69
427.402	836.69
427.625	910.69
427.847	750.69
428.069	662.69
428.292	609.69
428.514	578.69
428.736	548.69
428.958	551.69
429.181	541.69
429.403	518.69
429.625	551.69
429.847	607.69
430.069	646.69
430.292	667.69
430.514	547.69
430.736	533.69
430.958	542.69
431.18	528.69
431.402	501.69
431.624	502.69
431.846	510.69
432.068	516.69
432.29	502.69
432.512	514.69
432.734	562.69
432.956	550.69
433.178	532.69
433.4	536.69
433.622	531.69
433.844	528.69
434.066	549.69
434.287	519.69
434.509	512.69
434.731	556.69
434.953	566.69
435.175	535.69
435.397	579.69
435.618	567.69
435.84	626.69
436.062	731.69
436.284	777.69
436.505	626.69
436.727	577.69
436.949	565.69
437.17	525.69
437.392	529.69
437.614	552.69
437.835	567.69
438.057	634.69
438.278	753.69
438.5	745.69
438.721	813.69
438.943	804.69
439.165	623.69
439.386	581.69
439.608	569.69
439.829	568.69
440.05	576.69
440.272	626.69
440.493	614.69
440.715	577.69
440.936	542.69
441.158	548.69
441.379	563.69
441.6	539.69
441.822	565.69
442.043	605.69
442.264	689.69
442.486	728.69
442.707	636.69
442.928	615.69
443.149	609.69
443.371	599.69
443.592	625.69
443.813	747.69
444.034	801.69
444.255	679.69
444.476	632.69
444.698	630.69
444.919	617.69
445.14	734.69
445.361	675.69
445.582	639.69
445.803	655.69
446.024	771.69
446.245	771.69
446.466	718.69
446.687	601.69
446.908	591.69
447.129	559.69
447.35	548.69
447.571	547.69
447.792	526.69
448.013	523.69
448.234	555.69
448.455	609.69
448.675	681.69
448.896	792.69
449.117	676.69
449.338	650.69
449.559	739.69
449.779	876.69
450	691.69
450.221	565.69
450.442	551.69
450.662	516.69
450.883	499.69
451.104	525.69
451.324	509.69
451.545	517.69
451.766	511.69
451.986	511.69
452.207	471.69
452.428	470.69
452.648	474.69
452.869	475.69
453.089	493.69
453.31	492.69
453.53	482.69
453.751	487.69
453.971	478.69
454.192	498.69
454.412	484.69
454.633	478.69
454.853	457.69
455.073	471.69
455.294	495.69
455.514	574.69
455.734	544.69
455.955	498.69
456.175	460.69
456.395	476.69
456.616	456.69
456.836	459.69
457.056	476.69
457.276	472.69
457.497	452.69
457.717	461.69
457.937	446.69
458.157	463.69
458.377	451.69
458.598	486.69
458.818	511.69
459.038	590.69
459.258	620.69
459.478	558.69
459.698	526.69
459.918	520.69
460.138	521.69
460.358	549.69
460.578	502.69
460.798	551.69
461.018	547.69
461.238	551.69
461.458	531.69
461.678	530.69
461.898	546.69
462.118	533.69
462.338	557.69
462.558	589.69
462.777	559.69
462.997	623.69
463.217	611.69
463.437	621.69
463.657	616.69
463.876	587.69
464.096	603.69
464.316	603.69
464.536	591.69
464.755	588.69
464.975	581.69
465.195	574.69
465.414	631.69
465.634	565.69
465.854	563.69
466.073	527.69
466.293	524.69
466.512	519.69
466.732	510.69
466.951	538.69
467.171	492.69
467.391	489.69
467.61	478.69
467.829	507.69
468.049	499.69
468.268	499.69
468.488	498.69
468.707	504.69
468.927	481.69
469.146	495.69
469.365	502.69
469.585	497.69
469.804	499.69
470.023	512.69
470.243	508.69
470.462	481.69
470.681	522.69
470.901	520.69
471.12	505.69
471.339	493.69
471.558	505.69
471.777	517.69
471.997	518.69
472.216	516.69
472.435	535.69
472.654	513.69
472.873	510.69
473.092	510.69
473.311	513.69
473.53	504.69
473.749	510.69
473.968	525.69
474.187	608.69
474.406	647.69
474.625	542.69
474.844	525.69
475.063	507.69
475.282	508.69
475.501	513.69
475.72	543.69
475.939	506.69
476.158	526.69
476.377	497.69
476.596	504.69
476.814	521.69
477.033	518.69
477.252	536.69
477.471	513.69
477.69	540.69
477.908	563.69
478.127	569.69
478.346	572.69
478.564	585.69
478.783	569.69
479.002	601.69
479.22	612.69
479.439	617.69
479.658	612.69
479.876	647.69
480.095	618.69
480.313	637.69
480.532	633.69
480.751	625.69
480.969	639.69
481.188	650.69
481.406	657.69
481.624	618.69
481.843	611.69
482.061	611.69
482.28	588.69
482.498	604.69
482.717	585.69
482.935	575.69
483.153	591.69
483.372	590.69
483.59	603.69
483.808	618.69
484.027	594.69
484.245	561.69
484.463	610.69
484.681	602.69
484.9	612.69
485.118	604.69
485.336	598.69
485.554	616.69
485.772	613.69
485.99	630.69
486.209	620.69
486.427	631.69
486.645	618.69
486.863	630.69
487.081	651.69
487.299	654.69
487.517	647.69
487.735	631.69
487.953	622.69
488.171	643.69
488.389	657.69
488.607	621.69
488.825	609.69
489.043	655.69
489.261	647.69
489.479	647.69
489.696	644.69
489.914	643.69
490.132	656.69
490.35	658.69
490.568	665.69
490.786	683.69
491.003	694.69
491.221	685.69
491.439	707.69
491.657	705.69
491.874	737.69
492.092	722.69
492.31	740.69
492.527	765.69
492.745	722.69
492.963	726.69
493.18	758.69
493.398	734.69
493.615	738.69
493.833	729.69
494.05	752.69
494.268	750.69
494.485	745.69
494.703	732.69
494.92	760.69
495.138	747.69
495.355	757.69
495.573	756.69
495.79	761.69
496.008	756.69
496.225	744.69
496.442	732.69
496.66	757.69
496.877	750.69
497.094	785.69
497.312	775.69
497.529	756.69
497.746	774.69
497.963	811.69
498.181	818.69
498.398	851.69
498.615	866.69
498.832	877.69
499.049	863.69
499.267	903.69
499.484	981.69
499.701	999.69
499.918	1057.69
500.135	1139.69
500.352	1182.69
500.569	1170.69
500.786	1194.69
501.003	1202.69
501.22	1195.69
501.437	1109.69
501.654	1051.69
