Data from 1974.PennyLincolnUp.Lamp.En5.5.200Scan.071719.P1.Changed Mount._HRD10591_15-52-28-858.txt Node
Date: Thu Jul 18 15:52:28 EDT 2019
User: cochatt
Spectrometer: HR+D1059
Trigger mode: 1
Integration Time (sec): 1.000000E-1
Scans to average: 1
Electric dark correction enabled: true
Nonlinearity correction enabled: false
Boxcar width: 0
XAxis mode: Wavelengths
Number of Pixels in Spectrum: 2048
>>>>>Begin Spectral Data<<<<<
223.165	-26.69
223.4	-26.69
223.635	-26.69
223.869	-23.69
224.104	-10.69
224.338	-3.69
224.573	-17.69
224.808	-15.69
225.042	-15.69
225.277	-6.69
225.511	11.31
225.746	-3.69
225.98	-4.69
226.215	9.31
226.449	18.31
226.683	20.31
226.918	33.31
227.152	36.31
227.387	28.31
227.621	49.31
227.856	36.31
228.09	38.31
228.324	43.31
228.559	68.31
228.793	74.31
229.027	107.31
229.262	104.31
229.496	96.31
229.73	114.31
229.964	149.31
230.199	136.31
230.433	114.31
230.667	107.31
230.901	119.31
231.136	114.31
231.37	126.31
231.604	118.31
231.838	121.31
232.072	124.31
232.306	114.31
232.541	132.31
232.775	117.31
233.009	118.31
233.243	102.31
233.477	129.31
233.711	116.31
233.945	115.31
234.179	125.31
234.413	128.31
234.647	136.31
234.881	124.31
235.115	122.31
235.349	126.31
235.583	118.31
235.817	134.31
236.051	127.31
236.285	124.31
236.519	128.31
236.753	131.31
236.987	137.31
237.221	180.31
237.455	229.31
237.689	190.31
237.922	149.31
238.156	137.31
238.39	140.31
238.624	135.31
238.858	136.31
239.091	121.31
239.325	134.31
239.559	136.31
239.793	143.31
240.027	151.31
240.26	136.31
240.494	150.31
240.728	152.31
240.961	166.31
241.195	156.31
241.429	145.31
241.662	150.31
241.896	136.31
242.13	137.31
242.363	124.31
242.597	130.31
242.83	141.31
243.064	154.31
243.298	149.31
243.531	156.31
243.765	143.31
243.998	141.31
244.232	159.31
244.465	152.31
244.699	148.31
244.932	129.31
245.166	159.31
245.399	125.31
245.633	150.31
245.866	163.31
246.099	155.31
246.333	143.31
246.566	156.31
246.8	160.31
247.033	161.31
247.266	160.31
247.5	173.31
247.733	163.31
247.966	196.31
248.2	180.31
248.433	185.31
248.666	176.31
248.899	206.31
249.133	181.31
249.366	214.31
249.599	201.31
249.832	188.31
250.066	186.31
250.299	198.31
250.532	198.31
250.765	193.31
250.998	207.31
251.231	228.31
251.465	217.31
251.698	186.31
251.931	203.31
252.164	199.31
252.397	198.31
252.63	202.31
252.863	212.31
253.096	213.31
253.329	239.31
253.562	226.31
253.795	219.31
254.028	210.31
254.261	224.31
254.494	227.31
254.727	266.31
254.96	281.31
255.193	261.31
255.426	268.31
255.659	249.31
255.892	237.31
256.124	240.31
256.357	254.31
256.59	250.31
256.823	228.31
257.056	220.31
257.289	224.31
257.521	225.31
257.754	224.31
257.987	211.31
258.22	211.31
258.452	228.31
258.685	208.31
258.918	204.31
259.151	202.31
259.383	235.31
259.616	223.31
259.849	245.31
260.081	244.31
260.314	265.31
260.547	250.31
260.779	237.31
261.012	229.31
261.244	244.31
261.477	245.31
261.71	216.31
261.942	228.31
262.175	241.31
262.407	246.31
262.64	210.31
262.872	219.31
263.105	217.31
263.337	248.31
263.57	226.31
263.802	233.31
264.035	216.31
264.267	229.31
264.499	212.31
264.732	224.31
264.964	219.31
265.197	230.31
265.429	244.31
265.661	231.31
265.894	229.31
266.126	227.31
266.358	252.31
266.591	216.31
266.823	235.31
267.055	222.31
267.287	259.31
267.52	245.31
267.752	246.31
267.984	240.31
268.216	254.31
268.448	260.31
268.681	261.31
268.913	254.31
269.145	262.31
269.377	288.31
269.609	301.31
269.841	281.31
270.073	275.31
270.306	298.31
270.538	320.31
270.77	310.31
271.002	311.31
271.234	301.31
271.466	308.31
271.698	318.31
271.93	311.31
272.162	319.31
272.394	339.31
272.626	293.31
272.858	300.31
273.09	305.31
273.322	276.31
273.553	277.31
273.785	264.31
274.017	272.31
274.249	286.31
274.481	265.31
274.713	278.31
274.945	290.31
275.176	291.31
275.408	288.31
275.64	276.31
275.872	269.31
276.104	280.31
276.335	295.31
276.567	284.31
276.799	283.31
277.031	316.31
277.262	312.31
277.494	319.31
277.726	296.31
277.957	308.31
278.189	296.31
278.421	297.31
278.652	270.31
278.884	285.31
279.115	285.31
279.347	281.31
279.579	279.31
279.81	262.31
280.042	287.31
280.273	280.31
280.505	306.31
280.736	286.31
280.968	299.31
281.199	294.31
281.431	298.31
281.662	281.31
281.894	296.31
282.125	291.31
282.356	316.31
282.588	315.31
282.819	310.31
283.051	285.31
283.282	285.31
283.513	285.31
283.745	309.31
283.976	303.31
284.207	300.31
284.439	299.31
284.67	295.31
284.901	282.31
285.132	314.31
285.364	319.31
285.595	285.31
285.826	286.31
286.057	309.31
286.288	287.31
286.52	299.31
286.751	296.31
286.982	314.31
287.213	282.31
287.444	296.31
287.675	307.31
287.906	310.31
288.138	298.31
288.369	323.31
288.6	313.31
288.831	304.31
289.062	317.31
289.293	308.31
289.524	318.31
289.755	302.31
289.986	309.31
290.217	314.31
290.448	315.31
290.679	300.31
290.91	313.31
291.141	302.31
291.371	305.31
291.602	318.31
291.833	304.31
292.064	305.31
292.295	293.31
292.526	327.31
292.757	315.31
292.987	308.31
293.218	320.31
293.449	312.31
293.68	320.31
293.91	298.31
294.141	294.31
294.372	304.31
294.603	313.31
294.833	302.31
295.064	313.31
295.295	330.31
295.525	312.31
295.756	317.31
295.987	316.31
296.217	333.31
296.448	356.31
296.679	340.31
296.909	325.31
297.14	325.31
297.37	314.31
297.601	343.31
297.831	325.31
298.062	343.31
298.292	326.31
298.523	319.31
298.753	331.31
298.984	330.31
299.214	320.31
299.445	351.31
299.675	341.31
299.905	330.31
300.136	331.31
300.366	332.31
300.597	331.31
300.827	350.31
301.057	350.31
301.288	359.31
301.518	353.31
301.748	341.31
301.979	356.31
302.209	357.31
302.439	341.31
302.669	350.31
302.9	339.31
303.13	332.31
303.36	344.31
303.59	354.31
303.82	349.31
304.051	352.31
304.281	364.31
304.511	358.31
304.741	336.31
304.971	354.31
305.201	349.31
305.431	357.31
305.661	349.31
305.891	344.31
306.121	345.31
306.352	339.31
306.582	377.31
306.812	366.31
307.042	347.31
307.272	333.31
307.502	354.31
307.731	349.31
307.961	356.31
308.191	362.31
308.421	367.31
308.651	368.31
308.881	360.31
309.111	365.31
309.341	378.31
309.571	378.31
309.8	373.31
310.03	391.31
310.26	385.31
310.49	374.31
310.72	393.31
310.949	399.31
311.179	382.31
311.409	391.31
311.639	399.31
311.868	393.31
312.098	375.31
312.328	392.31
312.557	401.31
312.787	430.31
313.017	416.31
313.246	411.31
313.476	392.31
313.706	393.31
313.935	402.31
314.165	406.31
314.394	406.31
314.624	407.31
314.853	419.31
315.083	386.31
315.312	382.31
315.542	391.31
315.771	387.31
316.001	397.31
316.23	376.31
316.46	379.31
316.689	407.31
316.919	393.31
317.148	409.31
317.377	405.31
317.607	399.31
317.836	389.31
318.065	385.31
318.295	396.31
318.524	392.31
318.753	393.31
318.983	385.31
319.212	404.31
319.441	394.31
319.67	396.31
319.9	404.31
320.129	380.31
320.358	397.31
320.587	398.31
320.816	407.31
321.046	426.31
321.275	403.31
321.504	428.31
321.733	432.31
321.962	412.31
322.191	418.31
322.42	426.31
322.649	440.31
322.878	461.31
323.108	446.31
323.337	478.31
323.566	486.31
323.795	491.31
324.024	514.31
324.253	595.31
324.482	803.31
324.71	1195.31
324.939	1733.31
325.168	1564.31
325.397	831.31
325.626	595.31
325.855	508.31
326.084	485.31
326.313	472.31
326.542	509.31
326.77	507.31
326.999	563.31
327.228	731.31
327.457	1102.31
327.686	1344.31
327.914	942.31
328.143	652.31
328.372	596.31
328.6	532.31
328.829	519.31
329.058	556.31
329.287	550.31
329.515	549.31
329.744	492.31
329.972	493.31
330.201	528.31
330.43	552.31
330.658	561.31
330.887	579.31
331.115	565.31
331.344	513.31
331.572	491.31
331.801	498.31
332.03	488.31
332.258	496.31
332.486	476.31
332.715	489.31
332.943	458.31
333.172	479.31
333.4	501.31
333.629	491.31
333.857	516.31
334.085	508.31
334.314	526.31
334.542	553.31
334.771	587.31
334.999	521.31
335.227	515.31
335.455	504.31
335.684	510.31
335.912	513.31
336.14	476.31
336.369	482.31
336.597	486.31
336.825	492.31
337.053	477.31
337.281	466.31
337.51	470.31
337.738	458.31
337.966	466.31
338.194	464.31
338.422	482.31
338.65	457.31
338.878	468.31
339.106	472.31
339.334	461.31
339.562	449.31
339.79	450.31
340.018	458.31
340.246	460.31
340.474	457.31
340.702	453.31
340.93	457.31
341.158	461.31
341.386	466.31
341.614	448.31
341.842	439.31
342.07	442.31
342.298	439.31
342.526	466.31
342.754	437.31
342.981	435.31
343.209	457.31
343.437	435.31
343.665	455.31
343.893	487.31
344.12	500.31
344.348	481.31
344.576	489.31
344.804	485.31
345.031	476.31
345.259	477.31
345.487	472.31
345.714	453.31
345.942	465.31
346.17	441.31
346.397	437.31
346.625	449.31
346.853	445.31
347.08	450.31
347.308	441.31
347.535	453.31
347.763	462.31
347.99	449.31
348.218	427.31
348.445	465.31
348.673	459.31
348.9	462.31
349.128	440.31
349.355	434.31
349.583	433.31
349.81	417.31
350.037	428.31
350.265	413.31
350.492	426.31
350.72	441.31
350.947	448.31
351.174	448.31
351.402	435.31
351.629	442.31
351.856	454.31
352.083	447.31
352.311	436.31
352.538	439.31
352.765	440.31
352.992	461.31
353.22	440.31
353.447	428.31
353.674	435.31
353.901	448.31
354.128	438.31
354.355	430.31
354.583	418.31
354.81	435.31
355.037	426.31
355.264	426.31
355.491	417.31
355.718	402.31
355.945	426.31
356.172	451.31
356.399	420.31
356.626	427.31
356.853	445.31
357.08	439.31
357.307	436.31
357.534	419.31
357.761	425.31
357.988	425.31
358.215	398.31
358.441	415.31
358.668	421.31
358.895	431.31
359.122	406.31
359.349	421.31
359.576	437.31
359.802	463.31
360.029	484.31
360.256	487.31
360.483	446.31
360.709	442.31
360.936	427.31
361.163	444.31
361.39	445.31
361.616	457.31
361.843	445.31
362.07	443.31
362.296	449.31
362.523	441.31
362.749	450.31
362.976	444.31
363.203	421.31
363.429	439.31
363.656	445.31
363.882	428.31
364.109	406.31
364.335	438.31
364.562	411.31
364.788	448.31
365.015	440.31
365.241	438.31
365.468	412.31
365.694	446.31
365.92	416.31
366.147	437.31
366.373	448.31
366.599	429.31
366.826	427.31
367.052	422.31
367.278	414.31
367.505	439.31
367.731	440.31
367.957	432.31
368.184	417.31
368.41	445.31
368.636	432.31
368.862	434.31
369.089	438.31
369.315	441.31
369.541	436.31
369.767	447.31
369.993	426.31
370.219	447.31
370.445	440.31
370.672	439.31
370.898	454.31
371.124	432.31
371.35	464.31
371.576	434.31
371.802	429.31
372.028	456.31
372.254	414.31
372.48	462.31
372.706	457.31
372.932	445.31
373.158	439.31
373.384	440.31
373.61	437.31
373.835	451.31
374.061	470.31
374.287	461.31
374.513	445.31
374.739	427.31
374.965	459.31
375.191	460.31
375.416	450.31
375.642	452.31
375.868	440.31
376.094	459.31
376.319	430.31
376.545	452.31
376.771	442.31
376.997	431.31
377.222	432.31
377.448	438.31
377.674	449.31
377.899	444.31
378.125	432.31
378.35	437.31
378.576	425.31
378.802	442.31
379.027	432.31
379.253	445.31
379.478	423.31
379.704	438.31
379.929	450.31
380.155	456.31
380.38	459.31
380.606	459.31
380.831	445.31
381.057	446.31
381.282	439.31
381.507	442.31
381.733	473.31
381.958	457.31
382.184	446.31
382.409	452.31
382.634	472.31
382.86	473.31
383.085	454.31
383.31	445.31
383.535	464.31
383.761	467.31
383.986	469.31
384.211	466.31
384.436	476.31
384.662	482.31
384.887	462.31
385.112	489.31
385.337	501.31
385.562	491.31
385.787	520.31
386.013	532.31
386.238	512.31
386.463	506.31
386.688	487.31
386.913	500.31
387.138	509.31
387.363	507.31
387.588	524.31
387.813	484.31
388.038	501.31
388.263	505.31
388.488	509.31
388.713	503.31
388.938	516.31
389.163	476.31
389.387	489.31
389.612	492.31
389.837	489.31
390.062	489.31
390.287	493.31
390.512	486.31
390.736	501.31
390.961	508.31
391.186	502.31
391.411	506.31
391.636	521.31
391.86	512.31
392.085	544.31
392.31	519.31
392.534	513.31
392.759	520.31
392.984	520.31
393.208	495.31
393.433	520.31
393.658	519.31
393.882	509.31
394.107	517.31
394.331	514.31
394.556	512.31
394.78	508.31
395.005	522.31
395.229	525.31
395.454	533.31
395.678	524.31
395.903	546.31
396.127	549.31
396.352	552.31
396.576	535.31
396.801	536.31
397.025	541.31
397.249	556.31
397.474	558.31
397.698	540.31
397.922	553.31
398.147	579.31
398.371	584.31
398.595	556.31
398.82	561.31
399.044	567.31
399.268	626.31
399.492	668.31
399.717	683.31
399.941	735.31
400.165	714.31
400.389	741.31
400.613	682.31
400.837	615.31
401.062	602.31
401.286	614.31
401.51	577.31
401.734	593.31
401.958	602.31
402.182	602.31
402.406	586.31
402.63	576.31
402.854	590.31
403.078	630.31
403.302	609.31
403.526	615.31
403.75	597.31
403.974	624.31
404.198	604.31
404.422	646.31
404.645	631.31
404.869	624.31
405.093	650.31
405.317	681.31
405.541	731.31
405.765	652.31
405.988	624.31
406.212	662.31
406.436	652.31
406.66	670.31
406.883	652.31
407.107	693.31
407.331	716.31
407.555	792.31
407.778	780.31
408.002	713.31
408.226	668.31
408.449	672.31
408.673	668.31
408.896	685.31
409.12	723.31
409.344	696.31
409.567	648.31
409.791	630.31
410.014	596.31
410.238	606.31
410.461	625.31
410.685	611.31
410.908	624.31
411.132	627.31
411.355	684.31
411.578	671.31
411.802	618.31
412.025	594.31
412.249	622.31
412.472	636.31
412.695	675.31
412.919	666.31
413.142	598.31
413.365	588.31
413.589	589.31
413.812	594.31
414.035	589.31
414.258	595.31
414.482	570.31
414.705	588.31
414.928	601.31
415.151	593.31
415.374	568.31
415.597	584.31
415.821	561.31
416.044	580.31
416.267	581.31
416.49	569.31
416.713	575.31
416.936	581.31
417.159	584.31
417.382	573.31
417.605	571.31
417.828	587.31
418.051	617.31
418.274	573.31
418.497	594.31
418.72	588.31
418.943	581.31
419.166	600.31
419.389	632.31
419.611	634.31
419.834	618.31
420.057	615.31
420.28	600.31
420.503	595.31
420.726	611.31
420.948	603.31
421.171	641.31
421.394	672.31
421.617	637.31
421.839	604.31
422.062	598.31
422.285	595.31
422.507	673.31
422.73	776.31
422.953	710.31
423.175	633.31
423.398	629.31
423.621	642.31
423.843	635.31
424.066	659.31
424.288	636.31
424.511	667.31
424.733	710.31
424.956	761.31
425.178	769.31
425.401	726.31
425.623	754.31
425.846	686.31
426.068	638.31
426.291	635.31
426.513	614.31
426.735	614.31
426.958	647.31
427.18	740.31
427.402	881.31
427.625	946.31
427.847	832.31
428.069	730.31
428.292	641.31
428.514	601.31
428.736	586.31
428.958	594.31
429.181	574.31
429.403	583.31
429.625	593.31
429.847	621.31
430.069	671.31
430.292	694.31
430.514	616.31
430.736	588.31
430.958	574.31
431.18	560.31
431.402	551.31
431.624	553.31
431.846	539.31
432.068	560.31
432.29	566.31
432.512	557.31
432.734	579.31
432.956	536.31
433.178	553.31
433.4	582.31
433.622	560.31
433.844	570.31
434.066	555.31
434.287	554.31
434.509	557.31
434.731	561.31
434.953	577.31
435.175	620.31
435.397	605.31
435.618	633.31
435.84	632.31
436.062	734.31
436.284	822.31
436.505	699.31
436.727	626.31
436.949	608.31
437.17	572.31
437.392	552.31
437.614	601.31
437.835	621.31
438.057	694.31
438.278	819.31
438.5	795.31
438.721	884.31
438.943	848.31
439.165	679.31
439.386	642.31
439.608	636.31
439.829	618.31
440.05	644.31
440.272	678.31
440.493	661.31
440.715	620.31
440.936	606.31
441.158	584.31
441.379	594.31
441.6	606.31
441.822	628.31
442.043	673.31
442.264	742.31
442.486	779.31
442.707	692.31
442.928	663.31
443.149	655.31
443.371	665.31
443.592	707.31
443.813	767.31
444.034	856.31
444.255	731.31
444.476	690.31
444.698	671.31
444.919	677.31
445.14	769.31
445.361	702.31
445.582	661.31
445.803	711.31
446.024	821.31
446.245	840.31
446.466	764.31
446.687	665.31
446.908	646.31
447.129	591.31
447.35	598.31
447.571	583.31
447.792	561.31
448.013	565.31
448.234	574.31
448.455	625.31
448.675	753.31
448.896	836.31
449.117	731.31
449.338	692.31
449.559	779.31
449.779	921.31
450	738.31
450.221	612.31
450.442	576.31
450.662	579.31
450.883	559.31
451.104	563.31
451.324	570.31
451.545	572.31
451.766	545.31
451.986	523.31
452.207	510.31
452.428	517.31
452.648	515.31
452.869	522.31
453.089	530.31
453.31	530.31
453.53	526.31
453.751	493.31
453.971	498.31
454.192	536.31
454.412	517.31
454.633	506.31
454.853	492.31
455.073	527.31
455.294	520.31
455.514	613.31
455.734	588.31
455.955	510.31
456.175	518.31
456.395	486.31
456.616	471.31
456.836	492.31
457.056	468.31
457.276	472.31
457.497	508.31
457.717	501.31
457.937	496.31
458.157	517.31
458.377	493.31
458.598	531.31
458.818	579.31
459.038	630.31
459.258	649.31
459.478	607.31
459.698	571.31
459.918	544.31
460.138	564.31
460.358	579.31
460.578	587.31
460.798	570.31
461.018	596.31
461.238	599.31
461.458	575.31
461.678	567.31
461.898	596.31
462.118	596.31
462.338	594.31
462.558	604.31
462.777	625.31
462.997	660.31
463.217	668.31
463.437	679.31
463.657	654.31
463.876	632.31
464.096	630.31
464.316	620.31
464.536	626.31
464.755	644.31
464.975	614.31
465.195	622.31
465.414	675.31
465.634	632.31
465.854	592.31
466.073	574.31
466.293	555.31
466.512	556.31
466.732	554.31
466.951	566.31
467.171	562.31
467.391	550.31
467.61	549.31
467.829	534.31
468.049	532.31
468.268	540.31
468.488	523.31
468.707	524.31
468.927	531.31
469.146	518.31
469.365	518.31
469.585	522.31
469.804	535.31
470.023	537.31
470.243	542.31
470.462	537.31
470.681	552.31
470.901	574.31
471.12	560.31
471.339	551.31
471.558	559.31
471.777	553.31
471.997	526.31
472.216	544.31
472.435	552.31
472.654	555.31
472.873	532.31
473.092	559.31
473.311	548.31
473.53	547.31
473.749	545.31
473.968	572.31
474.187	683.31
474.406	704.31
474.625	589.31
474.844	548.31
475.063	534.31
475.282	532.31
475.501	564.31
475.72	565.31
475.939	552.31
476.158	553.31
476.377	579.31
476.596	541.31
476.814	556.31
477.033	565.31
477.252	576.31
477.471	586.31
477.69	585.31
477.908	578.31
478.127	619.31
478.346	612.31
478.564	616.31
478.783	616.31
479.002	635.31
479.22	625.31
479.439	658.31
479.658	636.31
479.876	648.31
480.095	685.31
480.313	680.31
480.532	683.31
480.751	682.31
480.969	681.31
481.188	718.31
481.406	734.31
481.624	678.31
481.843	656.31
482.061	653.31
482.28	658.31
482.498	648.31
482.717	621.31
482.935	631.31
483.153	629.31
483.372	630.31
483.59	599.31
483.808	630.31
484.027	631.31
484.245	644.31
484.463	658.31
484.681	650.31
484.9	650.31
485.118	625.31
485.336	633.31
485.554	642.31
485.772	645.31
485.99	658.31
486.209	652.31
486.427	658.31
486.645	681.31
486.863	670.31
487.081	689.31
487.299	675.31
487.517	685.31
487.735	675.31
487.953	685.31
488.171	697.31
488.389	674.31
488.607	681.31
488.825	681.31
489.043	692.31
489.261	674.31
489.479	685.31
489.696	709.31
489.914	692.31
490.132	721.31
490.35	700.31
490.568	703.31
490.786	724.31
491.003	730.31
491.221	737.31
491.439	782.31
491.657	748.31
491.874	776.31
492.092	803.31
492.31	778.31
492.527	801.31
492.745	792.31
492.963	789.31
493.18	797.31
493.398	791.31
493.615	793.31
493.833	812.31
494.05	804.31
494.268	820.31
494.485	785.31
494.703	806.31
494.92	790.31
495.138	819.31
495.355	805.31
495.573	797.31
495.79	789.31
496.008	816.31
496.225	806.31
496.442	839.31
496.66	808.31
496.877	848.31
497.094	823.31
497.312	816.31
497.529	852.31
497.746	851.31
497.963	854.31
498.181	900.31
498.398	904.31
498.615	925.31
498.832	986.31
499.049	976.31
499.267	989.31
499.484	1055.31
499.701	1039.31
499.918	1125.31
500.135	1208.31
500.352	1290.31
500.569	1323.31
500.786	1297.31
501.003	1281.31
501.22	1212.31
501.437	1176.31
501.654	1117.31
