Data from 1974.PennyLincolnUp.Lamp.En5.5.200Scan.071719.P1.Changed Mount._HRD10591_15-51-49-855.txt Node
Date: Thu Jul 18 15:51:49 EDT 2019
User: cochatt
Spectrometer: HR+D1059
Trigger mode: 1
Integration Time (sec): 1.000000E-1
Scans to average: 1
Electric dark correction enabled: true
Nonlinearity correction enabled: false
Boxcar width: 0
XAxis mode: Wavelengths
Number of Pixels in Spectrum: 2048
>>>>>Begin Spectral Data<<<<<
223.165	-20.44
223.4	-20.44
223.635	-20.44
223.869	-17.44
224.104	-4.44
224.338	-15.44
224.573	-18.44
224.808	-9.44
225.042	-4.44
225.277	-12.44
225.511	-0.44
225.746	-5.44
225.98	16.56
226.215	15.56
226.449	19.56
226.683	8.56
226.918	26.56
227.152	21.56
227.387	34.56
227.621	30.56
227.856	44.56
228.09	42.56
228.324	44.56
228.559	58.56
228.793	76.56
229.027	99.56
229.262	95.56
229.496	114.56
229.73	127.56
229.964	150.56
230.199	126.56
230.433	119.56
230.667	108.56
230.901	113.56
231.136	114.56
231.37	117.56
231.604	98.56
231.838	126.56
232.072	117.56
232.306	112.56
232.541	128.56
232.775	122.56
233.009	111.56
233.243	110.56
233.477	127.56
233.711	110.56
233.945	124.56
234.179	102.56
234.413	124.56
234.647	117.56
234.881	118.56
235.115	115.56
235.349	121.56
235.583	111.56
235.817	127.56
236.051	125.56
236.285	126.56
236.519	120.56
236.753	128.56
236.987	137.56
237.221	164.56
237.455	211.56
237.689	182.56
237.922	145.56
238.156	132.56
238.39	135.56
238.624	127.56
238.858	125.56
239.091	137.56
239.325	124.56
239.559	133.56
239.793	127.56
240.027	144.56
240.26	138.56
240.494	159.56
240.728	149.56
240.961	160.56
241.195	152.56
241.429	142.56
241.662	148.56
241.896	143.56
242.13	153.56
242.363	150.56
242.597	143.56
242.83	130.56
243.064	135.56
243.298	144.56
243.531	140.56
243.765	148.56
243.998	142.56
244.232	150.56
244.465	159.56
244.699	153.56
244.932	149.56
245.166	160.56
245.399	151.56
245.633	150.56
245.866	151.56
246.099	167.56
246.333	151.56
246.566	153.56
246.8	154.56
247.033	163.56
247.266	172.56
247.5	165.56
247.733	176.56
247.966	166.56
248.2	177.56
248.433	184.56
248.666	167.56
248.899	185.56
249.133	205.56
249.366	199.56
249.599	192.56
249.832	191.56
250.066	175.56
250.299	179.56
250.532	191.56
250.765	207.56
250.998	228.56
251.231	229.56
251.465	219.56
251.698	216.56
251.931	198.56
252.164	200.56
252.397	212.56
252.63	200.56
252.863	206.56
253.096	232.56
253.329	217.56
253.562	243.56
253.795	218.56
254.028	221.56
254.261	227.56
254.494	246.56
254.727	246.56
254.96	275.56
255.193	266.56
255.426	242.56
255.659	220.56
255.892	220.56
256.124	233.56
256.357	233.56
256.59	235.56
256.823	212.56
257.056	225.56
257.289	229.56
257.521	210.56
257.754	220.56
257.987	210.56
258.22	213.56
258.452	217.56
258.685	212.56
258.918	211.56
259.151	223.56
259.383	217.56
259.616	236.56
259.849	234.56
260.081	248.56
260.314	250.56
260.547	262.56
260.779	236.56
261.012	229.56
261.244	220.56
261.477	237.56
261.71	228.56
261.942	230.56
262.175	234.56
262.407	221.56
262.64	227.56
262.872	226.56
263.105	214.56
263.337	226.56
263.57	206.56
263.802	229.56
264.035	219.56
264.267	225.56
264.499	225.56
264.732	215.56
264.964	242.56
265.197	223.56
265.429	233.56
265.661	221.56
265.894	224.56
266.126	246.56
266.358	231.56
266.591	222.56
266.823	239.56
267.055	232.56
267.287	250.56
267.52	236.56
267.752	229.56
267.984	228.56
268.216	245.56
268.448	236.56
268.681	250.56
268.913	247.56
269.145	265.56
269.377	281.56
269.609	273.56
269.841	264.56
270.073	278.56
270.306	291.56
270.538	313.56
270.77	299.56
271.002	318.56
271.234	276.56
271.466	311.56
271.698	300.56
271.93	330.56
272.162	328.56
272.394	318.56
272.626	291.56
272.858	295.56
273.09	277.56
273.322	277.56
273.553	259.56
273.785	260.56
274.017	281.56
274.249	275.56
274.481	269.56
274.713	264.56
274.945	292.56
275.176	270.56
275.408	266.56
275.64	262.56
275.872	266.56
276.104	266.56
276.335	275.56
276.567	287.56
276.799	291.56
277.031	304.56
277.262	288.56
277.494	325.56
277.726	301.56
277.957	301.56
278.189	275.56
278.421	276.56
278.652	275.56
278.884	269.56
279.115	271.56
279.347	290.56
279.579	274.56
279.81	290.56
280.042	288.56
280.273	293.56
280.505	254.56
280.736	283.56
280.968	279.56
281.199	277.56
281.431	278.56
281.662	269.56
281.894	277.56
282.125	272.56
282.356	292.56
282.588	323.56
282.819	308.56
283.051	295.56
283.282	266.56
283.513	286.56
283.745	286.56
283.976	294.56
284.207	267.56
284.439	292.56
284.67	279.56
284.901	270.56
285.132	287.56
285.364	279.56
285.595	298.56
285.826	300.56
286.057	277.56
286.288	282.56
286.52	323.56
286.751	285.56
286.982	295.56
287.213	302.56
287.444	300.56
287.675	283.56
287.906	323.56
288.138	307.56
288.369	307.56
288.6	312.56
288.831	312.56
289.062	323.56
289.293	309.56
289.524	311.56
289.755	318.56
289.986	295.56
290.217	309.56
290.448	317.56
290.679	314.56
290.91	318.56
291.141	290.56
291.371	278.56
291.602	306.56
291.833	290.56
292.064	283.56
292.295	308.56
292.526	298.56
292.757	284.56
292.987	310.56
293.218	307.56
293.449	290.56
293.68	301.56
293.91	307.56
294.141	308.56
294.372	307.56
294.603	293.56
294.833	293.56
295.064	311.56
295.295	320.56
295.525	312.56
295.756	311.56
295.987	317.56
296.217	333.56
296.448	345.56
296.679	310.56
296.909	299.56
297.14	294.56
297.37	323.56
297.601	327.56
297.831	331.56
298.062	303.56
298.292	322.56
298.523	321.56
298.753	324.56
298.984	329.56
299.214	310.56
299.445	340.56
299.675	319.56
299.905	336.56
300.136	344.56
300.366	304.56
300.597	332.56
300.827	342.56
301.057	349.56
301.288	344.56
301.518	339.56
301.748	330.56
301.979	349.56
302.209	334.56
302.439	347.56
302.669	350.56
302.9	351.56
303.13	328.56
303.36	341.56
303.59	359.56
303.82	353.56
304.051	342.56
304.281	352.56
304.511	349.56
304.741	355.56
304.971	342.56
305.201	345.56
305.431	361.56
305.661	356.56
305.891	324.56
306.121	345.56
306.352	346.56
306.582	362.56
306.812	327.56
307.042	346.56
307.272	337.56
307.502	372.56
307.731	348.56
307.961	350.56
308.191	347.56
308.421	366.56
308.651	353.56
308.881	341.56
309.111	344.56
309.341	352.56
309.571	357.56
309.8	347.56
310.03	376.56
310.26	381.56
310.49	363.56
310.72	366.56
310.949	396.56
311.179	382.56
311.409	363.56
311.639	376.56
311.868	380.56
312.098	388.56
312.328	387.56
312.557	387.56
312.787	404.56
313.017	395.56
313.246	382.56
313.476	384.56
313.706	366.56
313.935	403.56
314.165	408.56
314.394	404.56
314.624	407.56
314.853	386.56
315.083	399.56
315.312	388.56
315.542	386.56
315.771	380.56
316.001	376.56
316.23	376.56
316.46	379.56
316.689	384.56
316.919	401.56
317.148	387.56
317.377	396.56
317.607	397.56
317.836	382.56
318.065	371.56
318.295	378.56
318.524	398.56
318.753	374.56
318.983	375.56
319.212	378.56
319.441	383.56
319.67	392.56
319.9	381.56
320.129	381.56
320.358	398.56
320.587	393.56
320.816	386.56
321.046	397.56
321.275	397.56
321.504	399.56
321.733	384.56
321.962	393.56
322.191	415.56
322.42	419.56
322.649	435.56
322.878	412.56
323.108	445.56
323.337	423.56
323.566	431.56
323.795	502.56
324.024	500.56
324.253	578.56
324.482	747.56
324.71	1122.56
324.939	1664.56
325.168	1476.56
325.397	772.56
325.626	562.56
325.855	483.56
326.084	477.56
326.313	469.56
326.542	457.56
326.77	484.56
326.999	542.56
327.228	710.56
327.457	1033.56
327.686	1271.56
327.914	870.56
328.143	606.56
328.372	542.56
328.6	516.56
328.829	488.56
329.058	492.56
329.287	524.56
329.515	503.56
329.744	486.56
329.972	468.56
330.201	498.56
330.43	502.56
330.658	525.56
330.887	538.56
331.115	537.56
331.344	524.56
331.572	496.56
331.801	482.56
332.03	489.56
332.258	449.56
332.486	462.56
332.715	453.56
332.943	486.56
333.172	491.56
333.4	483.56
333.629	491.56
333.857	480.56
334.085	492.56
334.314	532.56
334.542	527.56
334.771	544.56
334.999	496.56
335.227	519.56
335.455	479.56
335.684	471.56
335.912	469.56
336.14	471.56
336.369	471.56
336.597	469.56
336.825	472.56
337.053	471.56
337.281	459.56
337.51	459.56
337.738	474.56
337.966	450.56
338.194	461.56
338.422	472.56
338.65	467.56
338.878	462.56
339.106	432.56
339.334	446.56
339.562	458.56
339.79	450.56
340.018	444.56
340.246	440.56
340.474	441.56
340.702	452.56
340.93	460.56
341.158	434.56
341.386	445.56
341.614	466.56
341.842	445.56
342.07	446.56
342.298	459.56
342.526	436.56
342.754	436.56
342.981	422.56
343.209	437.56
343.437	449.56
343.665	441.56
343.893	454.56
344.12	474.56
344.348	457.56
344.576	469.56
344.804	464.56
345.031	459.56
345.259	450.56
345.487	445.56
345.714	458.56
345.942	436.56
346.17	445.56
346.397	430.56
346.625	456.56
346.853	426.56
347.08	409.56
347.308	438.56
347.535	432.56
347.763	441.56
347.99	443.56
348.218	437.56
348.445	459.56
348.673	430.56
348.9	418.56
349.128	437.56
349.355	423.56
349.583	430.56
349.81	404.56
350.037	410.56
350.265	414.56
350.492	410.56
350.72	419.56
350.947	434.56
351.174	435.56
351.402	439.56
351.629	434.56
351.856	447.56
352.083	441.56
352.311	412.56
352.538	440.56
352.765	446.56
352.992	429.56
353.22	451.56
353.447	406.56
353.674	433.56
353.901	427.56
354.128	418.56
354.355	429.56
354.583	426.56
354.81	421.56
355.037	422.56
355.264	418.56
355.491	422.56
355.718	394.56
355.945	399.56
356.172	415.56
356.399	402.56
356.626	413.56
356.853	415.56
357.08	414.56
357.307	419.56
357.534	411.56
357.761	419.56
357.988	408.56
358.215	412.56
358.441	421.56
358.668	409.56
358.895	434.56
359.122	429.56
359.349	404.56
359.576	434.56
359.802	446.56
360.029	462.56
360.256	452.56
360.483	445.56
360.709	426.56
360.936	410.56
361.163	436.56
361.39	428.56
361.616	421.56
361.843	436.56
362.07	419.56
362.296	430.56
362.523	440.56
362.749	437.56
362.976	431.56
363.203	421.56
363.429	407.56
363.656	414.56
363.882	423.56
364.109	430.56
364.335	442.56
364.562	431.56
364.788	410.56
365.015	430.56
365.241	436.56
365.468	430.56
365.694	423.56
365.92	432.56
366.147	425.56
366.373	430.56
366.599	426.56
366.826	417.56
367.052	399.56
367.278	427.56
367.505	446.56
367.731	419.56
367.957	423.56
368.184	422.56
368.41	432.56
368.636	445.56
368.862	437.56
369.089	434.56
369.315	421.56
369.541	415.56
369.767	414.56
369.993	418.56
370.219	423.56
370.445	401.56
370.672	434.56
370.898	432.56
371.124	443.56
371.35	434.56
371.576	440.56
371.802	443.56
372.028	443.56
372.254	425.56
372.48	445.56
372.706	442.56
372.932	462.56
373.158	440.56
373.384	447.56
373.61	441.56
373.835	453.56
374.061	441.56
374.287	436.56
374.513	455.56
374.739	437.56
374.965	464.56
375.191	445.56
375.416	452.56
375.642	446.56
375.868	438.56
376.094	445.56
376.319	422.56
376.545	429.56
376.771	434.56
376.997	427.56
377.222	436.56
377.448	435.56
377.674	409.56
377.899	420.56
378.125	428.56
378.35	443.56
378.576	442.56
378.802	430.56
379.027	434.56
379.253	446.56
379.478	415.56
379.704	446.56
379.929	448.56
380.155	446.56
380.38	432.56
380.606	426.56
380.831	442.56
381.057	447.56
381.282	437.56
381.507	451.56
381.733	443.56
381.958	441.56
382.184	450.56
382.409	474.56
382.634	423.56
382.86	448.56
383.085	439.56
383.31	472.56
383.535	486.56
383.761	467.56
383.986	475.56
384.211	460.56
384.436	464.56
384.662	483.56
384.887	462.56
385.112	468.56
385.337	476.56
385.562	501.56
385.787	482.56
386.013	496.56
386.238	476.56
386.463	507.56
386.688	484.56
386.913	502.56
387.138	495.56
387.363	511.56
387.588	478.56
387.813	462.56
388.038	474.56
388.263	496.56
388.488	509.56
388.713	484.56
388.938	501.56
389.163	478.56
389.387	480.56
389.612	479.56
389.837	498.56
390.062	488.56
390.287	500.56
390.512	471.56
390.736	488.56
390.961	512.56
391.186	500.56
391.411	496.56
391.636	511.56
391.86	506.56
392.085	502.56
392.31	516.56
392.534	502.56
392.759	510.56
392.984	501.56
393.208	515.56
393.433	518.56
393.658	500.56
393.882	496.56
394.107	478.56
394.331	510.56
394.556	494.56
394.78	491.56
395.005	508.56
395.229	517.56
395.454	505.56
395.678	522.56
395.903	525.56
396.127	555.56
396.352	549.56
396.576	512.56
396.801	509.56
397.025	520.56
397.249	519.56
397.474	517.56
397.698	557.56
397.922	551.56
398.147	535.56
398.371	574.56
398.595	552.56
398.82	568.56
399.044	568.56
399.268	608.56
399.492	640.56
399.717	686.56
399.941	717.56
400.165	720.56
400.389	718.56
400.613	645.56
400.837	598.56
401.062	585.56
401.286	579.56
401.51	579.56
401.734	552.56
401.958	562.56
402.182	580.56
402.406	584.56
402.63	588.56
402.854	590.56
403.078	600.56
403.302	599.56
403.526	602.56
403.75	611.56
403.974	596.56
404.198	597.56
404.422	615.56
404.645	635.56
404.869	608.56
405.093	641.56
405.317	662.56
405.541	706.56
405.765	647.56
405.988	629.56
406.212	646.56
406.436	623.56
406.66	648.56
406.883	635.56
407.107	654.56
407.331	703.56
407.555	798.56
407.778	773.56
408.002	726.56
408.226	665.56
408.449	667.56
408.673	642.56
408.896	669.56
409.12	708.56
409.344	704.56
409.567	620.56
409.791	630.56
410.014	616.56
410.238	588.56
410.461	627.56
410.685	622.56
410.908	636.56
411.132	643.56
411.355	657.56
411.578	650.56
411.802	630.56
412.025	587.56
412.249	616.56
412.472	617.56
412.695	639.56
412.919	622.56
413.142	628.56
413.365	580.56
413.589	584.56
413.812	583.56
414.035	567.56
414.258	585.56
414.482	571.56
414.705	565.56
414.928	568.56
415.151	581.56
415.374	571.56
415.597	574.56
415.821	572.56
416.044	560.56
416.267	554.56
416.49	577.56
416.713	576.56
416.936	543.56
417.159	539.56
417.382	567.56
417.605	560.56
417.828	567.56
418.051	575.56
418.274	589.56
418.497	582.56
418.72	574.56
418.943	549.56
419.166	593.56
419.389	635.56
419.611	611.56
419.834	585.56
420.057	600.56
420.28	587.56
420.503	589.56
420.726	603.56
420.948	599.56
421.171	620.56
421.394	657.56
421.617	598.56
421.839	584.56
422.062	599.56
422.285	604.56
422.507	669.56
422.73	717.56
422.953	710.56
423.175	635.56
423.398	616.56
423.621	593.56
423.843	636.56
424.066	634.56
424.288	640.56
424.511	667.56
424.733	686.56
424.956	776.56
425.178	742.56
425.401	714.56
425.623	777.56
425.846	656.56
426.068	633.56
426.291	618.56
426.513	603.56
426.735	614.56
426.958	647.56
427.18	754.56
427.402	845.56
427.625	926.56
427.847	799.56
428.069	704.56
428.292	662.56
428.514	604.56
428.736	587.56
428.958	591.56
429.181	565.56
429.403	536.56
429.625	573.56
429.847	617.56
430.069	655.56
430.292	688.56
430.514	589.56
430.736	587.56
430.958	588.56
431.18	563.56
431.402	536.56
431.624	557.56
431.846	552.56
432.068	531.56
432.29	547.56
432.512	567.56
432.734	534.56
432.956	575.56
433.178	564.56
433.4	591.56
433.622	580.56
433.844	555.56
434.066	572.56
434.287	542.56
434.509	559.56
434.731	588.56
434.953	576.56
435.175	597.56
435.397	626.56
435.618	632.56
435.84	663.56
436.062	733.56
436.284	827.56
436.505	711.56
436.727	601.56
436.949	603.56
437.17	583.56
437.392	570.56
437.614	574.56
437.835	591.56
438.057	662.56
438.278	784.56
438.5	764.56
438.721	852.56
438.943	852.56
439.165	663.56
439.386	605.56
439.608	620.56
439.829	596.56
440.05	616.56
440.272	650.56
440.493	646.56
440.715	573.56
440.936	570.56
441.158	578.56
441.379	585.56
441.6	597.56
441.822	610.56
442.043	666.56
442.264	727.56
442.486	772.56
442.707	670.56
442.928	635.56
443.149	627.56
443.371	688.56
443.592	696.56
443.813	798.56
444.034	864.56
444.255	699.56
444.476	669.56
444.698	664.56
444.919	637.56
445.14	764.56
445.361	703.56
445.582	706.56
445.803	705.56
446.024	800.56
446.245	794.56
446.466	722.56
446.687	676.56
446.908	658.56
447.129	607.56
447.35	564.56
447.571	576.56
447.792	553.56
448.013	576.56
448.234	564.56
448.455	624.56
448.675	741.56
448.896	830.56
449.117	708.56
449.338	720.56
449.559	771.56
449.779	880.56
450	722.56
450.221	613.56
450.442	580.56
450.662	531.56
450.883	543.56
451.104	549.56
451.324	552.56
451.545	521.56
451.766	535.56
451.986	509.56
452.207	501.56
452.428	505.56
452.648	512.56
452.869	498.56
453.089	490.56
453.31	503.56
453.53	518.56
453.751	500.56
453.971	502.56
454.192	521.56
454.412	516.56
454.633	491.56
454.853	488.56
455.073	504.56
455.294	521.56
455.514	561.56
455.734	585.56
455.955	518.56
456.175	475.56
456.395	488.56
456.616	480.56
456.836	445.56
457.056	471.56
457.276	456.56
457.497	479.56
457.717	474.56
457.937	468.56
458.157	482.56
458.377	527.56
458.598	514.56
458.818	531.56
459.038	622.56
459.258	637.56
459.478	590.56
459.698	546.56
459.918	551.56
460.138	537.56
460.358	570.56
460.578	576.56
460.798	573.56
461.018	571.56
461.238	573.56
461.458	567.56
461.678	563.56
461.898	572.56
462.118	569.56
462.338	577.56
462.558	614.56
462.777	598.56
462.997	615.56
463.217	643.56
463.437	683.56
463.657	640.56
463.876	611.56
464.096	614.56
464.316	608.56
464.536	599.56
464.755	603.56
464.975	607.56
465.195	620.56
465.414	659.56
465.634	615.56
465.854	556.56
466.073	563.56
466.293	556.56
466.512	521.56
466.732	536.56
466.951	542.56
467.171	516.56
467.391	536.56
467.61	504.56
467.829	531.56
468.049	530.56
468.268	532.56
468.488	520.56
468.707	530.56
468.927	516.56
469.146	487.56
469.365	507.56
469.585	518.56
469.804	521.56
470.023	519.56
470.243	536.56
470.462	502.56
470.681	545.56
470.901	522.56
471.12	522.56
471.339	565.56
471.558	536.56
471.777	544.56
471.997	525.56
472.216	516.56
472.435	550.56
472.654	522.56
472.873	537.56
473.092	544.56
473.311	516.56
473.53	514.56
473.749	518.56
473.968	590.56
474.187	681.56
474.406	680.56
474.625	589.56
474.844	532.56
475.063	515.56
475.282	559.56
475.501	532.56
475.72	540.56
475.939	552.56
476.158	525.56
476.377	556.56
476.596	555.56
476.814	549.56
477.033	564.56
477.252	554.56
477.471	562.56
477.69	588.56
477.908	595.56
478.127	596.56
478.346	598.56
478.564	571.56
478.783	593.56
479.002	612.56
479.22	605.56
479.439	610.56
479.658	640.56
479.876	619.56
480.095	642.56
480.313	668.56
480.532	680.56
480.751	665.56
480.969	634.56
481.188	667.56
481.406	708.56
481.624	683.56
481.843	660.56
482.061	638.56
482.28	615.56
482.498	637.56
482.717	637.56
482.935	641.56
483.153	624.56
483.372	621.56
483.59	619.56
483.808	619.56
484.027	595.56
484.245	617.56
484.463	616.56
484.681	641.56
484.9	647.56
485.118	666.56
485.336	630.56
485.554	635.56
485.772	639.56
485.99	633.56
486.209	644.56
486.427	634.56
486.645	655.56
486.863	680.56
487.081	682.56
487.299	659.56
487.517	647.56
487.735	642.56
487.953	651.56
488.171	662.56
488.389	670.56
488.607	642.56
488.825	658.56
489.043	656.56
489.261	667.56
489.479	663.56
489.696	676.56
489.914	680.56
490.132	666.56
490.35	687.56
490.568	689.56
490.786	726.56
491.003	745.56
491.221	714.56
491.439	730.56
491.657	738.56
491.874	755.56
492.092	766.56
492.31	785.56
492.527	760.56
492.745	779.56
492.963	762.56
493.18	771.56
493.398	755.56
493.615	783.56
493.833	804.56
494.05	786.56
494.268	785.56
494.485	790.56
494.703	797.56
494.92	789.56
495.138	787.56
495.355	794.56
495.573	782.56
495.79	780.56
496.008	807.56
496.225	793.56
496.442	811.56
496.66	808.56
496.877	808.56
497.094	826.56
497.312	788.56
497.529	804.56
497.746	820.56
497.963	836.56
498.181	876.56
498.398	888.56
498.615	912.56
498.832	936.56
499.049	956.56
499.267	1012.56
499.484	1036.56
499.701	1059.56
499.918	1086.56
500.135	1172.56
500.352	1212.56
500.569	1268.56
500.786	1287.56
501.003	1236.56
501.22	1182.56
501.437	1161.56
501.654	1107.56
