Data from 1974.PennyLincolnUp.Lamp.En5.5.200Scan.071719.P1.Changed Mount._HRD10591_15-52-31-856.txt Node
Date: Thu Jul 18 15:52:31 EDT 2019
User: cochatt
Spectrometer: HR+D1059
Trigger mode: 1
Integration Time (sec): 1.000000E-1
Scans to average: 1
Electric dark correction enabled: true
Nonlinearity correction enabled: false
Boxcar width: 0
XAxis mode: Wavelengths
Number of Pixels in Spectrum: 2048
>>>>>Begin Spectral Data<<<<<
223.165	-11.44
223.4	-11.44
223.635	-11.44
223.869	-9.44
224.104	-15.44
224.338	-9.44
224.573	-8.44
224.808	-9.44
225.042	-6.44
225.277	-18.44
225.511	-3.44
225.746	14.56
225.98	3.56
226.215	-4.44
226.449	9.56
226.683	19.56
226.918	24.56
227.152	24.56
227.387	18.56
227.621	45.56
227.856	49.56
228.09	39.56
228.324	41.56
228.559	56.56
228.793	67.56
229.027	97.56
229.262	105.56
229.496	126.56
229.73	123.56
229.964	148.56
230.199	125.56
230.433	117.56
230.667	119.56
230.901	121.56
231.136	115.56
231.37	106.56
231.604	109.56
231.838	102.56
232.072	117.56
232.306	112.56
232.541	128.56
232.775	119.56
233.009	131.56
233.243	111.56
233.477	111.56
233.711	118.56
233.945	125.56
234.179	120.56
234.413	120.56
234.647	117.56
234.881	120.56
235.115	125.56
235.349	108.56
235.583	135.56
235.817	119.56
236.051	116.56
236.285	129.56
236.519	117.56
236.753	133.56
236.987	147.56
237.221	166.56
237.455	219.56
237.689	191.56
237.922	141.56
238.156	145.56
238.39	150.56
238.624	128.56
238.858	136.56
239.091	142.56
239.325	128.56
239.559	141.56
239.793	135.56
240.027	127.56
240.26	154.56
240.494	153.56
240.728	151.56
240.961	156.56
241.195	137.56
241.429	155.56
241.662	139.56
241.896	139.56
242.13	128.56
242.363	137.56
242.597	140.56
242.83	146.56
243.064	158.56
243.298	150.56
243.531	140.56
243.765	150.56
243.998	152.56
244.232	123.56
244.465	140.56
244.699	150.56
244.932	156.56
245.166	144.56
245.399	149.56
245.633	146.56
245.866	165.56
246.099	159.56
246.333	161.56
246.566	165.56
246.8	155.56
247.033	179.56
247.266	171.56
247.5	164.56
247.733	189.56
247.966	179.56
248.2	193.56
248.433	198.56
248.666	194.56
248.899	192.56
249.133	191.56
249.366	235.56
249.599	207.56
249.832	199.56
250.066	188.56
250.299	184.56
250.532	207.56
250.765	202.56
250.998	207.56
251.231	209.56
251.465	215.56
251.698	225.56
251.931	219.56
252.164	202.56
252.397	195.56
252.63	214.56
252.863	232.56
253.096	235.56
253.329	233.56
253.562	235.56
253.795	244.56
254.028	225.56
254.261	221.56
254.494	218.56
254.727	251.56
254.96	259.56
255.193	288.56
255.426	247.56
255.659	240.56
255.892	238.56
256.124	245.56
256.357	246.56
256.59	222.56
256.823	216.56
257.056	241.56
257.289	227.56
257.521	219.56
257.754	215.56
257.987	226.56
258.22	227.56
258.452	220.56
258.685	203.56
258.918	201.56
259.151	241.56
259.383	228.56
259.616	235.56
259.849	229.56
260.081	225.56
260.314	256.56
260.547	259.56
260.779	261.56
261.012	246.56
261.244	233.56
261.477	237.56
261.71	222.56
261.942	234.56
262.175	259.56
262.407	238.56
262.64	214.56
262.872	207.56
263.105	219.56
263.337	223.56
263.57	223.56
263.802	225.56
264.035	216.56
264.267	206.56
264.499	229.56
264.732	211.56
264.964	229.56
265.197	213.56
265.429	232.56
265.661	237.56
265.894	244.56
266.126	249.56
266.358	245.56
266.591	222.56
266.823	251.56
267.055	234.56
267.287	240.56
267.52	233.56
267.752	225.56
267.984	230.56
268.216	226.56
268.448	243.56
268.681	264.56
268.913	262.56
269.145	272.56
269.377	291.56
269.609	281.56
269.841	276.56
270.073	285.56
270.306	296.56
270.538	302.56
270.77	315.56
271.002	297.56
271.234	283.56
271.466	294.56
271.698	317.56
271.93	329.56
272.162	347.56
272.394	320.56
272.626	307.56
272.858	287.56
273.09	271.56
273.322	278.56
273.553	260.56
273.785	257.56
274.017	268.56
274.249	278.56
274.481	277.56
274.713	290.56
274.945	281.56
275.176	287.56
275.408	286.56
275.64	267.56
275.872	255.56
276.104	273.56
276.335	264.56
276.567	288.56
276.799	309.56
277.031	315.56
277.262	317.56
277.494	325.56
277.726	305.56
277.957	300.56
278.189	274.56
278.421	278.56
278.652	278.56
278.884	284.56
279.115	280.56
279.347	271.56
279.579	280.56
279.81	289.56
280.042	281.56
280.273	285.56
280.505	268.56
280.736	280.56
280.968	268.56
281.199	280.56
281.431	295.56
281.662	289.56
281.894	284.56
282.125	303.56
282.356	293.56
282.588	307.56
282.819	302.56
283.051	297.56
283.282	294.56
283.513	298.56
283.745	311.56
283.976	298.56
284.207	286.56
284.439	299.56
284.67	303.56
284.901	322.56
285.132	300.56
285.364	305.56
285.595	296.56
285.826	316.56
286.057	296.56
286.288	328.56
286.52	290.56
286.751	302.56
286.982	302.56
287.213	304.56
287.444	316.56
287.675	322.56
287.906	297.56
288.138	323.56
288.369	346.56
288.6	326.56
288.831	299.56
289.062	327.56
289.293	318.56
289.524	314.56
289.755	306.56
289.986	314.56
290.217	312.56
290.448	321.56
290.679	323.56
290.91	315.56
291.141	295.56
291.371	330.56
291.602	307.56
291.833	301.56
292.064	321.56
292.295	316.56
292.526	301.56
292.757	303.56
292.987	313.56
293.218	320.56
293.449	310.56
293.68	308.56
293.91	317.56
294.141	327.56
294.372	317.56
294.603	317.56
294.833	313.56
295.064	318.56
295.295	311.56
295.525	318.56
295.756	311.56
295.987	317.56
296.217	326.56
296.448	346.56
296.679	315.56
296.909	319.56
297.14	315.56
297.37	312.56
297.601	341.56
297.831	309.56
298.062	332.56
298.292	324.56
298.523	326.56
298.753	327.56
298.984	321.56
299.214	330.56
299.445	336.56
299.675	321.56
299.905	323.56
300.136	331.56
300.366	339.56
300.597	338.56
300.827	336.56
301.057	332.56
301.288	334.56
301.518	347.56
301.748	354.56
301.979	365.56
302.209	356.56
302.439	335.56
302.669	359.56
302.9	356.56
303.13	340.56
303.36	344.56
303.59	356.56
303.82	353.56
304.051	355.56
304.281	362.56
304.511	360.56
304.741	356.56
304.971	352.56
305.201	358.56
305.431	360.56
305.661	351.56
305.891	340.56
306.121	349.56
306.352	351.56
306.582	341.56
306.812	355.56
307.042	352.56
307.272	350.56
307.502	356.56
307.731	363.56
307.961	351.56
308.191	365.56
308.421	330.56
308.651	360.56
308.881	351.56
309.111	364.56
309.341	360.56
309.571	375.56
309.8	371.56
310.03	365.56
310.26	381.56
310.49	372.56
310.72	389.56
310.949	377.56
311.179	404.56
311.409	398.56
311.639	371.56
311.868	367.56
312.098	397.56
312.328	387.56
312.557	396.56
312.787	404.56
313.017	420.56
313.246	405.56
313.476	378.56
313.706	381.56
313.935	384.56
314.165	388.56
314.394	409.56
314.624	395.56
314.853	382.56
315.083	395.56
315.312	399.56
315.542	402.56
315.771	402.56
316.001	401.56
316.23	393.56
316.46	375.56
316.689	378.56
316.919	411.56
317.148	387.56
317.377	395.56
317.607	386.56
317.836	401.56
318.065	380.56
318.295	373.56
318.524	400.56
318.753	390.56
318.983	369.56
319.212	391.56
319.441	391.56
319.67	404.56
319.9	391.56
320.129	395.56
320.358	390.56
320.587	408.56
320.816	407.56
321.046	400.56
321.275	397.56
321.504	423.56
321.733	418.56
321.962	407.56
322.191	452.56
322.42	444.56
322.649	429.56
322.878	435.56
323.108	428.56
323.337	466.56
323.566	459.56
323.795	491.56
324.024	497.56
324.253	614.56
324.482	809.56
324.71	1211.56
324.939	1718.56
325.168	1536.56
325.397	818.56
325.626	583.56
325.855	510.56
326.084	484.56
326.313	466.56
326.542	483.56
326.77	519.56
326.999	577.56
327.228	728.56
327.457	1084.56
327.686	1386.56
327.914	924.56
328.143	649.56
328.372	589.56
328.6	549.56
328.829	536.56
329.058	533.56
329.287	560.56
329.515	533.56
329.744	485.56
329.972	485.56
330.201	508.56
330.43	539.56
330.658	545.56
330.887	578.56
331.115	563.56
331.344	486.56
331.572	476.56
331.801	477.56
332.03	491.56
332.258	486.56
332.486	469.56
332.715	454.56
332.943	455.56
333.172	502.56
333.4	504.56
333.629	494.56
333.857	502.56
334.085	520.56
334.314	529.56
334.542	525.56
334.771	556.56
334.999	517.56
335.227	514.56
335.455	495.56
335.684	488.56
335.912	480.56
336.14	465.56
336.369	463.56
336.597	479.56
336.825	480.56
337.053	491.56
337.281	484.56
337.51	484.56
337.738	486.56
337.966	452.56
338.194	467.56
338.422	461.56
338.65	477.56
338.878	459.56
339.106	470.56
339.334	452.56
339.562	451.56
339.79	465.56
340.018	459.56
340.246	463.56
340.474	455.56
340.702	480.56
340.93	441.56
341.158	450.56
341.386	446.56
341.614	459.56
341.842	449.56
342.07	441.56
342.298	448.56
342.526	450.56
342.754	448.56
342.981	452.56
343.209	451.56
343.437	446.56
343.665	468.56
343.893	473.56
344.12	475.56
344.348	482.56
344.576	478.56
344.804	481.56
345.031	483.56
345.259	475.56
345.487	468.56
345.714	476.56
345.942	449.56
346.17	430.56
346.397	438.56
346.625	443.56
346.853	423.56
347.08	443.56
347.308	436.56
347.535	445.56
347.763	446.56
347.99	443.56
348.218	435.56
348.445	443.56
348.673	437.56
348.9	443.56
349.128	437.56
349.355	438.56
349.583	425.56
349.81	430.56
350.037	419.56
350.265	425.56
350.492	442.56
350.72	416.56
350.947	437.56
351.174	460.56
351.402	449.56
351.629	441.56
351.856	442.56
352.083	452.56
352.311	428.56
352.538	437.56
352.765	463.56
352.992	445.56
353.22	436.56
353.447	447.56
353.674	428.56
353.901	427.56
354.128	429.56
354.355	414.56
354.583	427.56
354.81	429.56
355.037	432.56
355.264	429.56
355.491	401.56
355.718	416.56
355.945	438.56
356.172	417.56
356.399	400.56
356.626	425.56
356.853	415.56
357.08	422.56
357.307	417.56
357.534	411.56
357.761	409.56
357.988	419.56
358.215	414.56
358.441	411.56
358.668	413.56
358.895	424.56
359.122	432.56
359.349	426.56
359.576	466.56
359.802	453.56
360.029	455.56
360.256	500.56
360.483	465.56
360.709	447.56
360.936	465.56
361.163	425.56
361.39	457.56
361.616	445.56
361.843	451.56
362.07	431.56
362.296	448.56
362.523	435.56
362.749	425.56
362.976	450.56
363.203	423.56
363.429	424.56
363.656	449.56
363.882	449.56
364.109	424.56
364.335	421.56
364.562	426.56
364.788	421.56
365.015	443.56
365.241	412.56
365.468	432.56
365.694	452.56
365.92	437.56
366.147	444.56
366.373	408.56
366.599	422.56
366.826	413.56
367.052	422.56
367.278	427.56
367.505	424.56
367.731	454.56
367.957	436.56
368.184	454.56
368.41	424.56
368.636	443.56
368.862	451.56
369.089	453.56
369.315	447.56
369.541	446.56
369.767	455.56
369.993	422.56
370.219	410.56
370.445	437.56
370.672	435.56
370.898	429.56
371.124	445.56
371.35	448.56
371.576	432.56
371.802	424.56
372.028	435.56
372.254	441.56
372.48	441.56
372.706	439.56
372.932	443.56
373.158	438.56
373.384	428.56
373.61	453.56
373.835	452.56
374.061	444.56
374.287	441.56
374.513	452.56
374.739	457.56
374.965	444.56
375.191	479.56
375.416	445.56
375.642	446.56
375.868	453.56
376.094	446.56
376.319	449.56
376.545	442.56
376.771	430.56
376.997	440.56
377.222	427.56
377.448	428.56
377.674	437.56
377.899	439.56
378.125	417.56
378.35	439.56
378.576	455.56
378.802	431.56
379.027	443.56
379.253	448.56
379.478	450.56
379.704	413.56
379.929	428.56
380.155	441.56
380.38	439.56
380.606	448.56
380.831	460.56
381.057	462.56
381.282	425.56
381.507	462.56
381.733	456.56
381.958	443.56
382.184	435.56
382.409	440.56
382.634	470.56
382.86	452.56
383.085	465.56
383.31	452.56
383.535	488.56
383.761	441.56
383.986	480.56
384.211	464.56
384.436	485.56
384.662	478.56
384.887	489.56
385.112	474.56
385.337	491.56
385.562	489.56
385.787	481.56
386.013	513.56
386.238	488.56
386.463	499.56
386.688	512.56
386.913	485.56
387.138	509.56
387.363	503.56
387.588	507.56
387.813	518.56
388.038	494.56
388.263	504.56
388.488	528.56
388.713	504.56
388.938	486.56
389.163	503.56
389.387	500.56
389.612	484.56
389.837	478.56
390.062	488.56
390.287	510.56
390.512	497.56
390.736	483.56
390.961	496.56
391.186	513.56
391.411	507.56
391.636	524.56
391.86	521.56
392.085	544.56
392.31	516.56
392.534	501.56
392.759	521.56
392.984	507.56
393.208	520.56
393.433	511.56
393.658	497.56
393.882	484.56
394.107	503.56
394.331	521.56
394.556	513.56
394.78	517.56
395.005	511.56
395.229	508.56
395.454	502.56
395.678	531.56
395.903	547.56
396.127	560.56
396.352	527.56
396.576	509.56
396.801	507.56
397.025	523.56
397.249	545.56
397.474	560.56
397.698	551.56
397.922	558.56
398.147	575.56
398.371	575.56
398.595	557.56
398.82	571.56
399.044	568.56
399.268	629.56
399.492	653.56
399.717	699.56
399.941	751.56
400.165	723.56
400.389	711.56
400.613	676.56
400.837	612.56
401.062	589.56
401.286	599.56
401.51	598.56
401.734	563.56
401.958	577.56
402.182	564.56
402.406	588.56
402.63	577.56
402.854	591.56
403.078	592.56
403.302	593.56
403.526	615.56
403.75	619.56
403.974	615.56
404.198	603.56
404.422	592.56
404.645	631.56
404.869	627.56
405.093	653.56
405.317	661.56
405.541	729.56
405.765	654.56
405.988	622.56
406.212	622.56
406.436	653.56
406.66	661.56
406.883	645.56
407.107	666.56
407.331	714.56
407.555	776.56
407.778	789.56
408.002	710.56
408.226	679.56
408.449	677.56
408.673	663.56
408.896	689.56
409.12	726.56
409.344	679.56
409.567	644.56
409.791	615.56
410.014	624.56
410.238	600.56
410.461	622.56
410.685	591.56
410.908	589.56
411.132	646.56
411.355	695.56
411.578	672.56
411.802	641.56
412.025	605.56
412.249	606.56
412.472	629.56
412.695	675.56
412.919	652.56
413.142	629.56
413.365	606.56
413.589	598.56
413.812	573.56
414.035	564.56
414.258	589.56
414.482	600.56
414.705	577.56
414.928	584.56
415.151	549.56
415.374	585.56
415.597	563.56
415.821	573.56
416.044	580.56
416.267	572.56
416.49	567.56
416.713	571.56
416.936	572.56
417.159	560.56
417.382	588.56
417.605	580.56
417.828	589.56
418.051	567.56
418.274	579.56
418.497	573.56
418.72	602.56
418.943	605.56
419.166	607.56
419.389	643.56
419.611	613.56
419.834	614.56
420.057	611.56
420.28	593.56
420.503	596.56
420.726	581.56
420.948	631.56
421.171	659.56
421.394	668.56
421.617	608.56
421.839	604.56
422.062	592.56
422.285	592.56
422.507	671.56
422.73	736.56
422.953	716.56
423.175	632.56
423.398	616.56
423.621	620.56
423.843	645.56
424.066	655.56
424.288	642.56
424.511	657.56
424.733	728.56
424.956	771.56
425.178	748.56
425.401	731.56
425.623	743.56
425.846	663.56
426.068	616.56
426.291	616.56
426.513	614.56
426.735	630.56
426.958	660.56
427.18	756.56
427.402	869.56
427.625	937.56
427.847	819.56
428.069	731.56
428.292	667.56
428.514	597.56
428.736	570.56
428.958	591.56
429.181	572.56
429.403	583.56
429.625	578.56
429.847	632.56
430.069	657.56
430.292	676.56
430.514	603.56
430.736	571.56
430.958	566.56
431.18	554.56
431.402	556.56
431.624	532.56
431.846	540.56
432.068	552.56
432.29	553.56
432.512	568.56
432.734	566.56
432.956	565.56
433.178	572.56
433.4	576.56
433.622	570.56
433.844	577.56
434.066	541.56
434.287	575.56
434.509	568.56
434.731	574.56
434.953	550.56
435.175	591.56
435.397	620.56
435.618	627.56
435.84	672.56
436.062	750.56
436.284	799.56
436.505	675.56
436.727	633.56
436.949	590.56
437.17	591.56
437.392	583.56
437.614	584.56
437.835	612.56
438.057	670.56
438.278	786.56
438.5	821.56
438.721	874.56
438.943	848.56
439.165	693.56
439.386	635.56
439.608	601.56
439.829	611.56
440.05	639.56
440.272	678.56
440.493	664.56
440.715	601.56
440.936	616.56
441.158	583.56
441.379	589.56
441.6	588.56
441.822	622.56
442.043	669.56
442.264	747.56
442.486	785.56
442.707	688.56
442.928	645.56
443.149	651.56
443.371	638.56
443.592	707.56
443.813	801.56
444.034	853.56
444.255	731.56
444.476	660.56
444.698	665.56
444.919	651.56
445.14	732.56
445.361	698.56
445.582	684.56
445.803	721.56
446.024	816.56
446.245	830.56
446.466	738.56
446.687	671.56
446.908	629.56
447.129	567.56
447.35	563.56
447.571	581.56
447.792	579.56
448.013	567.56
448.234	605.56
448.455	625.56
448.675	740.56
448.896	863.56
449.117	757.56
449.338	701.56
449.559	804.56
449.779	935.56
450	730.56
450.221	633.56
450.442	561.56
450.662	548.56
450.883	575.56
451.104	568.56
451.324	550.56
451.545	527.56
451.766	537.56
451.986	496.56
452.207	517.56
452.428	503.56
452.648	491.56
452.869	519.56
453.089	517.56
453.31	538.56
453.53	520.56
453.751	522.56
453.971	501.56
454.192	504.56
454.412	517.56
454.633	504.56
454.853	512.56
455.073	496.56
455.294	536.56
455.514	594.56
455.734	583.56
455.955	522.56
456.175	493.56
456.395	501.56
456.616	475.56
456.836	477.56
457.056	477.56
457.276	490.56
457.497	489.56
457.717	488.56
457.937	489.56
458.157	486.56
458.377	509.56
458.598	519.56
458.818	580.56
459.038	639.56
459.258	657.56
459.478	572.56
459.698	547.56
459.918	541.56
460.138	574.56
460.358	591.56
460.578	557.56
460.798	580.56
461.018	580.56
461.238	554.56
461.458	572.56
461.678	567.56
461.898	585.56
462.118	584.56
462.338	603.56
462.558	616.56
462.777	624.56
462.997	628.56
463.217	643.56
463.437	645.56
463.657	622.56
463.876	643.56
464.096	624.56
464.316	637.56
464.536	609.56
464.755	631.56
464.975	613.56
465.195	643.56
465.414	680.56
465.634	609.56
465.854	565.56
466.073	579.56
466.293	538.56
466.512	557.56
466.732	532.56
466.951	539.56
467.171	523.56
467.391	530.56
467.61	528.56
467.829	542.56
468.049	533.56
468.268	545.56
468.488	532.56
468.707	521.56
468.927	508.56
469.146	523.56
469.365	493.56
469.585	541.56
469.804	538.56
470.023	516.56
470.243	528.56
470.462	548.56
470.681	575.56
470.901	543.56
471.12	537.56
471.339	541.56
471.558	519.56
471.777	537.56
471.997	523.56
472.216	525.56
472.435	556.56
472.654	542.56
472.873	553.56
473.092	540.56
473.311	532.56
473.53	531.56
473.749	533.56
473.968	587.56
474.187	656.56
474.406	700.56
474.625	595.56
474.844	556.56
475.063	526.56
475.282	547.56
475.501	565.56
475.72	535.56
475.939	547.56
476.158	572.56
476.377	564.56
476.596	552.56
476.814	571.56
477.033	558.56
477.252	565.56
477.471	593.56
477.69	556.56
477.908	605.56
478.127	583.56
478.346	610.56
478.564	604.56
478.783	627.56
479.002	615.56
479.22	619.56
479.439	634.56
479.658	656.56
479.876	653.56
480.095	652.56
480.313	679.56
480.532	682.56
480.751	661.56
480.969	650.56
481.188	679.56
481.406	734.56
481.624	669.56
481.843	645.56
482.061	641.56
482.28	635.56
482.498	622.56
482.717	635.56
482.935	620.56
483.153	630.56
483.372	627.56
483.59	620.56
483.808	635.56
484.027	608.56
484.245	651.56
484.463	623.56
484.681	659.56
484.9	655.56
485.118	628.56
485.336	651.56
485.554	639.56
485.772	652.56
485.99	653.56
486.209	649.56
486.427	662.56
486.645	651.56
486.863	670.56
487.081	654.56
487.299	655.56
487.517	654.56
487.735	671.56
487.953	661.56
488.171	690.56
488.389	652.56
488.607	657.56
488.825	680.56
489.043	662.56
489.261	687.56
489.479	703.56
489.696	701.56
489.914	673.56
490.132	677.56
490.35	715.56
490.568	716.56
490.786	710.56
491.003	718.56
491.221	754.56
491.439	769.56
491.657	727.56
491.874	759.56
492.092	767.56
492.31	792.56
492.527	772.56
492.745	775.56
492.963	783.56
493.18	776.56
493.398	812.56
493.615	806.56
493.833	801.56
494.05	823.56
494.268	789.56
494.485	817.56
494.703	815.56
494.92	826.56
495.138	807.56
495.355	799.56
495.573	815.56
495.79	821.56
496.008	804.56
496.225	811.56
496.442	829.56
496.66	822.56
496.877	820.56
497.094	819.56
497.312	834.56
497.529	842.56
497.746	856.56
497.963	853.56
498.181	902.56
498.398	923.56
498.615	909.56
498.832	924.56
499.049	959.56
499.267	977.56
499.484	997.56
499.701	1052.56
499.918	1131.56
500.135	1186.56
500.352	1269.56
500.569	1293.56
500.786	1272.56
501.003	1244.56
501.22	1236.56
501.437	1154.56
501.654	1111.56
