Data from 1974.PennyLincolnUp.Lamp.En5.5.200Scan.071719.P1.Changed Mount._HRD10591_15-53-16-857.txt Node
Date: Thu Jul 18 15:53:16 EDT 2019
User: cochatt
Spectrometer: HR+D1059
Trigger mode: 1
Integration Time (sec): 1.000000E-1
Scans to average: 1
Electric dark correction enabled: true
Nonlinearity correction enabled: false
Boxcar width: 0
XAxis mode: Wavelengths
Number of Pixels in Spectrum: 2048
>>>>>Begin Spectral Data<<<<<
223.165	-15.12
223.4	-15.12
223.635	-15.12
223.869	-22.12
224.104	-19.12
224.338	-12.12
224.573	-12.12
224.808	-10.12
225.042	-2.12
225.277	-14.12
225.511	7.88
225.746	5.88
225.98	9.88
226.215	8.88
226.449	14.88
226.683	9.88
226.918	16.88
227.152	32.88
227.387	32.88
227.621	32.88
227.856	31.88
228.09	40.88
228.324	54.88
228.559	68.88
228.793	52.88
229.027	102.88
229.262	105.88
229.496	128.88
229.73	139.88
229.964	151.88
230.199	127.88
230.433	131.88
230.667	125.88
230.901	125.88
231.136	127.88
231.37	127.88
231.604	121.88
231.838	117.88
232.072	116.88
232.306	117.88
232.541	120.88
232.775	122.88
233.009	122.88
233.243	116.88
233.477	112.88
233.711	141.88
233.945	116.88
234.179	144.88
234.413	132.88
234.647	132.88
234.881	125.88
235.115	122.88
235.349	115.88
235.583	134.88
235.817	131.88
236.051	123.88
236.285	152.88
236.519	135.88
236.753	137.88
236.987	146.88
237.221	183.88
237.455	239.88
237.689	195.88
237.922	156.88
238.156	160.88
238.39	144.88
238.624	131.88
238.858	128.88
239.091	127.88
239.325	131.88
239.559	133.88
239.793	127.88
240.027	144.88
240.26	146.88
240.494	180.88
240.728	167.88
240.961	151.88
241.195	149.88
241.429	154.88
241.662	143.88
241.896	145.88
242.13	145.88
242.363	153.88
242.597	146.88
242.83	139.88
243.064	144.88
243.298	146.88
243.531	157.88
243.765	159.88
243.998	162.88
244.232	144.88
244.465	163.88
244.699	153.88
244.932	139.88
245.166	181.88
245.399	173.88
245.633	159.88
245.866	175.88
246.099	154.88
246.333	167.88
246.566	158.88
246.8	138.88
247.033	149.88
247.266	163.88
247.5	172.88
247.733	166.88
247.966	199.88
248.2	185.88
248.433	183.88
248.666	183.88
248.899	195.88
249.133	201.88
249.366	216.88
249.599	208.88
249.832	191.88
250.066	197.88
250.299	191.88
250.532	203.88
250.765	216.88
250.998	229.88
251.231	245.88
251.465	233.88
251.698	222.88
251.931	221.88
252.164	206.88
252.397	223.88
252.63	212.88
252.863	229.88
253.096	225.88
253.329	244.88
253.562	237.88
253.795	246.88
254.028	230.88
254.261	213.88
254.494	247.88
254.727	271.88
254.96	303.88
255.193	276.88
255.426	270.88
255.659	240.88
255.892	252.88
256.124	234.88
256.357	254.88
256.59	237.88
256.823	240.88
257.056	237.88
257.289	228.88
257.521	219.88
257.754	221.88
257.987	234.88
258.22	222.88
258.452	216.88
258.685	235.88
258.918	232.88
259.151	228.88
259.383	243.88
259.616	243.88
259.849	244.88
260.081	267.88
260.314	271.88
260.547	274.88
260.779	256.88
261.012	248.88
261.244	248.88
261.477	247.88
261.71	215.88
261.942	234.88
262.175	246.88
262.407	246.88
262.64	236.88
262.872	232.88
263.105	220.88
263.337	231.88
263.57	223.88
263.802	228.88
264.035	234.88
264.267	224.88
264.499	230.88
264.732	230.88
264.964	226.88
265.197	240.88
265.429	235.88
265.661	234.88
265.894	231.88
266.126	237.88
266.358	237.88
266.591	252.88
266.823	232.88
267.055	255.88
267.287	264.88
267.52	259.88
267.752	250.88
267.984	244.88
268.216	253.88
268.448	244.88
268.681	274.88
268.913	266.88
269.145	279.88
269.377	290.88
269.609	280.88
269.841	297.88
270.073	311.88
270.306	315.88
270.538	348.88
270.77	340.88
271.002	314.88
271.234	322.88
271.466	298.88
271.698	339.88
271.93	324.88
272.162	346.88
272.394	342.88
272.626	330.88
272.858	317.88
273.09	307.88
273.322	318.88
273.553	293.88
273.785	281.88
274.017	284.88
274.249	282.88
274.481	285.88
274.713	282.88
274.945	308.88
275.176	315.88
275.408	293.88
275.64	299.88
275.872	288.88
276.104	275.88
276.335	285.88
276.567	291.88
276.799	292.88
277.031	313.88
277.262	331.88
277.494	349.88
277.726	315.88
277.957	311.88
278.189	309.88
278.421	307.88
278.652	301.88
278.884	307.88
279.115	301.88
279.347	308.88
279.579	295.88
279.81	304.88
280.042	295.88
280.273	306.88
280.505	289.88
280.736	284.88
280.968	296.88
281.199	299.88
281.431	297.88
281.662	300.88
281.894	298.88
282.125	291.88
282.356	323.88
282.588	335.88
282.819	325.88
283.051	313.88
283.282	297.88
283.513	295.88
283.745	287.88
283.976	313.88
284.207	320.88
284.439	307.88
284.67	310.88
284.901	326.88
285.132	300.88
285.364	322.88
285.595	294.88
285.826	305.88
286.057	319.88
286.288	311.88
286.52	348.88
286.751	319.88
286.982	312.88
287.213	307.88
287.444	318.88
287.675	316.88
287.906	333.88
288.138	333.88
288.369	332.88
288.6	341.88
288.831	332.88
289.062	340.88
289.293	307.88
289.524	342.88
289.755	334.88
289.986	323.88
290.217	325.88
290.448	318.88
290.679	326.88
290.91	309.88
291.141	321.88
291.371	339.88
291.602	333.88
291.833	322.88
292.064	337.88
292.295	336.88
292.526	328.88
292.757	327.88
292.987	325.88
293.218	325.88
293.449	339.88
293.68	338.88
293.91	313.88
294.141	310.88
294.372	321.88
294.603	314.88
294.833	321.88
295.064	356.88
295.295	310.88
295.525	335.88
295.756	337.88
295.987	327.88
296.217	355.88
296.448	360.88
296.679	326.88
296.909	320.88
297.14	315.88
297.37	347.88
297.601	347.88
297.831	341.88
298.062	331.88
298.292	334.88
298.523	340.88
298.753	333.88
298.984	321.88
299.214	349.88
299.445	338.88
299.675	353.88
299.905	363.88
300.136	335.88
300.366	336.88
300.597	356.88
300.827	358.88
301.057	370.88
301.288	393.88
301.518	374.88
301.748	372.88
301.979	355.88
302.209	362.88
302.439	365.88
302.669	366.88
302.9	377.88
303.13	335.88
303.36	363.88
303.59	376.88
303.82	368.88
304.051	351.88
304.281	361.88
304.511	373.88
304.741	351.88
304.971	363.88
305.201	384.88
305.431	359.88
305.661	356.88
305.891	355.88
306.121	361.88
306.352	375.88
306.582	351.88
306.812	358.88
307.042	355.88
307.272	358.88
307.502	384.88
307.731	369.88
307.961	378.88
308.191	377.88
308.421	381.88
308.651	356.88
308.881	379.88
309.111	387.88
309.341	383.88
309.571	370.88
309.8	402.88
310.03	393.88
310.26	391.88
310.49	396.88
310.72	413.88
310.949	428.88
311.179	427.88
311.409	389.88
311.639	399.88
311.868	406.88
312.098	417.88
312.328	417.88
312.557	428.88
312.787	423.88
313.017	439.88
313.246	433.88
313.476	410.88
313.706	427.88
313.935	424.88
314.165	448.88
314.394	431.88
314.624	437.88
314.853	421.88
315.083	399.88
315.312	397.88
315.542	411.88
315.771	417.88
316.001	409.88
316.23	419.88
316.46	421.88
316.689	398.88
316.919	407.88
317.148	428.88
317.377	421.88
317.607	414.88
317.836	413.88
318.065	414.88
318.295	410.88
318.524	407.88
318.753	406.88
318.983	415.88
319.212	410.88
319.441	411.88
319.67	430.88
319.9	422.88
320.129	426.88
320.358	410.88
320.587	414.88
320.816	441.88
321.046	428.88
321.275	427.88
321.504	427.88
321.733	429.88
321.962	443.88
322.191	421.88
322.42	451.88
322.649	460.88
322.878	444.88
323.108	485.88
323.337	486.88
323.566	501.88
323.795	549.88
324.024	556.88
324.253	645.88
324.482	846.88
324.71	1301.88
324.939	1923.88
325.168	1632.88
325.397	868.88
325.626	627.88
325.855	565.88
326.084	499.88
326.313	513.88
326.542	519.88
326.77	548.88
326.999	629.88
327.228	791.88
327.457	1204.88
327.686	1469.88
327.914	991.88
328.143	688.88
328.372	605.88
328.6	560.88
328.829	559.88
329.058	569.88
329.287	569.88
329.515	562.88
329.744	538.88
329.972	549.88
330.201	556.88
330.43	581.88
330.658	618.88
330.887	593.88
331.115	596.88
331.344	524.88
331.572	525.88
331.801	520.88
332.03	523.88
332.258	496.88
332.486	509.88
332.715	507.88
332.943	503.88
333.172	502.88
333.4	520.88
333.629	512.88
333.857	564.88
334.085	562.88
334.314	576.88
334.542	582.88
334.771	618.88
334.999	554.88
335.227	516.88
335.455	501.88
335.684	524.88
335.912	506.88
336.14	505.88
336.369	496.88
336.597	503.88
336.825	486.88
337.053	509.88
337.281	473.88
337.51	478.88
337.738	516.88
337.966	472.88
338.194	495.88
338.422	477.88
338.65	483.88
338.878	460.88
339.106	472.88
339.334	492.88
339.562	463.88
339.79	480.88
340.018	477.88
340.246	477.88
340.474	481.88
340.702	493.88
340.93	489.88
341.158	490.88
341.386	489.88
341.614	475.88
341.842	469.88
342.07	462.88
342.298	465.88
342.526	470.88
342.754	469.88
342.981	480.88
343.209	488.88
343.437	480.88
343.665	488.88
343.893	507.88
344.12	481.88
344.348	515.88
344.576	488.88
344.804	506.88
345.031	499.88
345.259	496.88
345.487	502.88
345.714	475.88
345.942	484.88
346.17	488.88
346.397	475.88
346.625	455.88
346.853	464.88
347.08	461.88
347.308	477.88
347.535	467.88
347.763	484.88
347.99	481.88
348.218	461.88
348.445	462.88
348.673	464.88
348.9	476.88
349.128	445.88
349.355	452.88
349.583	454.88
349.81	446.88
350.037	437.88
350.265	463.88
350.492	435.88
350.72	464.88
350.947	467.88
351.174	455.88
351.402	483.88
351.629	473.88
351.856	473.88
352.083	483.88
352.311	466.88
352.538	484.88
352.765	473.88
352.992	475.88
353.22	458.88
353.447	483.88
353.674	467.88
353.901	449.88
354.128	457.88
354.355	432.88
354.583	446.88
354.81	439.88
355.037	454.88
355.264	453.88
355.491	437.88
355.718	425.88
355.945	454.88
356.172	441.88
356.399	437.88
356.626	459.88
356.853	426.88
357.08	446.88
357.307	441.88
357.534	447.88
357.761	438.88
357.988	447.88
358.215	447.88
358.441	456.88
358.668	447.88
358.895	464.88
359.122	466.88
359.349	445.88
359.576	465.88
359.802	471.88
360.029	506.88
360.256	489.88
360.483	475.88
360.709	459.88
360.936	470.88
361.163	473.88
361.39	459.88
361.616	471.88
361.843	455.88
362.07	459.88
362.296	452.88
362.523	464.88
362.749	445.88
362.976	461.88
363.203	447.88
363.429	458.88
363.656	465.88
363.882	455.88
364.109	463.88
364.335	465.88
364.562	462.88
364.788	460.88
365.015	429.88
365.241	457.88
365.468	449.88
365.694	447.88
365.92	474.88
366.147	457.88
366.373	426.88
366.599	469.88
366.826	447.88
367.052	433.88
367.278	453.88
367.505	455.88
367.731	479.88
367.957	449.88
368.184	472.88
368.41	481.88
368.636	471.88
368.862	463.88
369.089	468.88
369.315	455.88
369.541	448.88
369.767	447.88
369.993	413.88
370.219	443.88
370.445	455.88
370.672	454.88
370.898	460.88
371.124	450.88
371.35	447.88
371.576	451.88
371.802	445.88
372.028	455.88
372.254	469.88
372.48	472.88
372.706	473.88
372.932	452.88
373.158	452.88
373.384	484.88
373.61	469.88
373.835	471.88
374.061	469.88
374.287	462.88
374.513	470.88
374.739	485.88
374.965	462.88
375.191	474.88
375.416	473.88
375.642	464.88
375.868	466.88
376.094	473.88
376.319	463.88
376.545	468.88
376.771	463.88
376.997	478.88
377.222	470.88
377.448	474.88
377.674	468.88
377.899	449.88
378.125	437.88
378.35	453.88
378.576	469.88
378.802	461.88
379.027	460.88
379.253	469.88
379.478	475.88
379.704	468.88
379.929	456.88
380.155	444.88
380.38	478.88
380.606	488.88
380.831	464.88
381.057	487.88
381.282	472.88
381.507	478.88
381.733	477.88
381.958	491.88
382.184	478.88
382.409	435.88
382.634	473.88
382.86	475.88
383.085	487.88
383.31	471.88
383.535	504.88
383.761	485.88
383.986	499.88
384.211	484.88
384.436	490.88
384.662	507.88
384.887	504.88
385.112	523.88
385.337	503.88
385.562	502.88
385.787	486.88
386.013	545.88
386.238	553.88
386.463	549.88
386.688	505.88
386.913	525.88
387.138	506.88
387.363	517.88
387.588	533.88
387.813	530.88
388.038	515.88
388.263	530.88
388.488	511.88
388.713	515.88
388.938	492.88
389.163	506.88
389.387	539.88
389.612	525.88
389.837	523.88
390.062	509.88
390.287	512.88
390.512	510.88
390.736	524.88
390.961	536.88
391.186	537.88
391.411	547.88
391.636	548.88
391.86	572.88
392.085	556.88
392.31	543.88
392.534	537.88
392.759	541.88
392.984	555.88
393.208	527.88
393.433	517.88
393.658	527.88
393.882	529.88
394.107	533.88
394.331	502.88
394.556	537.88
394.78	526.88
395.005	526.88
395.229	534.88
395.454	537.88
395.678	555.88
395.903	555.88
396.127	579.88
396.352	582.88
396.576	557.88
396.801	556.88
397.025	548.88
397.249	567.88
397.474	583.88
397.698	588.88
397.922	577.88
398.147	598.88
398.371	586.88
398.595	601.88
398.82	607.88
399.044	660.88
399.268	638.88
399.492	686.88
399.717	748.88
399.941	750.88
400.165	755.88
400.389	752.88
400.613	699.88
400.837	661.88
401.062	653.88
401.286	645.88
401.51	624.88
401.734	607.88
401.958	603.88
402.182	635.88
402.406	617.88
402.63	645.88
402.854	604.88
403.078	636.88
403.302	632.88
403.526	635.88
403.75	635.88
403.974	647.88
404.198	623.88
404.422	647.88
404.645	638.88
404.869	652.88
405.093	657.88
405.317	707.88
405.541	760.88
405.765	702.88
405.988	663.88
406.212	661.88
406.436	683.88
406.66	680.88
406.883	663.88
407.107	701.88
407.331	733.88
407.555	800.88
407.778	821.88
408.002	775.88
408.226	731.88
408.449	717.88
408.673	685.88
408.896	735.88
409.12	757.88
409.344	743.88
409.567	665.88
409.791	623.88
410.014	643.88
410.238	647.88
410.461	638.88
410.685	641.88
410.908	648.88
411.132	692.88
411.355	744.88
411.578	684.88
411.802	628.88
412.025	639.88
412.249	651.88
412.472	683.88
412.695	698.88
412.919	693.88
413.142	663.88
413.365	634.88
413.589	621.88
413.812	609.88
414.035	597.88
414.258	604.88
414.482	582.88
414.705	592.88
414.928	614.88
415.151	620.88
415.374	612.88
415.597	610.88
415.821	587.88
416.044	577.88
416.267	618.88
416.49	593.88
416.713	620.88
416.936	595.88
417.159	606.88
417.382	608.88
417.605	615.88
417.828	610.88
418.051	623.88
418.274	634.88
418.497	590.88
418.72	629.88
418.943	616.88
419.166	650.88
419.389	658.88
419.611	650.88
419.834	650.88
420.057	618.88
420.28	645.88
420.503	640.88
420.726	618.88
420.948	639.88
421.171	699.88
421.394	737.88
421.617	656.88
421.839	621.88
422.062	616.88
422.285	631.88
422.507	712.88
422.73	777.88
422.953	745.88
423.175	661.88
423.398	646.88
423.621	670.88
423.843	673.88
424.066	695.88
424.288	651.88
424.511	697.88
424.733	739.88
424.956	829.88
425.178	771.88
425.401	765.88
425.623	832.88
425.846	698.88
426.068	667.88
426.291	631.88
426.513	661.88
426.735	664.88
426.958	703.88
427.18	777.88
427.402	906.88
427.625	1015.88
427.847	883.88
428.069	761.88
428.292	715.88
428.514	666.88
428.736	638.88
428.958	625.88
429.181	616.88
429.403	617.88
429.625	614.88
429.847	646.88
430.069	725.88
430.292	717.88
430.514	618.88
430.736	612.88
430.958	613.88
431.18	584.88
431.402	586.88
431.624	572.88
431.846	590.88
432.068	575.88
432.29	603.88
432.512	598.88
432.734	612.88
432.956	592.88
433.178	608.88
433.4	610.88
433.622	587.88
433.844	581.88
434.066	593.88
434.287	598.88
434.509	593.88
434.731	598.88
434.953	639.88
435.175	619.88
435.397	667.88
435.618	636.88
435.84	695.88
436.062	803.88
436.284	888.88
436.505	739.88
436.727	665.88
436.949	599.88
437.17	593.88
437.392	591.88
437.614	621.88
437.835	643.88
438.057	744.88
438.278	821.88
438.5	851.88
438.721	952.88
438.943	889.88
439.165	720.88
439.386	657.88
439.608	676.88
439.829	651.88
440.05	675.88
440.272	708.88
440.493	699.88
440.715	624.88
440.936	635.88
441.158	636.88
441.379	613.88
441.6	635.88
441.822	665.88
442.043	686.88
442.264	780.88
442.486	851.88
442.707	705.88
442.928	688.88
443.149	679.88
443.371	694.88
443.592	712.88
443.813	879.88
444.034	899.88
444.255	789.88
444.476	708.88
444.698	667.88
444.919	675.88
445.14	760.88
445.361	726.88
445.582	714.88
445.803	772.88
446.024	857.88
446.245	869.88
446.466	812.88
446.687	712.88
446.908	665.88
447.129	635.88
447.35	612.88
447.571	598.88
447.792	589.88
448.013	608.88
448.234	610.88
448.455	659.88
448.675	789.88
448.896	900.88
449.117	786.88
449.338	755.88
449.559	847.88
449.779	948.88
450	747.88
450.221	657.88
450.442	630.88
450.662	598.88
450.883	605.88
451.104	585.88
451.324	605.88
451.545	577.88
451.766	555.88
451.986	529.88
452.207	533.88
452.428	536.88
452.648	535.88
452.869	518.88
453.089	543.88
453.31	570.88
453.53	565.88
453.751	529.88
453.971	526.88
454.192	545.88
454.412	555.88
454.633	537.88
454.853	534.88
455.073	533.88
455.294	555.88
455.514	647.88
455.734	629.88
455.955	555.88
456.175	508.88
456.395	515.88
456.616	523.88
456.836	502.88
457.056	512.88
457.276	500.88
457.497	525.88
457.717	542.88
457.937	534.88
458.157	540.88
458.377	534.88
458.598	550.88
458.818	586.88
459.038	655.88
459.258	700.88
459.478	606.88
459.698	581.88
459.918	577.88
460.138	592.88
460.358	599.88
460.578	607.88
460.798	614.88
461.018	608.88
461.238	617.88
461.458	604.88
461.678	605.88
461.898	620.88
462.118	619.88
462.338	643.88
462.558	619.88
462.777	653.88
462.997	657.88
463.217	700.88
463.437	697.88
463.657	689.88
463.876	675.88
464.096	670.88
464.316	664.88
464.536	648.88
464.755	683.88
464.975	675.88
465.195	650.88
465.414	719.88
465.634	640.88
465.854	608.88
466.073	591.88
466.293	572.88
466.512	575.88
466.732	563.88
466.951	571.88
467.171	572.88
467.391	584.88
467.61	563.88
467.829	560.88
468.049	559.88
468.268	564.88
468.488	547.88
468.707	533.88
468.927	569.88
469.146	520.88
469.365	556.88
469.585	541.88
469.804	568.88
470.023	565.88
470.243	584.88
470.462	558.88
470.681	587.88
470.901	593.88
471.12	559.88
471.339	567.88
471.558	573.88
471.777	597.88
471.997	583.88
472.216	566.88
472.435	576.88
472.654	588.88
472.873	572.88
473.092	563.88
473.311	557.88
473.53	560.88
473.749	575.88
473.968	609.88
474.187	698.88
474.406	714.88
474.625	644.88
474.844	573.88
475.063	563.88
475.282	571.88
475.501	582.88
475.72	581.88
475.939	580.88
476.158	576.88
476.377	576.88
476.596	586.88
476.814	587.88
477.033	602.88
477.252	598.88
477.471	602.88
477.69	613.88
477.908	634.88
478.127	636.88
478.346	631.88
478.564	631.88
478.783	639.88
479.002	675.88
479.22	662.88
479.439	670.88
479.658	685.88
479.876	686.88
480.095	680.88
480.313	712.88
480.532	713.88
480.751	703.88
480.969	709.88
481.188	717.88
481.406	776.88
481.624	705.88
481.843	674.88
482.061	678.88
482.28	661.88
482.498	670.88
482.717	649.88
482.935	688.88
483.153	671.88
483.372	667.88
483.59	669.88
483.808	660.88
484.027	647.88
484.245	672.88
484.463	675.88
484.681	679.88
484.9	684.88
485.118	689.88
485.336	661.88
485.554	654.88
485.772	668.88
485.99	669.88
486.209	657.88
486.427	722.88
486.645	709.88
486.863	720.88
487.081	722.88
487.299	694.88
487.517	707.88
487.735	721.88
487.953	707.88
488.171	716.88
488.389	709.88
488.607	711.88
488.825	704.88
489.043	727.88
489.261	720.88
489.479	733.88
489.696	744.88
489.914	726.88
490.132	728.88
490.35	738.88
490.568	750.88
490.786	775.88
491.003	780.88
491.221	796.88
491.439	797.88
491.657	817.88
491.874	798.88
492.092	810.88
492.31	795.88
492.527	825.88
492.745	840.88
492.963	857.88
493.18	854.88
493.398	841.88
493.615	827.88
493.833	828.88
494.05	826.88
494.268	835.88
494.485	855.88
494.703	839.88
494.92	840.88
495.138	859.88
495.355	836.88
495.573	841.88
495.79	849.88
496.008	876.88
496.225	833.88
496.442	842.88
496.66	856.88
496.877	867.88
497.094	891.88
497.312	874.88
497.529	895.88
497.746	923.88
497.963	897.88
498.181	941.88
498.398	943.88
498.615	959.88
498.832	982.88
499.049	1038.88
499.267	1049.88
499.484	1129.88
499.701	1137.88
499.918	1192.88
500.135	1248.88
500.352	1320.88
500.569	1361.88
500.786	1382.88
501.003	1310.88
501.22	1256.88
501.437	1207.88
501.654	1136.88
