Data from 1974.PennyLincolnUp.Lamp.En5.5.200Scan.071719.P1.Changed Mount._HRD10591_15-51-42-856.txt Node
Date: Thu Jul 18 15:51:42 EDT 2019
User: cochatt
Spectrometer: HR+D1059
Trigger mode: 1
Integration Time (sec): 1.000000E-1
Scans to average: 1
Electric dark correction enabled: true
Nonlinearity correction enabled: false
Boxcar width: 0
XAxis mode: Wavelengths
Number of Pixels in Spectrum: 2048
>>>>>Begin Spectral Data<<<<<
223.165	-25.25
223.4	-25.25
223.635	-25.25
223.869	-19.25
224.104	-21.25
224.338	-11.25
224.573	-6.25
224.808	-1.25
225.042	-6.25
225.277	0.75
225.511	2.75
225.746	-9.25
225.98	4.75
226.215	21.75
226.449	10.75
226.683	18.75
226.918	14.75
227.152	25.75
227.387	32.75
227.621	32.75
227.856	33.75
228.09	34.75
228.324	44.75
228.559	54.75
228.793	59.75
229.027	80.75
229.262	106.75
229.496	113.75
229.73	125.75
229.964	154.75
230.199	117.75
230.433	108.75
230.667	104.75
230.901	112.75
231.136	112.75
231.37	116.75
231.604	109.75
231.838	115.75
232.072	114.75
232.306	106.75
232.541	106.75
232.775	114.75
233.009	116.75
233.243	112.75
233.477	120.75
233.711	115.75
233.945	132.75
234.179	125.75
234.413	98.75
234.647	108.75
234.881	119.75
235.115	114.75
235.349	132.75
235.583	117.75
235.817	116.75
236.051	136.75
236.285	125.75
236.519	118.75
236.753	127.75
236.987	153.75
237.221	168.75
237.455	210.75
237.689	181.75
237.922	134.75
238.156	129.75
238.39	110.75
238.624	126.75
238.858	139.75
239.091	130.75
239.325	124.75
239.559	106.75
239.793	126.75
240.027	127.75
240.26	131.75
240.494	161.75
240.728	149.75
240.961	150.75
241.195	155.75
241.429	160.75
241.662	142.75
241.896	127.75
242.13	132.75
242.363	142.75
242.597	132.75
242.83	140.75
243.064	138.75
243.298	146.75
243.531	147.75
243.765	148.75
243.998	141.75
244.232	152.75
244.465	148.75
244.699	153.75
244.932	154.75
245.166	146.75
245.399	159.75
245.633	141.75
245.866	164.75
246.099	156.75
246.333	148.75
246.566	156.75
246.8	159.75
247.033	152.75
247.266	180.75
247.5	162.75
247.733	183.75
247.966	164.75
248.2	183.75
248.433	176.75
248.666	186.75
248.899	196.75
249.133	196.75
249.366	211.75
249.599	204.75
249.832	187.75
250.066	184.75
250.299	192.75
250.532	193.75
250.765	201.75
250.998	216.75
251.231	214.75
251.465	199.75
251.698	207.75
251.931	207.75
252.164	205.75
252.397	196.75
252.63	198.75
252.863	197.75
253.096	215.75
253.329	235.75
253.562	214.75
253.795	200.75
254.028	214.75
254.261	218.75
254.494	218.75
254.727	251.75
254.96	272.75
255.193	265.75
255.426	243.75
255.659	230.75
255.892	219.75
256.124	221.75
256.357	247.75
256.59	216.75
256.823	224.75
257.056	222.75
257.289	206.75
257.521	196.75
257.754	202.75
257.987	197.75
258.22	191.75
258.452	212.75
258.685	204.75
258.918	214.75
259.151	208.75
259.383	212.75
259.616	234.75
259.849	224.75
260.081	224.75
260.314	252.75
260.547	259.75
260.779	239.75
261.012	232.75
261.244	216.75
261.477	211.75
261.71	224.75
261.942	227.75
262.175	225.75
262.407	213.75
262.64	215.75
262.872	198.75
263.105	208.75
263.337	210.75
263.57	211.75
263.802	205.75
264.035	224.75
264.267	224.75
264.499	225.75
264.732	227.75
264.964	229.75
265.197	206.75
265.429	228.75
265.661	216.75
265.894	222.75
266.126	226.75
266.358	228.75
266.591	214.75
266.823	235.75
267.055	246.75
267.287	224.75
267.52	228.75
267.752	241.75
267.984	229.75
268.216	231.75
268.448	226.75
268.681	241.75
268.913	246.75
269.145	256.75
269.377	267.75
269.609	265.75
269.841	267.75
270.073	278.75
270.306	281.75
270.538	296.75
270.77	285.75
271.002	284.75
271.234	283.75
271.466	284.75
271.698	296.75
271.93	307.75
272.162	317.75
272.394	294.75
272.626	284.75
272.858	278.75
273.09	270.75
273.322	263.75
273.553	280.75
273.785	274.75
274.017	276.75
274.249	259.75
274.481	273.75
274.713	262.75
274.945	272.75
275.176	281.75
275.408	273.75
275.64	271.75
275.872	271.75
276.104	257.75
276.335	271.75
276.567	286.75
276.799	276.75
277.031	298.75
277.262	318.75
277.494	322.75
277.726	316.75
277.957	297.75
278.189	278.75
278.421	265.75
278.652	290.75
278.884	283.75
279.115	263.75
279.347	289.75
279.579	271.75
279.81	283.75
280.042	288.75
280.273	276.75
280.505	285.75
280.736	288.75
280.968	268.75
281.199	274.75
281.431	268.75
281.662	278.75
281.894	291.75
282.125	274.75
282.356	290.75
282.588	283.75
282.819	304.75
283.051	287.75
283.282	270.75
283.513	287.75
283.745	277.75
283.976	291.75
284.207	303.75
284.439	295.75
284.67	296.75
284.901	296.75
285.132	285.75
285.364	283.75
285.595	308.75
285.826	292.75
286.057	296.75
286.288	288.75
286.52	262.75
286.751	301.75
286.982	300.75
287.213	293.75
287.444	305.75
287.675	289.75
287.906	300.75
288.138	314.75
288.369	321.75
288.6	296.75
288.831	312.75
289.062	301.75
289.293	304.75
289.524	312.75
289.755	306.75
289.986	308.75
290.217	304.75
290.448	285.75
290.679	320.75
290.91	305.75
291.141	298.75
291.371	304.75
291.602	300.75
291.833	300.75
292.064	288.75
292.295	307.75
292.526	292.75
292.757	302.75
292.987	309.75
293.218	296.75
293.449	328.75
293.68	297.75
293.91	306.75
294.141	316.75
294.372	282.75
294.603	313.75
294.833	309.75
295.064	305.75
295.295	310.75
295.525	300.75
295.756	308.75
295.987	309.75
296.217	329.75
296.448	336.75
296.679	306.75
296.909	313.75
297.14	313.75
297.37	312.75
297.601	302.75
297.831	315.75
298.062	329.75
298.292	314.75
298.523	333.75
298.753	294.75
298.984	326.75
299.214	321.75
299.445	313.75
299.675	304.75
299.905	340.75
300.136	329.75
300.366	333.75
300.597	342.75
300.827	329.75
301.057	324.75
301.288	347.75
301.518	341.75
301.748	330.75
301.979	338.75
302.209	337.75
302.439	343.75
302.669	329.75
302.9	361.75
303.13	333.75
303.36	353.75
303.59	345.75
303.82	355.75
304.051	324.75
304.281	349.75
304.511	345.75
304.741	338.75
304.971	361.75
305.201	341.75
305.431	340.75
305.661	338.75
305.891	325.75
306.121	330.75
306.352	325.75
306.582	347.75
306.812	333.75
307.042	329.75
307.272	347.75
307.502	344.75
307.731	334.75
307.961	350.75
308.191	352.75
308.421	344.75
308.651	350.75
308.881	355.75
309.111	340.75
309.341	342.75
309.571	342.75
309.8	367.75
310.03	363.75
310.26	364.75
310.49	364.75
310.72	387.75
310.949	402.75
311.179	394.75
311.409	375.75
311.639	377.75
311.868	399.75
312.098	374.75
312.328	387.75
312.557	389.75
312.787	416.75
313.017	386.75
313.246	389.75
313.476	385.75
313.706	372.75
313.935	366.75
314.165	386.75
314.394	386.75
314.624	383.75
314.853	384.75
315.083	383.75
315.312	384.75
315.542	377.75
315.771	386.75
316.001	379.75
316.23	385.75
316.46	378.75
316.689	390.75
316.919	383.75
317.148	378.75
317.377	387.75
317.607	393.75
317.836	386.75
318.065	373.75
318.295	382.75
318.524	392.75
318.753	407.75
318.983	393.75
319.212	375.75
319.441	385.75
319.67	392.75
319.9	393.75
320.129	402.75
320.358	392.75
320.587	394.75
320.816	397.75
321.046	392.75
321.275	400.75
321.504	399.75
321.733	393.75
321.962	416.75
322.191	386.75
322.42	422.75
322.649	413.75
322.878	440.75
323.108	433.75
323.337	442.75
323.566	457.75
323.795	480.75
324.024	493.75
324.253	540.75
324.482	746.75
324.71	1111.75
324.939	1655.75
325.168	1442.75
325.397	755.75
325.626	538.75
325.855	472.75
326.084	459.75
326.313	443.75
326.542	470.75
326.77	501.75
326.999	565.75
327.228	705.75
327.457	1059.75
327.686	1259.75
327.914	873.75
328.143	604.75
328.372	540.75
328.6	539.75
328.829	512.75
329.058	497.75
329.287	533.75
329.515	509.75
329.744	480.75
329.972	482.75
330.201	479.75
330.43	525.75
330.658	495.75
330.887	550.75
331.115	526.75
331.344	479.75
331.572	468.75
331.801	483.75
332.03	459.75
332.258	466.75
332.486	461.75
332.715	474.75
332.943	457.75
333.172	472.75
333.4	485.75
333.629	476.75
333.857	478.75
334.085	493.75
334.314	522.75
334.542	540.75
334.771	518.75
334.999	509.75
335.227	500.75
335.455	503.75
335.684	456.75
335.912	477.75
336.14	472.75
336.369	460.75
336.597	466.75
336.825	468.75
337.053	476.75
337.281	441.75
337.51	463.75
337.738	469.75
337.966	444.75
338.194	458.75
338.422	444.75
338.65	450.75
338.878	458.75
339.106	449.75
339.334	444.75
339.562	456.75
339.79	452.75
340.018	457.75
340.246	433.75
340.474	443.75
340.702	448.75
340.93	437.75
341.158	435.75
341.386	453.75
341.614	444.75
341.842	437.75
342.07	452.75
342.298	423.75
342.526	440.75
342.754	434.75
342.981	425.75
343.209	430.75
343.437	444.75
343.665	452.75
343.893	446.75
344.12	489.75
344.348	483.75
344.576	463.75
344.804	481.75
345.031	467.75
345.259	458.75
345.487	465.75
345.714	430.75
345.942	441.75
346.17	430.75
346.397	443.75
346.625	449.75
346.853	436.75
347.08	409.75
347.308	411.75
347.535	430.75
347.763	450.75
347.99	444.75
348.218	426.75
348.445	433.75
348.673	436.75
348.9	433.75
349.128	429.75
349.355	417.75
349.583	419.75
349.81	435.75
350.037	421.75
350.265	405.75
350.492	421.75
350.72	434.75
350.947	444.75
351.174	432.75
351.402	419.75
351.629	432.75
351.856	426.75
352.083	432.75
352.311	430.75
352.538	445.75
352.765	442.75
352.992	424.75
353.22	418.75
353.447	436.75
353.674	426.75
353.901	422.75
354.128	422.75
354.355	411.75
354.583	422.75
354.81	403.75
355.037	411.75
355.264	425.75
355.491	424.75
355.718	393.75
355.945	406.75
356.172	411.75
356.399	419.75
356.626	387.75
356.853	411.75
357.08	417.75
357.307	398.75
357.534	408.75
357.761	411.75
357.988	420.75
358.215	419.75
358.441	412.75
358.668	431.75
358.895	430.75
359.122	406.75
359.349	421.75
359.576	433.75
359.802	437.75
360.029	470.75
360.256	462.75
360.483	428.75
360.709	424.75
360.936	437.75
361.163	450.75
361.39	447.75
361.616	439.75
361.843	427.75
362.07	419.75
362.296	448.75
362.523	448.75
362.749	440.75
362.976	427.75
363.203	416.75
363.429	440.75
363.656	418.75
363.882	423.75
364.109	429.75
364.335	426.75
364.562	436.75
364.788	426.75
365.015	434.75
365.241	408.75
365.468	435.75
365.694	425.75
365.92	434.75
366.147	422.75
366.373	410.75
366.599	426.75
366.826	432.75
367.052	429.75
367.278	417.75
367.505	433.75
367.731	406.75
367.957	415.75
368.184	438.75
368.41	444.75
368.636	456.75
368.862	442.75
369.089	451.75
369.315	419.75
369.541	435.75
369.767	417.75
369.993	450.75
370.219	420.75
370.445	432.75
370.672	412.75
370.898	434.75
371.124	449.75
371.35	452.75
371.576	449.75
371.802	413.75
372.028	425.75
372.254	436.75
372.48	429.75
372.706	432.75
372.932	446.75
373.158	446.75
373.384	426.75
373.61	441.75
373.835	436.75
374.061	432.75
374.287	450.75
374.513	438.75
374.739	461.75
374.965	449.75
375.191	485.75
375.416	441.75
375.642	436.75
375.868	453.75
376.094	439.75
376.319	444.75
376.545	444.75
376.771	454.75
376.997	438.75
377.222	433.75
377.448	435.75
377.674	425.75
377.899	456.75
378.125	423.75
378.35	445.75
378.576	433.75
378.802	429.75
379.027	447.75
379.253	450.75
379.478	436.75
379.704	419.75
379.929	440.75
380.155	448.75
380.38	436.75
380.606	456.75
380.831	448.75
381.057	427.75
381.282	440.75
381.507	448.75
381.733	441.75
381.958	439.75
382.184	449.75
382.409	441.75
382.634	466.75
382.86	442.75
383.085	455.75
383.31	468.75
383.535	465.75
383.761	472.75
383.986	441.75
384.211	459.75
384.436	466.75
384.662	471.75
384.887	483.75
385.112	470.75
385.337	471.75
385.562	506.75
385.787	480.75
386.013	505.75
386.238	491.75
386.463	493.75
386.688	499.75
386.913	480.75
387.138	510.75
387.363	487.75
387.588	490.75
387.813	502.75
388.038	486.75
388.263	512.75
388.488	492.75
388.713	499.75
388.938	490.75
389.163	502.75
389.387	486.75
389.612	485.75
389.837	490.75
390.062	466.75
390.287	491.75
390.512	502.75
390.736	472.75
390.961	508.75
391.186	484.75
391.411	489.75
391.636	515.75
391.86	519.75
392.085	520.75
392.31	519.75
392.534	516.75
392.759	538.75
392.984	508.75
393.208	525.75
393.433	508.75
393.658	509.75
393.882	500.75
394.107	508.75
394.331	505.75
394.556	502.75
394.78	524.75
395.005	519.75
395.229	512.75
395.454	526.75
395.678	524.75
395.903	521.75
396.127	546.75
396.352	541.75
396.576	532.75
396.801	530.75
397.025	527.75
397.249	530.75
397.474	517.75
397.698	502.75
397.922	533.75
398.147	556.75
398.371	572.75
398.595	553.75
398.82	566.75
399.044	576.75
399.268	610.75
399.492	617.75
399.717	700.75
399.941	714.75
400.165	718.75
400.389	713.75
400.613	676.75
400.837	616.75
401.062	569.75
401.286	572.75
401.51	570.75
401.734	577.75
401.958	570.75
402.182	572.75
402.406	585.75
402.63	602.75
402.854	568.75
403.078	580.75
403.302	618.75
403.526	592.75
403.75	601.75
403.974	604.75
404.198	608.75
404.422	605.75
404.645	619.75
404.869	602.75
405.093	638.75
405.317	665.75
405.541	723.75
405.765	649.75
405.988	602.75
406.212	645.75
406.436	627.75
406.66	654.75
406.883	631.75
407.107	677.75
407.331	716.75
407.555	772.75
407.778	792.75
408.002	709.75
408.226	660.75
408.449	672.75
408.673	662.75
408.896	676.75
409.12	721.75
409.344	676.75
409.567	647.75
409.791	633.75
410.014	598.75
410.238	604.75
410.461	597.75
410.685	617.75
410.908	611.75
411.132	625.75
411.355	665.75
411.578	639.75
411.802	603.75
412.025	603.75
412.249	595.75
412.472	635.75
412.695	665.75
412.919	679.75
413.142	622.75
413.365	616.75
413.589	581.75
413.812	585.75
414.035	591.75
414.258	579.75
414.482	564.75
414.705	576.75
414.928	581.75
415.151	563.75
415.374	550.75
415.597	555.75
415.821	539.75
416.044	556.75
416.267	560.75
416.49	570.75
416.713	571.75
416.936	549.75
417.159	564.75
417.382	564.75
417.605	571.75
417.828	593.75
418.051	589.75
418.274	589.75
418.497	574.75
418.72	572.75
418.943	582.75
419.166	596.75
419.389	646.75
419.611	643.75
419.834	618.75
420.057	608.75
420.28	603.75
420.503	575.75
420.726	593.75
420.948	608.75
421.171	655.75
421.394	664.75
421.617	604.75
421.839	577.75
422.062	594.75
422.285	611.75
422.507	688.75
422.73	738.75
422.953	706.75
423.175	630.75
423.398	625.75
423.621	620.75
423.843	624.75
424.066	655.75
424.288	642.75
424.511	654.75
424.733	703.75
424.956	758.75
425.178	732.75
425.401	733.75
425.623	772.75
425.846	654.75
426.068	628.75
426.291	643.75
426.513	601.75
426.735	626.75
426.958	662.75
427.18	728.75
427.402	880.75
427.625	947.75
427.847	810.75
428.069	743.75
428.292	650.75
428.514	601.75
428.736	584.75
428.958	596.75
429.181	573.75
429.403	573.75
429.625	579.75
429.847	591.75
430.069	662.75
430.292	660.75
430.514	589.75
430.736	558.75
430.958	562.75
431.18	566.75
431.402	557.75
431.624	547.75
431.846	534.75
432.068	546.75
432.29	544.75
432.512	551.75
432.734	565.75
432.956	529.75
433.178	567.75
433.4	553.75
433.622	554.75
433.844	553.75
434.066	545.75
434.287	525.75
434.509	572.75
434.731	566.75
434.953	574.75
435.175	589.75
435.397	618.75
435.618	608.75
435.84	656.75
436.062	722.75
436.284	808.75
436.505	674.75
436.727	625.75
436.949	580.75
437.17	580.75
437.392	587.75
437.614	568.75
437.835	604.75
438.057	666.75
438.278	757.75
438.5	818.75
438.721	880.75
438.943	845.75
439.165	676.75
439.386	619.75
439.608	619.75
439.829	599.75
440.05	606.75
440.272	676.75
440.493	626.75
440.715	585.75
440.936	568.75
441.158	596.75
441.379	598.75
441.6	596.75
441.822	622.75
442.043	650.75
442.264	743.75
442.486	782.75
442.707	672.75
442.928	622.75
443.149	653.75
443.371	670.75
443.592	685.75
443.813	808.75
444.034	848.75
444.255	717.75
444.476	632.75
444.698	660.75
444.919	640.75
445.14	757.75
445.361	683.75
445.582	636.75
445.803	728.75
446.024	822.75
446.245	798.75
446.466	750.75
446.687	643.75
446.908	610.75
447.129	585.75
447.35	557.75
447.571	556.75
447.792	563.75
448.013	569.75
448.234	570.75
448.455	611.75
448.675	726.75
448.896	840.75
449.117	712.75
449.338	697.75
449.559	787.75
449.779	891.75
450	728.75
450.221	608.75
450.442	581.75
450.662	532.75
450.883	545.75
451.104	568.75
451.324	536.75
451.545	530.75
451.766	544.75
451.986	503.75
452.207	513.75
452.428	485.75
452.648	486.75
452.869	508.75
453.089	514.75
453.31	536.75
453.53	505.75
453.751	498.75
453.971	494.75
454.192	529.75
454.412	494.75
454.633	485.75
454.853	490.75
455.073	501.75
455.294	526.75
455.514	570.75
455.734	567.75
455.955	489.75
456.175	493.75
456.395	490.75
456.616	482.75
456.836	478.75
457.056	476.75
457.276	466.75
457.497	473.75
457.717	466.75
457.937	498.75
458.157	488.75
458.377	488.75
458.598	531.75
458.818	568.75
459.038	633.75
459.258	651.75
459.478	591.75
459.698	544.75
459.918	555.75
460.138	540.75
460.358	546.75
460.578	560.75
460.798	575.75
461.018	595.75
461.238	568.75
461.458	577.75
461.678	574.75
461.898	572.75
462.118	579.75
462.338	593.75
462.558	626.75
462.777	593.75
462.997	622.75
463.217	658.75
463.437	666.75
463.657	653.75
463.876	649.75
464.096	626.75
464.316	641.75
464.536	647.75
464.755	630.75
464.975	615.75
465.195	617.75
465.414	663.75
465.634	615.75
465.854	583.75
466.073	557.75
466.293	534.75
466.512	549.75
466.732	515.75
466.951	521.75
467.171	513.75
467.391	512.75
467.61	519.75
467.829	537.75
468.049	550.75
468.268	532.75
468.488	515.75
468.707	522.75
468.927	524.75
469.146	525.75
469.365	497.75
469.585	515.75
469.804	526.75
470.023	545.75
470.243	524.75
470.462	530.75
470.681	537.75
470.901	555.75
471.12	550.75
471.339	543.75
471.558	516.75
471.777	518.75
471.997	523.75
472.216	513.75
472.435	582.75
472.654	551.75
472.873	518.75
473.092	524.75
473.311	544.75
473.53	548.75
473.749	523.75
473.968	549.75
474.187	616.75
474.406	672.75
474.625	600.75
474.844	560.75
475.063	533.75
475.282	530.75
475.501	523.75
475.72	544.75
475.939	551.75
476.158	545.75
476.377	555.75
476.596	555.75
476.814	557.75
477.033	576.75
477.252	572.75
477.471	565.75
477.69	555.75
477.908	578.75
478.127	610.75
478.346	563.75
478.564	625.75
478.783	606.75
479.002	637.75
479.22	628.75
479.439	613.75
479.658	630.75
479.876	662.75
480.095	626.75
480.313	653.75
480.532	657.75
480.751	676.75
480.969	686.75
481.188	672.75
481.406	683.75
481.624	642.75
481.843	646.75
482.061	633.75
482.28	633.75
482.498	637.75
482.717	600.75
482.935	617.75
483.153	631.75
483.372	631.75
483.59	638.75
483.808	637.75
484.027	631.75
484.245	619.75
484.463	630.75
484.681	640.75
484.9	626.75
485.118	629.75
485.336	629.75
485.554	641.75
485.772	642.75
485.99	646.75
486.209	640.75
486.427	653.75
486.645	647.75
486.863	677.75
487.081	642.75
487.299	672.75
487.517	665.75
487.735	661.75
487.953	646.75
488.171	658.75
488.389	641.75
488.607	661.75
488.825	666.75
489.043	664.75
489.261	661.75
489.479	682.75
489.696	704.75
489.914	698.75
490.132	678.75
490.35	692.75
490.568	690.75
490.786	730.75
491.003	709.75
491.221	728.75
491.439	717.75
491.657	752.75
491.874	764.75
492.092	759.75
492.31	755.75
492.527	768.75
492.745	764.75
492.963	771.75
493.18	802.75
493.398	779.75
493.615	798.75
493.833	803.75
494.05	792.75
494.268	802.75
494.485	810.75
494.703	787.75
494.92	795.75
495.138	761.75
495.355	781.75
495.573	791.75
495.79	780.75
496.008	781.75
496.225	789.75
496.442	787.75
496.66	797.75
496.877	791.75
497.094	830.75
497.312	828.75
497.529	825.75
497.746	817.75
497.963	837.75
498.181	858.75
498.398	881.75
498.615	904.75
498.832	939.75
499.049	929.75
499.267	963.75
499.484	1066.75
499.701	1056.75
499.918	1119.75
500.135	1224.75
500.352	1255.75
500.569	1310.75
500.786	1274.75
501.003	1243.75
501.22	1192.75
501.437	1172.75
501.654	1101.75
