Data from 1974.PennyLincolnUp.Lamp.En5.5.200Scan.071719.P1.Changed Mount._HRD10591_15-53-53-857.txt Node
Date: Thu Jul 18 15:53:53 EDT 2019
User: cochatt
Spectrometer: HR+D1059
Trigger mode: 1
Integration Time (sec): 1.000000E-1
Scans to average: 1
Electric dark correction enabled: true
Nonlinearity correction enabled: false
Boxcar width: 0
XAxis mode: Wavelengths
Number of Pixels in Spectrum: 2048
>>>>>Begin Spectral Data<<<<<
223.165	-23.62
223.4	-23.62
223.635	-23.62
223.869	-21.62
224.104	-16.62
224.338	-28.62
224.573	-9.62
224.808	-17.62
225.042	-3.62
225.277	-0.62
225.511	2.38
225.746	-2.62
225.98	16.38
226.215	14.38
226.449	17.38
226.683	24.38
226.918	15.38
227.152	34.38
227.387	52.38
227.621	37.38
227.856	38.38
228.09	48.38
228.324	46.38
228.559	43.38
228.793	64.38
229.027	106.38
229.262	107.38
229.496	104.38
229.73	133.38
229.964	145.38
230.199	137.38
230.433	124.38
230.667	123.38
230.901	115.38
231.136	108.38
231.37	118.38
231.604	122.38
231.838	120.38
232.072	126.38
232.306	125.38
232.541	121.38
232.775	126.38
233.009	104.38
233.243	121.38
233.477	127.38
233.711	120.38
233.945	127.38
234.179	124.38
234.413	120.38
234.647	113.38
234.881	119.38
235.115	116.38
235.349	121.38
235.583	124.38
235.817	127.38
236.051	129.38
236.285	127.38
236.519	125.38
236.753	131.38
236.987	152.38
237.221	182.38
237.455	237.38
237.689	172.38
237.922	130.38
238.156	145.38
238.39	135.38
238.624	125.38
238.858	136.38
239.091	145.38
239.325	138.38
239.559	142.38
239.793	126.38
240.027	139.38
240.26	144.38
240.494	166.38
240.728	172.38
240.961	162.38
241.195	143.38
241.429	164.38
241.662	152.38
241.896	136.38
242.13	130.38
242.363	142.38
242.597	141.38
242.83	154.38
243.064	137.38
243.298	142.38
243.531	141.38
243.765	143.38
243.998	145.38
244.232	159.38
244.465	164.38
244.699	154.38
244.932	167.38
245.166	161.38
245.399	155.38
245.633	164.38
245.866	153.38
246.099	166.38
246.333	157.38
246.566	148.38
246.8	152.38
247.033	172.38
247.266	169.38
247.5	182.38
247.733	174.38
247.966	176.38
248.2	196.38
248.433	166.38
248.666	191.38
248.899	188.38
249.133	196.38
249.366	220.38
249.599	215.38
249.832	180.38
250.066	200.38
250.299	192.38
250.532	183.38
250.765	227.38
250.998	207.38
251.231	242.38
251.465	254.38
251.698	227.38
251.931	214.38
252.164	214.38
252.397	212.38
252.63	209.38
252.863	206.38
253.096	219.38
253.329	235.38
253.562	258.38
253.795	232.38
254.028	233.38
254.261	240.38
254.494	251.38
254.727	264.38
254.96	297.38
255.193	280.38
255.426	250.38
255.659	241.38
255.892	248.38
256.124	252.38
256.357	263.38
256.59	240.38
256.823	237.38
257.056	239.38
257.289	226.38
257.521	217.38
257.754	212.38
257.987	223.38
258.22	223.38
258.452	219.38
258.685	226.38
258.918	231.38
259.151	230.38
259.383	234.38
259.616	243.38
259.849	226.38
260.081	262.38
260.314	270.38
260.547	283.38
260.779	251.38
261.012	274.38
261.244	258.38
261.477	255.38
261.71	224.38
261.942	238.38
262.175	245.38
262.407	243.38
262.64	236.38
262.872	240.38
263.105	231.38
263.337	230.38
263.57	231.38
263.802	222.38
264.035	237.38
264.267	231.38
264.499	210.38
264.732	230.38
264.964	248.38
265.197	230.38
265.429	234.38
265.661	249.38
265.894	236.38
266.126	249.38
266.358	242.38
266.591	222.38
266.823	247.38
267.055	252.38
267.287	238.38
267.52	243.38
267.752	242.38
267.984	240.38
268.216	261.38
268.448	238.38
268.681	258.38
268.913	271.38
269.145	272.38
269.377	302.38
269.609	291.38
269.841	279.38
270.073	303.38
270.306	333.38
270.538	328.38
270.77	341.38
271.002	301.38
271.234	303.38
271.466	325.38
271.698	355.38
271.93	330.38
272.162	320.38
272.394	339.38
272.626	332.38
272.858	301.38
273.09	311.38
273.322	288.38
273.553	283.38
273.785	298.38
274.017	291.38
274.249	295.38
274.481	290.38
274.713	287.38
274.945	291.38
275.176	294.38
275.408	296.38
275.64	281.38
275.872	282.38
276.104	270.38
276.335	278.38
276.567	288.38
276.799	315.38
277.031	316.38
277.262	327.38
277.494	340.38
277.726	329.38
277.957	318.38
278.189	313.38
278.421	293.38
278.652	295.38
278.884	311.38
279.115	307.38
279.347	311.38
279.579	288.38
279.81	291.38
280.042	295.38
280.273	296.38
280.505	265.38
280.736	290.38
280.968	290.38
281.199	303.38
281.431	286.38
281.662	286.38
281.894	283.38
282.125	299.38
282.356	316.38
282.588	329.38
282.819	314.38
283.051	306.38
283.282	316.38
283.513	311.38
283.745	307.38
283.976	296.38
284.207	312.38
284.439	316.38
284.67	307.38
284.901	333.38
285.132	316.38
285.364	310.38
285.595	306.38
285.826	315.38
286.057	316.38
286.288	306.38
286.52	304.38
286.751	307.38
286.982	303.38
287.213	331.38
287.444	306.38
287.675	320.38
287.906	329.38
288.138	328.38
288.369	312.38
288.6	342.38
288.831	337.38
289.062	325.38
289.293	324.38
289.524	324.38
289.755	318.38
289.986	320.38
290.217	327.38
290.448	316.38
290.679	311.38
290.91	324.38
291.141	313.38
291.371	339.38
291.602	318.38
291.833	322.38
292.064	336.38
292.295	310.38
292.526	306.38
292.757	331.38
292.987	333.38
293.218	305.38
293.449	327.38
293.68	314.38
293.91	302.38
294.141	340.38
294.372	323.38
294.603	328.38
294.833	346.38
295.064	320.38
295.295	336.38
295.525	339.38
295.756	329.38
295.987	336.38
296.217	344.38
296.448	345.38
296.679	337.38
296.909	336.38
297.14	306.38
297.37	358.38
297.601	341.38
297.831	351.38
298.062	344.38
298.292	336.38
298.523	318.38
298.753	322.38
298.984	326.38
299.214	335.38
299.445	349.38
299.675	340.38
299.905	355.38
300.136	353.38
300.366	350.38
300.597	355.38
300.827	344.38
301.057	374.38
301.288	380.38
301.518	364.38
301.748	342.38
301.979	370.38
302.209	358.38
302.439	384.38
302.669	358.38
302.9	366.38
303.13	363.38
303.36	369.38
303.59	362.38
303.82	386.38
304.051	379.38
304.281	379.38
304.511	378.38
304.741	370.38
304.971	360.38
305.201	378.38
305.431	390.38
305.661	387.38
305.891	365.38
306.121	353.38
306.352	381.38
306.582	378.38
306.812	383.38
307.042	366.38
307.272	365.38
307.502	382.38
307.731	363.38
307.961	372.38
308.191	369.38
308.421	366.38
308.651	376.38
308.881	355.38
309.111	378.38
309.341	376.38
309.571	387.38
309.8	398.38
310.03	418.38
310.26	413.38
310.49	402.38
310.72	398.38
310.949	403.38
311.179	422.38
311.409	410.38
311.639	410.38
311.868	419.38
312.098	396.38
312.328	416.38
312.557	401.38
312.787	450.38
313.017	423.38
313.246	427.38
313.476	420.38
313.706	405.38
313.935	399.38
314.165	424.38
314.394	419.38
314.624	419.38
314.853	416.38
315.083	404.38
315.312	412.38
315.542	400.38
315.771	402.38
316.001	408.38
316.23	401.38
316.46	390.38
316.689	425.38
316.919	415.38
317.148	425.38
317.377	415.38
317.607	422.38
317.836	422.38
318.065	421.38
318.295	403.38
318.524	431.38
318.753	418.38
318.983	403.38
319.212	416.38
319.441	410.38
319.67	413.38
319.9	408.38
320.129	425.38
320.358	408.38
320.587	430.38
320.816	444.38
321.046	429.38
321.275	446.38
321.504	424.38
321.733	439.38
321.962	432.38
322.191	457.38
322.42	459.38
322.649	446.38
322.878	468.38
323.108	469.38
323.337	508.38
323.566	523.38
323.795	532.38
324.024	520.38
324.253	670.38
324.482	884.38
324.71	1357.38
324.939	2019.38
325.168	1768.38
325.397	919.38
325.626	660.38
325.855	556.38
326.084	541.38
326.313	502.38
326.542	507.38
326.77	540.38
326.999	632.38
327.228	792.38
327.457	1240.38
327.686	1511.38
327.914	1034.38
328.143	710.38
328.372	618.38
328.6	592.38
328.829	565.38
329.058	592.38
329.287	598.38
329.515	581.38
329.744	533.38
329.972	529.38
330.201	563.38
330.43	580.38
330.658	584.38
330.887	621.38
331.115	613.38
331.344	543.38
331.572	522.38
331.801	502.38
332.03	521.38
332.258	512.38
332.486	503.38
332.715	511.38
332.943	527.38
333.172	501.38
333.4	534.38
333.629	527.38
333.857	538.38
334.085	538.38
334.314	534.38
334.542	587.38
334.771	596.38
334.999	562.38
335.227	503.38
335.455	533.38
335.684	523.38
335.912	488.38
336.14	505.38
336.369	495.38
336.597	502.38
336.825	512.38
337.053	522.38
337.281	506.38
337.51	471.38
337.738	505.38
337.966	495.38
338.194	496.38
338.422	494.38
338.65	498.38
338.878	507.38
339.106	464.38
339.334	474.38
339.562	463.38
339.79	458.38
340.018	475.38
340.246	472.38
340.474	489.38
340.702	476.38
340.93	480.38
341.158	488.38
341.386	479.38
341.614	475.38
341.842	464.38
342.07	447.38
342.298	462.38
342.526	472.38
342.754	462.38
342.981	467.38
343.209	460.38
343.437	481.38
343.665	488.38
343.893	486.38
344.12	516.38
344.348	506.38
344.576	507.38
344.804	487.38
345.031	490.38
345.259	508.38
345.487	507.38
345.714	479.38
345.942	476.38
346.17	452.38
346.397	462.38
346.625	447.38
346.853	443.38
347.08	460.38
347.308	453.38
347.535	470.38
347.763	462.38
347.99	483.38
348.218	470.38
348.445	482.38
348.673	460.38
348.9	440.38
349.128	452.38
349.355	457.38
349.583	454.38
349.81	463.38
350.037	430.38
350.265	441.38
350.492	465.38
350.72	458.38
350.947	458.38
351.174	455.38
351.402	461.38
351.629	461.38
351.856	461.38
352.083	468.38
352.311	463.38
352.538	473.38
352.765	480.38
352.992	471.38
353.22	472.38
353.447	448.38
353.674	457.38
353.901	446.38
354.128	442.38
354.355	440.38
354.583	466.38
354.81	448.38
355.037	454.38
355.264	435.38
355.491	442.38
355.718	424.38
355.945	423.38
356.172	438.38
356.399	439.38
356.626	430.38
356.853	433.38
357.08	422.38
357.307	440.38
357.534	442.38
357.761	439.38
357.988	427.38
358.215	426.38
358.441	460.38
358.668	425.38
358.895	445.38
359.122	463.38
359.349	447.38
359.576	444.38
359.802	490.38
360.029	487.38
360.256	519.38
360.483	482.38
360.709	483.38
360.936	478.38
361.163	476.38
361.39	472.38
361.616	466.38
361.843	459.38
362.07	452.38
362.296	478.38
362.523	458.38
362.749	448.38
362.976	453.38
363.203	444.38
363.429	426.38
363.656	456.38
363.882	446.38
364.109	452.38
364.335	450.38
364.562	454.38
364.788	438.38
365.015	442.38
365.241	451.38
365.468	457.38
365.694	479.38
365.92	466.38
366.147	456.38
366.373	471.38
366.599	451.38
366.826	463.38
367.052	462.38
367.278	452.38
367.505	460.38
367.731	430.38
367.957	451.38
368.184	456.38
368.41	477.38
368.636	458.38
368.862	464.38
369.089	459.38
369.315	447.38
369.541	454.38
369.767	459.38
369.993	468.38
370.219	449.38
370.445	465.38
370.672	464.38
370.898	474.38
371.124	461.38
371.35	461.38
371.576	442.38
371.802	476.38
372.028	458.38
372.254	433.38
372.48	447.38
372.706	479.38
372.932	452.38
373.158	475.38
373.384	460.38
373.61	436.38
373.835	456.38
374.061	474.38
374.287	477.38
374.513	475.38
374.739	473.38
374.965	458.38
375.191	451.38
375.416	447.38
375.642	450.38
375.868	460.38
376.094	463.38
376.319	448.38
376.545	459.38
376.771	458.38
376.997	473.38
377.222	462.38
377.448	468.38
377.674	471.38
377.899	451.38
378.125	445.38
378.35	467.38
378.576	451.38
378.802	452.38
379.027	449.38
379.253	471.38
379.478	448.38
379.704	461.38
379.929	468.38
380.155	459.38
380.38	458.38
380.606	463.38
380.831	446.38
381.057	468.38
381.282	445.38
381.507	466.38
381.733	486.38
381.958	465.38
382.184	469.38
382.409	465.38
382.634	457.38
382.86	466.38
383.085	474.38
383.31	495.38
383.535	487.38
383.761	488.38
383.986	490.38
384.211	472.38
384.436	515.38
384.662	505.38
384.887	499.38
385.112	491.38
385.337	498.38
385.562	502.38
385.787	508.38
386.013	539.38
386.238	519.38
386.463	515.38
386.688	525.38
386.913	516.38
387.138	534.38
387.363	512.38
387.588	526.38
387.813	526.38
388.038	517.38
388.263	493.38
388.488	522.38
388.713	535.38
388.938	503.38
389.163	519.38
389.387	543.38
389.612	504.38
389.837	520.38
390.062	526.38
390.287	522.38
390.512	521.38
390.736	510.38
390.961	528.38
391.186	516.38
391.411	538.38
391.636	538.38
391.86	550.38
392.085	538.38
392.31	538.38
392.534	550.38
392.759	523.38
392.984	536.38
393.208	541.38
393.433	527.38
393.658	520.38
393.882	527.38
394.107	522.38
394.331	527.38
394.556	531.38
394.78	532.38
395.005	548.38
395.229	537.38
395.454	546.38
395.678	557.38
395.903	560.38
396.127	578.38
396.352	589.38
396.576	560.38
396.801	572.38
397.025	532.38
397.249	533.38
397.474	541.38
397.698	581.38
397.922	575.38
398.147	581.38
398.371	591.38
398.595	597.38
398.82	599.38
399.044	619.38
399.268	636.38
399.492	696.38
399.717	739.38
399.941	777.38
400.165	762.38
400.389	759.38
400.613	676.38
400.837	636.38
401.062	598.38
401.286	617.38
401.51	601.38
401.734	600.38
401.958	608.38
402.182	611.38
402.406	617.38
402.63	615.38
402.854	615.38
403.078	628.38
403.302	622.38
403.526	633.38
403.75	640.38
403.974	637.38
404.198	624.38
404.422	636.38
404.645	640.38
404.869	638.38
405.093	668.38
405.317	691.38
405.541	743.38
405.765	696.38
405.988	650.38
406.212	646.38
406.436	687.38
406.66	690.38
406.883	676.38
407.107	687.38
407.331	766.38
407.555	803.38
407.778	841.38
408.002	775.38
408.226	716.38
408.449	687.38
408.673	696.38
408.896	704.38
409.12	760.38
409.344	723.38
409.567	654.38
409.791	668.38
410.014	622.38
410.238	652.38
410.461	650.38
410.685	639.38
410.908	660.38
411.132	670.38
411.355	718.38
411.578	712.38
411.802	632.38
412.025	618.38
412.249	640.38
412.472	658.38
412.695	696.38
412.919	674.38
413.142	637.38
413.365	604.38
413.589	620.38
413.812	588.38
414.035	620.38
414.258	592.38
414.482	603.38
414.705	620.38
414.928	600.38
415.151	598.38
415.374	571.38
415.597	588.38
415.821	600.38
416.044	621.38
416.267	593.38
416.49	594.38
416.713	601.38
416.936	583.38
417.159	582.38
417.382	603.38
417.605	613.38
417.828	616.38
418.051	621.38
418.274	607.38
418.497	599.38
418.72	620.38
418.943	592.38
419.166	604.38
419.389	656.38
419.611	620.38
419.834	639.38
420.057	652.38
420.28	638.38
420.503	616.38
420.726	617.38
420.948	615.38
421.171	681.38
421.394	678.38
421.617	656.38
421.839	597.38
422.062	624.38
422.285	626.38
422.507	682.38
422.73	760.38
422.953	762.38
423.175	685.38
423.398	623.38
423.621	656.38
423.843	662.38
424.066	660.38
424.288	677.38
424.511	681.38
424.733	725.38
424.956	827.38
425.178	798.38
425.401	802.38
425.623	822.38
425.846	725.38
426.068	668.38
426.291	639.38
426.513	651.38
426.735	676.38
426.958	677.38
427.18	791.38
427.402	922.38
427.625	1030.38
427.847	826.38
428.069	776.38
428.292	690.38
428.514	633.38
428.736	608.38
428.958	617.38
429.181	571.38
429.403	577.38
429.625	614.38
429.847	646.38
430.069	715.38
430.292	716.38
430.514	633.38
430.736	612.38
430.958	608.38
431.18	588.38
431.402	574.38
431.624	595.38
431.846	566.38
432.068	555.38
432.29	588.38
432.512	583.38
432.734	594.38
432.956	586.38
433.178	611.38
433.4	587.38
433.622	600.38
433.844	586.38
434.066	586.38
434.287	567.38
434.509	588.38
434.731	606.38
434.953	608.38
435.175	599.38
435.397	644.38
435.618	651.38
435.84	682.38
436.062	787.38
436.284	876.38
436.505	746.38
436.727	656.38
436.949	629.38
437.17	607.38
437.392	620.38
437.614	624.38
437.835	648.38
438.057	725.38
438.278	840.38
438.5	820.38
438.721	900.38
438.943	883.38
439.165	721.38
439.386	670.38
439.608	647.38
439.829	650.38
440.05	677.38
440.272	714.38
440.493	655.38
440.715	656.38
440.936	630.38
441.158	613.38
441.379	616.38
441.6	611.38
441.822	651.38
442.043	679.38
442.264	787.38
442.486	822.38
442.707	705.38
442.928	693.38
443.149	661.38
443.371	688.38
443.592	739.38
443.813	815.38
444.034	901.38
444.255	770.38
444.476	704.38
444.698	656.38
444.919	674.38
445.14	778.38
445.361	736.38
445.582	679.38
445.803	789.38
446.024	890.38
446.245	870.38
446.466	800.38
446.687	685.38
446.908	651.38
447.129	597.38
447.35	598.38
447.571	593.38
447.792	598.38
448.013	582.38
448.234	616.38
448.455	663.38
448.675	794.38
448.896	924.38
449.117	756.38
449.338	728.38
449.559	845.38
449.779	939.38
450	753.38
450.221	648.38
450.442	604.38
450.662	578.38
450.883	593.38
451.104	585.38
451.324	608.38
451.545	580.38
451.766	549.38
451.986	550.38
452.207	546.38
452.428	553.38
452.648	546.38
452.869	543.38
453.089	524.38
453.31	539.38
453.53	528.38
453.751	529.38
453.971	538.38
454.192	563.38
454.412	534.38
454.633	548.38
454.853	536.38
455.073	543.38
455.294	550.38
455.514	636.38
455.734	615.38
455.955	535.38
456.175	502.38
456.395	504.38
456.616	521.38
456.836	493.38
457.056	501.38
457.276	492.38
457.497	501.38
457.717	510.38
457.937	527.38
458.157	541.38
458.377	532.38
458.598	570.38
458.818	600.38
459.038	688.38
459.258	700.38
459.478	611.38
459.698	581.38
459.918	578.38
460.138	585.38
460.358	577.38
460.578	590.38
460.798	592.38
461.018	606.38
461.238	632.38
461.458	596.38
461.678	605.38
461.898	634.38
462.118	608.38
462.338	619.38
462.558	640.38
462.777	640.38
462.997	643.38
463.217	664.38
463.437	672.38
463.657	642.38
463.876	634.38
464.096	646.38
464.316	653.38
464.536	638.38
464.755	642.38
464.975	634.38
465.195	685.38
465.414	704.38
465.634	639.38
465.854	608.38
466.073	606.38
466.293	580.38
466.512	589.38
466.732	558.38
466.951	550.38
467.171	564.38
467.391	541.38
467.61	556.38
467.829	557.38
468.049	574.38
468.268	566.38
468.488	557.38
468.707	553.38
468.927	547.38
469.146	537.38
469.365	538.38
469.585	528.38
469.804	539.38
470.023	579.38
470.243	569.38
470.462	559.38
470.681	570.38
470.901	569.38
471.12	562.38
471.339	543.38
471.558	556.38
471.777	552.38
471.997	554.38
472.216	572.38
472.435	560.38
472.654	587.38
472.873	553.38
473.092	564.38
473.311	574.38
473.53	570.38
473.749	579.38
473.968	600.38
474.187	714.38
474.406	747.38
474.625	616.38
474.844	571.38
475.063	551.38
475.282	552.38
475.501	571.38
475.72	568.38
475.939	601.38
476.158	570.38
476.377	575.38
476.596	588.38
476.814	590.38
477.033	592.38
477.252	577.38
477.471	596.38
477.69	611.38
477.908	621.38
478.127	608.38
478.346	626.38
478.564	648.38
478.783	634.38
479.002	648.38
479.22	683.38
479.439	662.38
479.658	677.38
479.876	676.38
480.095	703.38
480.313	714.38
480.532	702.38
480.751	683.38
480.969	710.38
481.188	742.38
481.406	763.38
481.624	702.38
481.843	672.38
482.061	671.38
482.28	660.38
482.498	643.38
482.717	669.38
482.935	681.38
483.153	637.38
483.372	665.38
483.59	655.38
483.808	655.38
484.027	662.38
484.245	666.38
484.463	648.38
484.681	683.38
484.9	668.38
485.118	655.38
485.336	656.38
485.554	679.38
485.772	658.38
485.99	680.38
486.209	684.38
486.427	688.38
486.645	703.38
486.863	700.38
487.081	695.38
487.299	703.38
487.517	686.38
487.735	717.38
487.953	710.38
488.171	712.38
488.389	717.38
488.607	691.38
488.825	722.38
489.043	716.38
489.261	715.38
489.479	710.38
489.696	722.38
489.914	732.38
490.132	746.38
490.35	721.38
490.568	759.38
490.786	747.38
491.003	766.38
491.221	830.38
491.439	790.38
491.657	815.38
491.874	788.38
492.092	823.38
492.31	841.38
492.527	833.38
492.745	828.38
492.963	834.38
493.18	848.38
493.398	825.38
493.615	842.38
493.833	829.38
494.05	858.38
494.268	839.38
494.485	839.38
494.703	819.38
494.92	834.38
495.138	814.38
495.355	841.38
495.573	841.38
495.79	865.38
496.008	854.38
496.225	863.38
496.442	847.38
496.66	855.38
496.877	848.38
497.094	873.38
497.312	875.38
497.529	877.38
497.746	887.38
497.963	926.38
498.181	923.38
498.398	932.38
498.615	974.38
498.832	995.38
499.049	1012.38
499.267	1047.38
499.484	1067.38
499.701	1142.38
499.918	1168.38
500.135	1242.38
500.352	1276.38
500.569	1350.38
500.786	1351.38
501.003	1296.38
501.22	1243.38
501.437	1216.38
