Data from 1974.PennyLincolnUp.Lamp.En5.5.200Scan.071719.P1.Changed Mount._HRD10591_15-52-35-856.txt Node
Date: Thu Jul 18 15:52:35 EDT 2019
User: cochatt
Spectrometer: HR+D1059
Trigger mode: 1
Integration Time (sec): 1.000000E-1
Scans to average: 1
Electric dark correction enabled: true
Nonlinearity correction enabled: false
Boxcar width: 0
XAxis mode: Wavelengths
Number of Pixels in Spectrum: 2048
>>>>>Begin Spectral Data<<<<<
223.165	-8.88
223.4	-8.88
223.635	-8.88
223.869	-22.88
224.104	-16.88
224.338	-18.88
224.573	0.12
224.808	0.12
225.042	-1.88
225.277	-5.88
225.511	-15.88
225.746	8.12
225.98	3.12
226.215	16.12
226.449	10.12
226.683	5.12
226.918	32.12
227.152	16.12
227.387	47.12
227.621	34.12
227.856	41.12
228.09	33.12
228.324	43.12
228.559	70.12
228.793	68.12
229.027	117.12
229.262	115.12
229.496	141.12
229.73	135.12
229.964	158.12
230.199	140.12
230.433	128.12
230.667	107.12
230.901	121.12
231.136	110.12
231.37	117.12
231.604	116.12
231.838	124.12
232.072	132.12
232.306	136.12
232.541	131.12
232.775	127.12
233.009	120.12
233.243	119.12
233.477	128.12
233.711	126.12
233.945	123.12
234.179	118.12
234.413	126.12
234.647	128.12
234.881	128.12
235.115	137.12
235.349	124.12
235.583	132.12
235.817	135.12
236.051	130.12
236.285	129.12
236.519	131.12
236.753	134.12
236.987	147.12
237.221	194.12
237.455	224.12
237.689	188.12
237.922	156.12
238.156	145.12
238.39	152.12
238.624	146.12
238.858	139.12
239.091	137.12
239.325	118.12
239.559	127.12
239.793	130.12
240.027	133.12
240.26	149.12
240.494	183.12
240.728	164.12
240.961	171.12
241.195	161.12
241.429	153.12
241.662	157.12
241.896	132.12
242.13	154.12
242.363	151.12
242.597	159.12
242.83	146.12
243.064	160.12
243.298	156.12
243.531	153.12
243.765	156.12
243.998	148.12
244.232	164.12
244.465	139.12
244.699	160.12
244.932	157.12
245.166	162.12
245.399	158.12
245.633	151.12
245.866	152.12
246.099	162.12
246.333	156.12
246.566	168.12
246.8	160.12
247.033	146.12
247.266	169.12
247.5	175.12
247.733	176.12
247.966	189.12
248.2	186.12
248.433	192.12
248.666	196.12
248.899	199.12
249.133	224.12
249.366	221.12
249.599	213.12
249.832	210.12
250.066	197.12
250.299	193.12
250.532	211.12
250.765	222.12
250.998	219.12
251.231	225.12
251.465	225.12
251.698	228.12
251.931	215.12
252.164	218.12
252.397	199.12
252.63	202.12
252.863	223.12
253.096	224.12
253.329	246.12
253.562	248.12
253.795	244.12
254.028	218.12
254.261	221.12
254.494	237.12
254.727	248.12
254.96	300.12
255.193	295.12
255.426	272.12
255.659	249.12
255.892	255.12
256.124	237.12
256.357	237.12
256.59	245.12
256.823	244.12
257.056	220.12
257.289	232.12
257.521	245.12
257.754	228.12
257.987	236.12
258.22	210.12
258.452	233.12
258.685	231.12
258.918	211.12
259.151	212.12
259.383	234.12
259.616	232.12
259.849	238.12
260.081	246.12
260.314	264.12
260.547	280.12
260.779	266.12
261.012	254.12
261.244	248.12
261.477	249.12
261.71	239.12
261.942	241.12
262.175	256.12
262.407	246.12
262.64	240.12
262.872	238.12
263.105	241.12
263.337	220.12
263.57	219.12
263.802	229.12
264.035	221.12
264.267	221.12
264.499	234.12
264.732	240.12
264.964	241.12
265.197	221.12
265.429	223.12
265.661	224.12
265.894	241.12
266.126	216.12
266.358	245.12
266.591	232.12
266.823	234.12
267.055	236.12
267.287	238.12
267.52	233.12
267.752	236.12
267.984	236.12
268.216	250.12
268.448	253.12
268.681	257.12
268.913	272.12
269.145	298.12
269.377	280.12
269.609	294.12
269.841	286.12
270.073	294.12
270.306	320.12
270.538	320.12
270.77	326.12
271.002	310.12
271.234	303.12
271.466	316.12
271.698	335.12
271.93	331.12
272.162	321.12
272.394	329.12
272.626	307.12
272.858	298.12
273.09	288.12
273.322	295.12
273.553	267.12
273.785	280.12
274.017	278.12
274.249	294.12
274.481	278.12
274.713	289.12
274.945	262.12
275.176	280.12
275.408	284.12
275.64	287.12
275.872	293.12
276.104	279.12
276.335	299.12
276.567	274.12
276.799	282.12
277.031	325.12
277.262	334.12
277.494	330.12
277.726	315.12
277.957	300.12
278.189	316.12
278.421	303.12
278.652	282.12
278.884	298.12
279.115	303.12
279.347	280.12
279.579	285.12
279.81	310.12
280.042	303.12
280.273	283.12
280.505	289.12
280.736	290.12
280.968	292.12
281.199	296.12
281.431	288.12
281.662	283.12
281.894	304.12
282.125	316.12
282.356	297.12
282.588	326.12
282.819	336.12
283.051	292.12
283.282	313.12
283.513	280.12
283.745	303.12
283.976	317.12
284.207	314.12
284.439	313.12
284.67	318.12
284.901	306.12
285.132	303.12
285.364	302.12
285.595	309.12
285.826	304.12
286.057	302.12
286.288	301.12
286.52	308.12
286.751	300.12
286.982	305.12
287.213	320.12
287.444	302.12
287.675	303.12
287.906	330.12
288.138	312.12
288.369	338.12
288.6	322.12
288.831	333.12
289.062	325.12
289.293	315.12
289.524	321.12
289.755	330.12
289.986	330.12
290.217	321.12
290.448	303.12
290.679	326.12
290.91	308.12
291.141	316.12
291.371	313.12
291.602	324.12
291.833	318.12
292.064	319.12
292.295	328.12
292.526	327.12
292.757	326.12
292.987	325.12
293.218	320.12
293.449	322.12
293.68	331.12
293.91	314.12
294.141	326.12
294.372	311.12
294.603	305.12
294.833	322.12
295.064	325.12
295.295	335.12
295.525	319.12
295.756	320.12
295.987	316.12
296.217	350.12
296.448	337.12
296.679	328.12
296.909	333.12
297.14	336.12
297.37	328.12
297.601	331.12
297.831	341.12
298.062	337.12
298.292	330.12
298.523	328.12
298.753	327.12
298.984	328.12
299.214	331.12
299.445	337.12
299.675	324.12
299.905	346.12
300.136	346.12
300.366	347.12
300.597	346.12
300.827	344.12
301.057	359.12
301.288	354.12
301.518	337.12
301.748	360.12
301.979	349.12
302.209	365.12
302.439	358.12
302.669	344.12
302.9	355.12
303.13	374.12
303.36	374.12
303.59	356.12
303.82	368.12
304.051	372.12
304.281	352.12
304.511	347.12
304.741	370.12
304.971	359.12
305.201	340.12
305.431	359.12
305.661	362.12
305.891	364.12
306.121	370.12
306.352	380.12
306.582	381.12
306.812	352.12
307.042	367.12
307.272	379.12
307.502	364.12
307.731	377.12
307.961	358.12
308.191	363.12
308.421	348.12
308.651	374.12
308.881	364.12
309.111	372.12
309.341	382.12
309.571	377.12
309.8	372.12
310.03	384.12
310.26	407.12
310.49	385.12
310.72	380.12
310.949	394.12
311.179	408.12
311.409	412.12
311.639	386.12
311.868	396.12
312.098	404.12
312.328	396.12
312.557	412.12
312.787	421.12
313.017	408.12
313.246	393.12
313.476	417.12
313.706	394.12
313.935	412.12
314.165	412.12
314.394	411.12
314.624	429.12
314.853	409.12
315.083	414.12
315.312	394.12
315.542	410.12
315.771	408.12
316.001	399.12
316.23	400.12
316.46	417.12
316.689	401.12
316.919	412.12
317.148	415.12
317.377	420.12
317.607	408.12
317.836	417.12
318.065	398.12
318.295	400.12
318.524	398.12
318.753	390.12
318.983	403.12
319.212	397.12
319.441	418.12
319.67	415.12
319.9	410.12
320.129	415.12
320.358	414.12
320.587	414.12
320.816	433.12
321.046	427.12
321.275	421.12
321.504	396.12
321.733	432.12
321.962	431.12
322.191	433.12
322.42	447.12
322.649	452.12
322.878	468.12
323.108	449.12
323.337	482.12
323.566	491.12
323.795	524.12
324.024	573.12
324.253	644.12
324.482	865.12
324.71	1289.12
324.939	1883.12
325.168	1673.12
325.397	891.12
325.626	640.12
325.855	525.12
326.084	520.12
326.313	509.12
326.542	497.12
326.77	544.12
326.999	594.12
327.228	803.12
327.457	1176.12
327.686	1442.12
327.914	971.12
328.143	677.12
328.372	592.12
328.6	574.12
328.829	565.12
329.058	573.12
329.287	552.12
329.515	532.12
329.744	524.12
329.972	520.12
330.201	540.12
330.43	580.12
330.658	574.12
330.887	578.12
331.115	600.12
331.344	527.12
331.572	486.12
331.801	508.12
332.03	528.12
332.258	518.12
332.486	495.12
332.715	500.12
332.943	495.12
333.172	504.12
333.4	525.12
333.629	529.12
333.857	547.12
334.085	530.12
334.314	542.12
334.542	548.12
334.771	553.12
334.999	557.12
335.227	520.12
335.455	482.12
335.684	500.12
335.912	488.12
336.14	481.12
336.369	497.12
336.597	493.12
336.825	527.12
337.053	492.12
337.281	489.12
337.51	480.12
337.738	476.12
337.966	473.12
338.194	498.12
338.422	491.12
338.65	476.12
338.878	472.12
339.106	484.12
339.334	455.12
339.562	473.12
339.79	462.12
340.018	464.12
340.246	470.12
340.474	460.12
340.702	466.12
340.93	441.12
341.158	452.12
341.386	450.12
341.614	491.12
341.842	454.12
342.07	463.12
342.298	454.12
342.526	450.12
342.754	455.12
342.981	460.12
343.209	463.12
343.437	467.12
343.665	480.12
343.893	479.12
344.12	498.12
344.348	479.12
344.576	486.12
344.804	473.12
345.031	457.12
345.259	468.12
345.487	467.12
345.714	475.12
345.942	458.12
346.17	464.12
346.397	456.12
346.625	457.12
346.853	444.12
347.08	439.12
347.308	458.12
347.535	442.12
347.763	468.12
347.99	452.12
348.218	470.12
348.445	447.12
348.673	458.12
348.9	464.12
349.128	459.12
349.355	414.12
349.583	460.12
349.81	449.12
350.037	445.12
350.265	448.12
350.492	428.12
350.72	434.12
350.947	455.12
351.174	456.12
351.402	446.12
351.629	448.12
351.856	457.12
352.083	465.12
352.311	452.12
352.538	445.12
352.765	466.12
352.992	463.12
353.22	447.12
353.447	455.12
353.674	462.12
353.901	432.12
354.128	430.12
354.355	455.12
354.583	423.12
354.81	412.12
355.037	454.12
355.264	440.12
355.491	427.12
355.718	427.12
355.945	417.12
356.172	428.12
356.399	426.12
356.626	424.12
356.853	418.12
357.08	424.12
357.307	427.12
357.534	437.12
357.761	440.12
357.988	432.12
358.215	445.12
358.441	437.12
358.668	451.12
358.895	442.12
359.122	447.12
359.349	439.12
359.576	452.12
359.802	452.12
360.029	495.12
360.256	488.12
360.483	469.12
360.709	465.12
360.936	463.12
361.163	445.12
361.39	459.12
361.616	462.12
361.843	449.12
362.07	430.12
362.296	452.12
362.523	449.12
362.749	447.12
362.976	449.12
363.203	460.12
363.429	452.12
363.656	436.12
363.882	441.12
364.109	442.12
364.335	460.12
364.562	449.12
364.788	451.12
365.015	465.12
365.241	443.12
365.468	439.12
365.694	454.12
365.92	441.12
366.147	440.12
366.373	455.12
366.599	440.12
366.826	436.12
367.052	409.12
367.278	432.12
367.505	434.12
367.731	428.12
367.957	442.12
368.184	440.12
368.41	433.12
368.636	452.12
368.862	436.12
369.089	449.12
369.315	444.12
369.541	447.12
369.767	450.12
369.993	461.12
370.219	457.12
370.445	441.12
370.672	444.12
370.898	456.12
371.124	462.12
371.35	442.12
371.576	424.12
371.802	452.12
372.028	438.12
372.254	450.12
372.48	456.12
372.706	471.12
372.932	448.12
373.158	441.12
373.384	473.12
373.61	423.12
373.835	455.12
374.061	456.12
374.287	468.12
374.513	450.12
374.739	473.12
374.965	453.12
375.191	461.12
375.416	465.12
375.642	460.12
375.868	462.12
376.094	454.12
376.319	442.12
376.545	460.12
376.771	458.12
376.997	458.12
377.222	460.12
377.448	442.12
377.674	457.12
377.899	443.12
378.125	432.12
378.35	436.12
378.576	458.12
378.802	450.12
379.027	453.12
379.253	456.12
379.478	446.12
379.704	447.12
379.929	456.12
380.155	450.12
380.38	438.12
380.606	441.12
380.831	453.12
381.057	478.12
381.282	453.12
381.507	454.12
381.733	475.12
381.958	468.12
382.184	464.12
382.409	473.12
382.634	461.12
382.86	471.12
383.085	464.12
383.31	468.12
383.535	476.12
383.761	475.12
383.986	465.12
384.211	486.12
384.436	474.12
384.662	484.12
384.887	504.12
385.112	503.12
385.337	489.12
385.562	500.12
385.787	483.12
386.013	489.12
386.238	514.12
386.463	500.12
386.688	515.12
386.913	524.12
387.138	493.12
387.363	510.12
387.588	504.12
387.813	504.12
388.038	514.12
388.263	498.12
388.488	508.12
388.713	508.12
388.938	520.12
389.163	517.12
389.387	480.12
389.612	497.12
389.837	491.12
390.062	493.12
390.287	497.12
390.512	493.12
390.736	505.12
390.961	524.12
391.186	516.12
391.411	502.12
391.636	490.12
391.86	521.12
392.085	526.12
392.31	540.12
392.534	536.12
392.759	524.12
392.984	520.12
393.208	528.12
393.433	497.12
393.658	525.12
393.882	498.12
394.107	490.12
394.331	530.12
394.556	520.12
394.78	514.12
395.005	517.12
395.229	509.12
395.454	527.12
395.678	525.12
395.903	537.12
396.127	560.12
396.352	569.12
396.576	557.12
396.801	536.12
397.025	538.12
397.249	540.12
397.474	551.12
397.698	542.12
397.922	577.12
398.147	564.12
398.371	596.12
398.595	559.12
398.82	593.12
399.044	577.12
399.268	638.12
399.492	672.12
399.717	694.12
399.941	712.12
400.165	739.12
400.389	720.12
400.613	652.12
400.837	622.12
401.062	604.12
401.286	638.12
401.51	584.12
401.734	607.12
401.958	600.12
402.182	591.12
402.406	605.12
402.63	614.12
402.854	615.12
403.078	604.12
403.302	636.12
403.526	625.12
403.75	623.12
403.974	631.12
404.198	606.12
404.422	638.12
404.645	623.12
404.869	609.12
405.093	651.12
405.317	695.12
405.541	716.12
405.765	681.12
405.988	658.12
406.212	662.12
406.436	676.12
406.66	681.12
406.883	661.12
407.107	711.12
407.331	733.12
407.555	814.12
407.778	805.12
408.002	761.12
408.226	698.12
408.449	668.12
408.673	684.12
408.896	722.12
409.12	728.12
409.344	708.12
409.567	628.12
409.791	630.12
410.014	616.12
410.238	614.12
410.461	647.12
410.685	610.12
410.908	635.12
411.132	676.12
411.355	715.12
411.578	694.12
411.802	615.12
412.025	588.12
412.249	620.12
412.472	668.12
412.695	673.12
412.919	684.12
413.142	626.12
413.365	599.12
413.589	600.12
413.812	577.12
414.035	605.12
414.258	568.12
414.482	600.12
414.705	600.12
414.928	578.12
415.151	566.12
415.374	591.12
415.597	577.12
415.821	584.12
416.044	583.12
416.267	560.12
416.49	601.12
416.713	595.12
416.936	581.12
417.159	548.12
417.382	573.12
417.605	607.12
417.828	598.12
418.051	605.12
418.274	611.12
418.497	593.12
418.72	565.12
418.943	588.12
419.166	607.12
419.389	652.12
419.611	652.12
419.834	634.12
420.057	639.12
420.28	603.12
420.503	622.12
420.726	621.12
420.948	615.12
421.171	663.12
421.394	708.12
421.617	621.12
421.839	622.12
422.062	618.12
422.285	604.12
422.507	696.12
422.73	741.12
422.953	741.12
423.175	655.12
423.398	631.12
423.621	616.12
423.843	657.12
424.066	646.12
424.288	665.12
424.511	652.12
424.733	692.12
424.956	793.12
425.178	774.12
425.401	746.12
425.623	784.12
425.846	664.12
426.068	653.12
426.291	620.12
426.513	650.12
426.735	635.12
426.958	669.12
427.18	763.12
427.402	897.12
427.625	968.12
427.847	843.12
428.069	726.12
428.292	680.12
428.514	606.12
428.736	612.12
428.958	597.12
429.181	598.12
429.403	571.12
429.625	612.12
429.847	635.12
430.069	714.12
430.292	678.12
430.514	598.12
430.736	585.12
430.958	590.12
431.18	595.12
431.402	580.12
431.624	564.12
431.846	565.12
432.068	556.12
432.29	577.12
432.512	559.12
432.734	577.12
432.956	574.12
433.178	600.12
433.4	555.12
433.622	567.12
433.844	569.12
434.066	553.12
434.287	568.12
434.509	568.12
434.731	594.12
434.953	617.12
435.175	625.12
435.397	632.12
435.618	666.12
435.84	668.12
436.062	778.12
436.284	854.12
436.505	712.12
436.727	633.12
436.949	607.12
437.17	607.12
437.392	591.12
437.614	600.12
437.835	628.12
438.057	716.12
438.278	812.12
438.5	828.12
438.721	911.12
438.943	886.12
439.165	682.12
439.386	665.12
439.608	645.12
439.829	638.12
440.05	653.12
440.272	695.12
440.493	662.12
440.715	619.12
440.936	612.12
441.158	604.12
441.379	609.12
441.6	613.12
441.822	620.12
442.043	675.12
442.264	751.12
442.486	782.12
442.707	709.12
442.928	662.12
443.149	689.12
443.371	696.12
443.592	736.12
443.813	808.12
444.034	902.12
444.255	752.12
444.476	666.12
444.698	665.12
444.919	658.12
445.14	775.12
445.361	706.12
445.582	685.12
445.803	738.12
446.024	821.12
446.245	844.12
446.466	783.12
446.687	694.12
446.908	644.12
447.129	621.12
447.35	608.12
447.571	604.12
447.792	561.12
448.013	576.12
448.234	599.12
448.455	646.12
448.675	746.12
448.896	902.12
449.117	756.12
449.338	714.12
449.559	822.12
449.779	928.12
450	731.12
450.221	650.12
450.442	582.12
450.662	572.12
450.883	562.12
451.104	582.12
451.324	588.12
451.545	534.12
451.766	550.12
451.986	526.12
452.207	521.12
452.428	532.12
452.648	538.12
452.869	513.12
453.089	519.12
453.31	538.12
453.53	517.12
453.751	506.12
453.971	525.12
454.192	546.12
454.412	542.12
454.633	533.12
454.853	505.12
455.073	522.12
455.294	545.12
455.514	619.12
455.734	607.12
455.955	514.12
456.175	528.12
456.395	489.12
456.616	494.12
456.836	489.12
457.056	504.12
457.276	494.12
457.497	478.12
457.717	508.12
457.937	484.12
458.157	508.12
458.377	522.12
458.598	529.12
458.818	592.12
459.038	655.12
459.258	702.12
459.478	604.12
459.698	573.12
459.918	553.12
460.138	570.12
460.358	569.12
460.578	583.12
460.798	592.12
461.018	607.12
461.238	585.12
461.458	588.12
461.678	591.12
461.898	588.12
462.118	600.12
462.338	609.12
462.558	616.12
462.777	636.12
462.997	640.12
463.217	681.12
463.437	671.12
463.657	657.12
463.876	638.12
464.096	634.12
464.316	625.12
464.536	634.12
464.755	618.12
464.975	632.12
465.195	640.12
465.414	689.12
465.634	612.12
465.854	605.12
466.073	574.12
466.293	575.12
466.512	550.12
466.732	555.12
466.951	553.12
467.171	524.12
467.391	546.12
467.61	570.12
467.829	560.12
468.049	572.12
468.268	551.12
468.488	525.12
468.707	523.12
468.927	561.12
469.146	521.12
469.365	530.12
469.585	520.12
469.804	549.12
470.023	567.12
470.243	536.12
470.462	570.12
470.681	576.12
470.901	553.12
471.12	558.12
471.339	557.12
471.558	556.12
471.777	549.12
471.997	566.12
472.216	562.12
472.435	586.12
472.654	544.12
472.873	548.12
473.092	535.12
473.311	546.12
473.53	541.12
473.749	545.12
473.968	601.12
474.187	696.12
474.406	734.12
474.625	638.12
474.844	559.12
475.063	549.12
475.282	552.12
475.501	555.12
475.72	557.12
475.939	576.12
476.158	567.12
476.377	561.12
476.596	557.12
476.814	577.12
477.033	570.12
477.252	592.12
477.471	576.12
477.69	590.12
477.908	603.12
478.127	599.12
478.346	589.12
478.564	636.12
478.783	641.12
479.002	641.12
479.22	648.12
479.439	631.12
479.658	651.12
479.876	658.12
480.095	652.12
480.313	704.12
480.532	689.12
480.751	697.12
480.969	682.12
481.188	718.12
481.406	741.12
481.624	690.12
481.843	655.12
482.061	640.12
482.28	651.12
482.498	643.12
482.717	624.12
482.935	625.12
483.153	648.12
483.372	640.12
483.59	654.12
483.808	635.12
484.027	642.12
484.245	642.12
484.463	635.12
484.681	673.12
484.9	657.12
485.118	656.12
485.336	663.12
485.554	657.12
485.772	658.12
485.99	642.12
486.209	680.12
486.427	673.12
486.645	685.12
486.863	696.12
487.081	682.12
487.299	705.12
487.517	668.12
487.735	704.12
487.953	684.12
488.171	676.12
488.389	705.12
488.607	680.12
488.825	684.12
489.043	707.12
489.261	699.12
489.479	697.12
489.696	717.12
489.914	708.12
490.132	710.12
490.35	732.12
490.568	743.12
490.786	726.12
491.003	750.12
491.221	764.12
491.439	764.12
491.657	765.12
491.874	792.12
492.092	802.12
492.31	805.12
492.527	801.12
492.745	800.12
492.963	784.12
493.18	825.12
493.398	846.12
493.615	860.12
493.833	840.12
494.05	822.12
494.268	820.12
494.485	806.12
494.703	834.12
494.92	813.12
495.138	822.12
495.355	805.12
495.573	826.12
495.79	823.12
496.008	822.12
496.225	816.12
496.442	823.12
496.66	838.12
496.877	818.12
497.094	855.12
497.312	855.12
497.529	861.12
497.746	856.12
497.963	882.12
498.181	902.12
498.398	912.12
498.615	936.12
498.832	952.12
499.049	991.12
499.267	1025.12
499.484	1059.12
499.701	1099.12
499.918	1161.12
500.135	1232.12
500.352	1294.12
500.569	1332.12
500.786	1321.12
501.003	1296.12
501.22	1250.12
501.437	1176.12
501.654	1124.12
