Data from 1974.PennyLincolnUp.Lamp.En5.5.200Scan.071719.P1.Changed Mount._HRD10591_15-54-02-857.txt Node
Date: Thu Jul 18 15:54:02 EDT 2019
User: cochatt
Spectrometer: HR+D1059
Trigger mode: 1
Integration Time (sec): 1.000000E-1
Scans to average: 1
Electric dark correction enabled: true
Nonlinearity correction enabled: false
Boxcar width: 0
XAxis mode: Wavelengths
Number of Pixels in Spectrum: 2048
>>>>>Begin Spectral Data<<<<<
223.165	-19.44
223.4	-19.44
223.635	-19.44
223.869	-24.44
224.104	-23.44
224.338	-20.44
224.573	-16.44
224.808	-1.44
225.042	10.56
225.277	-1.44
225.511	-5.44
225.746	-1.44
225.98	13.56
226.215	5.56
226.449	27.56
226.683	9.56
226.918	13.56
227.152	33.56
227.387	48.56
227.621	39.56
227.856	50.56
228.09	58.56
228.324	33.56
228.559	62.56
228.793	67.56
229.027	105.56
229.262	114.56
229.496	114.56
229.73	133.56
229.964	163.56
230.199	130.56
230.433	119.56
230.667	115.56
230.901	123.56
231.136	106.56
231.37	117.56
231.604	107.56
231.838	120.56
232.072	120.56
232.306	104.56
232.541	129.56
232.775	104.56
233.009	112.56
233.243	116.56
233.477	117.56
233.711	119.56
233.945	103.56
234.179	128.56
234.413	118.56
234.647	137.56
234.881	123.56
235.115	129.56
235.349	115.56
235.583	119.56
235.817	128.56
236.051	127.56
236.285	124.56
236.519	136.56
236.753	130.56
236.987	155.56
237.221	188.56
237.455	258.56
237.689	210.56
237.922	143.56
238.156	126.56
238.39	130.56
238.624	134.56
238.858	120.56
239.091	119.56
239.325	130.56
239.559	133.56
239.793	142.56
240.027	146.56
240.26	163.56
240.494	169.56
240.728	149.56
240.961	163.56
241.195	164.56
241.429	151.56
241.662	158.56
241.896	152.56
242.13	153.56
242.363	142.56
242.597	145.56
242.83	146.56
243.064	150.56
243.298	144.56
243.531	154.56
243.765	150.56
243.998	167.56
244.232	143.56
244.465	148.56
244.699	149.56
244.932	164.56
245.166	165.56
245.399	171.56
245.633	149.56
245.866	150.56
246.099	155.56
246.333	162.56
246.566	164.56
246.8	166.56
247.033	162.56
247.266	167.56
247.5	159.56
247.733	186.56
247.966	178.56
248.2	171.56
248.433	184.56
248.666	196.56
248.899	198.56
249.133	206.56
249.366	222.56
249.599	208.56
249.832	194.56
250.066	187.56
250.299	184.56
250.532	202.56
250.765	228.56
250.998	242.56
251.231	263.56
251.465	229.56
251.698	225.56
251.931	216.56
252.164	212.56
252.397	211.56
252.63	200.56
252.863	216.56
253.096	224.56
253.329	230.56
253.562	247.56
253.795	231.56
254.028	229.56
254.261	243.56
254.494	249.56
254.727	268.56
254.96	323.56
255.193	295.56
255.426	262.56
255.659	243.56
255.892	246.56
256.124	249.56
256.357	233.56
256.59	240.56
256.823	242.56
257.056	224.56
257.289	230.56
257.521	226.56
257.754	223.56
257.987	222.56
258.22	232.56
258.452	231.56
258.685	219.56
258.918	246.56
259.151	228.56
259.383	212.56
259.616	263.56
259.849	230.56
260.081	262.56
260.314	262.56
260.547	274.56
260.779	258.56
261.012	256.56
261.244	254.56
261.477	241.56
261.71	261.56
261.942	246.56
262.175	244.56
262.407	242.56
262.64	256.56
262.872	238.56
263.105	222.56
263.337	233.56
263.57	251.56
263.802	218.56
264.035	227.56
264.267	226.56
264.499	256.56
264.732	232.56
264.964	236.56
265.197	230.56
265.429	228.56
265.661	258.56
265.894	247.56
266.126	236.56
266.358	248.56
266.591	235.56
266.823	248.56
267.055	234.56
267.287	249.56
267.52	236.56
267.752	259.56
267.984	238.56
268.216	233.56
268.448	260.56
268.681	260.56
268.913	264.56
269.145	268.56
269.377	290.56
269.609	283.56
269.841	282.56
270.073	282.56
270.306	319.56
270.538	337.56
270.77	336.56
271.002	328.56
271.234	306.56
271.466	324.56
271.698	353.56
271.93	345.56
272.162	329.56
272.394	340.56
272.626	308.56
272.858	302.56
273.09	324.56
273.322	314.56
273.553	294.56
273.785	285.56
274.017	304.56
274.249	276.56
274.481	282.56
274.713	307.56
274.945	292.56
275.176	294.56
275.408	275.56
275.64	297.56
275.872	286.56
276.104	293.56
276.335	278.56
276.567	289.56
276.799	310.56
277.031	346.56
277.262	348.56
277.494	352.56
277.726	324.56
277.957	310.56
278.189	323.56
278.421	283.56
278.652	314.56
278.884	292.56
279.115	296.56
279.347	287.56
279.579	289.56
279.81	296.56
280.042	292.56
280.273	297.56
280.505	308.56
280.736	293.56
280.968	286.56
281.199	302.56
281.431	300.56
281.662	296.56
281.894	309.56
282.125	304.56
282.356	301.56
282.588	338.56
282.819	327.56
283.051	306.56
283.282	295.56
283.513	305.56
283.745	304.56
283.976	313.56
284.207	335.56
284.439	327.56
284.67	325.56
284.901	311.56
285.132	282.56
285.364	297.56
285.595	336.56
285.826	294.56
286.057	327.56
286.288	316.56
286.52	308.56
286.751	315.56
286.982	315.56
287.213	324.56
287.444	326.56
287.675	324.56
287.906	324.56
288.138	311.56
288.369	318.56
288.6	349.56
288.831	319.56
289.062	334.56
289.293	354.56
289.524	344.56
289.755	306.56
289.986	328.56
290.217	318.56
290.448	320.56
290.679	314.56
290.91	318.56
291.141	321.56
291.371	334.56
291.602	313.56
291.833	310.56
292.064	339.56
292.295	311.56
292.526	333.56
292.757	316.56
292.987	307.56
293.218	326.56
293.449	322.56
293.68	333.56
293.91	319.56
294.141	321.56
294.372	329.56
294.603	331.56
294.833	327.56
295.064	342.56
295.295	357.56
295.525	337.56
295.756	311.56
295.987	328.56
296.217	347.56
296.448	368.56
296.679	346.56
296.909	325.56
297.14	328.56
297.37	344.56
297.601	338.56
297.831	334.56
298.062	337.56
298.292	330.56
298.523	364.56
298.753	330.56
298.984	348.56
299.214	339.56
299.445	336.56
299.675	357.56
299.905	358.56
300.136	344.56
300.366	344.56
300.597	359.56
300.827	345.56
301.057	362.56
301.288	380.56
301.518	371.56
301.748	362.56
301.979	363.56
302.209	348.56
302.439	352.56
302.669	379.56
302.9	378.56
303.13	356.56
303.36	351.56
303.59	366.56
303.82	373.56
304.051	370.56
304.281	374.56
304.511	359.56
304.741	366.56
304.971	369.56
305.201	357.56
305.431	360.56
305.661	367.56
305.891	372.56
306.121	367.56
306.352	358.56
306.582	370.56
306.812	372.56
307.042	367.56
307.272	379.56
307.502	367.56
307.731	367.56
307.961	371.56
308.191	367.56
308.421	378.56
308.651	385.56
308.881	372.56
309.111	388.56
309.341	391.56
309.571	391.56
309.8	394.56
310.03	396.56
310.26	399.56
310.49	407.56
310.72	423.56
310.949	428.56
311.179	401.56
311.409	420.56
311.639	412.56
311.868	398.56
312.098	418.56
312.328	443.56
312.557	434.56
312.787	417.56
313.017	427.56
313.246	395.56
313.476	399.56
313.706	411.56
313.935	435.56
314.165	433.56
314.394	415.56
314.624	445.56
314.853	418.56
315.083	420.56
315.312	427.56
315.542	395.56
315.771	393.56
316.001	419.56
316.23	401.56
316.46	398.56
316.689	404.56
316.919	431.56
317.148	427.56
317.377	426.56
317.607	420.56
317.836	403.56
318.065	415.56
318.295	404.56
318.524	423.56
318.753	416.56
318.983	439.56
319.212	402.56
319.441	415.56
319.67	436.56
319.9	414.56
320.129	432.56
320.358	459.56
320.587	407.56
320.816	423.56
321.046	444.56
321.275	432.56
321.504	450.56
321.733	457.56
321.962	437.56
322.191	456.56
322.42	460.56
322.649	470.56
322.878	485.56
323.108	481.56
323.337	489.56
323.566	524.56
323.795	543.56
324.024	561.56
324.253	671.56
324.482	895.56
324.71	1381.56
324.939	2038.56
325.168	1802.56
325.397	946.56
325.626	648.56
325.855	567.56
326.084	519.56
326.313	520.56
326.542	523.56
326.77	555.56
326.999	639.56
327.228	870.56
327.457	1238.56
327.686	1563.56
327.914	1062.56
328.143	704.56
328.372	619.56
328.6	600.56
328.829	564.56
329.058	568.56
329.287	585.56
329.515	547.56
329.744	539.56
329.972	552.56
330.201	556.56
330.43	594.56
330.658	607.56
330.887	638.56
331.115	630.56
331.344	550.56
331.572	524.56
331.801	505.56
332.03	516.56
332.258	500.56
332.486	519.56
332.715	502.56
332.943	512.56
333.172	526.56
333.4	542.56
333.629	554.56
333.857	533.56
334.085	553.56
334.314	558.56
334.542	594.56
334.771	625.56
334.999	563.56
335.227	554.56
335.455	525.56
335.684	526.56
335.912	505.56
336.14	498.56
336.369	512.56
336.597	504.56
336.825	518.56
337.053	521.56
337.281	503.56
337.51	498.56
337.738	496.56
337.966	516.56
338.194	501.56
338.422	507.56
338.65	486.56
338.878	487.56
339.106	476.56
339.334	487.56
339.562	499.56
339.79	470.56
340.018	486.56
340.246	483.56
340.474	502.56
340.702	498.56
340.93	482.56
341.158	471.56
341.386	471.56
341.614	482.56
341.842	450.56
342.07	468.56
342.298	486.56
342.526	457.56
342.754	463.56
342.981	459.56
343.209	477.56
343.437	469.56
343.665	498.56
343.893	487.56
344.12	512.56
344.348	514.56
344.576	494.56
344.804	500.56
345.031	515.56
345.259	508.56
345.487	490.56
345.714	482.56
345.942	454.56
346.17	462.56
346.397	464.56
346.625	466.56
346.853	460.56
347.08	467.56
347.308	465.56
347.535	455.56
347.763	461.56
347.99	477.56
348.218	475.56
348.445	464.56
348.673	478.56
348.9	464.56
349.128	441.56
349.355	438.56
349.583	462.56
349.81	459.56
350.037	454.56
350.265	443.56
350.492	475.56
350.72	452.56
350.947	467.56
351.174	476.56
351.402	471.56
351.629	459.56
351.856	460.56
352.083	447.56
352.311	461.56
352.538	472.56
352.765	486.56
352.992	471.56
353.22	483.56
353.447	465.56
353.674	453.56
353.901	465.56
354.128	440.56
354.355	453.56
354.583	452.56
354.81	450.56
355.037	455.56
355.264	428.56
355.491	441.56
355.718	434.56
355.945	440.56
356.172	457.56
356.399	467.56
356.626	426.56
356.853	453.56
357.08	437.56
357.307	441.56
357.534	434.56
357.761	458.56
357.988	451.56
358.215	439.56
358.441	452.56
358.668	441.56
358.895	429.56
359.122	463.56
359.349	453.56
359.576	473.56
359.802	473.56
360.029	517.56
360.256	522.56
360.483	491.56
360.709	472.56
360.936	477.56
361.163	488.56
361.39	463.56
361.616	474.56
361.843	469.56
362.07	464.56
362.296	472.56
362.523	462.56
362.749	459.56
362.976	459.56
363.203	460.56
363.429	466.56
363.656	462.56
363.882	443.56
364.109	473.56
364.335	456.56
364.562	439.56
364.788	451.56
365.015	477.56
365.241	471.56
365.468	461.56
365.694	468.56
365.92	438.56
366.147	446.56
366.373	468.56
366.599	447.56
366.826	459.56
367.052	473.56
367.278	437.56
367.505	452.56
367.731	453.56
367.957	451.56
368.184	444.56
368.41	450.56
368.636	463.56
368.862	473.56
369.089	473.56
369.315	459.56
369.541	466.56
369.767	455.56
369.993	475.56
370.219	452.56
370.445	462.56
370.672	468.56
370.898	453.56
371.124	423.56
371.35	458.56
371.576	467.56
371.802	457.56
372.028	466.56
372.254	470.56
372.48	459.56
372.706	455.56
372.932	458.56
373.158	494.56
373.384	475.56
373.61	464.56
373.835	467.56
374.061	473.56
374.287	470.56
374.513	480.56
374.739	480.56
374.965	490.56
375.191	484.56
375.416	490.56
375.642	480.56
375.868	488.56
376.094	480.56
376.319	456.56
376.545	467.56
376.771	463.56
376.997	471.56
377.222	479.56
377.448	479.56
377.674	458.56
377.899	475.56
378.125	477.56
378.35	447.56
378.576	454.56
378.802	455.56
379.027	448.56
379.253	463.56
379.478	470.56
379.704	454.56
379.929	484.56
380.155	482.56
380.38	476.56
380.606	484.56
380.831	463.56
381.057	462.56
381.282	470.56
381.507	460.56
381.733	472.56
381.958	477.56
382.184	462.56
382.409	481.56
382.634	487.56
382.86	483.56
383.085	496.56
383.31	482.56
383.535	503.56
383.761	495.56
383.986	499.56
384.211	520.56
384.436	517.56
384.662	500.56
384.887	517.56
385.112	514.56
385.337	498.56
385.562	523.56
385.787	506.56
386.013	539.56
386.238	533.56
386.463	526.56
386.688	520.56
386.913	530.56
387.138	530.56
387.363	512.56
387.588	519.56
387.813	520.56
388.038	513.56
388.263	536.56
388.488	516.56
388.713	513.56
388.938	527.56
389.163	514.56
389.387	519.56
389.612	532.56
389.837	522.56
390.062	518.56
390.287	515.56
390.512	521.56
390.736	511.56
390.961	528.56
391.186	530.56
391.411	532.56
391.636	539.56
391.86	552.56
392.085	569.56
392.31	559.56
392.534	544.56
392.759	560.56
392.984	523.56
393.208	530.56
393.433	548.56
393.658	527.56
393.882	534.56
394.107	525.56
394.331	509.56
394.556	516.56
394.78	533.56
395.005	532.56
395.229	540.56
395.454	539.56
395.678	573.56
395.903	552.56
396.127	590.56
396.352	579.56
396.576	570.56
396.801	542.56
397.025	578.56
397.249	560.56
397.474	535.56
397.698	554.56
397.922	594.56
398.147	583.56
398.371	634.56
398.595	585.56
398.82	592.56
399.044	633.56
399.268	632.56
399.492	679.56
399.717	738.56
399.941	780.56
400.165	781.56
400.389	782.56
400.613	719.56
400.837	649.56
401.062	650.56
401.286	612.56
401.51	622.56
401.734	630.56
401.958	634.56
402.182	622.56
402.406	616.56
402.63	643.56
402.854	635.56
403.078	640.56
403.302	605.56
403.526	654.56
403.75	643.56
403.974	635.56
404.198	646.56
404.422	639.56
404.645	656.56
404.869	655.56
405.093	687.56
405.317	751.56
405.541	772.56
405.765	713.56
405.988	675.56
406.212	674.56
406.436	661.56
406.66	710.56
406.883	694.56
407.107	721.56
407.331	766.56
407.555	838.56
407.778	826.56
408.002	769.56
408.226	728.56
408.449	711.56
408.673	694.56
408.896	731.56
409.12	788.56
409.344	741.56
409.567	674.56
409.791	639.56
410.014	643.56
410.238	629.56
410.461	638.56
410.685	646.56
410.908	663.56
411.132	702.56
411.355	740.56
411.578	710.56
411.802	658.56
412.025	649.56
412.249	641.56
412.472	682.56
412.695	704.56
412.919	698.56
413.142	653.56
413.365	618.56
413.589	616.56
413.812	620.56
414.035	602.56
414.258	619.56
414.482	612.56
414.705	572.56
414.928	601.56
415.151	582.56
415.374	595.56
415.597	579.56
415.821	612.56
416.044	610.56
416.267	567.56
416.49	602.56
416.713	598.56
416.936	583.56
417.159	595.56
417.382	626.56
417.605	622.56
417.828	615.56
418.051	630.56
418.274	616.56
418.497	609.56
418.72	622.56
418.943	601.56
419.166	640.56
419.389	668.56
419.611	651.56
419.834	647.56
420.057	628.56
420.28	622.56
420.503	626.56
420.726	622.56
420.948	647.56
421.171	680.56
421.394	715.56
421.617	640.56
421.839	630.56
422.062	644.56
422.285	638.56
422.507	687.56
422.73	804.56
422.953	771.56
423.175	704.56
423.398	636.56
423.621	626.56
423.843	666.56
424.066	692.56
424.288	673.56
424.511	700.56
424.733	751.56
424.956	839.56
425.178	789.56
425.401	798.56
425.623	779.56
425.846	698.56
426.068	679.56
426.291	652.56
426.513	666.56
426.735	652.56
426.958	713.56
427.18	820.56
427.402	932.56
427.625	1009.56
427.847	898.56
428.069	776.56
428.292	708.56
428.514	660.56
428.736	636.56
428.958	622.56
429.181	619.56
429.403	611.56
429.625	627.56
429.847	658.56
430.069	714.56
430.292	722.56
430.514	651.56
430.736	600.56
430.958	613.56
431.18	583.56
431.402	595.56
431.624	587.56
431.846	578.56
432.068	573.56
432.29	607.56
432.512	578.56
432.734	593.56
432.956	592.56
433.178	615.56
433.4	615.56
433.622	596.56
433.844	600.56
434.066	586.56
434.287	604.56
434.509	598.56
434.731	604.56
434.953	601.56
435.175	639.56
435.397	664.56
435.618	668.56
435.84	712.56
436.062	811.56
436.284	882.56
436.505	740.56
436.727	680.56
436.949	622.56
437.17	636.56
437.392	623.56
437.614	629.56
437.835	679.56
438.057	756.56
438.278	847.56
438.5	888.56
438.721	979.56
438.943	927.56
439.165	732.56
439.386	690.56
439.608	663.56
439.829	650.56
440.05	666.56
440.272	737.56
440.493	686.56
440.715	669.56
440.936	648.56
441.158	611.56
441.379	630.56
441.6	640.56
441.822	662.56
442.043	708.56
442.264	800.56
442.486	851.56
442.707	741.56
442.928	672.56
443.149	692.56
443.371	706.56
443.592	765.56
443.813	865.56
444.034	903.56
444.255	790.56
444.476	719.56
444.698	704.56
444.919	716.56
445.14	801.56
445.361	745.56
445.582	699.56
445.803	774.56
446.024	880.56
446.245	916.56
446.466	803.56
446.687	712.56
446.908	674.56
447.129	644.56
447.35	621.56
447.571	607.56
447.792	593.56
448.013	620.56
448.234	637.56
448.455	665.56
448.675	801.56
448.896	912.56
449.117	814.56
449.338	746.56
449.559	849.56
449.779	944.56
450	754.56
450.221	646.56
450.442	633.56
450.662	580.56
450.883	598.56
451.104	614.56
451.324	601.56
451.545	553.56
451.766	564.56
451.986	536.56
452.207	539.56
452.428	553.56
452.648	552.56
452.869	528.56
453.089	574.56
453.31	566.56
453.53	534.56
453.751	545.56
453.971	574.56
454.192	544.56
454.412	536.56
454.633	555.56
454.853	529.56
455.073	523.56
455.294	580.56
455.514	649.56
455.734	607.56
455.955	562.56
456.175	515.56
456.395	501.56
456.616	510.56
456.836	526.56
457.056	517.56
457.276	498.56
457.497	518.56
457.717	518.56
457.937	511.56
458.157	532.56
458.377	548.56
458.598	536.56
458.818	619.56
459.038	667.56
459.258	709.56
459.478	642.56
459.698	594.56
459.918	590.56
460.138	605.56
460.358	610.56
460.578	602.56
460.798	628.56
461.018	614.56
461.238	599.56
461.458	628.56
461.678	630.56
461.898	606.56
462.118	599.56
462.338	630.56
462.558	638.56
462.777	648.56
462.997	681.56
463.217	666.56
463.437	690.56
463.657	678.56
463.876	672.56
464.096	683.56
464.316	649.56
464.536	682.56
464.755	678.56
464.975	632.56
465.195	692.56
465.414	717.56
465.634	666.56
465.854	631.56
466.073	598.56
466.293	598.56
466.512	577.56
466.732	581.56
466.951	563.56
467.171	570.56
467.391	580.56
467.61	552.56
467.829	585.56
468.049	584.56
468.268	568.56
468.488	538.56
468.707	567.56
468.927	572.56
469.146	540.56
469.365	544.56
469.585	530.56
469.804	563.56
470.023	565.56
470.243	577.56
470.462	585.56
470.681	589.56
470.901	576.56
471.12	563.56
471.339	579.56
471.558	593.56
471.777	595.56
471.997	525.56
472.216	581.56
472.435	600.56
472.654	578.56
472.873	570.56
473.092	567.56
473.311	547.56
473.53	562.56
473.749	572.56
473.968	612.56
474.187	703.56
474.406	768.56
474.625	611.56
474.844	590.56
475.063	566.56
475.282	591.56
475.501	588.56
475.72	554.56
475.939	576.56
476.158	589.56
476.377	600.56
476.596	583.56
476.814	599.56
477.033	588.56
477.252	611.56
477.471	628.56
477.69	624.56
477.908	645.56
478.127	625.56
478.346	639.56
478.564	653.56
478.783	643.56
479.002	662.56
479.22	649.56
479.439	660.56
479.658	689.56
479.876	707.56
480.095	691.56
480.313	732.56
480.532	711.56
480.751	708.56
480.969	723.56
481.188	748.56
481.406	790.56
481.624	722.56
481.843	689.56
482.061	694.56
482.28	695.56
482.498	667.56
482.717	674.56
482.935	671.56
483.153	657.56
483.372	660.56
483.59	648.56
483.808	665.56
484.027	640.56
484.245	642.56
484.463	650.56
484.681	678.56
484.9	656.56
485.118	681.56
485.336	692.56
485.554	706.56
485.772	705.56
485.99	681.56
486.209	681.56
486.427	698.56
486.645	699.56
486.863	719.56
487.081	728.56
487.299	735.56
487.517	713.56
487.735	706.56
487.953	720.56
488.171	687.56
488.389	737.56
488.607	721.56
488.825	725.56
489.043	707.56
489.261	738.56
489.479	776.56
489.696	750.56
489.914	775.56
490.132	740.56
490.35	722.56
490.568	768.56
490.786	782.56
491.003	776.56
491.221	815.56
491.439	808.56
491.657	826.56
491.874	860.56
492.092	843.56
492.31	825.56
492.527	841.56
492.745	850.56
492.963	852.56
493.18	835.56
493.398	862.56
493.615	839.56
493.833	869.56
494.05	856.56
494.268	858.56
494.485	873.56
494.703	854.56
494.92	848.56
495.138	843.56
495.355	843.56
495.573	853.56
495.79	858.56
496.008	892.56
496.225	897.56
496.442	839.56
496.66	876.56
496.877	885.56
497.094	867.56
497.312	888.56
497.529	892.56
497.746	913.56
497.963	916.56
498.181	952.56
498.398	958.56
498.615	963.56
498.832	1014.56
499.049	1016.56
499.267	1036.56
499.484	1082.56
499.701	1139.56
499.918	1183.56
500.135	1274.56
500.352	1328.56
500.569	1372.56
500.786	1352.56
501.003	1358.56
501.22	1311.56
501.437	1264.56
