Data from 1974.PennyLincolnUp.Lamp.En5.5.200Scan.071719.P1.Changed Mount._HRD10591_15-51-18-856.txt Node
Date: Thu Jul 18 15:51:18 EDT 2019
User: cochatt
Spectrometer: HR+D1059
Trigger mode: 1
Integration Time (sec): 1.000000E-1
Scans to average: 1
Electric dark correction enabled: true
Nonlinearity correction enabled: false
Boxcar width: 0
XAxis mode: Wavelengths
Number of Pixels in Spectrum: 2048
>>>>>Begin Spectral Data<<<<<
223.165	-8.31
223.4	-8.31
223.635	-8.31
223.869	-17.31
224.104	-20.31
224.338	-25.31
224.573	-5.31
224.808	4.69
225.042	-12.31
225.277	-12.31
225.511	-5.31
225.746	16.69
225.98	15.69
226.215	8.69
226.449	6.69
226.683	10.69
226.918	26.69
227.152	16.69
227.387	19.69
227.621	29.69
227.856	41.69
228.09	37.69
228.324	36.69
228.559	43.69
228.793	57.69
229.027	107.69
229.262	119.69
229.496	101.69
229.73	113.69
229.964	119.69
230.199	125.69
230.433	100.69
230.667	101.69
230.901	100.69
231.136	100.69
231.37	128.69
231.604	100.69
231.838	105.69
232.072	112.69
232.306	107.69
232.541	121.69
232.775	118.69
233.009	113.69
233.243	119.69
233.477	111.69
233.711	102.69
233.945	110.69
234.179	113.69
234.413	127.69
234.647	103.69
234.881	125.69
235.115	105.69
235.349	120.69
235.583	103.69
235.817	123.69
236.051	130.69
236.285	113.69
236.519	134.69
236.753	103.69
236.987	115.69
237.221	163.69
237.455	194.69
237.689	165.69
237.922	131.69
238.156	127.69
238.39	110.69
238.624	129.69
238.858	126.69
239.091	117.69
239.325	119.69
239.559	121.69
239.793	136.69
240.027	121.69
240.26	126.69
240.494	139.69
240.728	153.69
240.961	148.69
241.195	146.69
241.429	126.69
241.662	134.69
241.896	122.69
242.13	125.69
242.363	120.69
242.597	131.69
242.83	132.69
243.064	143.69
243.298	133.69
243.531	127.69
243.765	132.69
243.998	148.69
244.232	135.69
244.465	127.69
244.699	145.69
244.932	162.69
245.166	142.69
245.399	149.69
245.633	133.69
245.866	137.69
246.099	139.69
246.333	148.69
246.566	145.69
246.8	159.69
247.033	170.69
247.266	153.69
247.5	154.69
247.733	161.69
247.966	168.69
248.2	165.69
248.433	150.69
248.666	166.69
248.899	153.69
249.133	179.69
249.366	191.69
249.599	168.69
249.832	169.69
250.066	178.69
250.299	168.69
250.532	180.69
250.765	189.69
250.998	208.69
251.231	196.69
251.465	205.69
251.698	203.69
251.931	215.69
252.164	177.69
252.397	188.69
252.63	202.69
252.863	189.69
253.096	195.69
253.329	211.69
253.562	209.69
253.795	199.69
254.028	211.69
254.261	201.69
254.494	197.69
254.727	230.69
254.96	247.69
255.193	244.69
255.426	228.69
255.659	211.69
255.892	234.69
256.124	210.69
256.357	211.69
256.59	221.69
256.823	206.69
257.056	222.69
257.289	210.69
257.521	205.69
257.754	201.69
257.987	195.69
258.22	199.69
258.452	204.69
258.685	198.69
258.918	183.69
259.151	200.69
259.383	195.69
259.616	209.69
259.849	213.69
260.081	222.69
260.314	232.69
260.547	214.69
260.779	228.69
261.012	229.69
261.244	217.69
261.477	207.69
261.71	216.69
261.942	214.69
262.175	209.69
262.407	213.69
262.64	206.69
262.872	194.69
263.105	210.69
263.337	208.69
263.57	214.69
263.802	205.69
264.035	212.69
264.267	199.69
264.499	191.69
264.732	205.69
264.964	203.69
265.197	207.69
265.429	200.69
265.661	215.69
265.894	211.69
266.126	199.69
266.358	211.69
266.591	202.69
266.823	211.69
267.055	215.69
267.287	233.69
267.52	221.69
267.752	226.69
267.984	229.69
268.216	216.69
268.448	218.69
268.681	233.69
268.913	254.69
269.145	261.69
269.377	262.69
269.609	263.69
269.841	268.69
270.073	265.69
270.306	265.69
270.538	266.69
270.77	301.69
271.002	262.69
271.234	276.69
271.466	259.69
271.698	289.69
271.93	289.69
272.162	291.69
272.394	289.69
272.626	279.69
272.858	274.69
273.09	265.69
273.322	257.69
273.553	227.69
273.785	260.69
274.017	256.69
274.249	252.69
274.481	245.69
274.713	244.69
274.945	263.69
275.176	237.69
275.408	261.69
275.64	239.69
275.872	261.69
276.104	247.69
276.335	245.69
276.567	253.69
276.799	261.69
277.031	275.69
277.262	288.69
277.494	295.69
277.726	294.69
277.957	263.69
278.189	257.69
278.421	259.69
278.652	271.69
278.884	260.69
279.115	252.69
279.347	271.69
279.579	250.69
279.81	260.69
280.042	235.69
280.273	253.69
280.505	264.69
280.736	260.69
280.968	261.69
281.199	241.69
281.431	261.69
281.662	258.69
281.894	261.69
282.125	272.69
282.356	279.69
282.588	287.69
282.819	282.69
283.051	269.69
283.282	271.69
283.513	259.69
283.745	266.69
283.976	283.69
284.207	285.69
284.439	265.69
284.67	258.69
284.901	267.69
285.132	276.69
285.364	270.69
285.595	268.69
285.826	265.69
286.057	279.69
286.288	267.69
286.52	264.69
286.751	289.69
286.982	298.69
287.213	289.69
287.444	275.69
287.675	271.69
287.906	286.69
288.138	302.69
288.369	296.69
288.6	283.69
288.831	266.69
289.062	306.69
289.293	309.69
289.524	275.69
289.755	282.69
289.986	291.69
290.217	284.69
290.448	288.69
290.679	297.69
290.91	276.69
291.141	288.69
291.371	249.69
291.602	282.69
291.833	278.69
292.064	290.69
292.295	282.69
292.526	286.69
292.757	277.69
292.987	292.69
293.218	277.69
293.449	292.69
293.68	292.69
293.91	304.69
294.141	289.69
294.372	286.69
294.603	280.69
294.833	290.69
295.064	283.69
295.295	296.69
295.525	294.69
295.756	312.69
295.987	317.69
296.217	313.69
296.448	308.69
296.679	290.69
296.909	289.69
297.14	301.69
297.37	290.69
297.601	300.69
297.831	313.69
298.062	305.69
298.292	295.69
298.523	314.69
298.753	301.69
298.984	305.69
299.214	313.69
299.445	305.69
299.675	285.69
299.905	307.69
300.136	308.69
300.366	303.69
300.597	298.69
300.827	303.69
301.057	322.69
301.288	305.69
301.518	305.69
301.748	322.69
301.979	316.69
302.209	322.69
302.439	346.69
302.669	307.69
302.9	346.69
303.13	331.69
303.36	311.69
303.59	338.69
303.82	305.69
304.051	338.69
304.281	323.69
304.511	302.69
304.741	308.69
304.971	330.69
305.201	323.69
305.431	307.69
305.661	321.69
305.891	311.69
306.121	322.69
306.352	319.69
306.582	317.69
306.812	333.69
307.042	328.69
307.272	332.69
307.502	332.69
307.731	317.69
307.961	327.69
308.191	319.69
308.421	318.69
308.651	342.69
308.881	337.69
309.111	333.69
309.341	335.69
309.571	331.69
309.8	332.69
310.03	327.69
310.26	331.69
310.49	314.69
310.72	344.69
310.949	359.69
311.179	361.69
311.409	354.69
311.639	338.69
311.868	349.69
312.098	353.69
312.328	359.69
312.557	363.69
312.787	376.69
313.017	369.69
313.246	352.69
313.476	362.69
313.706	375.69
313.935	344.69
314.165	364.69
314.394	373.69
314.624	359.69
314.853	387.69
315.083	375.69
315.312	389.69
315.542	363.69
315.771	350.69
316.001	351.69
316.23	329.69
316.46	354.69
316.689	358.69
316.919	361.69
317.148	375.69
317.377	371.69
317.607	377.69
317.836	377.69
318.065	357.69
318.295	361.69
318.524	370.69
318.753	374.69
318.983	340.69
319.212	365.69
319.441	358.69
319.67	366.69
319.9	342.69
320.129	337.69
320.358	368.69
320.587	337.69
320.816	377.69
321.046	373.69
321.275	355.69
321.504	356.69
321.733	369.69
321.962	379.69
322.191	374.69
322.42	381.69
322.649	389.69
322.878	393.69
323.108	399.69
323.337	410.69
323.566	419.69
323.795	429.69
324.024	449.69
324.253	521.69
324.482	654.69
324.71	1018.69
324.939	1470.69
325.168	1284.69
325.397	689.69
325.626	483.69
325.855	447.69
326.084	432.69
326.313	409.69
326.542	437.69
326.77	451.69
326.999	500.69
327.228	637.69
327.457	911.69
327.686	1125.69
327.914	750.69
328.143	543.69
328.372	478.69
328.6	473.69
328.829	467.69
329.058	454.69
329.287	464.69
329.515	448.69
329.744	430.69
329.972	437.69
330.201	441.69
330.43	460.69
330.658	481.69
330.887	475.69
331.115	486.69
331.344	468.69
331.572	452.69
331.801	448.69
332.03	439.69
332.258	435.69
332.486	415.69
332.715	420.69
332.943	400.69
333.172	444.69
333.4	445.69
333.629	454.69
333.857	465.69
334.085	471.69
334.314	484.69
334.542	474.69
334.771	489.69
334.999	451.69
335.227	450.69
335.455	447.69
335.684	431.69
335.912	439.69
336.14	437.69
336.369	427.69
336.597	449.69
336.825	434.69
337.053	444.69
337.281	424.69
337.51	437.69
337.738	417.69
337.966	420.69
338.194	432.69
338.422	425.69
338.65	423.69
338.878	437.69
339.106	430.69
339.334	446.69
339.562	416.69
339.79	401.69
340.018	383.69
340.246	419.69
340.474	431.69
340.702	423.69
340.93	413.69
341.158	424.69
341.386	424.69
341.614	424.69
341.842	410.69
342.07	418.69
342.298	401.69
342.526	414.69
342.754	405.69
342.981	399.69
343.209	413.69
343.437	419.69
343.665	424.69
343.893	417.69
344.12	448.69
344.348	448.69
344.576	427.69
344.804	433.69
345.031	420.69
345.259	424.69
345.487	426.69
345.714	424.69
345.942	395.69
346.17	412.69
346.397	389.69
346.625	397.69
346.853	393.69
347.08	397.69
347.308	411.69
347.535	397.69
347.763	401.69
347.99	406.69
348.218	399.69
348.445	386.69
348.673	414.69
348.9	408.69
349.128	391.69
349.355	394.69
349.583	383.69
349.81	397.69
350.037	403.69
350.265	403.69
350.492	386.69
350.72	391.69
350.947	405.69
351.174	394.69
351.402	398.69
351.629	389.69
351.856	402.69
352.083	409.69
352.311	392.69
352.538	401.69
352.765	427.69
352.992	388.69
353.22	397.69
353.447	394.69
353.674	405.69
353.901	381.69
354.128	390.69
354.355	381.69
354.583	391.69
354.81	384.69
355.037	391.69
355.264	376.69
355.491	386.69
355.718	379.69
355.945	374.69
356.172	374.69
356.399	399.69
356.626	385.69
356.853	381.69
357.08	381.69
357.307	386.69
357.534	383.69
357.761	392.69
357.988	385.69
358.215	402.69
358.441	390.69
358.668	384.69
358.895	401.69
359.122	421.69
359.349	400.69
359.576	395.69
359.802	407.69
360.029	439.69
360.256	430.69
360.483	397.69
360.709	389.69
360.936	403.69
361.163	389.69
361.39	405.69
361.616	413.69
361.843	381.69
362.07	403.69
362.296	415.69
362.523	409.69
362.749	403.69
362.976	394.69
363.203	409.69
363.429	403.69
363.656	413.69
363.882	409.69
364.109	382.69
364.335	387.69
364.562	400.69
364.788	403.69
365.015	394.69
365.241	401.69
365.468	416.69
365.694	385.69
365.92	390.69
366.147	381.69
366.373	390.69
366.599	390.69
366.826	407.69
367.052	404.69
367.278	402.69
367.505	408.69
367.731	409.69
367.957	386.69
368.184	386.69
368.41	406.69
368.636	399.69
368.862	400.69
369.089	406.69
369.315	399.69
369.541	394.69
369.767	396.69
369.993	415.69
370.219	379.69
370.445	409.69
370.672	391.69
370.898	379.69
371.124	430.69
371.35	402.69
371.576	414.69
371.802	402.69
372.028	403.69
372.254	408.69
372.48	414.69
372.706	398.69
372.932	408.69
373.158	416.69
373.384	394.69
373.61	415.69
373.835	408.69
374.061	413.69
374.287	415.69
374.513	418.69
374.739	439.69
374.965	435.69
375.191	426.69
375.416	415.69
375.642	412.69
375.868	418.69
376.094	407.69
376.319	411.69
376.545	419.69
376.771	418.69
376.997	399.69
377.222	410.69
377.448	398.69
377.674	419.69
377.899	418.69
378.125	406.69
378.35	405.69
378.576	424.69
378.802	388.69
379.027	409.69
379.253	413.69
379.478	399.69
379.704	415.69
379.929	426.69
380.155	424.69
380.38	395.69
380.606	437.69
380.831	411.69
381.057	413.69
381.282	427.69
381.507	416.69
381.733	418.69
381.958	411.69
382.184	433.69
382.409	412.69
382.634	436.69
382.86	417.69
383.085	437.69
383.31	443.69
383.535	436.69
383.761	433.69
383.986	452.69
384.211	433.69
384.436	456.69
384.662	482.69
384.887	446.69
385.112	443.69
385.337	433.69
385.562	447.69
385.787	463.69
386.013	466.69
386.238	468.69
386.463	454.69
386.688	473.69
386.913	481.69
387.138	464.69
387.363	485.69
387.588	471.69
387.813	469.69
388.038	517.69
388.263	469.69
388.488	477.69
388.713	454.69
388.938	449.69
389.163	462.69
389.387	458.69
389.612	459.69
389.837	469.69
390.062	478.69
390.287	470.69
390.512	448.69
390.736	460.69
390.961	472.69
391.186	452.69
391.411	469.69
391.636	477.69
391.86	485.69
392.085	496.69
392.31	470.69
392.534	470.69
392.759	480.69
392.984	439.69
393.208	465.69
393.433	477.69
393.658	462.69
393.882	491.69
394.107	473.69
394.331	495.69
394.556	464.69
394.78	479.69
395.005	498.69
395.229	493.69
395.454	471.69
395.678	493.69
395.903	487.69
396.127	494.69
396.352	518.69
396.576	492.69
396.801	496.69
397.025	480.69
397.249	481.69
397.474	503.69
397.698	520.69
397.922	513.69
398.147	519.69
398.371	537.69
398.595	531.69
398.82	541.69
399.044	563.69
399.268	562.69
399.492	581.69
399.717	652.69
399.941	680.69
400.165	662.69
400.389	670.69
400.613	604.69
400.837	552.69
401.062	570.69
401.286	554.69
401.51	558.69
401.734	535.69
401.958	557.69
402.182	544.69
402.406	546.69
402.63	544.69
402.854	528.69
403.078	553.69
403.302	546.69
403.526	559.69
403.75	563.69
403.974	563.69
404.198	562.69
404.422	570.69
404.645	564.69
404.869	580.69
405.093	621.69
405.317	626.69
405.541	657.69
405.765	590.69
405.988	570.69
406.212	589.69
406.436	569.69
406.66	634.69
406.883	597.69
407.107	638.69
407.331	659.69
407.555	750.69
407.778	731.69
408.002	677.69
408.226	639.69
408.449	630.69
408.673	613.69
408.896	605.69
409.12	679.69
409.344	657.69
409.567	589.69
409.791	593.69
410.014	574.69
410.238	577.69
410.461	574.69
410.685	559.69
410.908	578.69
411.132	621.69
411.355	638.69
411.578	588.69
411.802	578.69
412.025	551.69
412.249	568.69
412.472	575.69
412.695	599.69
412.919	603.69
413.142	572.69
413.365	550.69
413.589	542.69
413.812	542.69
414.035	523.69
414.258	526.69
414.482	524.69
414.705	533.69
414.928	555.69
415.151	520.69
415.374	527.69
415.597	532.69
415.821	529.69
416.044	546.69
416.267	537.69
416.49	522.69
416.713	547.69
416.936	541.69
417.159	543.69
417.382	518.69
417.605	514.69
417.828	528.69
418.051	565.69
418.274	548.69
418.497	541.69
418.72	533.69
418.943	543.69
419.166	543.69
419.389	590.69
419.611	584.69
419.834	568.69
420.057	563.69
420.28	574.69
420.503	541.69
420.726	535.69
420.948	551.69
421.171	594.69
421.394	622.69
421.617	559.69
421.839	554.69
422.062	546.69
422.285	564.69
422.507	621.69
422.73	680.69
422.953	680.69
423.175	607.69
423.398	561.69
423.621	563.69
423.843	609.69
424.066	599.69
424.288	594.69
424.511	603.69
424.733	643.69
424.956	721.69
425.178	685.69
425.401	702.69
425.623	712.69
425.846	608.69
426.068	595.69
426.291	547.69
426.513	593.69
426.735	561.69
426.958	611.69
427.18	682.69
427.402	811.69
427.625	885.69
427.847	738.69
428.069	635.69
428.292	612.69
428.514	569.69
428.736	553.69
428.958	532.69
429.181	525.69
429.403	509.69
429.625	533.69
429.847	561.69
430.069	623.69
430.292	605.69
430.514	520.69
430.736	542.69
430.958	526.69
431.18	493.69
431.402	513.69
431.624	500.69
431.846	501.69
432.068	525.69
432.29	501.69
432.512	497.69
432.734	502.69
432.956	527.69
433.178	537.69
433.4	547.69
433.622	513.69
433.844	510.69
434.066	535.69
434.287	514.69
434.509	523.69
434.731	534.69
434.953	535.69
435.175	554.69
435.397	573.69
435.618	572.69
435.84	607.69
436.062	711.69
436.284	745.69
436.505	626.69
436.727	566.69
436.949	549.69
437.17	539.69
437.392	538.69
437.614	530.69
437.835	559.69
438.057	636.69
438.278	742.69
438.5	745.69
438.721	814.69
438.943	795.69
439.165	641.69
439.386	583.69
439.608	569.69
439.829	554.69
440.05	584.69
440.272	640.69
440.493	579.69
440.715	567.69
440.936	554.69
441.158	561.69
441.379	549.69
441.6	577.69
441.822	576.69
442.043	616.69
442.264	698.69
442.486	742.69
442.707	623.69
442.928	616.69
443.149	598.69
443.371	617.69
443.592	613.69
443.813	731.69
444.034	807.69
444.255	689.69
444.476	601.69
444.698	583.69
444.919	634.69
445.14	725.69
445.361	628.69
445.582	618.69
445.803	666.69
446.024	731.69
446.245	744.69
446.466	692.69
446.687	600.69
446.908	578.69
447.129	543.69
447.35	533.69
447.571	541.69
447.792	514.69
448.013	539.69
448.234	545.69
448.455	586.69
448.675	692.69
448.896	777.69
449.117	659.69
449.338	650.69
449.559	745.69
449.779	864.69
450	664.69
450.221	575.69
450.442	515.69
450.662	500.69
450.883	482.69
451.104	484.69
451.324	494.69
451.545	512.69
451.766	501.69
451.986	477.69
452.207	450.69
452.428	451.69
452.648	491.69
452.869	466.69
453.089	465.69
453.31	477.69
453.53	477.69
453.751	465.69
453.971	454.69
454.192	471.69
454.412	483.69
454.633	449.69
454.853	477.69
455.073	455.69
455.294	501.69
455.514	516.69
455.734	540.69
455.955	463.69
456.175	484.69
456.395	471.69
456.616	447.69
456.836	455.69
457.056	441.69
457.276	451.69
457.497	441.69
457.717	427.69
457.937	459.69
458.157	450.69
458.377	468.69
458.598	477.69
458.818	513.69
459.038	573.69
459.258	599.69
459.478	523.69
459.698	507.69
459.918	513.69
460.138	534.69
460.358	533.69
460.578	535.69
460.798	546.69
461.018	547.69
461.238	548.69
461.458	514.69
461.678	555.69
461.898	537.69
462.118	538.69
462.338	561.69
462.558	561.69
462.777	565.69
462.997	594.69
463.217	616.69
463.437	628.69
463.657	611.69
463.876	591.69
464.096	607.69
464.316	594.69
464.536	577.69
464.755	576.69
464.975	579.69
465.195	586.69
465.414	598.69
465.634	557.69
465.854	550.69
466.073	520.69
466.293	519.69
466.512	512.69
466.732	502.69
466.951	498.69
467.171	480.69
467.391	485.69
467.61	506.69
467.829	519.69
468.049	513.69
468.268	488.69
468.488	496.69
468.707	482.69
468.927	481.69
469.146	491.69
469.365	473.69
469.585	488.69
469.804	493.69
470.023	509.69
470.243	515.69
470.462	513.69
470.681	504.69
470.901	499.69
471.12	506.69
471.339	494.69
471.558	489.69
471.777	505.69
471.997	474.69
472.216	482.69
472.435	506.69
472.654	506.69
472.873	524.69
473.092	487.69
473.311	517.69
473.53	484.69
473.749	513.69
473.968	565.69
474.187	606.69
474.406	630.69
474.625	541.69
474.844	514.69
475.063	507.69
475.282	502.69
475.501	514.69
475.72	503.69
475.939	489.69
476.158	531.69
476.377	489.69
476.596	515.69
476.814	522.69
477.033	550.69
477.252	544.69
477.471	528.69
477.69	542.69
477.908	546.69
478.127	566.69
478.346	559.69
478.564	575.69
478.783	572.69
479.002	576.69
479.22	582.69
479.439	592.69
479.658	605.69
479.876	594.69
480.095	596.69
480.313	633.69
480.532	616.69
480.751	611.69
480.969	627.69
481.188	623.69
481.406	645.69
481.624	623.69
481.843	596.69
482.061	590.69
482.28	597.69
482.498	585.69
482.717	569.69
482.935	579.69
483.153	597.69
483.372	586.69
483.59	592.69
483.808	589.69
484.027	588.69
484.245	606.69
484.463	582.69
484.681	639.69
484.9	603.69
485.118	609.69
485.336	602.69
485.554	604.69
485.772	594.69
485.99	599.69
486.209	613.69
486.427	624.69
486.645	625.69
486.863	615.69
487.081	646.69
487.299	610.69
487.517	623.69
487.735	621.69
487.953	635.69
488.171	623.69
488.389	615.69
488.607	629.69
488.825	627.69
489.043	637.69
489.261	642.69
489.479	640.69
489.696	641.69
489.914	663.69
490.132	681.69
490.35	649.69
490.568	664.69
490.786	673.69
491.003	667.69
491.221	685.69
491.439	688.69
491.657	689.69
491.874	711.69
492.092	722.69
492.31	719.69
492.527	711.69
492.745	731.69
492.963	738.69
493.18	719.69
493.398	739.69
493.615	719.69
493.833	717.69
494.05	725.69
494.268	738.69
494.485	711.69
494.703	732.69
494.92	733.69
495.138	728.69
495.355	737.69
495.573	735.69
495.79	738.69
496.008	746.69
496.225	744.69
496.442	744.69
496.66	740.69
496.877	768.69
497.094	769.69
497.312	782.69
497.529	807.69
497.746	776.69
497.963	790.69
498.181	823.69
498.398	853.69
498.615	818.69
498.832	874.69
499.049	871.69
499.267	936.69
499.484	984.69
499.701	1018.69
499.918	1035.69
500.135	1117.69
500.352	1201.69
500.569	1213.69
500.786	1224.69
501.003	1183.69
501.22	1130.69
501.437	1114.69
501.654	1025.69
