Data from 1974.PennyLincolnUp.Lamp.En5.5.200Scan.071719.P1.Changed Mount._HRD10591_15-52-49-856.txt Node
Date: Thu Jul 18 15:52:49 EDT 2019
User: cochatt
Spectrometer: HR+D1059
Trigger mode: 1
Integration Time (sec): 1.000000E-1
Scans to average: 1
Electric dark correction enabled: true
Nonlinearity correction enabled: false
Boxcar width: 0
XAxis mode: Wavelengths
Number of Pixels in Spectrum: 2048
>>>>>Begin Spectral Data<<<<<
223.165	-10.5
223.4	-10.5
223.635	-10.5
223.869	-18.5
224.104	-27.5
224.338	-29.5
224.573	-24.5
224.808	-15.5
225.042	-12.5
225.277	-2.5
225.511	0.5
225.746	8.5
225.98	21.5
226.215	8.5
226.449	20.5
226.683	20.5
226.918	21.5
227.152	39.5
227.387	36.5
227.621	30.5
227.856	35.5
228.09	33.5
228.324	46.5
228.559	63.5
228.793	69.5
229.027	81.5
229.262	91.5
229.496	119.5
229.73	131.5
229.964	186.5
230.199	127.5
230.433	112.5
230.667	121.5
230.901	114.5
231.136	103.5
231.37	107.5
231.604	111.5
231.838	115.5
232.072	120.5
232.306	104.5
232.541	121.5
232.775	126.5
233.009	113.5
233.243	122.5
233.477	112.5
233.711	113.5
233.945	124.5
234.179	136.5
234.413	112.5
234.647	110.5
234.881	134.5
235.115	111.5
235.349	114.5
235.583	123.5
235.817	131.5
236.051	112.5
236.285	114.5
236.519	126.5
236.753	138.5
236.987	144.5
237.221	178.5
237.455	227.5
237.689	167.5
237.922	124.5
238.156	135.5
238.39	134.5
238.624	119.5
238.858	124.5
239.091	131.5
239.325	122.5
239.559	122.5
239.793	141.5
240.027	128.5
240.26	144.5
240.494	151.5
240.728	143.5
240.961	151.5
241.195	158.5
241.429	160.5
241.662	145.5
241.896	136.5
242.13	134.5
242.363	141.5
242.597	154.5
242.83	150.5
243.064	150.5
243.298	151.5
243.531	139.5
243.765	133.5
243.998	153.5
244.232	161.5
244.465	151.5
244.699	164.5
244.932	152.5
245.166	145.5
245.399	144.5
245.633	147.5
245.866	150.5
246.099	154.5
246.333	166.5
246.566	159.5
246.8	166.5
247.033	168.5
247.266	166.5
247.5	166.5
247.733	180.5
247.966	180.5
248.2	195.5
248.433	196.5
248.666	181.5
248.899	184.5
249.133	197.5
249.366	198.5
249.599	202.5
249.832	192.5
250.066	199.5
250.299	177.5
250.532	196.5
250.765	217.5
250.998	215.5
251.231	252.5
251.465	216.5
251.698	225.5
251.931	211.5
252.164	206.5
252.397	205.5
252.63	209.5
252.863	219.5
253.096	220.5
253.329	222.5
253.562	236.5
253.795	219.5
254.028	222.5
254.261	224.5
254.494	233.5
254.727	251.5
254.96	291.5
255.193	295.5
255.426	256.5
255.659	247.5
255.892	242.5
256.124	239.5
256.357	238.5
256.59	248.5
256.823	240.5
257.056	229.5
257.289	219.5
257.521	220.5
257.754	225.5
257.987	219.5
258.22	229.5
258.452	223.5
258.685	216.5
258.918	221.5
259.151	218.5
259.383	238.5
259.616	214.5
259.849	232.5
260.081	245.5
260.314	262.5
260.547	273.5
260.779	243.5
261.012	255.5
261.244	232.5
261.477	252.5
261.71	216.5
261.942	218.5
262.175	244.5
262.407	243.5
262.64	228.5
262.872	218.5
263.105	228.5
263.337	242.5
263.57	224.5
263.802	224.5
264.035	213.5
264.267	236.5
264.499	223.5
264.732	222.5
264.964	235.5
265.197	222.5
265.429	224.5
265.661	230.5
265.894	223.5
266.126	236.5
266.358	231.5
266.591	237.5
266.823	235.5
267.055	239.5
267.287	228.5
267.52	250.5
267.752	241.5
267.984	243.5
268.216	240.5
268.448	240.5
268.681	258.5
268.913	262.5
269.145	262.5
269.377	270.5
269.609	287.5
269.841	301.5
270.073	289.5
270.306	295.5
270.538	303.5
270.77	332.5
271.002	331.5
271.234	308.5
271.466	308.5
271.698	323.5
271.93	319.5
272.162	331.5
272.394	336.5
272.626	316.5
272.858	296.5
273.09	270.5
273.322	282.5
273.553	281.5
273.785	272.5
274.017	279.5
274.249	280.5
274.481	283.5
274.713	266.5
274.945	273.5
275.176	299.5
275.408	267.5
275.64	296.5
275.872	289.5
276.104	294.5
276.335	290.5
276.567	284.5
276.799	286.5
277.031	302.5
277.262	330.5
277.494	337.5
277.726	302.5
277.957	290.5
278.189	286.5
278.421	286.5
278.652	294.5
278.884	293.5
279.115	305.5
279.347	293.5
279.579	302.5
279.81	295.5
280.042	297.5
280.273	284.5
280.505	289.5
280.736	295.5
280.968	291.5
281.199	299.5
281.431	291.5
281.662	311.5
281.894	299.5
282.125	289.5
282.356	304.5
282.588	307.5
282.819	310.5
283.051	316.5
283.282	292.5
283.513	296.5
283.745	290.5
283.976	304.5
284.207	296.5
284.439	322.5
284.67	306.5
284.901	310.5
285.132	302.5
285.364	309.5
285.595	287.5
285.826	293.5
286.057	304.5
286.288	296.5
286.52	281.5
286.751	311.5
286.982	310.5
287.213	305.5
287.444	304.5
287.675	306.5
287.906	317.5
288.138	315.5
288.369	319.5
288.6	327.5
288.831	335.5
289.062	331.5
289.293	322.5
289.524	329.5
289.755	316.5
289.986	327.5
290.217	326.5
290.448	323.5
290.679	306.5
290.91	320.5
291.141	336.5
291.371	342.5
291.602	296.5
291.833	320.5
292.064	336.5
292.295	298.5
292.526	325.5
292.757	331.5
292.987	311.5
293.218	303.5
293.449	327.5
293.68	318.5
293.91	299.5
294.141	330.5
294.372	332.5
294.603	328.5
294.833	320.5
295.064	332.5
295.295	330.5
295.525	329.5
295.756	332.5
295.987	326.5
296.217	336.5
296.448	342.5
296.679	341.5
296.909	337.5
297.14	350.5
297.37	328.5
297.601	333.5
297.831	322.5
298.062	350.5
298.292	341.5
298.523	338.5
298.753	342.5
298.984	335.5
299.214	323.5
299.445	342.5
299.675	328.5
299.905	336.5
300.136	333.5
300.366	344.5
300.597	347.5
300.827	363.5
301.057	345.5
301.288	349.5
301.518	336.5
301.748	371.5
301.979	367.5
302.209	357.5
302.439	329.5
302.669	353.5
302.9	355.5
303.13	358.5
303.36	372.5
303.59	350.5
303.82	373.5
304.051	372.5
304.281	361.5
304.511	342.5
304.741	359.5
304.971	336.5
305.201	341.5
305.431	363.5
305.661	356.5
305.891	370.5
306.121	360.5
306.352	358.5
306.582	351.5
306.812	360.5
307.042	349.5
307.272	354.5
307.502	361.5
307.731	359.5
307.961	351.5
308.191	364.5
308.421	353.5
308.651	369.5
308.881	353.5
309.111	361.5
309.341	362.5
309.571	363.5
309.8	390.5
310.03	400.5
310.26	385.5
310.49	391.5
310.72	393.5
310.949	424.5
311.179	421.5
311.409	399.5
311.639	391.5
311.868	389.5
312.098	403.5
312.328	424.5
312.557	408.5
312.787	408.5
313.017	413.5
313.246	414.5
313.476	392.5
313.706	396.5
313.935	401.5
314.165	419.5
314.394	422.5
314.624	419.5
314.853	414.5
315.083	423.5
315.312	405.5
315.542	395.5
315.771	420.5
316.001	404.5
316.23	403.5
316.46	400.5
316.689	403.5
316.919	383.5
317.148	399.5
317.377	397.5
317.607	422.5
317.836	404.5
318.065	408.5
318.295	404.5
318.524	417.5
318.753	391.5
318.983	390.5
319.212	402.5
319.441	397.5
319.67	407.5
319.9	401.5
320.129	411.5
320.358	399.5
320.587	394.5
320.816	412.5
321.046	420.5
321.275	421.5
321.504	410.5
321.733	439.5
321.962	427.5
322.191	429.5
322.42	446.5
322.649	447.5
322.878	435.5
323.108	456.5
323.337	469.5
323.566	487.5
323.795	512.5
324.024	528.5
324.253	628.5
324.482	848.5
324.71	1271.5
324.939	1827.5
325.168	1593.5
325.397	852.5
325.626	622.5
325.855	535.5
326.084	488.5
326.313	496.5
326.542	485.5
326.77	532.5
326.999	603.5
327.228	741.5
327.457	1158.5
327.686	1418.5
327.914	962.5
328.143	633.5
328.372	586.5
328.6	573.5
328.829	542.5
329.058	564.5
329.287	564.5
329.515	530.5
329.744	516.5
329.972	476.5
330.201	543.5
330.43	548.5
330.658	560.5
330.887	591.5
331.115	606.5
331.344	524.5
331.572	505.5
331.801	488.5
332.03	498.5
332.258	528.5
332.486	505.5
332.715	502.5
332.943	513.5
333.172	495.5
333.4	510.5
333.629	499.5
333.857	501.5
334.085	544.5
334.314	534.5
334.542	562.5
334.771	589.5
334.999	550.5
335.227	538.5
335.455	507.5
335.684	500.5
335.912	518.5
336.14	500.5
336.369	466.5
336.597	486.5
336.825	488.5
337.053	513.5
337.281	484.5
337.51	474.5
337.738	464.5
337.966	458.5
338.194	488.5
338.422	478.5
338.65	479.5
338.878	445.5
339.106	470.5
339.334	470.5
339.562	474.5
339.79	469.5
340.018	467.5
340.246	465.5
340.474	473.5
340.702	456.5
340.93	453.5
341.158	472.5
341.386	485.5
341.614	469.5
341.842	444.5
342.07	448.5
342.298	456.5
342.526	456.5
342.754	461.5
342.981	458.5
343.209	463.5
343.437	475.5
343.665	474.5
343.893	506.5
344.12	505.5
344.348	507.5
344.576	487.5
344.804	498.5
345.031	482.5
345.259	510.5
345.487	470.5
345.714	468.5
345.942	460.5
346.17	447.5
346.397	457.5
346.625	442.5
346.853	454.5
347.08	441.5
347.308	464.5
347.535	468.5
347.763	459.5
347.99	443.5
348.218	458.5
348.445	455.5
348.673	454.5
348.9	452.5
349.128	452.5
349.355	447.5
349.583	444.5
349.81	441.5
350.037	456.5
350.265	434.5
350.492	421.5
350.72	447.5
350.947	450.5
351.174	449.5
351.402	462.5
351.629	462.5
351.856	450.5
352.083	465.5
352.311	484.5
352.538	474.5
352.765	454.5
352.992	465.5
353.22	448.5
353.447	456.5
353.674	454.5
353.901	447.5
354.128	441.5
354.355	417.5
354.583	436.5
354.81	443.5
355.037	444.5
355.264	417.5
355.491	450.5
355.718	446.5
355.945	422.5
356.172	425.5
356.399	431.5
356.626	437.5
356.853	430.5
357.08	423.5
357.307	425.5
357.534	439.5
357.761	422.5
357.988	438.5
358.215	438.5
358.441	437.5
358.668	446.5
358.895	443.5
359.122	440.5
359.349	425.5
359.576	445.5
359.802	473.5
360.029	480.5
360.256	469.5
360.483	480.5
360.709	460.5
360.936	455.5
361.163	454.5
361.39	442.5
361.616	467.5
361.843	455.5
362.07	451.5
362.296	435.5
362.523	447.5
362.749	451.5
362.976	468.5
363.203	450.5
363.429	446.5
363.656	457.5
363.882	462.5
364.109	437.5
364.335	434.5
364.562	443.5
364.788	441.5
365.015	436.5
365.241	451.5
365.468	451.5
365.694	476.5
365.92	460.5
366.147	442.5
366.373	450.5
366.599	435.5
366.826	442.5
367.052	439.5
367.278	443.5
367.505	440.5
367.731	445.5
367.957	425.5
368.184	444.5
368.41	452.5
368.636	464.5
368.862	494.5
369.089	454.5
369.315	449.5
369.541	442.5
369.767	434.5
369.993	453.5
370.219	464.5
370.445	452.5
370.672	455.5
370.898	460.5
371.124	437.5
371.35	456.5
371.576	453.5
371.802	451.5
372.028	455.5
372.254	471.5
372.48	440.5
372.706	467.5
372.932	471.5
373.158	455.5
373.384	454.5
373.61	461.5
373.835	468.5
374.061	470.5
374.287	450.5
374.513	452.5
374.739	480.5
374.965	505.5
375.191	467.5
375.416	487.5
375.642	446.5
375.868	447.5
376.094	471.5
376.319	466.5
376.545	452.5
376.771	447.5
376.997	467.5
377.222	454.5
377.448	477.5
377.674	459.5
377.899	454.5
378.125	471.5
378.35	426.5
378.576	464.5
378.802	462.5
379.027	443.5
379.253	450.5
379.478	476.5
379.704	427.5
379.929	458.5
380.155	438.5
380.38	459.5
380.606	461.5
380.831	464.5
381.057	456.5
381.282	451.5
381.507	450.5
381.733	467.5
381.958	476.5
382.184	458.5
382.409	479.5
382.634	481.5
382.86	466.5
383.085	487.5
383.31	473.5
383.535	478.5
383.761	496.5
383.986	489.5
384.211	463.5
384.436	504.5
384.662	493.5
384.887	492.5
385.112	479.5
385.337	495.5
385.562	505.5
385.787	502.5
386.013	508.5
386.238	521.5
386.463	535.5
386.688	507.5
386.913	518.5
387.138	518.5
387.363	500.5
387.588	518.5
387.813	517.5
388.038	497.5
388.263	527.5
388.488	514.5
388.713	518.5
388.938	513.5
389.163	500.5
389.387	534.5
389.612	500.5
389.837	494.5
390.062	514.5
390.287	510.5
390.512	506.5
390.736	513.5
390.961	524.5
391.186	517.5
391.411	540.5
391.636	539.5
391.86	547.5
392.085	535.5
392.31	521.5
392.534	537.5
392.759	519.5
392.984	510.5
393.208	533.5
393.433	530.5
393.658	513.5
393.882	516.5
394.107	513.5
394.331	523.5
394.556	542.5
394.78	531.5
395.005	542.5
395.229	536.5
395.454	536.5
395.678	555.5
395.903	574.5
396.127	574.5
396.352	554.5
396.576	551.5
396.801	518.5
397.025	536.5
397.249	553.5
397.474	549.5
397.698	549.5
397.922	568.5
398.147	568.5
398.371	600.5
398.595	581.5
398.82	599.5
399.044	645.5
399.268	618.5
399.492	670.5
399.717	721.5
399.941	762.5
400.165	791.5
400.389	784.5
400.613	697.5
400.837	651.5
401.062	625.5
401.286	608.5
401.51	601.5
401.734	610.5
401.958	602.5
402.182	614.5
402.406	593.5
402.63	634.5
402.854	613.5
403.078	606.5
403.302	633.5
403.526	625.5
403.75	637.5
403.974	635.5
404.198	638.5
404.422	626.5
404.645	654.5
404.869	655.5
405.093	683.5
405.317	707.5
405.541	713.5
405.765	693.5
405.988	642.5
406.212	647.5
406.436	697.5
406.66	684.5
406.883	723.5
407.107	702.5
407.331	730.5
407.555	816.5
407.778	814.5
408.002	766.5
408.226	727.5
408.449	699.5
408.673	661.5
408.896	696.5
409.12	786.5
409.344	734.5
409.567	663.5
409.791	662.5
410.014	660.5
410.238	623.5
410.461	611.5
410.685	617.5
410.908	634.5
411.132	672.5
411.355	703.5
411.578	666.5
411.802	645.5
412.025	628.5
412.249	664.5
412.472	674.5
412.695	696.5
412.919	672.5
413.142	648.5
413.365	638.5
413.589	630.5
413.812	591.5
414.035	613.5
414.258	608.5
414.482	612.5
414.705	578.5
414.928	599.5
415.151	594.5
415.374	607.5
415.597	578.5
415.821	570.5
416.044	576.5
416.267	591.5
416.49	566.5
416.713	594.5
416.936	578.5
417.159	577.5
417.382	606.5
417.605	586.5
417.828	602.5
418.051	616.5
418.274	600.5
418.497	581.5
418.72	584.5
418.943	579.5
419.166	626.5
419.389	649.5
419.611	648.5
419.834	636.5
420.057	631.5
420.28	630.5
420.503	623.5
420.726	628.5
420.948	626.5
421.171	662.5
421.394	713.5
421.617	630.5
421.839	632.5
422.062	633.5
422.285	623.5
422.507	696.5
422.73	742.5
422.953	724.5
423.175	660.5
423.398	635.5
423.621	624.5
423.843	682.5
424.066	683.5
424.288	669.5
424.511	666.5
424.733	731.5
424.956	826.5
425.178	780.5
425.401	752.5
425.623	792.5
425.846	690.5
426.068	636.5
426.291	656.5
426.513	658.5
426.735	655.5
426.958	690.5
427.18	744.5
427.402	900.5
427.625	976.5
427.847	834.5
428.069	746.5
428.292	702.5
428.514	639.5
428.736	627.5
428.958	606.5
429.181	605.5
429.403	594.5
429.625	613.5
429.847	620.5
430.069	714.5
430.292	689.5
430.514	590.5
430.736	576.5
430.958	584.5
431.18	591.5
431.402	586.5
431.624	578.5
431.846	583.5
432.068	580.5
432.29	566.5
432.512	574.5
432.734	584.5
432.956	563.5
433.178	598.5
433.4	598.5
433.622	570.5
433.844	581.5
434.066	569.5
434.287	586.5
434.509	580.5
434.731	576.5
434.953	612.5
435.175	623.5
435.397	640.5
435.618	631.5
435.84	682.5
436.062	790.5
436.284	844.5
436.505	705.5
436.727	662.5
436.949	626.5
437.17	603.5
437.392	593.5
437.614	616.5
437.835	638.5
438.057	736.5
438.278	832.5
438.5	836.5
438.721	916.5
438.943	857.5
439.165	710.5
439.386	626.5
439.608	670.5
439.829	632.5
440.05	651.5
440.272	711.5
440.493	652.5
440.715	658.5
440.936	628.5
441.158	595.5
441.379	607.5
441.6	618.5
441.822	624.5
442.043	704.5
442.264	760.5
442.486	824.5
442.707	708.5
442.928	672.5
443.149	667.5
443.371	685.5
443.592	753.5
443.813	822.5
444.034	879.5
444.255	779.5
444.476	712.5
444.698	690.5
444.919	678.5
445.14	764.5
445.361	723.5
445.582	707.5
445.803	754.5
446.024	858.5
446.245	854.5
446.466	817.5
446.687	712.5
446.908	636.5
447.129	597.5
447.35	628.5
447.571	571.5
447.792	591.5
448.013	599.5
448.234	584.5
448.455	638.5
448.675	763.5
448.896	888.5
449.117	762.5
449.338	720.5
449.559	830.5
449.779	946.5
450	752.5
450.221	635.5
450.442	592.5
450.662	569.5
450.883	578.5
451.104	584.5
451.324	563.5
451.545	580.5
451.766	564.5
451.986	540.5
452.207	532.5
452.428	531.5
452.648	527.5
452.869	504.5
453.089	534.5
453.31	547.5
453.53	546.5
453.751	520.5
453.971	516.5
454.192	521.5
454.412	557.5
454.633	522.5
454.853	520.5
455.073	517.5
455.294	537.5
455.514	616.5
455.734	625.5
455.955	544.5
456.175	505.5
456.395	499.5
456.616	497.5
456.836	522.5
457.056	512.5
457.276	500.5
457.497	479.5
457.717	494.5
457.937	500.5
458.157	520.5
458.377	532.5
458.598	556.5
458.818	565.5
459.038	646.5
459.258	697.5
459.478	623.5
459.698	588.5
459.918	576.5
460.138	570.5
460.358	584.5
460.578	584.5
460.798	580.5
461.018	607.5
461.238	599.5
461.458	608.5
461.678	597.5
461.898	612.5
462.118	621.5
462.338	626.5
462.558	634.5
462.777	631.5
462.997	652.5
463.217	681.5
463.437	691.5
463.657	648.5
463.876	644.5
464.096	643.5
464.316	640.5
464.536	632.5
464.755	636.5
464.975	647.5
465.195	637.5
465.414	680.5
465.634	650.5
465.854	622.5
466.073	576.5
466.293	566.5
466.512	574.5
466.732	547.5
466.951	563.5
467.171	555.5
467.391	569.5
467.61	560.5
467.829	579.5
468.049	564.5
468.268	555.5
468.488	572.5
468.707	552.5
468.927	525.5
469.146	538.5
469.365	524.5
469.585	536.5
469.804	555.5
470.023	543.5
470.243	572.5
470.462	568.5
470.681	568.5
470.901	565.5
471.12	566.5
471.339	559.5
471.558	557.5
471.777	562.5
471.997	547.5
472.216	546.5
472.435	562.5
472.654	579.5
472.873	554.5
473.092	538.5
473.311	550.5
473.53	561.5
473.749	560.5
473.968	568.5
474.187	711.5
474.406	721.5
474.625	608.5
474.844	594.5
475.063	555.5
475.282	563.5
475.501	575.5
475.72	563.5
475.939	568.5
476.158	588.5
476.377	575.5
476.596	569.5
476.814	574.5
477.033	595.5
477.252	581.5
477.471	593.5
477.69	602.5
477.908	581.5
478.127	619.5
478.346	603.5
478.564	643.5
478.783	626.5
479.002	646.5
479.22	649.5
479.439	671.5
479.658	672.5
479.876	697.5
480.095	693.5
480.313	702.5
480.532	686.5
480.751	695.5
480.969	717.5
481.188	699.5
481.406	759.5
481.624	726.5
481.843	661.5
482.061	649.5
482.28	641.5
482.498	677.5
482.717	631.5
482.935	640.5
483.153	652.5
483.372	651.5
483.59	681.5
483.808	648.5
484.027	628.5
484.245	631.5
484.463	676.5
484.681	664.5
484.9	659.5
485.118	681.5
485.336	665.5
485.554	667.5
485.772	660.5
485.99	663.5
486.209	699.5
486.427	683.5
486.645	666.5
486.863	684.5
487.081	715.5
487.299	679.5
487.517	666.5
487.735	679.5
487.953	714.5
488.171	714.5
488.389	724.5
488.607	716.5
488.825	697.5
489.043	707.5
489.261	706.5
489.479	717.5
489.696	691.5
489.914	721.5
490.132	732.5
490.35	715.5
490.568	726.5
490.786	747.5
491.003	747.5
491.221	778.5
491.439	792.5
491.657	808.5
491.874	799.5
492.092	812.5
492.31	799.5
492.527	811.5
492.745	823.5
492.963	822.5
493.18	818.5
493.398	819.5
493.615	790.5
493.833	825.5
494.05	824.5
494.268	835.5
494.485	817.5
494.703	811.5
494.92	822.5
495.138	804.5
495.355	842.5
495.573	807.5
495.79	804.5
496.008	843.5
496.225	838.5
496.442	831.5
496.66	841.5
496.877	827.5
497.094	837.5
497.312	875.5
497.529	879.5
497.746	846.5
497.963	881.5
498.181	908.5
498.398	942.5
498.615	943.5
498.832	976.5
499.049	969.5
499.267	1030.5
499.484	1069.5
499.701	1100.5
499.918	1196.5
500.135	1258.5
500.352	1314.5
500.569	1377.5
500.786	1374.5
501.003	1342.5
501.22	1266.5
501.437	1200.5
501.654	1167.5
501.871	1091.5
502.088	1052.5
502.305	1050.5
502.522	982.5
502.739	963.5
502.956	962.5
503.172	905.5
503.389	875.5
503.606	883.5
503.823	859.5
504.04	857.5
504.256	863.5
504.473	843.5
504.69	865.5
504.907	870.5
505.123	837.5
505.34	801.5
505.557	794.5
505.773	832.5
505.99	790.5
506.207	780.5
506.423	792.5
506.64	790.5
506.856	741.5
507.073	750.5
507.289	768.5
507.506	747.5
507.722	750.5
507.939	743.5
508.155	764.5
508.372	743.5
508.588	732.5
508.805	690.5
509.021	712.5
509.238	754.5
509.454	734.5
509.67	734.5
509.887	731.5
510.103	710.5
510.319	711.5
510.536	774.5
510.752	1109.5
510.968	994.5
511.184	726.5
511.401	702.5
511.617	695.5
511.833	693.5
512.049	724.5
512.265	698.5
512.481	672.5
512.698	662.5
512.914	698.5
513.13	702.5
513.346	667.5
513.562	700.5
513.778	679.5
513.994	698.5
514.21	682.5
514.426	718.5
514.642	723.5
514.858	764.5
515.074	752.5
515.29	851.5
515.506	1139.5
515.721	992.5
515.937	789.5
516.153	749.5
516.369	726.5
516.585	731.5
516.801	700.5
517.016	693.5
517.232	726.5
517.448	743.5
517.664	751.5
517.879	747.5
518.095	759.5
518.311	751.5
518.527	719.5
518.742	728.5
518.958	722.5
519.173	720.5
519.389	689.5
