Data from 1974.PennyLincolnUp.Lamp.En5.5.200Scan.071719.P1.Changed Mount._HRD10591_15-52-22-856.txt Node
Date: Thu Jul 18 15:52:22 EDT 2019
User: cochatt
Spectrometer: HR+D1059
Trigger mode: 1
Integration Time (sec): 1.000000E-1
Scans to average: 1
Electric dark correction enabled: true
Nonlinearity correction enabled: false
Boxcar width: 0
XAxis mode: Wavelengths
Number of Pixels in Spectrum: 2048
>>>>>Begin Spectral Data<<<<<
223.165	-5.19
223.4	-5.19
223.635	-5.19
223.869	-19.19
224.104	-24.19
224.338	-22.19
224.573	-20.19
224.808	-17.19
225.042	-3.19
225.277	-8.19
225.511	2.81
225.746	13.81
225.98	4.81
226.215	14.81
226.449	15.81
226.683	14.81
226.918	23.81
227.152	28.81
227.387	25.81
227.621	34.81
227.856	37.81
228.09	45.81
228.324	45.81
228.559	51.81
228.793	65.81
229.027	81.81
229.262	102.81
229.496	104.81
229.73	131.81
229.964	142.81
230.199	131.81
230.433	108.81
230.667	111.81
230.901	117.81
231.136	124.81
231.37	121.81
231.604	110.81
231.838	118.81
232.072	114.81
232.306	120.81
232.541	121.81
232.775	103.81
233.009	120.81
233.243	119.81
233.477	118.81
233.711	114.81
233.945	105.81
234.179	116.81
234.413	126.81
234.647	112.81
234.881	116.81
235.115	105.81
235.349	128.81
235.583	120.81
235.817	122.81
236.051	140.81
236.285	121.81
236.519	123.81
236.753	135.81
236.987	127.81
237.221	170.81
237.455	214.81
237.689	188.81
237.922	149.81
238.156	128.81
238.39	135.81
238.624	121.81
238.858	133.81
239.091	122.81
239.325	131.81
239.559	132.81
239.793	125.81
240.027	133.81
240.26	137.81
240.494	157.81
240.728	133.81
240.961	140.81
241.195	160.81
241.429	133.81
241.662	142.81
241.896	131.81
242.13	137.81
242.363	136.81
242.597	139.81
242.83	138.81
243.064	149.81
243.298	123.81
243.531	158.81
243.765	151.81
243.998	137.81
244.232	154.81
244.465	146.81
244.699	143.81
244.932	160.81
245.166	159.81
245.399	161.81
245.633	151.81
245.866	173.81
246.099	147.81
246.333	147.81
246.566	142.81
246.8	158.81
247.033	159.81
247.266	160.81
247.5	179.81
247.733	165.81
247.966	192.81
248.2	176.81
248.433	184.81
248.666	195.81
248.899	180.81
249.133	203.81
249.366	217.81
249.599	200.81
249.832	178.81
250.066	182.81
250.299	184.81
250.532	197.81
250.765	197.81
250.998	222.81
251.231	209.81
251.465	200.81
251.698	200.81
251.931	200.81
252.164	198.81
252.397	213.81
252.63	228.81
252.863	202.81
253.096	210.81
253.329	228.81
253.562	230.81
253.795	205.81
254.028	217.81
254.261	234.81
254.494	219.81
254.727	240.81
254.96	286.81
255.193	274.81
255.426	253.81
255.659	237.81
255.892	227.81
256.124	226.81
256.357	243.81
256.59	242.81
256.823	218.81
257.056	210.81
257.289	219.81
257.521	215.81
257.754	221.81
257.987	217.81
258.22	211.81
258.452	209.81
258.685	205.81
258.918	229.81
259.151	208.81
259.383	218.81
259.616	217.81
259.849	234.81
260.081	241.81
260.314	250.81
260.547	264.81
260.779	257.81
261.012	238.81
261.244	241.81
261.477	251.81
261.71	227.81
261.942	224.81
262.175	248.81
262.407	227.81
262.64	229.81
262.872	197.81
263.105	225.81
263.337	206.81
263.57	209.81
263.802	233.81
264.035	220.81
264.267	226.81
264.499	225.81
264.732	232.81
264.964	218.81
265.197	214.81
265.429	228.81
265.661	219.81
265.894	214.81
266.126	221.81
266.358	223.81
266.591	222.81
266.823	227.81
267.055	244.81
267.287	240.81
267.52	242.81
267.752	241.81
267.984	240.81
268.216	238.81
268.448	250.81
268.681	249.81
268.913	252.81
269.145	269.81
269.377	278.81
269.609	286.81
269.841	272.81
270.073	284.81
270.306	288.81
270.538	306.81
270.77	320.81
271.002	302.81
271.234	299.81
271.466	299.81
271.698	305.81
271.93	311.81
272.162	320.81
272.394	321.81
272.626	312.81
272.858	274.81
273.09	259.81
273.322	289.81
273.553	256.81
273.785	280.81
274.017	277.81
274.249	275.81
274.481	276.81
274.713	293.81
274.945	273.81
275.176	280.81
275.408	261.81
275.64	269.81
275.872	269.81
276.104	284.81
276.335	275.81
276.567	267.81
276.799	279.81
277.031	309.81
277.262	310.81
277.494	332.81
277.726	291.81
277.957	306.81
278.189	291.81
278.421	280.81
278.652	273.81
278.884	286.81
279.115	281.81
279.347	287.81
279.579	276.81
279.81	273.81
280.042	274.81
280.273	296.81
280.505	280.81
280.736	285.81
280.968	265.81
281.199	278.81
281.431	268.81
281.662	271.81
281.894	277.81
282.125	282.81
282.356	288.81
282.588	295.81
282.819	305.81
283.051	292.81
283.282	284.81
283.513	313.81
283.745	307.81
283.976	280.81
284.207	281.81
284.439	304.81
284.67	292.81
284.901	302.81
285.132	283.81
285.364	291.81
285.595	282.81
285.826	297.81
286.057	281.81
286.288	293.81
286.52	299.81
286.751	293.81
286.982	303.81
287.213	300.81
287.444	301.81
287.675	305.81
287.906	312.81
288.138	322.81
288.369	309.81
288.6	306.81
288.831	304.81
289.062	320.81
289.293	292.81
289.524	321.81
289.755	322.81
289.986	288.81
290.217	299.81
290.448	308.81
290.679	307.81
290.91	308.81
291.141	291.81
291.371	310.81
291.602	313.81
291.833	302.81
292.064	292.81
292.295	290.81
292.526	290.81
292.757	289.81
292.987	295.81
293.218	327.81
293.449	306.81
293.68	320.81
293.91	316.81
294.141	328.81
294.372	329.81
294.603	301.81
294.833	314.81
295.064	301.81
295.295	305.81
295.525	314.81
295.756	314.81
295.987	315.81
296.217	350.81
296.448	329.81
296.679	314.81
296.909	297.81
297.14	332.81
297.37	317.81
297.601	334.81
297.831	313.81
298.062	330.81
298.292	317.81
298.523	325.81
298.753	331.81
298.984	340.81
299.214	317.81
299.445	311.81
299.675	320.81
299.905	323.81
300.136	333.81
300.366	332.81
300.597	333.81
300.827	350.81
301.057	333.81
301.288	333.81
301.518	330.81
301.748	334.81
301.979	345.81
302.209	341.81
302.439	343.81
302.669	350.81
302.9	334.81
303.13	341.81
303.36	370.81
303.59	366.81
303.82	324.81
304.051	353.81
304.281	342.81
304.511	353.81
304.741	347.81
304.971	349.81
305.201	329.81
305.431	371.81
305.661	346.81
305.891	346.81
306.121	338.81
306.352	351.81
306.582	358.81
306.812	358.81
307.042	348.81
307.272	339.81
307.502	346.81
307.731	350.81
307.961	337.81
308.191	355.81
308.421	376.81
308.651	352.81
308.881	351.81
309.111	358.81
309.341	365.81
309.571	365.81
309.8	368.81
310.03	380.81
310.26	368.81
310.49	364.81
310.72	376.81
310.949	392.81
311.179	408.81
311.409	368.81
311.639	402.81
311.868	382.81
312.098	383.81
312.328	396.81
312.557	408.81
312.787	406.81
313.017	406.81
313.246	391.81
313.476	394.81
313.706	388.81
313.935	377.81
314.165	386.81
314.394	400.81
314.624	409.81
314.853	406.81
315.083	389.81
315.312	392.81
315.542	391.81
315.771	399.81
316.001	368.81
316.23	375.81
316.46	372.81
316.689	374.81
316.919	379.81
317.148	392.81
317.377	392.81
317.607	381.81
317.836	387.81
318.065	388.81
318.295	384.81
318.524	377.81
318.753	374.81
318.983	406.81
319.212	379.81
319.441	382.81
319.67	389.81
319.9	384.81
320.129	392.81
320.358	382.81
320.587	384.81
320.816	374.81
321.046	401.81
321.275	405.81
321.504	407.81
321.733	412.81
321.962	413.81
322.191	434.81
322.42	436.81
322.649	412.81
322.878	436.81
323.108	424.81
323.337	454.81
323.566	473.81
323.795	496.81
324.024	536.81
324.253	600.81
324.482	786.81
324.71	1149.81
324.939	1730.81
325.168	1550.81
325.397	802.81
325.626	571.81
325.855	517.81
326.084	482.81
326.313	481.81
326.542	473.81
326.77	499.81
326.999	569.81
327.228	731.81
327.457	1091.81
327.686	1344.81
327.914	908.81
328.143	610.81
328.372	574.81
328.6	534.81
328.829	528.81
329.058	526.81
329.287	536.81
329.515	510.81
329.744	487.81
329.972	496.81
330.201	506.81
330.43	531.81
330.658	530.81
330.887	555.81
331.115	569.81
331.344	499.81
331.572	489.81
331.801	473.81
332.03	501.81
332.258	480.81
332.486	450.81
332.715	466.81
332.943	458.81
333.172	462.81
333.4	477.81
333.629	500.81
333.857	484.81
334.085	508.81
334.314	524.81
334.542	537.81
334.771	547.81
334.999	511.81
335.227	465.81
335.455	501.81
335.684	485.81
335.912	469.81
336.14	474.81
336.369	469.81
336.597	493.81
336.825	471.81
337.053	480.81
337.281	430.81
337.51	448.81
337.738	470.81
337.966	475.81
338.194	470.81
338.422	468.81
338.65	440.81
338.878	442.81
339.106	450.81
339.334	457.81
339.562	455.81
339.79	462.81
340.018	469.81
340.246	442.81
340.474	441.81
340.702	435.81
340.93	425.81
341.158	450.81
341.386	439.81
341.614	440.81
341.842	432.81
342.07	433.81
342.298	449.81
342.526	427.81
342.754	436.81
342.981	434.81
343.209	453.81
343.437	459.81
343.665	459.81
343.893	469.81
344.12	481.81
344.348	484.81
344.576	481.81
344.804	478.81
345.031	472.81
345.259	455.81
345.487	452.81
345.714	454.81
345.942	450.81
346.17	420.81
346.397	420.81
346.625	428.81
346.853	439.81
347.08	443.81
347.308	442.81
347.535	440.81
347.763	433.81
347.99	429.81
348.218	445.81
348.445	440.81
348.673	440.81
348.9	442.81
349.128	449.81
349.355	428.81
349.583	412.81
349.81	424.81
350.037	424.81
350.265	428.81
350.492	432.81
350.72	425.81
350.947	439.81
351.174	435.81
351.402	444.81
351.629	449.81
351.856	446.81
352.083	428.81
352.311	454.81
352.538	442.81
352.765	464.81
352.992	442.81
353.22	439.81
353.447	424.81
353.674	421.81
353.901	429.81
354.128	410.81
354.355	414.81
354.583	406.81
354.81	420.81
355.037	422.81
355.264	408.81
355.491	406.81
355.718	395.81
355.945	390.81
356.172	425.81
356.399	412.81
356.626	410.81
356.853	425.81
357.08	422.81
357.307	418.81
357.534	413.81
357.761	410.81
357.988	395.81
358.215	422.81
358.441	422.81
358.668	408.81
358.895	405.81
359.122	443.81
359.349	434.81
359.576	446.81
359.802	457.81
360.029	470.81
360.256	467.81
360.483	459.81
360.709	448.81
360.936	438.81
361.163	415.81
361.39	449.81
361.616	461.81
361.843	441.81
362.07	414.81
362.296	461.81
362.523	429.81
362.749	421.81
362.976	423.81
363.203	442.81
363.429	424.81
363.656	434.81
363.882	423.81
364.109	416.81
364.335	419.81
364.562	426.81
364.788	420.81
365.015	415.81
365.241	437.81
365.468	434.81
365.694	427.81
365.92	426.81
366.147	438.81
366.373	417.81
366.599	421.81
366.826	399.81
367.052	420.81
367.278	427.81
367.505	409.81
367.731	422.81
367.957	416.81
368.184	433.81
368.41	428.81
368.636	444.81
368.862	444.81
369.089	448.81
369.315	421.81
369.541	448.81
369.767	437.81
369.993	426.81
370.219	451.81
370.445	425.81
370.672	426.81
370.898	411.81
371.124	418.81
371.35	438.81
371.576	424.81
371.802	419.81
372.028	446.81
372.254	427.81
372.48	439.81
372.706	442.81
372.932	453.81
373.158	461.81
373.384	458.81
373.61	424.81
373.835	462.81
374.061	434.81
374.287	439.81
374.513	432.81
374.739	456.81
374.965	430.81
375.191	457.81
375.416	448.81
375.642	441.81
375.868	440.81
376.094	437.81
376.319	429.81
376.545	425.81
376.771	438.81
376.997	448.81
377.222	449.81
377.448	450.81
377.674	441.81
377.899	442.81
378.125	423.81
378.35	427.81
378.576	434.81
378.802	441.81
379.027	454.81
379.253	434.81
379.478	451.81
379.704	442.81
379.929	463.81
380.155	420.81
380.38	447.81
380.606	462.81
380.831	418.81
381.057	460.81
381.282	445.81
381.507	426.81
381.733	456.81
381.958	452.81
382.184	445.81
382.409	449.81
382.634	440.81
382.86	449.81
383.085	468.81
383.31	454.81
383.535	460.81
383.761	459.81
383.986	450.81
384.211	481.81
384.436	486.81
384.662	473.81
384.887	482.81
385.112	469.81
385.337	481.81
385.562	487.81
385.787	476.81
386.013	512.81
386.238	509.81
386.463	508.81
386.688	492.81
386.913	500.81
387.138	498.81
387.363	476.81
387.588	476.81
387.813	484.81
388.038	498.81
388.263	515.81
388.488	490.81
388.713	503.81
388.938	502.81
389.163	500.81
389.387	490.81
389.612	486.81
389.837	497.81
390.062	501.81
390.287	475.81
390.512	489.81
390.736	496.81
390.961	467.81
391.186	490.81
391.411	497.81
391.636	501.81
391.86	518.81
392.085	507.81
392.31	528.81
392.534	507.81
392.759	512.81
392.984	515.81
393.208	488.81
393.433	500.81
393.658	494.81
393.882	509.81
394.107	506.81
394.331	516.81
394.556	506.81
394.78	514.81
395.005	522.81
395.229	512.81
395.454	511.81
395.678	500.81
395.903	538.81
396.127	546.81
396.352	542.81
396.576	526.81
396.801	529.81
397.025	526.81
397.249	542.81
397.474	546.81
397.698	524.81
397.922	520.81
398.147	568.81
398.371	549.81
398.595	573.81
398.82	577.81
399.044	595.81
399.268	619.81
399.492	662.81
399.717	679.81
399.941	704.81
400.165	732.81
400.389	708.81
400.613	657.81
400.837	597.81
401.062	611.81
401.286	582.81
401.51	580.81
401.734	587.81
401.958	560.81
402.182	567.81
402.406	565.81
402.63	574.81
402.854	588.81
403.078	593.81
403.302	579.81
403.526	625.81
403.75	613.81
403.974	603.81
404.198	585.81
404.422	613.81
404.645	590.81
404.869	610.81
405.093	636.81
405.317	673.81
405.541	730.81
405.765	650.81
405.988	616.81
406.212	645.81
406.436	644.81
406.66	663.81
406.883	649.81
407.107	685.81
407.331	693.81
407.555	783.81
407.778	788.81
408.002	716.81
408.226	664.81
408.449	651.81
408.673	650.81
408.896	700.81
409.12	704.81
409.344	673.81
409.567	639.81
409.791	626.81
410.014	577.81
410.238	582.81
410.461	596.81
410.685	610.81
410.908	607.81
411.132	621.81
411.355	673.81
411.578	653.81
411.802	609.81
412.025	603.81
412.249	599.81
412.472	622.81
412.695	665.81
412.919	637.81
413.142	624.81
413.365	586.81
413.589	572.81
413.812	576.81
414.035	589.81
414.258	577.81
414.482	574.81
414.705	572.81
414.928	587.81
415.151	567.81
415.374	564.81
415.597	550.81
415.821	571.81
416.044	581.81
416.267	579.81
416.49	578.81
416.713	573.81
416.936	547.81
417.159	579.81
417.382	561.81
417.605	551.81
417.828	593.81
418.051	600.81
418.274	585.81
418.497	562.81
418.72	585.81
418.943	572.81
419.166	608.81
419.389	614.81
419.611	607.81
419.834	628.81
420.057	617.81
420.28	591.81
420.503	575.81
420.726	585.81
420.948	608.81
421.171	661.81
421.394	670.81
421.617	588.81
421.839	590.81
422.062	589.81
422.285	621.81
422.507	644.81
422.73	722.81
422.953	724.81
423.175	628.81
423.398	609.81
423.621	632.81
423.843	629.81
424.066	654.81
424.288	642.81
424.511	659.81
424.733	700.81
424.956	780.81
425.178	772.81
425.401	704.81
425.623	748.81
425.846	677.81
426.068	615.81
426.291	605.81
426.513	591.81
426.735	620.81
426.958	644.81
427.18	713.81
427.402	838.81
427.625	925.81
427.847	811.81
428.069	718.81
428.292	635.81
428.514	596.81
428.736	583.81
428.958	604.81
429.181	575.81
429.403	581.81
429.625	581.81
429.847	587.81
430.069	676.81
430.292	658.81
430.514	604.81
430.736	567.81
430.958	543.81
431.18	565.81
431.402	562.81
431.624	552.81
431.846	555.81
432.068	540.81
432.29	555.81
432.512	520.81
432.734	560.81
432.956	531.81
433.178	561.81
433.4	548.81
433.622	559.81
433.844	563.81
434.066	537.81
434.287	545.81
434.509	564.81
434.731	557.81
434.953	569.81
435.175	579.81
435.397	605.81
435.618	622.81
435.84	653.81
436.062	748.81
436.284	805.81
436.505	676.81
436.727	629.81
436.949	567.81
437.17	570.81
437.392	608.81
437.614	595.81
437.835	579.81
438.057	684.81
438.278	810.81
438.5	801.81
438.721	862.81
438.943	867.81
439.165	693.81
439.386	624.81
439.608	620.81
439.829	604.81
440.05	620.81
440.272	690.81
440.493	640.81
440.715	615.81
440.936	579.81
441.158	587.81
441.379	604.81
441.6	571.81
441.822	629.81
442.043	654.81
442.264	745.81
442.486	813.81
442.707	677.81
442.928	648.81
443.149	632.81
443.371	674.81
443.592	694.81
443.813	796.81
444.034	865.81
444.255	737.81
444.476	650.81
444.698	658.81
444.919	672.81
445.14	737.81
445.361	689.81
445.582	669.81
445.803	695.81
446.024	793.81
446.245	812.81
446.466	738.81
446.687	685.81
446.908	634.81
447.129	578.81
447.35	571.81
447.571	577.81
447.792	561.81
448.013	589.81
448.234	561.81
448.455	614.81
448.675	728.81
448.896	864.81
449.117	727.81
449.338	691.81
449.559	774.81
449.779	891.81
450	709.81
450.221	606.81
450.442	567.81
450.662	534.81
450.883	533.81
451.104	568.81
451.324	541.81
451.545	539.81
451.766	526.81
451.986	531.81
452.207	517.81
452.428	518.81
452.648	509.81
452.869	510.81
453.089	517.81
453.31	521.81
453.53	510.81
453.751	482.81
453.971	504.81
454.192	508.81
454.412	513.81
454.633	504.81
454.853	508.81
455.073	512.81
455.294	521.81
455.514	583.81
455.734	586.81
455.955	525.81
456.175	492.81
456.395	491.81
456.616	486.81
456.836	476.81
457.056	499.81
457.276	488.81
457.497	506.81
457.717	493.81
457.937	491.81
458.157	501.81
458.377	512.81
458.598	524.81
458.818	568.81
459.038	641.81
459.258	657.81
459.478	589.81
459.698	549.81
459.918	531.81
460.138	535.81
460.358	570.81
460.578	555.81
460.798	578.81
461.018	578.81
461.238	556.81
461.458	574.81
461.678	566.81
461.898	574.81
462.118	567.81
462.338	588.81
462.558	579.81
462.777	609.81
462.997	642.81
463.217	661.81
463.437	647.81
463.657	645.81
463.876	614.81
464.096	641.81
464.316	629.81
464.536	627.81
464.755	602.81
464.975	618.81
465.195	638.81
465.414	664.81
465.634	631.81
465.854	567.81
466.073	593.81
466.293	550.81
466.512	530.81
466.732	529.81
466.951	551.81
467.171	532.81
467.391	540.81
467.61	528.81
467.829	523.81
468.049	552.81
468.268	526.81
468.488	532.81
468.707	534.81
468.927	524.81
469.146	520.81
469.365	505.81
469.585	492.81
469.804	508.81
470.023	561.81
470.243	526.81
470.462	545.81
470.681	530.81
470.901	541.81
471.12	545.81
471.339	558.81
471.558	560.81
471.777	540.81
471.997	520.81
472.216	529.81
472.435	556.81
472.654	518.81
472.873	522.81
473.092	525.81
473.311	526.81
473.53	526.81
473.749	533.81
473.968	594.81
474.187	663.81
474.406	685.81
474.625	585.81
474.844	538.81
475.063	538.81
475.282	523.81
475.501	550.81
475.72	534.81
475.939	531.81
476.158	538.81
476.377	526.81
476.596	548.81
476.814	560.81
477.033	563.81
477.252	546.81
477.471	555.81
477.69	573.81
477.908	582.81
478.127	587.81
478.346	599.81
478.564	617.81
478.783	596.81
479.002	611.81
479.22	609.81
479.439	611.81
479.658	629.81
479.876	646.81
480.095	652.81
480.313	696.81
480.532	669.81
480.751	694.81
480.969	656.81
481.188	693.81
481.406	715.81
481.624	673.81
481.843	641.81
482.061	635.81
482.28	611.81
482.498	619.81
482.717	615.81
482.935	611.81
483.153	616.81
483.372	626.81
483.59	615.81
483.808	606.81
484.027	634.81
484.245	632.81
484.463	634.81
484.681	665.81
484.9	613.81
485.118	628.81
485.336	639.81
485.554	623.81
485.772	638.81
485.99	622.81
486.209	663.81
486.427	653.81
486.645	652.81
486.863	649.81
487.081	673.81
487.299	666.81
487.517	681.81
487.735	661.81
487.953	684.81
488.171	670.81
488.389	642.81
488.607	665.81
488.825	679.81
489.043	648.81
489.261	691.81
489.479	684.81
489.696	658.81
489.914	701.81
490.132	688.81
490.35	696.81
490.568	734.81
490.786	722.81
491.003	728.81
491.221	739.81
491.439	714.81
491.657	743.81
491.874	772.81
492.092	768.81
492.31	767.81
492.527	789.81
492.745	735.81
492.963	757.81
493.18	772.81
493.398	805.81
493.615	795.81
493.833	776.81
494.05	826.81
494.268	773.81
494.485	772.81
494.703	798.81
494.92	792.81
495.138	774.81
495.355	819.81
495.573	779.81
495.79	797.81
496.008	782.81
496.225	796.81
496.442	792.81
496.66	802.81
496.877	827.81
497.094	799.81
497.312	840.81
497.529	846.81
497.746	842.81
497.963	837.81
498.181	864.81
498.398	871.81
498.615	895.81
498.832	951.81
499.049	965.81
499.267	1000.81
499.484	1040.81
499.701	1044.81
499.918	1116.81
500.135	1167.81
500.352	1229.81
500.569	1255.81
500.786	1321.81
501.003	1243.81
501.22	1214.81
501.437	1151.81
501.654	1078.81
