Data from 1974.PennyLincolnUp.Lamp.En5.5.200Scan.071719.P1.Changed Mount._HRD10591_15-52-14-856.txt Node
Date: Thu Jul 18 15:52:14 EDT 2019
User: cochatt
Spectrometer: HR+D1059
Trigger mode: 1
Integration Time (sec): 1.000000E-1
Scans to average: 1
Electric dark correction enabled: true
Nonlinearity correction enabled: false
Boxcar width: 0
XAxis mode: Wavelengths
Number of Pixels in Spectrum: 2048
>>>>>Begin Spectral Data<<<<<
223.165	-21.5
223.4	-21.5
223.635	-21.5
223.869	-19.5
224.104	-14.5
224.338	-11.5
224.573	-2.5
224.808	-9.5
225.042	-0.5
225.277	1.5
225.511	-10.5
225.746	5.5
225.98	5.5
226.215	-2.5
226.449	5.5
226.683	15.5
226.918	29.5
227.152	29.5
227.387	21.5
227.621	39.5
227.856	39.5
228.09	41.5
228.324	37.5
228.559	46.5
228.793	53.5
229.027	81.5
229.262	89.5
229.496	116.5
229.73	125.5
229.964	147.5
230.199	110.5
230.433	129.5
230.667	114.5
230.901	114.5
231.136	100.5
231.37	105.5
231.604	109.5
231.838	107.5
232.072	109.5
232.306	111.5
232.541	118.5
232.775	97.5
233.009	109.5
233.243	123.5
233.477	116.5
233.711	104.5
233.945	124.5
234.179	128.5
234.413	120.5
234.647	121.5
234.881	120.5
235.115	123.5
235.349	114.5
235.583	120.5
235.817	106.5
236.051	126.5
236.285	123.5
236.519	130.5
236.753	134.5
236.987	122.5
237.221	182.5
237.455	217.5
237.689	178.5
237.922	132.5
238.156	135.5
238.39	130.5
238.624	137.5
238.858	103.5
239.091	118.5
239.325	120.5
239.559	142.5
239.793	119.5
240.027	138.5
240.26	142.5
240.494	155.5
240.728	148.5
240.961	166.5
241.195	147.5
241.429	136.5
241.662	133.5
241.896	135.5
242.13	122.5
242.363	131.5
242.597	135.5
242.83	148.5
243.064	143.5
243.298	133.5
243.531	137.5
243.765	152.5
243.998	142.5
244.232	149.5
244.465	154.5
244.699	144.5
244.932	139.5
245.166	137.5
245.399	147.5
245.633	162.5
245.866	135.5
246.099	167.5
246.333	160.5
246.566	162.5
246.8	162.5
247.033	151.5
247.266	152.5
247.5	159.5
247.733	171.5
247.966	177.5
248.2	171.5
248.433	177.5
248.666	168.5
248.899	170.5
249.133	186.5
249.366	208.5
249.599	184.5
249.832	179.5
250.066	176.5
250.299	187.5
250.532	191.5
250.765	193.5
250.998	200.5
251.231	218.5
251.465	209.5
251.698	197.5
251.931	186.5
252.164	212.5
252.397	190.5
252.63	217.5
252.863	208.5
253.096	205.5
253.329	234.5
253.562	232.5
253.795	222.5
254.028	206.5
254.261	228.5
254.494	232.5
254.727	250.5
254.96	280.5
255.193	262.5
255.426	262.5
255.659	221.5
255.892	222.5
256.124	231.5
256.357	219.5
256.59	230.5
256.823	215.5
257.056	223.5
257.289	221.5
257.521	208.5
257.754	217.5
257.987	220.5
258.22	204.5
258.452	196.5
258.685	228.5
258.918	219.5
259.151	215.5
259.383	213.5
259.616	217.5
259.849	232.5
260.081	228.5
260.314	232.5
260.547	243.5
260.779	231.5
261.012	238.5
261.244	229.5
261.477	230.5
261.71	229.5
261.942	226.5
262.175	224.5
262.407	215.5
262.64	223.5
262.872	217.5
263.105	214.5
263.337	217.5
263.57	233.5
263.802	225.5
264.035	229.5
264.267	224.5
264.499	200.5
264.732	246.5
264.964	221.5
265.197	225.5
265.429	214.5
265.661	213.5
265.894	215.5
266.126	231.5
266.358	212.5
266.591	213.5
266.823	223.5
267.055	212.5
267.287	240.5
267.52	222.5
267.752	265.5
267.984	213.5
268.216	235.5
268.448	247.5
268.681	237.5
268.913	257.5
269.145	245.5
269.377	282.5
269.609	278.5
269.841	280.5
270.073	268.5
270.306	291.5
270.538	313.5
270.77	305.5
271.002	290.5
271.234	280.5
271.466	285.5
271.698	305.5
271.93	307.5
272.162	301.5
272.394	298.5
272.626	313.5
272.858	283.5
273.09	299.5
273.322	275.5
273.553	258.5
273.785	276.5
274.017	272.5
274.249	273.5
274.481	277.5
274.713	263.5
274.945	268.5
275.176	264.5
275.408	277.5
275.64	270.5
275.872	272.5
276.104	262.5
276.335	278.5
276.567	288.5
276.799	297.5
277.031	320.5
277.262	314.5
277.494	325.5
277.726	312.5
277.957	301.5
278.189	276.5
278.421	283.5
278.652	295.5
278.884	259.5
279.115	285.5
279.347	267.5
279.579	266.5
279.81	272.5
280.042	267.5
280.273	263.5
280.505	273.5
280.736	285.5
280.968	288.5
281.199	259.5
281.431	272.5
281.662	293.5
281.894	289.5
282.125	273.5
282.356	287.5
282.588	308.5
282.819	299.5
283.051	265.5
283.282	267.5
283.513	290.5
283.745	282.5
283.976	279.5
284.207	286.5
284.439	315.5
284.67	308.5
284.901	295.5
285.132	289.5
285.364	289.5
285.595	287.5
285.826	305.5
286.057	295.5
286.288	294.5
286.52	279.5
286.751	281.5
286.982	294.5
287.213	291.5
287.444	291.5
287.675	304.5
287.906	315.5
288.138	309.5
288.369	314.5
288.6	316.5
288.831	294.5
289.062	301.5
289.293	289.5
289.524	288.5
289.755	319.5
289.986	296.5
290.217	302.5
290.448	310.5
290.679	295.5
290.91	305.5
291.141	305.5
291.371	286.5
291.602	294.5
291.833	307.5
292.064	305.5
292.295	310.5
292.526	300.5
292.757	298.5
292.987	295.5
293.218	301.5
293.449	310.5
293.68	308.5
293.91	305.5
294.141	304.5
294.372	317.5
294.603	302.5
294.833	310.5
295.064	282.5
295.295	289.5
295.525	304.5
295.756	315.5
295.987	334.5
296.217	312.5
296.448	337.5
296.679	335.5
296.909	314.5
297.14	309.5
297.37	294.5
297.601	318.5
297.831	314.5
298.062	315.5
298.292	326.5
298.523	321.5
298.753	308.5
298.984	332.5
299.214	323.5
299.445	315.5
299.675	327.5
299.905	327.5
300.136	324.5
300.366	306.5
300.597	326.5
300.827	344.5
301.057	308.5
301.288	342.5
301.518	339.5
301.748	338.5
301.979	338.5
302.209	341.5
302.439	321.5
302.669	337.5
302.9	330.5
303.13	341.5
303.36	333.5
303.59	340.5
303.82	373.5
304.051	329.5
304.281	350.5
304.511	338.5
304.741	336.5
304.971	353.5
305.201	339.5
305.431	347.5
305.661	336.5
305.891	339.5
306.121	344.5
306.352	326.5
306.582	351.5
306.812	334.5
307.042	350.5
307.272	346.5
307.502	326.5
307.731	346.5
307.961	354.5
308.191	328.5
308.421	327.5
308.651	333.5
308.881	335.5
309.111	360.5
309.341	347.5
309.571	338.5
309.8	351.5
310.03	355.5
310.26	376.5
310.49	373.5
310.72	390.5
310.949	373.5
311.179	388.5
311.409	387.5
311.639	377.5
311.868	359.5
312.098	381.5
312.328	402.5
312.557	385.5
312.787	403.5
313.017	413.5
313.246	376.5
313.476	365.5
313.706	387.5
313.935	375.5
314.165	387.5
314.394	410.5
314.624	407.5
314.853	406.5
315.083	378.5
315.312	383.5
315.542	390.5
315.771	382.5
316.001	401.5
316.23	381.5
316.46	381.5
316.689	381.5
316.919	371.5
317.148	393.5
317.377	385.5
317.607	397.5
317.836	390.5
318.065	367.5
318.295	384.5
318.524	379.5
318.753	369.5
318.983	396.5
319.212	378.5
319.441	379.5
319.67	379.5
319.9	369.5
320.129	386.5
320.358	398.5
320.587	373.5
320.816	384.5
321.046	395.5
321.275	403.5
321.504	405.5
321.733	408.5
321.962	393.5
322.191	408.5
322.42	416.5
322.649	428.5
322.878	432.5
323.108	426.5
323.337	454.5
323.566	459.5
323.795	480.5
324.024	522.5
324.253	567.5
324.482	788.5
324.71	1173.5
324.939	1701.5
325.168	1503.5
325.397	794.5
325.626	584.5
325.855	505.5
326.084	467.5
326.313	476.5
326.542	468.5
326.77	500.5
326.999	566.5
327.228	705.5
327.457	1073.5
327.686	1303.5
327.914	880.5
328.143	609.5
328.372	556.5
328.6	539.5
328.829	493.5
329.058	529.5
329.287	552.5
329.515	518.5
329.744	481.5
329.972	473.5
330.201	495.5
330.43	511.5
330.658	520.5
330.887	536.5
331.115	539.5
331.344	490.5
331.572	468.5
331.801	477.5
332.03	475.5
332.258	465.5
332.486	485.5
332.715	468.5
332.943	450.5
333.172	478.5
333.4	478.5
333.629	480.5
333.857	497.5
334.085	510.5
334.314	502.5
334.542	535.5
334.771	529.5
334.999	524.5
335.227	499.5
335.455	470.5
335.684	472.5
335.912	432.5
336.14	454.5
336.369	471.5
336.597	471.5
336.825	462.5
337.053	457.5
337.281	456.5
337.51	451.5
337.738	427.5
337.966	454.5
338.194	473.5
338.422	446.5
338.65	443.5
338.878	449.5
339.106	454.5
339.334	463.5
339.562	465.5
339.79	425.5
340.018	448.5
340.246	435.5
340.474	431.5
340.702	429.5
340.93	434.5
341.158	451.5
341.386	454.5
341.614	438.5
341.842	436.5
342.07	443.5
342.298	445.5
342.526	427.5
342.754	423.5
342.981	436.5
343.209	435.5
343.437	451.5
343.665	471.5
343.893	486.5
344.12	483.5
344.348	466.5
344.576	474.5
344.804	454.5
345.031	453.5
345.259	445.5
345.487	449.5
345.714	437.5
345.942	427.5
346.17	428.5
346.397	433.5
346.625	439.5
346.853	430.5
347.08	421.5
347.308	427.5
347.535	429.5
347.763	433.5
347.99	425.5
348.218	416.5
348.445	453.5
348.673	446.5
348.9	430.5
349.128	422.5
349.355	423.5
349.583	422.5
349.81	410.5
350.037	422.5
350.265	417.5
350.492	418.5
350.72	408.5
350.947	409.5
351.174	459.5
351.402	421.5
351.629	424.5
351.856	437.5
352.083	424.5
352.311	445.5
352.538	430.5
352.765	435.5
352.992	430.5
353.22	450.5
353.447	450.5
353.674	417.5
353.901	437.5
354.128	394.5
354.355	402.5
354.583	400.5
354.81	425.5
355.037	417.5
355.264	404.5
355.491	391.5
355.718	418.5
355.945	393.5
356.172	401.5
356.399	405.5
356.626	409.5
356.853	417.5
357.08	418.5
357.307	415.5
357.534	414.5
357.761	407.5
357.988	408.5
358.215	399.5
358.441	411.5
358.668	417.5
358.895	433.5
359.122	411.5
359.349	442.5
359.576	445.5
359.802	441.5
360.029	462.5
360.256	478.5
360.483	465.5
360.709	435.5
360.936	418.5
361.163	421.5
361.39	446.5
361.616	441.5
361.843	446.5
362.07	407.5
362.296	431.5
362.523	437.5
362.749	446.5
362.976	426.5
363.203	417.5
363.429	419.5
363.656	415.5
363.882	417.5
364.109	439.5
364.335	431.5
364.562	407.5
364.788	427.5
365.015	424.5
365.241	432.5
365.468	420.5
365.694	431.5
365.92	429.5
366.147	431.5
366.373	409.5
366.599	423.5
366.826	412.5
367.052	419.5
367.278	403.5
367.505	427.5
367.731	428.5
367.957	417.5
368.184	426.5
368.41	428.5
368.636	417.5
368.862	464.5
369.089	436.5
369.315	407.5
369.541	416.5
369.767	429.5
369.993	431.5
370.219	430.5
370.445	425.5
370.672	437.5
370.898	426.5
371.124	413.5
371.35	436.5
371.576	418.5
371.802	449.5
372.028	437.5
372.254	431.5
372.48	439.5
372.706	426.5
372.932	436.5
373.158	433.5
373.384	441.5
373.61	438.5
373.835	448.5
374.061	442.5
374.287	452.5
374.513	437.5
374.739	437.5
374.965	450.5
375.191	449.5
375.416	441.5
375.642	439.5
375.868	452.5
376.094	466.5
376.319	413.5
376.545	423.5
376.771	447.5
376.997	439.5
377.222	435.5
377.448	426.5
377.674	420.5
377.899	422.5
378.125	424.5
378.35	446.5
378.576	421.5
378.802	453.5
379.027	435.5
379.253	439.5
379.478	433.5
379.704	442.5
379.929	434.5
380.155	417.5
380.38	434.5
380.606	445.5
380.831	431.5
381.057	425.5
381.282	434.5
381.507	435.5
381.733	423.5
381.958	434.5
382.184	454.5
382.409	443.5
382.634	449.5
382.86	442.5
383.085	449.5
383.31	465.5
383.535	450.5
383.761	457.5
383.986	469.5
384.211	467.5
384.436	478.5
384.662	473.5
384.887	458.5
385.112	472.5
385.337	468.5
385.562	473.5
385.787	459.5
386.013	460.5
386.238	493.5
386.463	479.5
386.688	481.5
386.913	460.5
387.138	489.5
387.363	481.5
387.588	490.5
387.813	486.5
388.038	482.5
388.263	486.5
388.488	477.5
388.713	489.5
388.938	479.5
389.163	491.5
389.387	493.5
389.612	454.5
389.837	479.5
390.062	474.5
390.287	497.5
390.512	490.5
390.736	487.5
390.961	490.5
391.186	494.5
391.411	486.5
391.636	471.5
391.86	505.5
392.085	504.5
392.31	494.5
392.534	515.5
392.759	499.5
392.984	496.5
393.208	491.5
393.433	487.5
393.658	495.5
393.882	503.5
394.107	490.5
394.331	506.5
394.556	486.5
394.78	526.5
395.005	525.5
395.229	527.5
395.454	512.5
395.678	527.5
395.903	533.5
396.127	535.5
396.352	550.5
396.576	529.5
396.801	500.5
397.025	522.5
397.249	527.5
397.474	545.5
397.698	515.5
397.922	534.5
398.147	562.5
398.371	570.5
398.595	544.5
398.82	557.5
399.044	581.5
399.268	629.5
399.492	649.5
399.717	681.5
399.941	714.5
400.165	746.5
400.389	714.5
400.613	643.5
400.837	610.5
401.062	589.5
401.286	570.5
401.51	568.5
401.734	573.5
401.958	566.5
402.182	561.5
402.406	576.5
402.63	567.5
402.854	573.5
403.078	581.5
403.302	594.5
403.526	606.5
403.75	597.5
403.974	581.5
404.198	630.5
404.422	623.5
404.645	604.5
404.869	618.5
405.093	637.5
405.317	694.5
405.541	687.5
405.765	655.5
405.988	625.5
406.212	631.5
406.436	616.5
406.66	659.5
406.883	627.5
407.107	658.5
407.331	723.5
407.555	786.5
407.778	778.5
408.002	723.5
408.226	652.5
408.449	672.5
408.673	641.5
408.896	698.5
409.12	698.5
409.344	695.5
409.567	618.5
409.791	589.5
410.014	602.5
410.238	602.5
410.461	590.5
410.685	595.5
410.908	612.5
411.132	647.5
411.355	665.5
411.578	646.5
411.802	597.5
412.025	578.5
412.249	611.5
412.472	612.5
412.695	642.5
412.919	657.5
413.142	608.5
413.365	583.5
413.589	581.5
413.812	563.5
414.035	553.5
414.258	573.5
414.482	579.5
414.705	566.5
414.928	570.5
415.151	568.5
415.374	561.5
415.597	574.5
415.821	561.5
416.044	541.5
416.267	563.5
416.49	562.5
416.713	573.5
416.936	536.5
417.159	545.5
417.382	564.5
417.605	577.5
417.828	587.5
418.051	592.5
418.274	560.5
418.497	544.5
418.72	558.5
418.943	537.5
419.166	595.5
419.389	600.5
419.611	617.5
419.834	586.5
420.057	605.5
420.28	588.5
420.503	576.5
420.726	598.5
420.948	592.5
421.171	612.5
421.394	651.5
421.617	609.5
421.839	573.5
422.062	593.5
422.285	576.5
422.507	654.5
422.73	740.5
422.953	704.5
423.175	634.5
423.398	618.5
423.621	627.5
423.843	627.5
424.066	638.5
424.288	623.5
424.511	626.5
424.733	675.5
424.956	766.5
425.178	727.5
425.401	728.5
425.623	736.5
425.846	685.5
426.068	636.5
426.291	619.5
426.513	611.5
426.735	609.5
426.958	640.5
427.18	749.5
427.402	879.5
427.625	927.5
427.847	789.5
428.069	714.5
428.292	655.5
428.514	609.5
428.736	593.5
428.958	563.5
429.181	563.5
429.403	563.5
429.625	564.5
429.847	585.5
430.069	667.5
430.292	682.5
430.514	591.5
430.736	581.5
430.958	554.5
431.18	567.5
431.402	558.5
431.624	557.5
431.846	546.5
432.068	557.5
432.29	563.5
432.512	541.5
432.734	546.5
432.956	552.5
433.178	551.5
433.4	563.5
433.622	549.5
433.844	521.5
434.066	533.5
434.287	523.5
434.509	575.5
434.731	555.5
434.953	567.5
435.175	591.5
435.397	598.5
435.618	601.5
435.84	639.5
436.062	718.5
436.284	811.5
436.505	697.5
436.727	631.5
436.949	574.5
437.17	577.5
437.392	570.5
437.614	570.5
437.835	583.5
438.057	680.5
438.278	809.5
438.5	796.5
438.721	852.5
438.943	835.5
439.165	657.5
439.386	600.5
439.608	615.5
439.829	603.5
440.05	639.5
440.272	683.5
440.493	644.5
440.715	597.5
440.936	569.5
441.158	585.5
441.379	591.5
441.6	582.5
441.822	609.5
442.043	623.5
442.264	725.5
442.486	795.5
442.707	679.5
442.928	634.5
443.149	623.5
443.371	641.5
443.592	674.5
443.813	773.5
444.034	863.5
444.255	716.5
444.476	645.5
444.698	647.5
444.919	638.5
445.14	724.5
445.361	694.5
445.582	645.5
445.803	721.5
446.024	806.5
446.245	799.5
446.466	715.5
446.687	655.5
446.908	602.5
447.129	576.5
447.35	560.5
447.571	559.5
447.792	550.5
448.013	541.5
448.234	585.5
448.455	594.5
448.675	734.5
448.896	851.5
449.117	720.5
449.338	687.5
449.559	791.5
449.779	896.5
450	725.5
450.221	609.5
450.442	576.5
450.662	542.5
450.883	531.5
451.104	545.5
451.324	555.5
451.545	547.5
451.766	517.5
451.986	511.5
452.207	490.5
452.428	512.5
452.648	500.5
452.869	485.5
453.089	515.5
453.31	527.5
453.53	523.5
453.751	509.5
453.971	511.5
454.192	506.5
454.412	512.5
454.633	500.5
454.853	507.5
455.073	485.5
455.294	511.5
455.514	578.5
455.734	591.5
455.955	502.5
456.175	473.5
456.395	464.5
456.616	478.5
456.836	453.5
457.056	481.5
457.276	461.5
457.497	481.5
457.717	487.5
457.937	497.5
458.157	477.5
458.377	511.5
458.598	529.5
458.818	547.5
459.038	586.5
459.258	655.5
459.478	592.5
459.698	544.5
459.918	555.5
460.138	542.5
460.358	552.5
460.578	560.5
460.798	591.5
461.018	574.5
461.238	578.5
461.458	552.5
461.678	558.5
461.898	563.5
462.118	579.5
462.338	582.5
462.558	605.5
462.777	596.5
462.997	633.5
463.217	626.5
463.437	646.5
463.657	619.5
463.876	608.5
464.096	619.5
464.316	613.5
464.536	612.5
464.755	619.5
464.975	605.5
465.195	628.5
465.414	639.5
465.634	604.5
465.854	580.5
466.073	558.5
466.293	527.5
466.512	518.5
466.732	531.5
466.951	522.5
467.171	485.5
467.391	529.5
467.61	531.5
467.829	529.5
468.049	547.5
468.268	534.5
468.488	520.5
468.707	504.5
468.927	524.5
469.146	497.5
469.365	526.5
469.585	513.5
469.804	519.5
470.023	509.5
470.243	538.5
470.462	551.5
470.681	541.5
470.901	545.5
471.12	542.5
471.339	533.5
471.558	554.5
471.777	538.5
471.997	526.5
472.216	525.5
472.435	536.5
472.654	558.5
472.873	511.5
473.092	516.5
473.311	508.5
473.53	534.5
473.749	525.5
473.968	561.5
474.187	656.5
474.406	692.5
474.625	582.5
474.844	549.5
475.063	527.5
475.282	526.5
475.501	527.5
475.72	547.5
475.939	548.5
476.158	555.5
476.377	554.5
476.596	559.5
476.814	559.5
477.033	553.5
477.252	545.5
477.471	569.5
477.69	568.5
477.908	592.5
478.127	601.5
478.346	599.5
478.564	603.5
478.783	604.5
479.002	618.5
479.22	591.5
479.439	611.5
479.658	637.5
479.876	648.5
480.095	656.5
480.313	669.5
480.532	653.5
480.751	640.5
480.969	649.5
481.188	673.5
481.406	734.5
481.624	681.5
481.843	602.5
482.061	629.5
482.28	641.5
482.498	609.5
482.717	618.5
482.935	617.5
483.153	630.5
483.372	625.5
483.59	626.5
483.808	611.5
484.027	598.5
484.245	612.5
484.463	629.5
484.681	616.5
484.9	637.5
485.118	632.5
485.336	637.5
485.554	613.5
485.772	645.5
485.99	643.5
486.209	648.5
486.427	638.5
486.645	657.5
486.863	670.5
487.081	662.5
487.299	655.5
487.517	661.5
487.735	671.5
487.953	663.5
488.171	661.5
488.389	651.5
488.607	658.5
488.825	677.5
489.043	663.5
489.261	660.5
489.479	693.5
489.696	691.5
489.914	680.5
490.132	706.5
490.35	693.5
490.568	704.5
490.786	723.5
491.003	729.5
491.221	763.5
491.439	781.5
491.657	745.5
491.874	749.5
492.092	756.5
492.31	788.5
492.527	758.5
492.745	783.5
492.963	764.5
493.18	796.5
493.398	800.5
493.615	768.5
493.833	788.5
494.05	806.5
494.268	780.5
494.485	764.5
494.703	770.5
494.92	811.5
495.138	776.5
495.355	777.5
495.573	769.5
495.79	769.5
496.008	794.5
496.225	799.5
496.442	778.5
496.66	813.5
496.877	797.5
497.094	829.5
497.312	832.5
497.529	831.5
497.746	833.5
497.963	820.5
498.181	872.5
498.398	866.5
498.615	897.5
498.832	909.5
499.049	945.5
499.267	989.5
499.484	1047.5
499.701	1087.5
499.918	1126.5
500.135	1162.5
500.352	1252.5
500.569	1237.5
500.786	1233.5
501.003	1221.5
501.22	1140.5
501.437	1130.5
501.654	1052.5
501.871	1026.5
502.088	1016.5
502.305	979.5
502.522	936.5
502.739	922.5
502.956	862.5
503.172	833.5
503.389	808.5
503.606	833.5
503.823	850.5
504.04	796.5
504.256	840.5
504.473	779.5
504.69	810.5
504.907	807.5
505.123	764.5
505.34	802.5
505.557	743.5
505.773	753.5
505.99	737.5
506.207	736.5
506.423	755.5
506.64	739.5
506.856	738.5
507.073	718.5
507.289	704.5
507.506	716.5
507.722	697.5
507.939	734.5
508.155	711.5
508.372	706.5
508.588	695.5
508.805	691.5
509.021	692.5
509.238	703.5
509.454	726.5
509.67	712.5
509.887	714.5
510.103	691.5
510.319	693.5
510.536	754.5
510.752	1087.5
510.968	901.5
511.184	697.5
511.401	666.5
511.617	656.5
511.833	636.5
512.049	630.5
512.265	636.5
512.481	655.5
512.698	645.5
512.914	662.5
513.13	657.5
513.346	635.5
513.562	649.5
513.778	662.5
513.994	650.5
514.21	655.5
514.426	671.5
514.642	707.5
514.858	715.5
515.074	718.5
515.29	813.5
515.506	1098.5
515.721	937.5
515.937	726.5
516.153	697.5
516.369	686.5
516.585	697.5
516.801	686.5
517.016	679.5
517.232	691.5
517.448	697.5
517.664	726.5
517.879	704.5
518.095	675.5
518.311	709.5
518.527	681.5
518.742	693.5
518.958	701.5
519.173	651.5
519.389	673.5
519.605	658.5
