Data from 1974.PennyLincolnUp.Lamp.En5.5.200Scan.071719.P1.Changed Mount._HRD10591_15-53-41-857.txt Node
Date: Thu Jul 18 15:53:41 EDT 2019
User: cochatt
Spectrometer: HR+D1059
Trigger mode: 1
Integration Time (sec): 1.000000E-1
Scans to average: 1
Electric dark correction enabled: true
Nonlinearity correction enabled: false
Boxcar width: 0
XAxis mode: Wavelengths
Number of Pixels in Spectrum: 2048
>>>>>Begin Spectral Data<<<<<
223.165	-13.44
223.4	-13.44
223.635	-13.44
223.869	-26.44
224.104	-24.44
224.338	-18.44
224.573	-14.44
224.808	-12.44
225.042	-10.44
225.277	-0.44
225.511	3.56
225.746	0.56
225.98	-3.44
226.215	13.56
226.449	20.56
226.683	12.56
226.918	28.56
227.152	44.56
227.387	42.56
227.621	36.56
227.856	54.56
228.09	33.56
228.324	56.56
228.559	58.56
228.793	60.56
229.027	111.56
229.262	116.56
229.496	112.56
229.73	133.56
229.964	149.56
230.199	135.56
230.433	121.56
230.667	125.56
230.901	116.56
231.136	118.56
231.37	119.56
231.604	123.56
231.838	123.56
232.072	114.56
232.306	130.56
232.541	119.56
232.775	112.56
233.009	127.56
233.243	125.56
233.477	124.56
233.711	117.56
233.945	129.56
234.179	119.56
234.413	120.56
234.647	122.56
234.881	133.56
235.115	133.56
235.349	138.56
235.583	135.56
235.817	126.56
236.051	126.56
236.285	126.56
236.519	124.56
236.753	135.56
236.987	151.56
237.221	185.56
237.455	237.56
237.689	204.56
237.922	153.56
238.156	141.56
238.39	130.56
238.624	143.56
238.858	122.56
239.091	121.56
239.325	138.56
239.559	138.56
239.793	147.56
240.027	142.56
240.26	133.56
240.494	147.56
240.728	172.56
240.961	158.56
241.195	150.56
241.429	158.56
241.662	148.56
241.896	149.56
242.13	146.56
242.363	141.56
242.597	139.56
242.83	131.56
243.064	153.56
243.298	130.56
243.531	153.56
243.765	149.56
243.998	164.56
244.232	158.56
244.465	151.56
244.699	157.56
244.932	158.56
245.166	157.56
245.399	138.56
245.633	156.56
245.866	162.56
246.099	162.56
246.333	153.56
246.566	180.56
246.8	154.56
247.033	157.56
247.266	162.56
247.5	181.56
247.733	163.56
247.966	183.56
248.2	192.56
248.433	187.56
248.666	193.56
248.899	196.56
249.133	200.56
249.366	220.56
249.599	221.56
249.832	197.56
250.066	202.56
250.299	210.56
250.532	219.56
250.765	228.56
250.998	234.56
251.231	239.56
251.465	231.56
251.698	229.56
251.931	217.56
252.164	205.56
252.397	203.56
252.63	218.56
252.863	216.56
253.096	231.56
253.329	263.56
253.562	246.56
253.795	255.56
254.028	222.56
254.261	249.56
254.494	251.56
254.727	269.56
254.96	293.56
255.193	285.56
255.426	267.56
255.659	251.56
255.892	238.56
256.124	248.56
256.357	245.56
256.59	230.56
256.823	243.56
257.056	225.56
257.289	227.56
257.521	215.56
257.754	228.56
257.987	245.56
258.22	230.56
258.452	212.56
258.685	211.56
258.918	218.56
259.151	213.56
259.383	239.56
259.616	240.56
259.849	241.56
260.081	246.56
260.314	273.56
260.547	269.56
260.779	271.56
261.012	257.56
261.244	241.56
261.477	243.56
261.71	225.56
261.942	249.56
262.175	246.56
262.407	246.56
262.64	221.56
262.872	242.56
263.105	245.56
263.337	222.56
263.57	227.56
263.802	224.56
264.035	208.56
264.267	243.56
264.499	221.56
264.732	238.56
264.964	238.56
265.197	235.56
265.429	231.56
265.661	231.56
265.894	232.56
266.126	246.56
266.358	227.56
266.591	236.56
266.823	249.56
267.055	263.56
267.287	259.56
267.52	257.56
267.752	262.56
267.984	261.56
268.216	247.56
268.448	249.56
268.681	236.56
268.913	285.56
269.145	288.56
269.377	309.56
269.609	312.56
269.841	302.56
270.073	305.56
270.306	316.56
270.538	335.56
270.77	327.56
271.002	328.56
271.234	315.56
271.466	314.56
271.698	319.56
271.93	332.56
272.162	342.56
272.394	358.56
272.626	325.56
272.858	302.56
273.09	311.56
273.322	305.56
273.553	294.56
273.785	290.56
274.017	280.56
274.249	295.56
274.481	291.56
274.713	289.56
274.945	288.56
275.176	278.56
275.408	276.56
275.64	306.56
275.872	285.56
276.104	277.56
276.335	287.56
276.567	286.56
276.799	299.56
277.031	335.56
277.262	347.56
277.494	340.56
277.726	327.56
277.957	302.56
278.189	302.56
278.421	299.56
278.652	295.56
278.884	303.56
279.115	284.56
279.347	292.56
279.579	298.56
279.81	298.56
280.042	293.56
280.273	281.56
280.505	296.56
280.736	298.56
280.968	312.56
281.199	283.56
281.431	305.56
281.662	299.56
281.894	301.56
282.125	311.56
282.356	331.56
282.588	324.56
282.819	331.56
283.051	293.56
283.282	300.56
283.513	315.56
283.745	308.56
283.976	316.56
284.207	319.56
284.439	323.56
284.67	312.56
284.901	312.56
285.132	329.56
285.364	311.56
285.595	297.56
285.826	316.56
286.057	319.56
286.288	307.56
286.52	321.56
286.751	316.56
286.982	311.56
287.213	294.56
287.444	317.56
287.675	325.56
287.906	321.56
288.138	308.56
288.369	339.56
288.6	339.56
288.831	318.56
289.062	342.56
289.293	332.56
289.524	318.56
289.755	341.56
289.986	316.56
290.217	325.56
290.448	332.56
290.679	328.56
290.91	316.56
291.141	314.56
291.371	311.56
291.602	315.56
291.833	340.56
292.064	314.56
292.295	323.56
292.526	329.56
292.757	336.56
292.987	340.56
293.218	320.56
293.449	324.56
293.68	330.56
293.91	314.56
294.141	327.56
294.372	313.56
294.603	343.56
294.833	341.56
295.064	335.56
295.295	343.56
295.525	319.56
295.756	335.56
295.987	326.56
296.217	354.56
296.448	343.56
296.679	338.56
296.909	334.56
297.14	337.56
297.37	341.56
297.601	344.56
297.831	321.56
298.062	322.56
298.292	344.56
298.523	341.56
298.753	344.56
298.984	360.56
299.214	355.56
299.445	350.56
299.675	358.56
299.905	369.56
300.136	340.56
300.366	349.56
300.597	347.56
300.827	358.56
301.057	363.56
301.288	353.56
301.518	347.56
301.748	353.56
301.979	376.56
302.209	371.56
302.439	348.56
302.669	355.56
302.9	378.56
303.13	363.56
303.36	383.56
303.59	376.56
303.82	367.56
304.051	383.56
304.281	363.56
304.511	367.56
304.741	345.56
304.971	371.56
305.201	354.56
305.431	364.56
305.661	369.56
305.891	366.56
306.121	371.56
306.352	349.56
306.582	357.56
306.812	346.56
307.042	362.56
307.272	380.56
307.502	373.56
307.731	376.56
307.961	371.56
308.191	365.56
308.421	360.56
308.651	377.56
308.881	379.56
309.111	376.56
309.341	390.56
309.571	386.56
309.8	392.56
310.03	423.56
310.26	407.56
310.49	405.56
310.72	417.56
310.949	419.56
311.179	416.56
311.409	406.56
311.639	422.56
311.868	394.56
312.098	403.56
312.328	413.56
312.557	419.56
312.787	428.56
313.017	446.56
313.246	424.56
313.476	423.56
313.706	414.56
313.935	422.56
314.165	440.56
314.394	433.56
314.624	419.56
314.853	410.56
315.083	411.56
315.312	422.56
315.542	414.56
315.771	401.56
316.001	411.56
316.23	397.56
316.46	414.56
316.689	418.56
316.919	413.56
317.148	430.56
317.377	410.56
317.607	397.56
317.836	417.56
318.065	419.56
318.295	427.56
318.524	408.56
318.753	405.56
318.983	419.56
319.212	427.56
319.441	423.56
319.67	405.56
319.9	420.56
320.129	411.56
320.358	423.56
320.587	407.56
320.816	437.56
321.046	425.56
321.275	433.56
321.504	451.56
321.733	434.56
321.962	450.56
322.191	443.56
322.42	476.56
322.649	467.56
322.878	463.56
323.108	469.56
323.337	489.56
323.566	508.56
323.795	527.56
324.024	570.56
324.253	646.56
324.482	893.56
324.71	1364.56
324.939	2014.56
325.168	1751.56
325.397	901.56
325.626	638.56
325.855	540.56
326.084	536.56
326.313	507.56
326.542	487.56
326.77	564.56
326.999	651.56
327.228	833.56
327.457	1219.56
327.686	1509.56
327.914	1017.56
328.143	701.56
328.372	628.56
328.6	590.56
328.829	581.56
329.058	581.56
329.287	574.56
329.515	558.56
329.744	537.56
329.972	535.56
330.201	557.56
330.43	569.56
330.658	599.56
330.887	631.56
331.115	613.56
331.344	551.56
331.572	506.56
331.801	503.56
332.03	524.56
332.258	518.56
332.486	527.56
332.715	511.56
332.943	505.56
333.172	528.56
333.4	506.56
333.629	530.56
333.857	537.56
334.085	541.56
334.314	544.56
334.542	584.56
334.771	582.56
334.999	554.56
335.227	527.56
335.455	484.56
335.684	501.56
335.912	517.56
336.14	500.56
336.369	499.56
336.597	522.56
336.825	499.56
337.053	489.56
337.281	516.56
337.51	497.56
337.738	481.56
337.966	509.56
338.194	494.56
338.422	489.56
338.65	469.56
338.878	478.56
339.106	480.56
339.334	483.56
339.562	472.56
339.79	483.56
340.018	482.56
340.246	462.56
340.474	471.56
340.702	470.56
340.93	481.56
341.158	488.56
341.386	492.56
341.614	490.56
341.842	468.56
342.07	480.56
342.298	457.56
342.526	473.56
342.754	459.56
342.981	472.56
343.209	490.56
343.437	491.56
343.665	481.56
343.893	476.56
344.12	505.56
344.348	511.56
344.576	502.56
344.804	504.56
345.031	490.56
345.259	487.56
345.487	487.56
345.714	474.56
345.942	465.56
346.17	468.56
346.397	468.56
346.625	458.56
346.853	463.56
347.08	475.56
347.308	458.56
347.535	441.56
347.763	468.56
347.99	479.56
348.218	476.56
348.445	468.56
348.673	453.56
348.9	468.56
349.128	456.56
349.355	445.56
349.583	449.56
349.81	445.56
350.037	430.56
350.265	441.56
350.492	441.56
350.72	435.56
350.947	461.56
351.174	463.56
351.402	470.56
351.629	462.56
351.856	472.56
352.083	481.56
352.311	487.56
352.538	471.56
352.765	469.56
352.992	460.56
353.22	477.56
353.447	450.56
353.674	442.56
353.901	434.56
354.128	436.56
354.355	452.56
354.583	431.56
354.81	464.56
355.037	463.56
355.264	422.56
355.491	436.56
355.718	438.56
355.945	446.56
356.172	438.56
356.399	430.56
356.626	433.56
356.853	433.56
357.08	434.56
357.307	437.56
357.534	435.56
357.761	444.56
357.988	443.56
358.215	434.56
358.441	431.56
358.668	428.56
358.895	418.56
359.122	445.56
359.349	453.56
359.576	479.56
359.802	491.56
360.029	514.56
360.256	489.56
360.483	490.56
360.709	471.56
360.936	464.56
361.163	463.56
361.39	474.56
361.616	460.56
361.843	456.56
362.07	444.56
362.296	475.56
362.523	444.56
362.749	458.56
362.976	430.56
363.203	442.56
363.429	420.56
363.656	442.56
363.882	453.56
364.109	452.56
364.335	459.56
364.562	471.56
364.788	453.56
365.015	472.56
365.241	443.56
365.468	444.56
365.694	447.56
365.92	462.56
366.147	467.56
366.373	444.56
366.599	449.56
366.826	441.56
367.052	453.56
367.278	459.56
367.505	449.56
367.731	449.56
367.957	444.56
368.184	446.56
368.41	444.56
368.636	452.56
368.862	467.56
369.089	459.56
369.315	453.56
369.541	457.56
369.767	462.56
369.993	461.56
370.219	463.56
370.445	425.56
370.672	443.56
370.898	453.56
371.124	453.56
371.35	461.56
371.576	461.56
371.802	465.56
372.028	465.56
372.254	466.56
372.48	465.56
372.706	485.56
372.932	462.56
373.158	466.56
373.384	451.56
373.61	467.56
373.835	465.56
374.061	458.56
374.287	478.56
374.513	449.56
374.739	469.56
374.965	477.56
375.191	482.56
375.416	481.56
375.642	468.56
375.868	484.56
376.094	461.56
376.319	459.56
376.545	451.56
376.771	468.56
376.997	466.56
377.222	471.56
377.448	442.56
377.674	460.56
377.899	447.56
378.125	458.56
378.35	462.56
378.576	459.56
378.802	462.56
379.027	470.56
379.253	460.56
379.478	462.56
379.704	446.56
379.929	470.56
380.155	446.56
380.38	455.56
380.606	463.56
380.831	446.56
381.057	463.56
381.282	475.56
381.507	471.56
381.733	462.56
381.958	447.56
382.184	474.56
382.409	473.56
382.634	447.56
382.86	489.56
383.085	477.56
383.31	500.56
383.535	493.56
383.761	471.56
383.986	492.56
384.211	493.56
384.436	470.56
384.662	496.56
384.887	522.56
385.112	497.56
385.337	504.56
385.562	517.56
385.787	513.56
386.013	535.56
386.238	525.56
386.463	516.56
386.688	517.56
386.913	499.56
387.138	523.56
387.363	502.56
387.588	501.56
387.813	519.56
388.038	514.56
388.263	522.56
388.488	517.56
388.713	519.56
388.938	532.56
389.163	507.56
389.387	515.56
389.612	501.56
389.837	516.56
390.062	506.56
390.287	499.56
390.512	521.56
390.736	518.56
390.961	519.56
391.186	535.56
391.411	505.56
391.636	525.56
391.86	538.56
392.085	558.56
392.31	556.56
392.534	534.56
392.759	543.56
392.984	523.56
393.208	526.56
393.433	526.56
393.658	529.56
393.882	521.56
394.107	526.56
394.331	505.56
394.556	521.56
394.78	518.56
395.005	535.56
395.229	528.56
395.454	561.56
395.678	567.56
395.903	566.56
396.127	590.56
396.352	580.56
396.576	567.56
396.801	545.56
397.025	575.56
397.249	549.56
397.474	554.56
397.698	582.56
397.922	580.56
398.147	591.56
398.371	605.56
398.595	586.56
398.82	596.56
399.044	636.56
399.268	633.56
399.492	680.56
399.717	722.56
399.941	785.56
400.165	769.56
400.389	746.56
400.613	692.56
400.837	674.56
401.062	635.56
401.286	638.56
401.51	617.56
401.734	629.56
401.958	599.56
402.182	609.56
402.406	638.56
402.63	622.56
402.854	613.56
403.078	637.56
403.302	637.56
403.526	631.56
403.75	635.56
403.974	638.56
404.198	627.56
404.422	632.56
404.645	632.56
404.869	660.56
405.093	694.56
405.317	709.56
405.541	755.56
405.765	673.56
405.988	663.56
406.212	669.56
406.436	672.56
406.66	687.56
406.883	655.56
407.107	701.56
407.331	774.56
407.555	838.56
407.778	821.56
408.002	739.56
408.226	725.56
408.449	698.56
408.673	690.56
408.896	722.56
409.12	770.56
409.344	730.56
409.567	647.56
409.791	669.56
410.014	644.56
410.238	622.56
410.461	659.56
410.685	658.56
410.908	653.56
411.132	681.56
411.355	716.56
411.578	680.56
411.802	634.56
412.025	626.56
412.249	639.56
412.472	640.56
412.695	692.56
412.919	686.56
413.142	618.56
413.365	615.56
413.589	620.56
413.812	614.56
414.035	599.56
414.258	592.56
414.482	571.56
414.705	581.56
414.928	599.56
415.151	588.56
415.374	611.56
415.597	622.56
415.821	591.56
416.044	595.56
416.267	598.56
416.49	596.56
416.713	568.56
416.936	590.56
417.159	582.56
417.382	604.56
417.605	596.56
417.828	593.56
418.051	661.56
418.274	633.56
418.497	585.56
418.72	583.56
418.943	602.56
419.166	612.56
419.389	657.56
419.611	657.56
419.834	632.56
420.057	637.56
420.28	620.56
420.503	665.56
420.726	625.56
420.948	625.56
421.171	666.56
421.394	694.56
421.617	613.56
421.839	625.56
422.062	637.56
422.285	638.56
422.507	699.56
422.73	802.56
422.953	758.56
423.175	682.56
423.398	681.56
423.621	658.56
423.843	654.56
424.066	699.56
424.288	664.56
424.511	695.56
424.733	743.56
424.956	832.56
425.178	775.56
425.401	773.56
425.623	813.56
425.846	713.56
426.068	660.56
426.291	639.56
426.513	655.56
426.735	676.56
426.958	700.56
427.18	809.56
427.402	913.56
427.625	1025.56
427.847	877.56
428.069	767.56
428.292	695.56
428.514	657.56
428.736	611.56
428.958	613.56
429.181	611.56
429.403	584.56
429.625	594.56
429.847	648.56
430.069	721.56
430.292	709.56
430.514	635.56
430.736	606.56
430.958	599.56
431.18	570.56
431.402	576.56
431.624	565.56
431.846	566.56
432.068	598.56
432.29	587.56
432.512	577.56
432.734	603.56
432.956	606.56
433.178	573.56
433.4	602.56
433.622	611.56
433.844	580.56
434.066	562.56
434.287	580.56
434.509	585.56
434.731	604.56
434.953	593.56
435.175	630.56
435.397	638.56
435.618	650.56
435.84	704.56
436.062	795.56
436.284	854.56
436.505	735.56
436.727	670.56
436.949	635.56
437.17	633.56
437.392	595.56
437.614	613.56
437.835	636.56
438.057	735.56
438.278	837.56
438.5	837.56
438.721	917.56
438.943	891.56
439.165	726.56
439.386	652.56
439.608	653.56
439.829	648.56
440.05	678.56
440.272	744.56
440.493	696.56
440.715	634.56
440.936	629.56
441.158	609.56
441.379	605.56
441.6	639.56
441.822	687.56
442.043	697.56
442.264	803.56
442.486	827.56
442.707	716.56
442.928	669.56
443.149	682.56
443.371	705.56
443.592	760.56
443.813	846.56
444.034	923.56
444.255	789.56
444.476	739.56
444.698	688.56
444.919	703.56
445.14	788.56
445.361	716.56
445.582	699.56
445.803	776.56
446.024	876.56
446.245	870.56
446.466	819.56
446.687	691.56
446.908	670.56
447.129	629.56
447.35	635.56
447.571	599.56
447.792	588.56
448.013	609.56
448.234	646.56
448.455	671.56
448.675	772.56
448.896	906.56
449.117	768.56
449.338	722.56
449.559	860.56
449.779	947.56
450	777.56
450.221	639.56
450.442	601.56
450.662	558.56
450.883	588.56
451.104	583.56
451.324	571.56
451.545	572.56
451.766	544.56
451.986	537.56
452.207	542.56
452.428	528.56
452.648	519.56
452.869	548.56
453.089	545.56
453.31	557.56
453.53	529.56
453.751	534.56
453.971	536.56
454.192	554.56
454.412	527.56
454.633	531.56
454.853	535.56
455.073	534.56
455.294	546.56
455.514	646.56
455.734	618.56
455.955	559.56
456.175	517.56
456.395	500.56
456.616	509.56
456.836	475.56
457.056	504.56
457.276	501.56
457.497	500.56
457.717	496.56
457.937	522.56
458.157	524.56
458.377	518.56
458.598	556.56
458.818	603.56
459.038	679.56
459.258	711.56
459.478	634.56
459.698	613.56
459.918	579.56
460.138	602.56
460.358	573.56
460.578	610.56
460.798	619.56
461.018	616.56
461.238	605.56
461.458	609.56
461.678	611.56
461.898	622.56
462.118	605.56
462.338	604.56
462.558	611.56
462.777	636.56
462.997	638.56
463.217	690.56
463.437	705.56
463.657	667.56
463.876	665.56
464.096	655.56
464.316	645.56
464.536	655.56
464.755	653.56
464.975	650.56
465.195	654.56
465.414	698.56
465.634	654.56
465.854	635.56
466.073	578.56
466.293	563.56
466.512	581.56
466.732	586.56
466.951	556.56
467.171	554.56
467.391	541.56
467.61	551.56
467.829	574.56
468.049	540.56
468.268	555.56
468.488	544.56
468.707	543.56
468.927	538.56
469.146	531.56
469.365	535.56
469.585	546.56
469.804	549.56
470.023	563.56
470.243	566.56
470.462	587.56
470.681	592.56
470.901	580.56
471.12	572.56
471.339	566.56
471.558	588.56
471.777	571.56
471.997	564.56
472.216	569.56
472.435	590.56
472.654	577.56
472.873	549.56
473.092	546.56
473.311	542.56
473.53	558.56
473.749	585.56
473.968	597.56
474.187	721.56
474.406	756.56
474.625	625.56
474.844	589.56
475.063	584.56
475.282	583.56
475.501	571.56
475.72	571.56
475.939	556.56
476.158	591.56
476.377	572.56
476.596	575.56
476.814	573.56
477.033	602.56
477.252	590.56
477.471	593.56
477.69	591.56
477.908	608.56
478.127	621.56
478.346	616.56
478.564	640.56
478.783	633.56
479.002	656.56
479.22	666.56
479.439	698.56
479.658	650.56
479.876	666.56
480.095	676.56
480.313	706.56
480.532	719.56
480.751	685.56
480.969	713.56
481.188	745.56
481.406	767.56
481.624	726.56
481.843	684.56
482.061	691.56
482.28	649.56
482.498	637.56
482.717	645.56
482.935	648.56
483.153	659.56
483.372	675.56
483.59	682.56
483.808	656.56
484.027	649.56
484.245	680.56
484.463	669.56
484.681	676.56
484.9	677.56
485.118	671.56
485.336	663.56
485.554	685.56
485.772	677.56
485.99	664.56
486.209	662.56
486.427	671.56
486.645	692.56
486.863	697.56
487.081	695.56
487.299	722.56
487.517	736.56
487.735	715.56
487.953	689.56
488.171	701.56
488.389	682.56
488.607	697.56
488.825	717.56
489.043	715.56
489.261	711.56
489.479	716.56
489.696	751.56
489.914	731.56
490.132	738.56
490.35	727.56
490.568	747.56
490.786	786.56
491.003	791.56
491.221	795.56
491.439	817.56
491.657	815.56
491.874	836.56
492.092	827.56
492.31	837.56
492.527	812.56
492.745	833.56
492.963	837.56
493.18	830.56
493.398	829.56
493.615	851.56
493.833	850.56
494.05	839.56
494.268	883.56
494.485	836.56
494.703	855.56
494.92	836.56
495.138	858.56
495.355	833.56
495.573	863.56
495.79	843.56
496.008	860.56
496.225	851.56
496.442	867.56
496.66	876.56
496.877	865.56
497.094	886.56
497.312	859.56
497.529	882.56
497.746	886.56
497.963	906.56
498.181	961.56
498.398	976.56
498.615	981.56
498.832	982.56
499.049	1021.56
499.267	1023.56
499.484	1083.56
499.701	1114.56
499.918	1169.56
500.135	1251.56
500.352	1337.56
500.569	1338.56
500.786	1339.56
501.003	1346.56
501.22	1258.56
501.437	1192.56
