Data from 1974.PennyLincolnUp.Lamp.En5.5.200Scan.071719.P1.Changed Mount._HRD10591_15-54-17-859.txt Node
Date: Thu Jul 18 15:54:17 EDT 2019
User: cochatt
Spectrometer: HR+D1059
Trigger mode: 1
Integration Time (sec): 1.000000E-1
Scans to average: 1
Electric dark correction enabled: true
Nonlinearity correction enabled: false
Boxcar width: 0
XAxis mode: Wavelengths
Number of Pixels in Spectrum: 2048
>>>>>Begin Spectral Data<<<<<
223.165	-4.94
223.4	-4.94
223.635	-4.94
223.869	-19.94
224.104	-8.94
224.338	-12.94
224.573	-16.94
224.808	-10.94
225.042	-8.94
225.277	-16.94
225.511	-0.94
225.746	8.06
225.98	5.06
226.215	-4.94
226.449	14.06
226.683	25.06
226.918	18.06
227.152	36.06
227.387	24.06
227.621	34.06
227.856	45.06
228.09	42.06
228.324	55.06
228.559	66.06
228.793	59.06
229.027	93.06
229.262	111.06
229.496	119.06
229.73	124.06
229.964	169.06
230.199	143.06
230.433	116.06
230.667	119.06
230.901	112.06
231.136	126.06
231.37	113.06
231.604	131.06
231.838	124.06
232.072	115.06
232.306	124.06
232.541	103.06
232.775	115.06
233.009	120.06
233.243	125.06
233.477	127.06
233.711	117.06
233.945	123.06
234.179	125.06
234.413	126.06
234.647	128.06
234.881	125.06
235.115	122.06
235.349	118.06
235.583	125.06
235.817	136.06
236.051	131.06
236.285	120.06
236.519	119.06
236.753	132.06
236.987	151.06
237.221	173.06
237.455	236.06
237.689	203.06
237.922	145.06
238.156	147.06
238.39	142.06
238.624	128.06
238.858	134.06
239.091	131.06
239.325	142.06
239.559	136.06
239.793	145.06
240.027	133.06
240.26	154.06
240.494	167.06
240.728	158.06
240.961	164.06
241.195	146.06
241.429	133.06
241.662	141.06
241.896	134.06
242.13	141.06
242.363	151.06
242.597	157.06
242.83	153.06
243.064	151.06
243.298	154.06
243.531	144.06
243.765	154.06
243.998	158.06
244.232	164.06
244.465	167.06
244.699	157.06
244.932	144.06
245.166	149.06
245.399	153.06
245.633	160.06
245.866	155.06
246.099	181.06
246.333	171.06
246.566	173.06
246.8	154.06
247.033	180.06
247.266	193.06
247.5	189.06
247.733	176.06
247.966	203.06
248.2	190.06
248.433	185.06
248.666	209.06
248.899	206.06
249.133	222.06
249.366	227.06
249.599	212.06
249.832	195.06
250.066	191.06
250.299	188.06
250.532	211.06
250.765	212.06
250.998	241.06
251.231	244.06
251.465	234.06
251.698	207.06
251.931	217.06
252.164	229.06
252.397	223.06
252.63	201.06
252.863	220.06
253.096	227.06
253.329	243.06
253.562	249.06
253.795	263.06
254.028	222.06
254.261	245.06
254.494	264.06
254.727	273.06
254.96	300.06
255.193	309.06
255.426	275.06
255.659	245.06
255.892	254.06
256.124	249.06
256.357	254.06
256.59	236.06
256.823	224.06
257.056	212.06
257.289	246.06
257.521	218.06
257.754	230.06
257.987	228.06
258.22	237.06
258.452	217.06
258.685	224.06
258.918	250.06
259.151	219.06
259.383	248.06
259.616	222.06
259.849	244.06
260.081	260.06
260.314	274.06
260.547	280.06
260.779	274.06
261.012	252.06
261.244	257.06
261.477	263.06
261.71	243.06
261.942	280.06
262.175	247.06
262.407	257.06
262.64	248.06
262.872	243.06
263.105	243.06
263.337	229.06
263.57	247.06
263.802	222.06
264.035	221.06
264.267	223.06
264.499	223.06
264.732	240.06
264.964	235.06
265.197	208.06
265.429	245.06
265.661	247.06
265.894	237.06
266.126	245.06
266.358	225.06
266.591	233.06
266.823	252.06
267.055	278.06
267.287	246.06
267.52	245.06
267.752	259.06
267.984	261.06
268.216	243.06
268.448	272.06
268.681	257.06
268.913	259.06
269.145	288.06
269.377	315.06
269.609	309.06
269.841	290.06
270.073	299.06
270.306	295.06
270.538	325.06
270.77	348.06
271.002	309.06
271.234	303.06
271.466	322.06
271.698	310.06
271.93	344.06
272.162	365.06
272.394	336.06
272.626	339.06
272.858	323.06
273.09	299.06
273.322	299.06
273.553	297.06
273.785	286.06
274.017	295.06
274.249	301.06
274.481	302.06
274.713	283.06
274.945	294.06
275.176	296.06
275.408	314.06
275.64	307.06
275.872	291.06
276.104	282.06
276.335	299.06
276.567	303.06
276.799	308.06
277.031	343.06
277.262	344.06
277.494	350.06
277.726	333.06
277.957	320.06
278.189	308.06
278.421	308.06
278.652	312.06
278.884	298.06
279.115	289.06
279.347	304.06
279.579	283.06
279.81	314.06
280.042	305.06
280.273	294.06
280.505	293.06
280.736	288.06
280.968	295.06
281.199	324.06
281.431	303.06
281.662	315.06
281.894	318.06
282.125	309.06
282.356	320.06
282.588	331.06
282.819	331.06
283.051	323.06
283.282	311.06
283.513	316.06
283.745	320.06
283.976	327.06
284.207	318.06
284.439	318.06
284.67	322.06
284.901	317.06
285.132	319.06
285.364	310.06
285.595	322.06
285.826	311.06
286.057	307.06
286.288	315.06
286.52	313.06
286.751	316.06
286.982	331.06
287.213	302.06
287.444	333.06
287.675	320.06
287.906	317.06
288.138	316.06
288.369	337.06
288.6	347.06
288.831	312.06
289.062	364.06
289.293	346.06
289.524	336.06
289.755	314.06
289.986	315.06
290.217	324.06
290.448	312.06
290.679	341.06
290.91	338.06
291.141	332.06
291.371	345.06
291.602	332.06
291.833	326.06
292.064	347.06
292.295	320.06
292.526	326.06
292.757	334.06
292.987	335.06
293.218	332.06
293.449	341.06
293.68	341.06
293.91	345.06
294.141	337.06
294.372	315.06
294.603	311.06
294.833	327.06
295.064	327.06
295.295	340.06
295.525	320.06
295.756	342.06
295.987	364.06
296.217	360.06
296.448	381.06
296.679	341.06
296.909	340.06
297.14	331.06
297.37	348.06
297.601	331.06
297.831	351.06
298.062	342.06
298.292	348.06
298.523	354.06
298.753	349.06
298.984	347.06
299.214	361.06
299.445	351.06
299.675	365.06
299.905	349.06
300.136	354.06
300.366	355.06
300.597	368.06
300.827	368.06
301.057	366.06
301.288	368.06
301.518	381.06
301.748	366.06
301.979	361.06
302.209	372.06
302.439	351.06
302.669	373.06
302.9	356.06
303.13	362.06
303.36	357.06
303.59	359.06
303.82	377.06
304.051	376.06
304.281	371.06
304.511	362.06
304.741	371.06
304.971	365.06
305.201	375.06
305.431	349.06
305.661	379.06
305.891	359.06
306.121	357.06
306.352	372.06
306.582	384.06
306.812	372.06
307.042	377.06
307.272	372.06
307.502	372.06
307.731	365.06
307.961	356.06
308.191	384.06
308.421	371.06
308.651	378.06
308.881	377.06
309.111	373.06
309.341	389.06
309.571	382.06
309.8	400.06
310.03	399.06
310.26	428.06
310.49	421.06
310.72	389.06
310.949	426.06
311.179	444.06
311.409	433.06
311.639	401.06
311.868	398.06
312.098	420.06
312.328	419.06
312.557	444.06
312.787	434.06
313.017	442.06
313.246	428.06
313.476	423.06
313.706	413.06
313.935	411.06
314.165	432.06
314.394	427.06
314.624	427.06
314.853	442.06
315.083	423.06
315.312	425.06
315.542	427.06
315.771	418.06
316.001	405.06
316.23	414.06
316.46	408.06
316.689	391.06
316.919	418.06
317.148	427.06
317.377	406.06
317.607	426.06
317.836	441.06
318.065	414.06
318.295	425.06
318.524	417.06
318.753	427.06
318.983	415.06
319.212	421.06
319.441	419.06
319.67	452.06
319.9	428.06
320.129	428.06
320.358	423.06
320.587	430.06
320.816	413.06
321.046	419.06
321.275	441.06
321.504	416.06
321.733	429.06
321.962	455.06
322.191	454.06
322.42	468.06
322.649	476.06
322.878	478.06
323.108	499.06
323.337	510.06
323.566	519.06
323.795	523.06
324.024	592.06
324.253	655.06
324.482	873.06
324.71	1373.06
324.939	2072.06
325.168	1828.06
325.397	947.06
325.626	657.06
325.855	557.06
326.084	528.06
326.313	502.06
326.542	513.06
326.77	573.06
326.999	641.06
327.228	835.06
327.457	1255.06
327.686	1557.06
327.914	1027.06
328.143	676.06
328.372	615.06
328.6	595.06
328.829	589.06
329.058	576.06
329.287	591.06
329.515	565.06
329.744	519.06
329.972	546.06
330.201	563.06
330.43	592.06
330.658	603.06
330.887	619.06
331.115	604.06
331.344	557.06
331.572	521.06
331.801	531.06
332.03	547.06
332.258	513.06
332.486	522.06
332.715	513.06
332.943	548.06
333.172	512.06
333.4	512.06
333.629	544.06
333.857	541.06
334.085	534.06
334.314	573.06
334.542	575.06
334.771	601.06
334.999	546.06
335.227	547.06
335.455	539.06
335.684	553.06
335.912	512.06
336.14	526.06
336.369	500.06
336.597	530.06
336.825	520.06
337.053	507.06
337.281	509.06
337.51	495.06
337.738	493.06
337.966	539.06
338.194	498.06
338.422	508.06
338.65	500.06
338.878	492.06
339.106	500.06
339.334	468.06
339.562	488.06
339.79	503.06
340.018	481.06
340.246	486.06
340.474	484.06
340.702	484.06
340.93	499.06
341.158	486.06
341.386	496.06
341.614	483.06
341.842	472.06
342.07	474.06
342.298	494.06
342.526	482.06
342.754	483.06
342.981	495.06
343.209	489.06
343.437	516.06
343.665	507.06
343.893	526.06
344.12	535.06
344.348	532.06
344.576	496.06
344.804	500.06
345.031	493.06
345.259	512.06
345.487	496.06
345.714	485.06
345.942	490.06
346.17	481.06
346.397	486.06
346.625	481.06
346.853	473.06
347.08	466.06
347.308	467.06
347.535	485.06
347.763	489.06
347.99	473.06
348.218	474.06
348.445	486.06
348.673	487.06
348.9	474.06
349.128	472.06
349.355	469.06
349.583	464.06
349.81	443.06
350.037	452.06
350.265	462.06
350.492	457.06
350.72	472.06
350.947	466.06
351.174	447.06
351.402	480.06
351.629	478.06
351.856	466.06
352.083	482.06
352.311	487.06
352.538	510.06
352.765	489.06
352.992	488.06
353.22	469.06
353.447	459.06
353.674	468.06
353.901	469.06
354.128	453.06
354.355	451.06
354.583	451.06
354.81	466.06
355.037	453.06
355.264	458.06
355.491	438.06
355.718	438.06
355.945	463.06
356.172	455.06
356.399	448.06
356.626	439.06
356.853	439.06
357.08	452.06
357.307	460.06
357.534	458.06
357.761	451.06
357.988	443.06
358.215	444.06
358.441	450.06
358.668	436.06
358.895	458.06
359.122	455.06
359.349	467.06
359.576	466.06
359.802	488.06
360.029	470.06
360.256	507.06
360.483	521.06
360.709	499.06
360.936	462.06
361.163	457.06
361.39	478.06
361.616	475.06
361.843	476.06
362.07	480.06
362.296	480.06
362.523	496.06
362.749	475.06
362.976	468.06
363.203	461.06
363.429	480.06
363.656	475.06
363.882	443.06
364.109	447.06
364.335	462.06
364.562	455.06
364.788	453.06
365.015	471.06
365.241	481.06
365.468	472.06
365.694	451.06
365.92	473.06
366.147	477.06
366.373	452.06
366.599	453.06
366.826	469.06
367.052	451.06
367.278	448.06
367.505	448.06
367.731	459.06
367.957	456.06
368.184	456.06
368.41	454.06
368.636	464.06
368.862	475.06
369.089	470.06
369.315	452.06
369.541	459.06
369.767	455.06
369.993	446.06
370.219	472.06
370.445	458.06
370.672	481.06
370.898	476.06
371.124	470.06
371.35	458.06
371.576	459.06
371.802	492.06
372.028	481.06
372.254	461.06
372.48	469.06
372.706	479.06
372.932	466.06
373.158	491.06
373.384	464.06
373.61	471.06
373.835	455.06
374.061	468.06
374.287	479.06
374.513	454.06
374.739	478.06
374.965	472.06
375.191	468.06
375.416	483.06
375.642	461.06
375.868	467.06
376.094	481.06
376.319	471.06
376.545	484.06
376.771	454.06
376.997	459.06
377.222	470.06
377.448	493.06
377.674	457.06
377.899	475.06
378.125	500.06
378.35	454.06
378.576	456.06
378.802	447.06
379.027	475.06
379.253	482.06
379.478	443.06
379.704	469.06
379.929	459.06
380.155	508.06
380.38	473.06
380.606	491.06
380.831	461.06
381.057	487.06
381.282	481.06
381.507	482.06
381.733	475.06
381.958	464.06
382.184	468.06
382.409	480.06
382.634	468.06
382.86	491.06
383.085	482.06
383.31	481.06
383.535	499.06
383.761	507.06
383.986	493.06
384.211	515.06
384.436	519.06
384.662	499.06
384.887	500.06
385.112	495.06
385.337	501.06
385.562	531.06
385.787	520.06
386.013	524.06
386.238	532.06
386.463	533.06
386.688	543.06
386.913	532.06
387.138	522.06
387.363	523.06
387.588	538.06
387.813	514.06
388.038	519.06
388.263	540.06
388.488	531.06
388.713	540.06
388.938	522.06
389.163	542.06
389.387	535.06
389.612	529.06
389.837	521.06
390.062	493.06
390.287	531.06
390.512	520.06
390.736	523.06
390.961	517.06
391.186	539.06
391.411	515.06
391.636	548.06
391.86	539.06
392.085	535.06
392.31	558.06
392.534	552.06
392.759	569.06
392.984	545.06
393.208	524.06
393.433	545.06
393.658	547.06
393.882	527.06
394.107	551.06
394.331	540.06
394.556	549.06
394.78	553.06
395.005	566.06
395.229	547.06
395.454	547.06
395.678	561.06
395.903	557.06
396.127	612.06
396.352	587.06
396.576	569.06
396.801	555.06
397.025	568.06
397.249	561.06
397.474	575.06
397.698	581.06
397.922	581.06
398.147	579.06
398.371	616.06
398.595	592.06
398.82	595.06
399.044	621.06
399.268	674.06
399.492	702.06
399.717	767.06
399.941	761.06
400.165	784.06
400.389	765.06
400.613	702.06
400.837	635.06
401.062	615.06
401.286	621.06
401.51	638.06
401.734	609.06
401.958	632.06
402.182	610.06
402.406	647.06
402.63	649.06
402.854	645.06
403.078	641.06
403.302	628.06
403.526	623.06
403.75	639.06
403.974	658.06
404.198	665.06
404.422	688.06
404.645	651.06
404.869	677.06
405.093	719.06
405.317	712.06
405.541	773.06
405.765	699.06
405.988	680.06
406.212	686.06
406.436	687.06
406.66	712.06
406.883	672.06
407.107	724.06
407.331	767.06
407.555	838.06
407.778	859.06
408.002	790.06
408.226	721.06
408.449	720.06
408.673	710.06
408.896	708.06
409.12	773.06
409.344	726.06
409.567	668.06
409.791	668.06
410.014	660.06
410.238	620.06
410.461	664.06
410.685	660.06
410.908	663.06
411.132	685.06
411.355	733.06
411.578	699.06
411.802	660.06
412.025	629.06
412.249	658.06
412.472	682.06
412.695	705.06
412.919	678.06
413.142	652.06
413.365	652.06
413.589	645.06
413.812	628.06
414.035	638.06
414.258	624.06
414.482	626.06
414.705	623.06
414.928	603.06
415.151	613.06
415.374	609.06
415.597	591.06
415.821	594.06
416.044	620.06
416.267	609.06
416.49	598.06
416.713	613.06
416.936	607.06
417.159	593.06
417.382	612.06
417.605	626.06
417.828	636.06
418.051	661.06
418.274	623.06
418.497	599.06
418.72	603.06
418.943	609.06
419.166	639.06
419.389	673.06
419.611	667.06
419.834	656.06
420.057	653.06
420.28	656.06
420.503	646.06
420.726	639.06
420.948	656.06
421.171	691.06
421.394	741.06
421.617	670.06
421.839	632.06
422.062	652.06
422.285	650.06
422.507	695.06
422.73	813.06
422.953	768.06
423.175	693.06
423.398	655.06
423.621	664.06
423.843	683.06
424.066	701.06
424.288	697.06
424.511	687.06
424.733	743.06
424.956	845.06
425.178	811.06
425.401	841.06
425.623	823.06
425.846	723.06
426.068	670.06
426.291	675.06
426.513	647.06
426.735	664.06
426.958	719.06
427.18	791.06
427.402	931.06
427.625	1012.06
427.847	876.06
428.069	796.06
428.292	734.06
428.514	631.06
428.736	639.06
428.958	644.06
429.181	621.06
429.403	615.06
429.625	632.06
429.847	656.06
430.069	734.06
430.292	723.06
430.514	623.06
430.736	599.06
430.958	639.06
431.18	592.06
431.402	601.06
431.624	583.06
431.846	582.06
432.068	572.06
432.29	607.06
432.512	601.06
432.734	639.06
432.956	608.06
433.178	599.06
433.4	610.06
433.622	602.06
433.844	608.06
434.066	591.06
434.287	597.06
434.509	587.06
434.731	615.06
434.953	614.06
435.175	652.06
435.397	651.06
435.618	680.06
435.84	689.06
436.062	798.06
436.284	887.06
436.505	737.06
436.727	707.06
436.949	644.06
437.17	634.06
437.392	625.06
437.614	620.06
437.835	682.06
438.057	745.06
438.278	863.06
438.5	865.06
438.721	928.06
438.943	926.06
439.165	732.06
439.386	679.06
439.608	669.06
439.829	658.06
440.05	696.06
440.272	763.06
440.493	694.06
440.715	663.06
440.936	643.06
441.158	631.06
441.379	627.06
441.6	643.06
441.822	660.06
442.043	716.06
442.264	799.06
442.486	847.06
442.707	736.06
442.928	706.06
443.149	693.06
443.371	733.06
443.592	749.06
443.813	840.06
444.034	945.06
444.255	809.06
444.476	719.06
444.698	704.06
444.919	729.06
445.14	788.06
445.361	742.06
445.582	730.06
445.803	789.06
446.024	873.06
446.245	878.06
446.466	820.06
446.687	713.06
446.908	656.06
447.129	618.06
447.35	607.06
447.571	628.06
447.792	618.06
448.013	598.06
448.234	622.06
448.455	660.06
448.675	821.06
448.896	934.06
449.117	806.06
449.338	730.06
449.559	876.06
449.779	967.06
450	793.06
450.221	644.06
450.442	615.06
450.662	600.06
450.883	600.06
451.104	600.06
451.324	600.06
451.545	587.06
451.766	581.06
451.986	537.06
452.207	537.06
452.428	534.06
452.648	559.06
452.869	546.06
453.089	563.06
453.31	579.06
453.53	553.06
453.751	551.06
453.971	552.06
454.192	565.06
454.412	560.06
454.633	543.06
454.853	528.06
455.073	533.06
455.294	570.06
455.514	649.06
455.734	631.06
455.955	560.06
456.175	497.06
456.395	526.06
456.616	496.06
456.836	511.06
457.056	497.06
457.276	495.06
457.497	521.06
457.717	542.06
457.937	555.06
458.157	533.06
458.377	547.06
458.598	571.06
458.818	593.06
459.038	703.06
459.258	727.06
459.478	638.06
459.698	605.06
459.918	603.06
460.138	618.06
460.358	629.06
460.578	620.06
460.798	623.06
461.018	616.06
461.238	599.06
461.458	594.06
461.678	600.06
461.898	619.06
462.118	621.06
462.338	634.06
462.558	639.06
462.777	654.06
462.997	670.06
463.217	693.06
463.437	703.06
463.657	689.06
463.876	655.06
464.096	674.06
464.316	674.06
464.536	663.06
464.755	661.06
464.975	654.06
465.195	694.06
465.414	706.06
465.634	663.06
465.854	637.06
466.073	603.06
466.293	571.06
466.512	580.06
466.732	559.06
466.951	569.06
467.171	561.06
467.391	601.06
467.61	575.06
467.829	567.06
468.049	579.06
468.268	569.06
468.488	556.06
468.707	557.06
468.927	564.06
469.146	579.06
469.365	567.06
469.585	560.06
469.804	571.06
470.023	587.06
470.243	570.06
470.462	600.06
470.681	630.06
470.901	589.06
471.12	571.06
471.339	592.06
471.558	600.06
471.777	566.06
471.997	557.06
472.216	563.06
472.435	577.06
472.654	580.06
472.873	563.06
473.092	573.06
473.311	569.06
473.53	583.06
473.749	600.06
473.968	615.06
474.187	711.06
474.406	731.06
474.625	654.06
474.844	591.06
475.063	584.06
475.282	594.06
475.501	574.06
475.72	574.06
475.939	575.06
476.158	603.06
476.377	597.06
476.596	584.06
476.814	593.06
477.033	585.06
477.252	613.06
477.471	619.06
477.69	605.06
477.908	623.06
478.127	625.06
478.346	647.06
478.564	653.06
478.783	649.06
479.002	662.06
479.22	655.06
479.439	693.06
479.658	699.06
479.876	676.06
480.095	697.06
480.313	742.06
480.532	712.06
480.751	726.06
480.969	727.06
481.188	756.06
481.406	782.06
481.624	736.06
481.843	665.06
482.061	672.06
482.28	682.06
482.498	678.06
482.717	667.06
482.935	681.06
483.153	660.06
483.372	686.06
483.59	699.06
483.808	665.06
484.027	663.06
484.245	671.06
484.463	694.06
484.681	689.06
484.9	709.06
485.118	668.06
485.336	687.06
485.554	697.06
485.772	707.06
485.99	705.06
486.209	702.06
486.427	662.06
486.645	709.06
486.863	728.06
487.081	731.06
487.299	719.06
487.517	728.06
487.735	703.06
487.953	731.06
488.171	737.06
488.389	717.06
488.607	696.06
488.825	716.06
489.043	716.06
489.261	741.06
489.479	731.06
489.696	718.06
489.914	748.06
490.132	758.06
490.35	777.06
490.568	770.06
490.786	778.06
491.003	776.06
491.221	813.06
491.439	824.06
491.657	829.06
491.874	844.06
492.092	844.06
492.31	826.06
492.527	845.06
492.745	836.06
492.963	835.06
493.18	843.06
493.398	851.06
493.615	865.06
493.833	850.06
494.05	880.06
494.268	863.06
494.485	873.06
494.703	862.06
494.92	836.06
495.138	842.06
495.355	864.06
495.573	850.06
495.79	854.06
496.008	873.06
496.225	860.06
496.442	869.06
496.66	876.06
496.877	894.06
497.094	895.06
497.312	867.06
497.529	914.06
497.746	925.06
497.963	906.06
498.181	944.06
498.398	970.06
498.615	973.06
498.832	1023.06
499.049	1051.06
499.267	1066.06
499.484	1122.06
499.701	1155.06
499.918	1215.06
500.135	1275.06
500.352	1361.06
500.569	1387.06
500.786	1387.06
501.003	1368.06
501.22	1291.06
501.437	1250.06
501.654	1165.06
