Data from 1974.PennyLincolnUp.Lamp.En5.5.200Scan.071719.P1.Changed Mount._HRD10591_15-54-21-857.txt Node
Date: Thu Jul 18 15:54:21 EDT 2019
User: cochatt
Spectrometer: HR+D1059
Trigger mode: 1
Integration Time (sec): 1.000000E-1
Scans to average: 1
Electric dark correction enabled: true
Nonlinearity correction enabled: false
Boxcar width: 0
XAxis mode: Wavelengths
Number of Pixels in Spectrum: 2048
>>>>>Begin Spectral Data<<<<<
223.165	-15.19
223.4	-15.19
223.635	-15.19
223.869	-34.19
224.104	-23.19
224.338	-2.19
224.573	-19.19
224.808	-1.19
225.042	-5.19
225.277	-3.19
225.511	0.81
225.746	-2.19
225.98	0.81
226.215	11.81
226.449	15.81
226.683	14.81
226.918	30.81
227.152	30.81
227.387	36.81
227.621	45.81
227.856	50.81
228.09	42.81
228.324	41.81
228.559	53.81
228.793	67.81
229.027	109.81
229.262	116.81
229.496	110.81
229.73	141.81
229.964	154.81
230.199	125.81
230.433	116.81
230.667	118.81
230.901	122.81
231.136	114.81
231.37	112.81
231.604	128.81
231.838	122.81
232.072	120.81
232.306	117.81
232.541	126.81
232.775	115.81
233.009	128.81
233.243	114.81
233.477	102.81
233.711	127.81
233.945	125.81
234.179	129.81
234.413	133.81
234.647	113.81
234.881	123.81
235.115	129.81
235.349	134.81
235.583	115.81
235.817	132.81
236.051	151.81
236.285	130.81
236.519	134.81
236.753	136.81
236.987	170.81
237.221	180.81
237.455	228.81
237.689	194.81
237.922	149.81
238.156	146.81
238.39	135.81
238.624	137.81
238.858	138.81
239.091	131.81
239.325	130.81
239.559	130.81
239.793	141.81
240.027	135.81
240.26	142.81
240.494	170.81
240.728	156.81
240.961	166.81
241.195	168.81
241.429	146.81
241.662	151.81
241.896	151.81
242.13	141.81
242.363	162.81
242.597	129.81
242.83	141.81
243.064	152.81
243.298	141.81
243.531	165.81
243.765	164.81
243.998	145.81
244.232	148.81
244.465	148.81
244.699	146.81
244.932	177.81
245.166	166.81
245.399	170.81
245.633	176.81
245.866	166.81
246.099	176.81
246.333	161.81
246.566	169.81
246.8	147.81
247.033	163.81
247.266	162.81
247.5	170.81
247.733	176.81
247.966	185.81
248.2	193.81
248.433	195.81
248.666	192.81
248.899	190.81
249.133	209.81
249.366	214.81
249.599	191.81
249.832	188.81
250.066	214.81
250.299	202.81
250.532	197.81
250.765	197.81
250.998	232.81
251.231	237.81
251.465	233.81
251.698	218.81
251.931	223.81
252.164	204.81
252.397	200.81
252.63	211.81
252.863	218.81
253.096	224.81
253.329	254.81
253.562	260.81
253.795	252.81
254.028	243.81
254.261	231.81
254.494	256.81
254.727	276.81
254.96	306.81
255.193	280.81
255.426	269.81
255.659	247.81
255.892	262.81
256.124	261.81
256.357	244.81
256.59	256.81
256.823	234.81
257.056	220.81
257.289	217.81
257.521	235.81
257.754	218.81
257.987	217.81
258.22	215.81
258.452	219.81
258.685	238.81
258.918	218.81
259.151	231.81
259.383	243.81
259.616	250.81
259.849	235.81
260.081	248.81
260.314	274.81
260.547	281.81
260.779	278.81
261.012	252.81
261.244	246.81
261.477	262.81
261.71	231.81
261.942	242.81
262.175	249.81
262.407	236.81
262.64	240.81
262.872	242.81
263.105	225.81
263.337	225.81
263.57	233.81
263.802	241.81
264.035	240.81
264.267	217.81
264.499	253.81
264.732	229.81
264.964	246.81
265.197	228.81
265.429	237.81
265.661	230.81
265.894	247.81
266.126	242.81
266.358	236.81
266.591	238.81
266.823	255.81
267.055	239.81
267.287	252.81
267.52	253.81
267.752	262.81
267.984	256.81
268.216	250.81
268.448	250.81
268.681	260.81
268.913	275.81
269.145	298.81
269.377	326.81
269.609	314.81
269.841	285.81
270.073	300.81
270.306	312.81
270.538	349.81
270.77	339.81
271.002	347.81
271.234	327.81
271.466	329.81
271.698	347.81
271.93	332.81
272.162	339.81
272.394	340.81
272.626	324.81
272.858	330.81
273.09	317.81
273.322	292.81
273.553	312.81
273.785	293.81
274.017	280.81
274.249	277.81
274.481	316.81
274.713	283.81
274.945	282.81
275.176	294.81
275.408	296.81
275.64	293.81
275.872	295.81
276.104	298.81
276.335	279.81
276.567	300.81
276.799	292.81
277.031	321.81
277.262	335.81
277.494	352.81
277.726	333.81
277.957	322.81
278.189	301.81
278.421	316.81
278.652	294.81
278.884	309.81
279.115	314.81
279.347	288.81
279.579	309.81
279.81	294.81
280.042	295.81
280.273	318.81
280.505	308.81
280.736	307.81
280.968	289.81
281.199	285.81
281.431	275.81
281.662	300.81
281.894	308.81
282.125	313.81
282.356	291.81
282.588	330.81
282.819	318.81
283.051	321.81
283.282	319.81
283.513	317.81
283.745	323.81
283.976	322.81
284.207	328.81
284.439	314.81
284.67	297.81
284.901	320.81
285.132	324.81
285.364	328.81
285.595	310.81
285.826	301.81
286.057	316.81
286.288	326.81
286.52	326.81
286.751	320.81
286.982	321.81
287.213	342.81
287.444	315.81
287.675	331.81
287.906	334.81
288.138	345.81
288.369	313.81
288.6	338.81
288.831	338.81
289.062	320.81
289.293	330.81
289.524	320.81
289.755	326.81
289.986	327.81
290.217	318.81
290.448	318.81
290.679	342.81
290.91	334.81
291.141	311.81
291.371	327.81
291.602	326.81
291.833	332.81
292.064	329.81
292.295	349.81
292.526	321.81
292.757	324.81
292.987	313.81
293.218	324.81
293.449	347.81
293.68	333.81
293.91	328.81
294.141	329.81
294.372	334.81
294.603	327.81
294.833	350.81
295.064	343.81
295.295	333.81
295.525	338.81
295.756	332.81
295.987	335.81
296.217	364.81
296.448	364.81
296.679	362.81
296.909	342.81
297.14	329.81
297.37	333.81
297.601	334.81
297.831	343.81
298.062	347.81
298.292	363.81
298.523	372.81
298.753	360.81
298.984	363.81
299.214	371.81
299.445	336.81
299.675	368.81
299.905	375.81
300.136	340.81
300.366	346.81
300.597	358.81
300.827	376.81
301.057	364.81
301.288	351.81
301.518	349.81
301.748	354.81
301.979	378.81
302.209	353.81
302.439	393.81
302.669	374.81
302.9	387.81
303.13	364.81
303.36	372.81
303.59	389.81
303.82	380.81
304.051	364.81
304.281	372.81
304.511	384.81
304.741	355.81
304.971	371.81
305.201	376.81
305.431	363.81
305.661	354.81
305.891	372.81
306.121	374.81
306.352	378.81
306.582	380.81
306.812	366.81
307.042	356.81
307.272	374.81
307.502	373.81
307.731	366.81
307.961	373.81
308.191	375.81
308.421	378.81
308.651	396.81
308.881	379.81
309.111	368.81
309.341	384.81
309.571	378.81
309.8	392.81
310.03	407.81
310.26	422.81
310.49	417.81
310.72	413.81
310.949	404.81
311.179	420.81
311.409	408.81
311.639	427.81
311.868	428.81
312.098	414.81
312.328	394.81
312.557	432.81
312.787	449.81
313.017	454.81
313.246	414.81
313.476	428.81
313.706	418.81
313.935	436.81
314.165	429.81
314.394	434.81
314.624	432.81
314.853	424.81
315.083	437.81
315.312	429.81
315.542	413.81
315.771	412.81
316.001	411.81
316.23	414.81
316.46	441.81
316.689	408.81
316.919	434.81
317.148	434.81
317.377	429.81
317.607	440.81
317.836	421.81
318.065	416.81
318.295	421.81
318.524	420.81
318.753	426.81
318.983	406.81
319.212	421.81
319.441	419.81
319.67	414.81
319.9	436.81
320.129	426.81
320.358	428.81
320.587	429.81
320.816	432.81
321.046	444.81
321.275	452.81
321.504	452.81
321.733	435.81
321.962	445.81
322.191	458.81
322.42	468.81
322.649	467.81
322.878	493.81
323.108	492.81
323.337	508.81
323.566	514.81
323.795	545.81
324.024	562.81
324.253	681.81
324.482	936.81
324.71	1424.81
324.939	2104.81
325.168	1852.81
325.397	921.81
325.626	655.81
325.855	551.81
326.084	525.81
326.313	503.81
326.542	528.81
326.77	581.81
326.999	652.81
327.228	861.81
327.457	1247.81
327.686	1570.81
327.914	1087.81
328.143	712.81
328.372	622.81
328.6	610.81
328.829	572.81
329.058	601.81
329.287	605.81
329.515	571.81
329.744	545.81
329.972	536.81
330.201	551.81
330.43	574.81
330.658	622.81
330.887	616.81
331.115	614.81
331.344	564.81
331.572	545.81
331.801	542.81
332.03	516.81
332.258	517.81
332.486	515.81
332.715	515.81
332.943	494.81
333.172	493.81
333.4	506.81
333.629	518.81
333.857	564.81
334.085	550.81
334.314	561.81
334.542	576.81
334.771	590.81
334.999	549.81
335.227	548.81
335.455	508.81
335.684	519.81
335.912	524.81
336.14	526.81
336.369	501.81
336.597	508.81
336.825	536.81
337.053	517.81
337.281	490.81
337.51	489.81
337.738	494.81
337.966	482.81
338.194	496.81
338.422	497.81
338.65	497.81
338.878	485.81
339.106	476.81
339.334	505.81
339.562	496.81
339.79	488.81
340.018	480.81
340.246	482.81
340.474	500.81
340.702	508.81
340.93	483.81
341.158	491.81
341.386	490.81
341.614	510.81
341.842	485.81
342.07	502.81
342.298	468.81
342.526	469.81
342.754	466.81
342.981	466.81
343.209	489.81
343.437	481.81
343.665	487.81
343.893	504.81
344.12	507.81
344.348	493.81
344.576	502.81
344.804	493.81
345.031	484.81
345.259	515.81
345.487	492.81
345.714	478.81
345.942	470.81
346.17	489.81
346.397	471.81
346.625	463.81
346.853	467.81
347.08	476.81
347.308	476.81
347.535	472.81
347.763	474.81
347.99	486.81
348.218	473.81
348.445	474.81
348.673	475.81
348.9	461.81
349.128	472.81
349.355	456.81
349.583	466.81
349.81	459.81
350.037	468.81
350.265	478.81
350.492	461.81
350.72	455.81
350.947	472.81
351.174	463.81
351.402	465.81
351.629	482.81
351.856	470.81
352.083	466.81
352.311	494.81
352.538	492.81
352.765	469.81
352.992	469.81
353.22	472.81
353.447	470.81
353.674	455.81
353.901	456.81
354.128	439.81
354.355	453.81
354.583	449.81
354.81	454.81
355.037	461.81
355.264	443.81
355.491	451.81
355.718	432.81
355.945	446.81
356.172	447.81
356.399	442.81
356.626	473.81
356.853	458.81
357.08	467.81
357.307	439.81
357.534	444.81
357.761	446.81
357.988	437.81
358.215	458.81
358.441	456.81
358.668	455.81
358.895	459.81
359.122	445.81
359.349	448.81
359.576	457.81
359.802	461.81
360.029	518.81
360.256	517.81
360.483	498.81
360.709	474.81
360.936	472.81
361.163	484.81
361.39	464.81
361.616	473.81
361.843	472.81
362.07	466.81
362.296	472.81
362.523	481.81
362.749	458.81
362.976	446.81
363.203	469.81
363.429	457.81
363.656	451.81
363.882	460.81
364.109	464.81
364.335	450.81
364.562	459.81
364.788	442.81
365.015	474.81
365.241	457.81
365.468	466.81
365.694	474.81
365.92	459.81
366.147	467.81
366.373	457.81
366.599	474.81
366.826	436.81
367.052	445.81
367.278	434.81
367.505	460.81
367.731	473.81
367.957	485.81
368.184	472.81
368.41	461.81
368.636	482.81
368.862	486.81
369.089	487.81
369.315	462.81
369.541	473.81
369.767	462.81
369.993	467.81
370.219	452.81
370.445	464.81
370.672	456.81
370.898	449.81
371.124	450.81
371.35	456.81
371.576	463.81
371.802	457.81
372.028	461.81
372.254	469.81
372.48	480.81
372.706	475.81
372.932	479.81
373.158	473.81
373.384	473.81
373.61	470.81
373.835	484.81
374.061	467.81
374.287	469.81
374.513	474.81
374.739	460.81
374.965	481.81
375.191	483.81
375.416	488.81
375.642	482.81
375.868	485.81
376.094	478.81
376.319	471.81
376.545	479.81
376.771	491.81
376.997	482.81
377.222	465.81
377.448	456.81
377.674	462.81
377.899	450.81
378.125	467.81
378.35	446.81
378.576	461.81
378.802	475.81
379.027	463.81
379.253	473.81
379.478	456.81
379.704	468.81
379.929	468.81
380.155	458.81
380.38	467.81
380.606	454.81
380.831	461.81
381.057	481.81
381.282	472.81
381.507	470.81
381.733	482.81
381.958	490.81
382.184	488.81
382.409	490.81
382.634	484.81
382.86	485.81
383.085	480.81
383.31	475.81
383.535	500.81
383.761	483.81
383.986	480.81
384.211	520.81
384.436	506.81
384.662	516.81
384.887	510.81
385.112	516.81
385.337	524.81
385.562	492.81
385.787	517.81
386.013	531.81
386.238	549.81
386.463	521.81
386.688	519.81
386.913	521.81
387.138	527.81
387.363	509.81
387.588	496.81
387.813	521.81
388.038	529.81
388.263	521.81
388.488	546.81
388.713	537.81
388.938	519.81
389.163	534.81
389.387	526.81
389.612	508.81
389.837	519.81
390.062	519.81
390.287	525.81
390.512	535.81
390.736	508.81
390.961	538.81
391.186	533.81
391.411	550.81
391.636	568.81
391.86	551.81
392.085	535.81
392.31	566.81
392.534	538.81
392.759	552.81
392.984	550.81
393.208	512.81
393.433	508.81
393.658	545.81
393.882	538.81
394.107	531.81
394.331	523.81
394.556	541.81
394.78	524.81
395.005	537.81
395.229	546.81
395.454	554.81
395.678	540.81
395.903	553.81
396.127	603.81
396.352	579.81
396.576	566.81
396.801	544.81
397.025	553.81
397.249	573.81
397.474	566.81
397.698	564.81
397.922	605.81
398.147	605.81
398.371	604.81
398.595	597.81
398.82	627.81
399.044	636.81
399.268	634.81
399.492	709.81
399.717	723.81
399.941	759.81
400.165	787.81
400.389	782.81
400.613	690.81
400.837	629.81
401.062	638.81
401.286	635.81
401.51	628.81
401.734	594.81
401.958	603.81
402.182	614.81
402.406	622.81
402.63	630.81
402.854	628.81
403.078	603.81
403.302	655.81
403.526	627.81
403.75	652.81
403.974	661.81
404.198	656.81
404.422	674.81
404.645	663.81
404.869	680.81
405.093	682.81
405.317	748.81
405.541	779.81
405.765	729.81
405.988	666.81
406.212	684.81
406.436	700.81
406.66	710.81
406.883	706.81
407.107	745.81
407.331	750.81
407.555	839.81
407.778	845.81
408.002	763.81
408.226	711.81
408.449	725.81
408.673	694.81
408.896	716.81
409.12	759.81
409.344	745.81
409.567	685.81
409.791	661.81
410.014	650.81
410.238	623.81
410.461	654.81
410.685	643.81
410.908	677.81
411.132	704.81
411.355	739.81
411.578	719.81
411.802	660.81
412.025	654.81
412.249	646.81
412.472	673.81
412.695	726.81
412.919	698.81
413.142	656.81
413.365	630.81
413.589	642.81
413.812	613.81
414.035	606.81
414.258	602.81
414.482	617.81
414.705	626.81
414.928	591.81
415.151	592.81
415.374	590.81
415.597	593.81
415.821	611.81
416.044	632.81
416.267	600.81
416.49	607.81
416.713	606.81
416.936	583.81
417.159	604.81
417.382	619.81
417.605	599.81
417.828	645.81
418.051	642.81
418.274	633.81
418.497	615.81
418.72	619.81
418.943	623.81
419.166	647.81
419.389	664.81
419.611	660.81
419.834	674.81
420.057	634.81
420.28	633.81
420.503	636.81
420.726	650.81
420.948	645.81
421.171	700.81
421.394	715.81
421.617	668.81
421.839	644.81
422.062	652.81
422.285	632.81
422.507	706.81
422.73	785.81
422.953	764.81
423.175	699.81
423.398	692.81
423.621	644.81
423.843	680.81
424.066	693.81
424.288	668.81
424.511	708.81
424.733	756.81
424.956	836.81
425.178	809.81
425.401	809.81
425.623	834.81
425.846	724.81
426.068	663.81
426.291	665.81
426.513	700.81
426.735	664.81
426.958	692.81
427.18	814.81
427.402	939.81
427.625	1042.81
427.847	852.81
428.069	786.81
428.292	724.81
428.514	653.81
428.736	638.81
428.958	633.81
429.181	619.81
429.403	608.81
429.625	638.81
429.847	670.81
430.069	724.81
430.292	752.81
430.514	650.81
430.736	613.81
430.958	596.81
431.18	595.81
431.402	594.81
431.624	580.81
431.846	609.81
432.068	575.81
432.29	597.81
432.512	577.81
432.734	612.81
432.956	581.81
433.178	612.81
433.4	624.81
433.622	603.81
433.844	602.81
434.066	597.81
434.287	604.81
434.509	608.81
434.731	624.81
434.953	612.81
435.175	629.81
435.397	671.81
435.618	637.81
435.84	694.81
436.062	816.81
436.284	873.81
436.505	736.81
436.727	685.81
436.949	617.81
437.17	642.81
437.392	618.81
437.614	637.81
437.835	654.81
438.057	754.81
438.278	890.81
438.5	858.81
438.721	977.81
438.943	902.81
439.165	752.81
439.386	676.81
439.608	676.81
439.829	669.81
440.05	693.81
440.272	727.81
440.493	724.81
440.715	661.81
440.936	631.81
441.158	630.81
441.379	620.81
441.6	634.81
441.822	644.81
442.043	736.81
442.264	835.81
442.486	842.81
442.707	701.81
442.928	699.81
443.149	673.81
443.371	693.81
443.592	761.81
443.813	873.81
444.034	965.81
444.255	803.81
444.476	724.81
444.698	727.81
444.919	696.81
445.14	782.81
445.361	708.81
445.582	727.81
445.803	805.81
446.024	906.81
446.245	906.81
446.466	823.81
446.687	708.81
446.908	664.81
447.129	640.81
447.35	647.81
447.571	595.81
447.792	601.81
448.013	609.81
448.234	626.81
448.455	692.81
448.675	812.81
448.896	936.81
449.117	816.81
449.338	756.81
449.559	890.81
449.779	984.81
450	768.81
450.221	652.81
450.442	629.81
450.662	614.81
450.883	613.81
451.104	590.81
451.324	607.81
451.545	568.81
451.766	561.81
451.986	556.81
452.207	556.81
452.428	530.81
452.648	558.81
452.869	560.81
453.089	546.81
453.31	576.81
453.53	574.81
453.751	535.81
453.971	551.81
454.192	586.81
454.412	563.81
454.633	553.81
454.853	536.81
455.073	533.81
455.294	570.81
455.514	634.81
455.734	633.81
455.955	542.81
456.175	532.81
456.395	510.81
456.616	503.81
456.836	533.81
457.056	512.81
457.276	496.81
457.497	519.81
457.717	494.81
457.937	518.81
458.157	551.81
458.377	554.81
458.598	565.81
458.818	615.81
459.038	681.81
459.258	711.81
459.478	650.81
459.698	606.81
459.918	574.81
460.138	586.81
460.358	603.81
460.578	613.81
460.798	597.81
461.018	614.81
461.238	615.81
461.458	611.81
461.678	593.81
461.898	619.81
462.118	609.81
462.338	620.81
462.558	625.81
462.777	659.81
462.997	672.81
463.217	697.81
463.437	685.81
463.657	680.81
463.876	677.81
464.096	672.81
464.316	661.81
464.536	646.81
464.755	661.81
464.975	642.81
465.195	679.81
465.414	738.81
465.634	687.81
465.854	633.81
466.073	614.81
466.293	590.81
466.512	586.81
466.732	564.81
466.951	563.81
467.171	554.81
467.391	568.81
467.61	563.81
467.829	578.81
468.049	590.81
468.268	560.81
468.488	566.81
468.707	546.81
468.927	564.81
469.146	527.81
469.365	558.81
469.585	560.81
469.804	580.81
470.023	604.81
470.243	588.81
470.462	578.81
470.681	594.81
470.901	621.81
471.12	571.81
471.339	570.81
471.558	594.81
471.777	574.81
471.997	572.81
472.216	575.81
472.435	603.81
472.654	593.81
472.873	552.81
473.092	559.81
473.311	574.81
473.53	579.81
473.749	583.81
473.968	594.81
474.187	717.81
474.406	772.81
474.625	637.81
474.844	583.81
475.063	580.81
475.282	586.81
475.501	562.81
475.72	618.81
475.939	579.81
476.158	586.81
476.377	585.81
476.596	598.81
476.814	600.81
477.033	601.81
477.252	586.81
477.471	605.81
477.69	617.81
477.908	640.81
478.127	650.81
478.346	644.81
478.564	647.81
478.783	661.81
479.002	666.81
479.22	672.81
479.439	668.81
479.658	654.81
479.876	676.81
480.095	679.81
480.313	741.81
480.532	750.81
480.751	699.81
480.969	721.81
481.188	774.81
481.406	788.81
481.624	742.81
481.843	684.81
482.061	669.81
482.28	691.81
482.498	669.81
482.717	669.81
482.935	683.81
483.153	679.81
483.372	661.81
483.59	668.81
483.808	680.81
484.027	688.81
484.245	681.81
484.463	665.81
484.681	692.81
484.9	686.81
485.118	706.81
485.336	678.81
485.554	686.81
485.772	682.81
485.99	701.81
486.209	716.81
486.427	694.81
486.645	690.81
486.863	739.81
487.081	723.81
487.299	725.81
487.517	713.81
487.735	725.81
487.953	720.81
488.171	728.81
488.389	710.81
488.607	705.81
488.825	712.81
489.043	739.81
489.261	742.81
489.479	729.81
489.696	739.81
489.914	732.81
490.132	761.81
490.35	754.81
490.568	788.81
490.786	772.81
491.003	796.81
491.221	778.81
491.439	793.81
491.657	813.81
491.874	828.81
492.092	860.81
492.31	863.81
492.527	822.81
492.745	860.81
492.963	827.81
493.18	870.81
493.398	861.81
493.615	858.81
493.833	858.81
494.05	869.81
494.268	867.81
494.485	869.81
494.703	838.81
494.92	862.81
495.138	838.81
495.355	867.81
495.573	874.81
495.79	850.81
496.008	892.81
496.225	880.81
496.442	866.81
496.66	873.81
496.877	851.81
497.094	904.81
497.312	885.81
497.529	936.81
497.746	909.81
497.963	929.81
498.181	950.81
498.398	943.81
498.615	985.81
498.832	986.81
499.049	1043.81
499.267	1057.81
499.484	1111.81
499.701	1144.81
499.918	1202.81
500.135	1273.81
500.352	1339.81
500.569	1418.81
500.786	1366.81
501.003	1343.81
501.22	1277.81
501.437	1225.81
501.654	1132.81
