Data from 1974.PennyLincolnUp.Lamp.En5.5.200Scan.071719.P1.Changed Mount._HRD10591_15-51-48-856.txt Node
Date: Thu Jul 18 15:51:48 EDT 2019
User: cochatt
Spectrometer: HR+D1059
Trigger mode: 1
Integration Time (sec): 1.000000E-1
Scans to average: 1
Electric dark correction enabled: true
Nonlinearity correction enabled: false
Boxcar width: 0
XAxis mode: Wavelengths
Number of Pixels in Spectrum: 2048
>>>>>Begin Spectral Data<<<<<
223.165	-12.94
223.4	-12.94
223.635	-12.94
223.869	-16.94
224.104	-19.94
224.338	-14.94
224.573	-2.94
224.808	-16.94
225.042	-8.94
225.277	-16.94
225.511	0.06
225.746	13.06
225.98	10.06
226.215	-3.94
226.449	5.06
226.683	8.06
226.918	33.06
227.152	45.06
227.387	34.06
227.621	37.06
227.856	41.06
228.09	38.06
228.324	45.06
228.559	66.06
228.793	71.06
229.027	88.06
229.262	100.06
229.496	115.06
229.73	114.06
229.964	158.06
230.199	123.06
230.433	112.06
230.667	104.06
230.901	111.06
231.136	127.06
231.37	102.06
231.604	96.06
231.838	116.06
232.072	120.06
232.306	115.06
232.541	123.06
232.775	121.06
233.009	120.06
233.243	128.06
233.477	120.06
233.711	129.06
233.945	119.06
234.179	119.06
234.413	130.06
234.647	121.06
234.881	128.06
235.115	127.06
235.349	111.06
235.583	125.06
235.817	126.06
236.051	123.06
236.285	117.06
236.519	123.06
236.753	131.06
236.987	120.06
237.221	181.06
237.455	220.06
237.689	195.06
237.922	135.06
238.156	127.06
238.39	130.06
238.624	134.06
238.858	125.06
239.091	118.06
239.325	120.06
239.559	136.06
239.793	128.06
240.027	128.06
240.26	141.06
240.494	167.06
240.728	147.06
240.961	140.06
241.195	138.06
241.429	138.06
241.662	134.06
241.896	144.06
242.13	147.06
242.363	138.06
242.597	125.06
242.83	137.06
243.064	161.06
243.298	137.06
243.531	128.06
243.765	144.06
243.998	140.06
244.232	141.06
244.465	149.06
244.699	148.06
244.932	165.06
245.166	139.06
245.399	144.06
245.633	159.06
245.866	148.06
246.099	164.06
246.333	147.06
246.566	144.06
246.8	151.06
247.033	166.06
247.266	165.06
247.5	162.06
247.733	187.06
247.966	183.06
248.2	173.06
248.433	172.06
248.666	190.06
248.899	175.06
249.133	206.06
249.366	224.06
249.599	194.06
249.832	200.06
250.066	168.06
250.299	193.06
250.532	201.06
250.765	203.06
250.998	207.06
251.231	220.06
251.465	203.06
251.698	220.06
251.931	204.06
252.164	206.06
252.397	189.06
252.63	202.06
252.863	205.06
253.096	208.06
253.329	241.06
253.562	232.06
253.795	219.06
254.028	226.06
254.261	225.06
254.494	212.06
254.727	259.06
254.96	276.06
255.193	266.06
255.426	244.06
255.659	222.06
255.892	231.06
256.124	233.06
256.357	230.06
256.59	221.06
256.823	215.06
257.056	206.06
257.289	220.06
257.521	221.06
257.754	219.06
257.987	214.06
258.22	212.06
258.452	204.06
258.685	216.06
258.918	221.06
259.151	222.06
259.383	230.06
259.616	218.06
259.849	229.06
260.081	230.06
260.314	248.06
260.547	250.06
260.779	252.06
261.012	240.06
261.244	232.06
261.477	220.06
261.71	241.06
261.942	225.06
262.175	224.06
262.407	234.06
262.64	222.06
262.872	207.06
263.105	206.06
263.337	232.06
263.57	236.06
263.802	233.06
264.035	223.06
264.267	197.06
264.499	216.06
264.732	231.06
264.964	217.06
265.197	219.06
265.429	230.06
265.661	218.06
265.894	207.06
266.126	233.06
266.358	226.06
266.591	231.06
266.823	240.06
267.055	240.06
267.287	247.06
267.52	230.06
267.752	227.06
267.984	236.06
268.216	242.06
268.448	235.06
268.681	242.06
268.913	257.06
269.145	264.06
269.377	294.06
269.609	277.06
269.841	259.06
270.073	287.06
270.306	315.06
270.538	303.06
270.77	304.06
271.002	301.06
271.234	295.06
271.466	297.06
271.698	294.06
271.93	319.06
272.162	314.06
272.394	303.06
272.626	307.06
272.858	281.06
273.09	290.06
273.322	265.06
273.553	259.06
273.785	272.06
274.017	273.06
274.249	271.06
274.481	267.06
274.713	280.06
274.945	285.06
275.176	276.06
275.408	277.06
275.64	285.06
275.872	245.06
276.104	275.06
276.335	276.06
276.567	268.06
276.799	269.06
277.031	306.06
277.262	322.06
277.494	330.06
277.726	308.06
277.957	295.06
278.189	287.06
278.421	274.06
278.652	268.06
278.884	255.06
279.115	284.06
279.347	277.06
279.579	274.06
279.81	267.06
280.042	263.06
280.273	276.06
280.505	273.06
280.736	265.06
280.968	265.06
281.199	282.06
281.431	275.06
281.662	287.06
281.894	283.06
282.125	276.06
282.356	306.06
282.588	299.06
282.819	293.06
283.051	302.06
283.282	266.06
283.513	285.06
283.745	291.06
283.976	304.06
284.207	290.06
284.439	288.06
284.67	288.06
284.901	276.06
285.132	282.06
285.364	304.06
285.595	287.06
285.826	287.06
286.057	290.06
286.288	290.06
286.52	300.06
286.751	289.06
286.982	293.06
287.213	288.06
287.444	293.06
287.675	298.06
287.906	293.06
288.138	309.06
288.369	309.06
288.6	309.06
288.831	296.06
289.062	295.06
289.293	323.06
289.524	304.06
289.755	307.06
289.986	311.06
290.217	309.06
290.448	300.06
290.679	312.06
290.91	314.06
291.141	292.06
291.371	303.06
291.602	295.06
291.833	310.06
292.064	283.06
292.295	296.06
292.526	292.06
292.757	290.06
292.987	299.06
293.218	298.06
293.449	318.06
293.68	290.06
293.91	301.06
294.141	306.06
294.372	292.06
294.603	302.06
294.833	313.06
295.064	309.06
295.295	320.06
295.525	308.06
295.756	298.06
295.987	308.06
296.217	320.06
296.448	340.06
296.679	327.06
296.909	315.06
297.14	323.06
297.37	323.06
297.601	311.06
297.831	320.06
298.062	337.06
298.292	332.06
298.523	323.06
298.753	327.06
298.984	312.06
299.214	321.06
299.445	311.06
299.675	317.06
299.905	333.06
300.136	337.06
300.366	332.06
300.597	350.06
300.827	326.06
301.057	344.06
301.288	334.06
301.518	336.06
301.748	339.06
301.979	327.06
302.209	339.06
302.439	347.06
302.669	367.06
302.9	345.06
303.13	344.06
303.36	328.06
303.59	349.06
303.82	354.06
304.051	347.06
304.281	345.06
304.511	356.06
304.741	340.06
304.971	356.06
305.201	360.06
305.431	339.06
305.661	349.06
305.891	347.06
306.121	355.06
306.352	355.06
306.582	343.06
306.812	351.06
307.042	355.06
307.272	338.06
307.502	341.06
307.731	338.06
307.961	358.06
308.191	345.06
308.421	335.06
308.651	329.06
308.881	365.06
309.111	373.06
309.341	333.06
309.571	347.06
309.8	351.06
310.03	360.06
310.26	356.06
310.49	372.06
310.72	383.06
310.949	381.06
311.179	376.06
311.409	395.06
311.639	360.06
311.868	375.06
312.098	389.06
312.328	388.06
312.557	380.06
312.787	383.06
313.017	376.06
313.246	393.06
313.476	395.06
313.706	409.06
313.935	405.06
314.165	400.06
314.394	408.06
314.624	409.06
314.853	375.06
315.083	379.06
315.312	407.06
315.542	381.06
315.771	375.06
316.001	378.06
316.23	385.06
316.46	373.06
316.689	396.06
316.919	372.06
317.148	398.06
317.377	412.06
317.607	395.06
317.836	397.06
318.065	389.06
318.295	377.06
318.524	373.06
318.753	380.06
318.983	392.06
319.212	370.06
319.441	391.06
319.67	394.06
319.9	382.06
320.129	385.06
320.358	393.06
320.587	379.06
320.816	379.06
321.046	384.06
321.275	388.06
321.504	381.06
321.733	404.06
321.962	417.06
322.191	423.06
322.42	403.06
322.649	412.06
322.878	441.06
323.108	437.06
323.337	450.06
323.566	467.06
323.795	468.06
324.024	501.06
324.253	594.06
324.482	781.06
324.71	1156.06
324.939	1716.06
325.168	1521.06
325.397	809.06
325.626	560.06
325.855	482.06
326.084	488.06
326.313	481.06
326.542	496.06
326.77	514.06
326.999	558.06
327.228	710.06
327.457	1051.06
327.686	1329.06
327.914	863.06
328.143	603.06
328.372	544.06
328.6	520.06
328.829	488.06
329.058	511.06
329.287	518.06
329.515	512.06
329.744	483.06
329.972	484.06
330.201	471.06
330.43	511.06
330.658	518.06
330.887	561.06
331.115	547.06
331.344	505.06
331.572	476.06
331.801	469.06
332.03	478.06
332.258	455.06
332.486	470.06
332.715	466.06
332.943	471.06
333.172	489.06
333.4	479.06
333.629	461.06
333.857	495.06
334.085	513.06
334.314	529.06
334.542	535.06
334.771	542.06
334.999	530.06
335.227	487.06
335.455	496.06
335.684	495.06
335.912	498.06
336.14	467.06
336.369	464.06
336.597	474.06
336.825	472.06
337.053	467.06
337.281	453.06
337.51	434.06
337.738	452.06
337.966	458.06
338.194	475.06
338.422	460.06
338.65	474.06
338.878	465.06
339.106	451.06
339.334	444.06
339.562	459.06
339.79	412.06
340.018	459.06
340.246	451.06
340.474	445.06
340.702	453.06
340.93	441.06
341.158	450.06
341.386	442.06
341.614	439.06
341.842	441.06
342.07	429.06
342.298	434.06
342.526	435.06
342.754	439.06
342.981	445.06
343.209	467.06
343.437	460.06
343.665	455.06
343.893	456.06
344.12	483.06
344.348	488.06
344.576	451.06
344.804	462.06
345.031	473.06
345.259	454.06
345.487	451.06
345.714	453.06
345.942	436.06
346.17	427.06
346.397	421.06
346.625	446.06
346.853	426.06
347.08	437.06
347.308	425.06
347.535	415.06
347.763	430.06
347.99	424.06
348.218	413.06
348.445	439.06
348.673	418.06
348.9	437.06
349.128	428.06
349.355	415.06
349.583	387.06
349.81	425.06
350.037	409.06
350.265	431.06
350.492	421.06
350.72	422.06
350.947	427.06
351.174	404.06
351.402	435.06
351.629	431.06
351.856	427.06
352.083	456.06
352.311	448.06
352.538	453.06
352.765	451.06
352.992	440.06
353.22	427.06
353.447	421.06
353.674	413.06
353.901	424.06
354.128	427.06
354.355	415.06
354.583	420.06
354.81	405.06
355.037	410.06
355.264	419.06
355.491	395.06
355.718	398.06
355.945	419.06
356.172	420.06
356.399	407.06
356.626	411.06
356.853	411.06
357.08	388.06
357.307	417.06
357.534	439.06
357.761	410.06
357.988	404.06
358.215	433.06
358.441	431.06
358.668	416.06
358.895	419.06
359.122	429.06
359.349	435.06
359.576	443.06
359.802	428.06
360.029	450.06
360.256	456.06
360.483	442.06
360.709	439.06
360.936	446.06
361.163	436.06
361.39	431.06
361.616	450.06
361.843	433.06
362.07	438.06
362.296	440.06
362.523	439.06
362.749	434.06
362.976	433.06
363.203	436.06
363.429	411.06
363.656	432.06
363.882	435.06
364.109	419.06
364.335	435.06
364.562	423.06
364.788	434.06
365.015	416.06
365.241	440.06
365.468	459.06
365.694	419.06
365.92	444.06
366.147	417.06
366.373	426.06
366.599	427.06
366.826	412.06
367.052	421.06
367.278	423.06
367.505	421.06
367.731	412.06
367.957	413.06
368.184	434.06
368.41	451.06
368.636	433.06
368.862	450.06
369.089	450.06
369.315	440.06
369.541	417.06
369.767	429.06
369.993	441.06
370.219	433.06
370.445	440.06
370.672	415.06
370.898	427.06
371.124	441.06
371.35	436.06
371.576	424.06
371.802	426.06
372.028	425.06
372.254	430.06
372.48	422.06
372.706	439.06
372.932	453.06
373.158	468.06
373.384	449.06
373.61	427.06
373.835	435.06
374.061	440.06
374.287	444.06
374.513	437.06
374.739	456.06
374.965	440.06
375.191	445.06
375.416	453.06
375.642	430.06
375.868	481.06
376.094	437.06
376.319	434.06
376.545	446.06
376.771	426.06
376.997	452.06
377.222	449.06
377.448	437.06
377.674	433.06
377.899	437.06
378.125	403.06
378.35	404.06
378.576	440.06
378.802	418.06
379.027	446.06
379.253	425.06
379.478	453.06
379.704	458.06
379.929	439.06
380.155	451.06
380.38	448.06
380.606	448.06
380.831	446.06
381.057	454.06
381.282	452.06
381.507	463.06
381.733	437.06
381.958	456.06
382.184	444.06
382.409	452.06
382.634	439.06
382.86	461.06
383.085	466.06
383.31	451.06
383.535	485.06
383.761	456.06
383.986	478.06
384.211	480.06
384.436	460.06
384.662	486.06
384.887	487.06
385.112	488.06
385.337	498.06
385.562	473.06
385.787	506.06
386.013	510.06
386.238	504.06
386.463	502.06
386.688	487.06
386.913	480.06
387.138	524.06
387.363	475.06
387.588	485.06
387.813	508.06
388.038	501.06
388.263	482.06
388.488	495.06
388.713	495.06
388.938	476.06
389.163	499.06
389.387	485.06
389.612	483.06
389.837	471.06
390.062	506.06
390.287	488.06
390.512	483.06
390.736	490.06
390.961	480.06
391.186	472.06
391.411	504.06
391.636	512.06
391.86	514.06
392.085	526.06
392.31	523.06
392.534	509.06
392.759	510.06
392.984	496.06
393.208	497.06
393.433	502.06
393.658	504.06
393.882	487.06
394.107	499.06
394.331	491.06
394.556	484.06
394.78	504.06
395.005	463.06
395.229	511.06
395.454	511.06
395.678	547.06
395.903	531.06
396.127	553.06
396.352	547.06
396.576	548.06
396.801	512.06
397.025	528.06
397.249	521.06
397.474	541.06
397.698	532.06
397.922	555.06
398.147	562.06
398.371	575.06
398.595	559.06
398.82	545.06
399.044	546.06
399.268	616.06
399.492	644.06
399.717	682.06
399.941	732.06
400.165	727.06
400.389	709.06
400.613	658.06
400.837	602.06
401.062	582.06
401.286	578.06
401.51	589.06
401.734	584.06
401.958	583.06
402.182	582.06
402.406	571.06
402.63	564.06
402.854	578.06
403.078	582.06
403.302	585.06
403.526	593.06
403.75	613.06
403.974	625.06
404.198	592.06
404.422	580.06
404.645	616.06
404.869	613.06
405.093	649.06
405.317	649.06
405.541	715.06
405.765	667.06
405.988	617.06
406.212	613.06
406.436	648.06
406.66	665.06
406.883	631.06
407.107	678.06
407.331	707.06
407.555	784.06
407.778	809.06
408.002	722.06
408.226	672.06
408.449	659.06
408.673	659.06
408.896	660.06
409.12	708.06
409.344	705.06
409.567	638.06
409.791	610.06
410.014	596.06
410.238	583.06
410.461	596.06
410.685	615.06
410.908	594.06
411.132	651.06
411.355	668.06
411.578	629.06
411.802	597.06
412.025	580.06
412.249	592.06
412.472	641.06
412.695	637.06
412.919	652.06
413.142	616.06
413.365	593.06
413.589	558.06
413.812	560.06
414.035	554.06
414.258	573.06
414.482	574.06
414.705	593.06
414.928	567.06
415.151	579.06
415.374	564.06
415.597	567.06
415.821	545.06
416.044	571.06
416.267	562.06
416.49	585.06
416.713	591.06
416.936	557.06
417.159	568.06
417.382	570.06
417.605	559.06
417.828	583.06
418.051	567.06
418.274	587.06
418.497	576.06
418.72	570.06
418.943	554.06
419.166	576.06
419.389	628.06
419.611	627.06
419.834	594.06
420.057	602.06
420.28	602.06
420.503	605.06
420.726	577.06
420.948	628.06
421.171	652.06
421.394	682.06
421.617	631.06
421.839	588.06
422.062	617.06
422.285	601.06
422.507	653.06
422.73	731.06
422.953	706.06
423.175	632.06
423.398	602.06
423.621	627.06
423.843	636.06
424.066	616.06
424.288	619.06
424.511	635.06
424.733	687.06
424.956	758.06
425.178	764.06
425.401	755.06
425.623	775.06
425.846	666.06
426.068	632.06
426.291	599.06
426.513	618.06
426.735	623.06
426.958	631.06
427.18	723.06
427.402	875.06
427.625	959.06
427.847	822.06
428.069	701.06
428.292	630.06
428.514	605.06
428.736	597.06
428.958	587.06
429.181	550.06
429.403	568.06
429.625	588.06
429.847	609.06
430.069	688.06
430.292	685.06
430.514	601.06
430.736	577.06
430.958	562.06
431.18	532.06
431.402	544.06
431.624	542.06
431.846	544.06
432.068	525.06
432.29	544.06
432.512	549.06
432.734	558.06
432.956	542.06
433.178	575.06
433.4	563.06
433.622	574.06
433.844	578.06
434.066	539.06
434.287	545.06
434.509	549.06
434.731	564.06
434.953	580.06
435.175	593.06
435.397	619.06
435.618	618.06
435.84	626.06
436.062	749.06
436.284	817.06
436.505	693.06
436.727	623.06
436.949	582.06
437.17	576.06
437.392	581.06
437.614	574.06
437.835	618.06
438.057	675.06
438.278	819.06
438.5	800.06
438.721	885.06
438.943	844.06
439.165	653.06
439.386	626.06
439.608	609.06
439.829	619.06
440.05	647.06
440.272	699.06
440.493	637.06
440.715	611.06
440.936	583.06
441.158	602.06
441.379	578.06
441.6	611.06
441.822	619.06
442.043	643.06
442.264	725.06
442.486	809.06
442.707	684.06
442.928	621.06
443.149	634.06
443.371	660.06
443.592	681.06
443.813	807.06
444.034	875.06
444.255	722.06
444.476	671.06
444.698	627.06
444.919	645.06
445.14	747.06
445.361	698.06
445.582	661.06
445.803	703.06
446.024	808.06
446.245	826.06
446.466	753.06
446.687	632.06
446.908	602.06
447.129	589.06
447.35	588.06
447.571	565.06
447.792	544.06
448.013	565.06
448.234	581.06
448.455	642.06
448.675	771.06
448.896	840.06
449.117	703.06
449.338	683.06
449.559	788.06
449.779	891.06
450	719.06
450.221	604.06
450.442	559.06
450.662	550.06
450.883	524.06
451.104	548.06
451.324	540.06
451.545	528.06
451.766	529.06
451.986	533.06
452.207	489.06
452.428	495.06
452.648	517.06
452.869	516.06
453.089	512.06
453.31	528.06
453.53	515.06
453.751	515.06
453.971	492.06
454.192	519.06
454.412	505.06
454.633	492.06
454.853	496.06
455.073	505.06
455.294	516.06
455.514	588.06
455.734	581.06
455.955	497.06
456.175	465.06
456.395	491.06
456.616	481.06
456.836	479.06
457.056	474.06
457.276	463.06
457.497	476.06
457.717	491.06
457.937	494.06
458.157	505.06
458.377	506.06
458.598	539.06
458.818	557.06
459.038	615.06
459.258	641.06
459.478	597.06
459.698	543.06
459.918	556.06
460.138	551.06
460.358	565.06
460.578	587.06
460.798	582.06
461.018	587.06
461.238	571.06
461.458	578.06
461.678	566.06
461.898	561.06
462.118	582.06
462.338	620.06
462.558	579.06
462.777	610.06
462.997	614.06
463.217	647.06
463.437	652.06
463.657	645.06
463.876	637.06
464.096	619.06
464.316	602.06
464.536	633.06
464.755	605.06
464.975	603.06
465.195	635.06
465.414	653.06
465.634	596.06
465.854	583.06
466.073	576.06
466.293	564.06
466.512	511.06
466.732	531.06
466.951	525.06
467.171	521.06
467.391	512.06
467.61	538.06
467.829	533.06
468.049	535.06
468.268	526.06
468.488	522.06
468.707	527.06
468.927	524.06
469.146	487.06
469.365	513.06
469.585	523.06
469.804	524.06
470.023	546.06
470.243	567.06
470.462	545.06
470.681	527.06
470.901	540.06
471.12	538.06
471.339	542.06
471.558	522.06
471.777	528.06
471.997	532.06
472.216	547.06
472.435	544.06
472.654	535.06
472.873	533.06
473.092	513.06
473.311	517.06
473.53	533.06
473.749	519.06
473.968	581.06
474.187	652.06
474.406	663.06
474.625	588.06
474.844	553.06
475.063	529.06
475.282	516.06
475.501	554.06
475.72	554.06
475.939	548.06
476.158	545.06
476.377	544.06
476.596	537.06
476.814	565.06
477.033	561.06
477.252	566.06
477.471	550.06
477.69	579.06
477.908	595.06
478.127	581.06
478.346	613.06
478.564	604.06
478.783	599.06
479.002	603.06
479.22	631.06
479.439	615.06
479.658	632.06
479.876	653.06
480.095	648.06
480.313	671.06
480.532	684.06
480.751	667.06
480.969	649.06
481.188	664.06
481.406	714.06
481.624	655.06
481.843	640.06
482.061	626.06
482.28	643.06
482.498	601.06
482.717	619.06
482.935	606.06
483.153	586.06
483.372	634.06
483.59	620.06
483.808	592.06
484.027	598.06
484.245	631.06
484.463	631.06
484.681	627.06
484.9	658.06
485.118	642.06
485.336	638.06
485.554	637.06
485.772	651.06
485.99	666.06
486.209	627.06
486.427	656.06
486.645	672.06
486.863	698.06
487.081	657.06
487.299	669.06
487.517	646.06
487.735	663.06
487.953	677.06
488.171	643.06
488.389	674.06
488.607	656.06
488.825	663.06
489.043	682.06
489.261	682.06
489.479	690.06
489.696	674.06
489.914	663.06
490.132	674.06
490.35	721.06
490.568	716.06
490.786	707.06
491.003	752.06
491.221	738.06
491.439	735.06
491.657	775.06
491.874	778.06
492.092	775.06
492.31	787.06
492.527	758.06
492.745	795.06
492.963	812.06
493.18	800.06
493.398	776.06
493.615	784.06
493.833	793.06
494.05	794.06
494.268	805.06
494.485	793.06
494.703	787.06
494.92	805.06
495.138	768.06
495.355	817.06
495.573	827.06
495.79	818.06
496.008	796.06
496.225	775.06
496.442	782.06
496.66	793.06
496.877	816.06
497.094	826.06
497.312	805.06
497.529	803.06
497.746	842.06
497.963	827.06
498.181	880.06
498.398	888.06
498.615	903.06
498.832	941.06
499.049	951.06
499.267	992.06
499.484	1023.06
499.701	1047.06
499.918	1107.06
500.135	1158.06
500.352	1259.06
500.569	1285.06
500.786	1302.06
501.003	1224.06
501.22	1173.06
501.437	1149.06
501.654	1103.06
