Data from 1974.PennyLincolnUp.Lamp.En5.5.200Scan.071719.P1.Changed Mount._HRD10591_15-53-38-857.txt Node
Date: Thu Jul 18 15:53:38 EDT 2019
User: cochatt
Spectrometer: HR+D1059
Trigger mode: 1
Integration Time (sec): 1.000000E-1
Scans to average: 1
Electric dark correction enabled: true
Nonlinearity correction enabled: false
Boxcar width: 0
XAxis mode: Wavelengths
Number of Pixels in Spectrum: 2048
>>>>>Begin Spectral Data<<<<<
223.165	-11.94
223.4	-11.94
223.635	-11.94
223.869	-15.94
224.104	-5.94
224.338	-13.94
224.573	-21.94
224.808	-26.94
225.042	-1.94
225.277	6.06
225.511	6.06
225.746	-0.94
225.98	6.06
226.215	-4.94
226.449	20.06
226.683	14.06
226.918	28.06
227.152	24.06
227.387	28.06
227.621	23.06
227.856	36.06
228.09	52.06
228.324	51.06
228.559	44.06
228.793	70.06
229.027	113.06
229.262	116.06
229.496	124.06
229.73	149.06
229.964	162.06
230.199	127.06
230.433	122.06
230.667	106.06
230.901	117.06
231.136	125.06
231.37	123.06
231.604	111.06
231.838	120.06
232.072	113.06
232.306	126.06
232.541	112.06
232.775	127.06
233.009	117.06
233.243	121.06
233.477	133.06
233.711	111.06
233.945	131.06
234.179	127.06
234.413	124.06
234.647	126.06
234.881	120.06
235.115	116.06
235.349	127.06
235.583	116.06
235.817	105.06
236.051	127.06
236.285	125.06
236.519	133.06
236.753	116.06
236.987	130.06
237.221	180.06
237.455	212.06
237.689	178.06
237.922	162.06
238.156	136.06
238.39	133.06
238.624	128.06
238.858	139.06
239.091	133.06
239.325	122.06
239.559	138.06
239.793	127.06
240.027	136.06
240.26	156.06
240.494	150.06
240.728	141.06
240.961	155.06
241.195	149.06
241.429	141.06
241.662	157.06
241.896	134.06
242.13	121.06
242.363	121.06
242.597	129.06
242.83	159.06
243.064	148.06
243.298	145.06
243.531	143.06
243.765	153.06
243.998	149.06
244.232	139.06
244.465	153.06
244.699	152.06
244.932	162.06
245.166	147.06
245.399	149.06
245.633	157.06
245.866	156.06
246.099	152.06
246.333	161.06
246.566	149.06
246.8	154.06
247.033	161.06
247.266	162.06
247.5	172.06
247.733	171.06
247.966	179.06
248.2	188.06
248.433	168.06
248.666	195.06
248.899	204.06
249.133	201.06
249.366	208.06
249.599	228.06
249.832	198.06
250.066	197.06
250.299	210.06
250.532	201.06
250.765	216.06
250.998	232.06
251.231	237.06
251.465	208.06
251.698	229.06
251.931	206.06
252.164	209.06
252.397	216.06
252.63	231.06
252.863	199.06
253.096	225.06
253.329	231.06
253.562	237.06
253.795	225.06
254.028	221.06
254.261	203.06
254.494	244.06
254.727	268.06
254.96	305.06
255.193	297.06
255.426	239.06
255.659	240.06
255.892	243.06
256.124	251.06
256.357	260.06
256.59	234.06
256.823	225.06
257.056	221.06
257.289	214.06
257.521	220.06
257.754	210.06
257.987	224.06
258.22	223.06
258.452	220.06
258.685	207.06
258.918	217.06
259.151	222.06
259.383	218.06
259.616	212.06
259.849	223.06
260.081	268.06
260.314	269.06
260.547	267.06
260.779	271.06
261.012	255.06
261.244	237.06
261.477	227.06
261.71	237.06
261.942	244.06
262.175	261.06
262.407	246.06
262.64	226.06
262.872	213.06
263.105	239.06
263.337	246.06
263.57	243.06
263.802	231.06
264.035	230.06
264.267	234.06
264.499	242.06
264.732	246.06
264.964	225.06
265.197	237.06
265.429	224.06
265.661	217.06
265.894	243.06
266.126	220.06
266.358	231.06
266.591	224.06
266.823	239.06
267.055	243.06
267.287	244.06
267.52	245.06
267.752	261.06
267.984	243.06
268.216	244.06
268.448	255.06
268.681	253.06
268.913	258.06
269.145	272.06
269.377	290.06
269.609	294.06
269.841	291.06
270.073	293.06
270.306	311.06
270.538	324.06
270.77	341.06
271.002	341.06
271.234	316.06
271.466	318.06
271.698	324.06
271.93	329.06
272.162	353.06
272.394	340.06
272.626	329.06
272.858	310.06
273.09	299.06
273.322	288.06
273.553	264.06
273.785	287.06
274.017	277.06
274.249	278.06
274.481	273.06
274.713	274.06
274.945	294.06
275.176	300.06
275.408	300.06
275.64	279.06
275.872	272.06
276.104	283.06
276.335	277.06
276.567	287.06
276.799	304.06
277.031	339.06
277.262	344.06
277.494	338.06
277.726	345.06
277.957	303.06
278.189	321.06
278.421	292.06
278.652	297.06
278.884	301.06
279.115	280.06
279.347	290.06
279.579	286.06
279.81	299.06
280.042	281.06
280.273	291.06
280.505	311.06
280.736	275.06
280.968	320.06
281.199	295.06
281.431	285.06
281.662	297.06
281.894	284.06
282.125	297.06
282.356	316.06
282.588	307.06
282.819	320.06
283.051	296.06
283.282	307.06
283.513	298.06
283.745	318.06
283.976	314.06
284.207	321.06
284.439	298.06
284.67	307.06
284.901	301.06
285.132	331.06
285.364	295.06
285.595	315.06
285.826	313.06
286.057	316.06
286.288	296.06
286.52	301.06
286.751	325.06
286.982	305.06
287.213	322.06
287.444	322.06
287.675	315.06
287.906	336.06
288.138	322.06
288.369	322.06
288.6	319.06
288.831	331.06
289.062	321.06
289.293	319.06
289.524	321.06
289.755	330.06
289.986	329.06
290.217	321.06
290.448	308.06
290.679	347.06
290.91	323.06
291.141	329.06
291.371	336.06
291.602	317.06
291.833	332.06
292.064	341.06
292.295	313.06
292.526	324.06
292.757	328.06
292.987	317.06
293.218	322.06
293.449	311.06
293.68	333.06
293.91	313.06
294.141	327.06
294.372	320.06
294.603	315.06
294.833	322.06
295.064	325.06
295.295	315.06
295.525	330.06
295.756	331.06
295.987	340.06
296.217	354.06
296.448	344.06
296.679	331.06
296.909	337.06
297.14	327.06
297.37	321.06
297.601	320.06
297.831	341.06
298.062	331.06
298.292	321.06
298.523	345.06
298.753	330.06
298.984	356.06
299.214	357.06
299.445	362.06
299.675	343.06
299.905	337.06
300.136	341.06
300.366	333.06
300.597	344.06
300.827	345.06
301.057	349.06
301.288	353.06
301.518	350.06
301.748	353.06
301.979	372.06
302.209	344.06
302.439	350.06
302.669	361.06
302.9	379.06
303.13	360.06
303.36	351.06
303.59	368.06
303.82	345.06
304.051	374.06
304.281	367.06
304.511	351.06
304.741	353.06
304.971	349.06
305.201	348.06
305.431	369.06
305.661	359.06
305.891	380.06
306.121	351.06
306.352	371.06
306.582	368.06
306.812	355.06
307.042	357.06
307.272	364.06
307.502	375.06
307.731	383.06
307.961	375.06
308.191	353.06
308.421	359.06
308.651	351.06
308.881	373.06
309.111	361.06
309.341	383.06
309.571	397.06
309.8	384.06
310.03	386.06
310.26	408.06
310.49	411.06
310.72	412.06
310.949	423.06
311.179	430.06
311.409	419.06
311.639	412.06
311.868	395.06
312.098	406.06
312.328	424.06
312.557	416.06
312.787	455.06
313.017	417.06
313.246	407.06
313.476	383.06
313.706	397.06
313.935	405.06
314.165	418.06
314.394	426.06
314.624	435.06
314.853	413.06
315.083	426.06
315.312	431.06
315.542	411.06
315.771	400.06
316.001	399.06
316.23	387.06
316.46	397.06
316.689	397.06
316.919	432.06
317.148	423.06
317.377	411.06
317.607	415.06
317.836	392.06
318.065	426.06
318.295	404.06
318.524	432.06
318.753	421.06
318.983	405.06
319.212	420.06
319.441	401.06
319.67	437.06
319.9	411.06
320.129	433.06
320.358	435.06
320.587	416.06
320.816	405.06
321.046	435.06
321.275	437.06
321.504	426.06
321.733	421.06
321.962	435.06
322.191	435.06
322.42	467.06
322.649	470.06
322.878	452.06
323.108	476.06
323.337	479.06
323.566	509.06
323.795	525.06
324.024	556.06
324.253	652.06
324.482	870.06
324.71	1275.06
324.939	1967.06
325.168	1771.06
325.397	879.06
325.626	601.06
325.855	543.06
326.084	504.06
326.313	497.06
326.542	505.06
326.77	564.06
326.999	623.06
327.228	801.06
327.457	1238.06
327.686	1506.06
327.914	979.06
328.143	691.06
328.372	612.06
328.6	558.06
328.829	581.06
329.058	565.06
329.287	575.06
329.515	548.06
329.744	543.06
329.972	524.06
330.201	554.06
330.43	565.06
330.658	586.06
330.887	606.06
331.115	597.06
331.344	550.06
331.572	518.06
331.801	522.06
332.03	531.06
332.258	497.06
332.486	525.06
332.715	492.06
332.943	482.06
333.172	511.06
333.4	527.06
333.629	513.06
333.857	531.06
334.085	545.06
334.314	558.06
334.542	565.06
334.771	595.06
334.999	553.06
335.227	532.06
335.455	532.06
335.684	510.06
335.912	511.06
336.14	497.06
336.369	488.06
336.597	523.06
336.825	509.06
337.053	486.06
337.281	464.06
337.51	492.06
337.738	508.06
337.966	494.06
338.194	495.06
338.422	505.06
338.65	489.06
338.878	483.06
339.106	470.06
339.334	488.06
339.562	469.06
339.79	482.06
340.018	479.06
340.246	489.06
340.474	476.06
340.702	481.06
340.93	482.06
341.158	478.06
341.386	488.06
341.614	484.06
341.842	479.06
342.07	495.06
342.298	454.06
342.526	456.06
342.754	444.06
342.981	459.06
343.209	457.06
343.437	489.06
343.665	478.06
343.893	541.06
344.12	507.06
344.348	509.06
344.576	500.06
344.804	495.06
345.031	486.06
345.259	495.06
345.487	489.06
345.714	483.06
345.942	480.06
346.17	448.06
346.397	452.06
346.625	456.06
346.853	461.06
347.08	462.06
347.308	467.06
347.535	464.06
347.763	464.06
347.99	453.06
348.218	463.06
348.445	466.06
348.673	456.06
348.9	468.06
349.128	460.06
349.355	451.06
349.583	438.06
349.81	453.06
350.037	471.06
350.265	445.06
350.492	450.06
350.72	452.06
350.947	458.06
351.174	451.06
351.402	449.06
351.629	476.06
351.856	467.06
352.083	453.06
352.311	474.06
352.538	479.06
352.765	483.06
352.992	473.06
353.22	472.06
353.447	457.06
353.674	453.06
353.901	447.06
354.128	453.06
354.355	434.06
354.583	450.06
354.81	444.06
355.037	428.06
355.264	435.06
355.491	445.06
355.718	447.06
355.945	452.06
356.172	457.06
356.399	439.06
356.626	425.06
356.853	434.06
357.08	431.06
357.307	424.06
357.534	415.06
357.761	433.06
357.988	472.06
358.215	431.06
358.441	470.06
358.668	431.06
358.895	445.06
359.122	445.06
359.349	448.06
359.576	461.06
359.802	467.06
360.029	479.06
360.256	504.06
360.483	481.06
360.709	481.06
360.936	473.06
361.163	477.06
361.39	464.06
361.616	442.06
361.843	463.06
362.07	460.06
362.296	469.06
362.523	465.06
362.749	465.06
362.976	459.06
363.203	447.06
363.429	449.06
363.656	463.06
363.882	449.06
364.109	453.06
364.335	450.06
364.562	459.06
364.788	486.06
365.015	441.06
365.241	467.06
365.468	449.06
365.694	443.06
365.92	482.06
366.147	439.06
366.373	454.06
366.599	461.06
366.826	443.06
367.052	449.06
367.278	451.06
367.505	455.06
367.731	451.06
367.957	434.06
368.184	452.06
368.41	456.06
368.636	440.06
368.862	484.06
369.089	441.06
369.315	443.06
369.541	461.06
369.767	447.06
369.993	450.06
370.219	437.06
370.445	467.06
370.672	455.06
370.898	445.06
371.124	456.06
371.35	472.06
371.576	454.06
371.802	446.06
372.028	453.06
372.254	461.06
372.48	469.06
372.706	455.06
372.932	468.06
373.158	489.06
373.384	467.06
373.61	478.06
373.835	463.06
374.061	460.06
374.287	475.06
374.513	459.06
374.739	474.06
374.965	496.06
375.191	485.06
375.416	465.06
375.642	474.06
375.868	475.06
376.094	471.06
376.319	458.06
376.545	472.06
376.771	459.06
376.997	461.06
377.222	458.06
377.448	460.06
377.674	468.06
377.899	461.06
378.125	456.06
378.35	444.06
378.576	463.06
378.802	454.06
379.027	473.06
379.253	477.06
379.478	454.06
379.704	444.06
379.929	465.06
380.155	472.06
380.38	465.06
380.606	476.06
380.831	475.06
381.057	451.06
381.282	467.06
381.507	468.06
381.733	468.06
381.958	467.06
382.184	460.06
382.409	470.06
382.634	478.06
382.86	478.06
383.085	490.06
383.31	481.06
383.535	495.06
383.761	480.06
383.986	496.06
384.211	499.06
384.436	479.06
384.662	472.06
384.887	497.06
385.112	501.06
385.337	507.06
385.562	500.06
385.787	495.06
386.013	518.06
386.238	509.06
386.463	534.06
386.688	549.06
386.913	534.06
387.138	533.06
387.363	536.06
387.588	501.06
387.813	513.06
388.038	522.06
388.263	527.06
388.488	523.06
388.713	518.06
388.938	535.06
389.163	539.06
389.387	497.06
389.612	513.06
389.837	524.06
390.062	497.06
390.287	513.06
390.512	518.06
390.736	511.06
390.961	544.06
391.186	527.06
391.411	515.06
391.636	557.06
391.86	532.06
392.085	543.06
392.31	535.06
392.534	535.06
392.759	532.06
392.984	541.06
393.208	538.06
393.433	546.06
393.658	538.06
393.882	514.06
394.107	516.06
394.331	516.06
394.556	547.06
394.78	517.06
395.005	537.06
395.229	519.06
395.454	552.06
395.678	563.06
395.903	559.06
396.127	588.06
396.352	572.06
396.576	547.06
396.801	533.06
397.025	534.06
397.249	572.06
397.474	556.06
397.698	591.06
397.922	575.06
398.147	573.06
398.371	596.06
398.595	598.06
398.82	627.06
399.044	625.06
399.268	630.06
399.492	680.06
399.717	743.06
399.941	746.06
400.165	771.06
400.389	767.06
400.613	671.06
400.837	647.06
401.062	630.06
401.286	608.06
401.51	580.06
401.734	605.06
401.958	635.06
402.182	601.06
402.406	625.06
402.63	615.06
402.854	631.06
403.078	629.06
403.302	632.06
403.526	651.06
403.75	649.06
403.974	627.06
404.198	656.06
404.422	635.06
404.645	629.06
404.869	661.06
405.093	685.06
405.317	728.06
405.541	744.06
405.765	692.06
405.988	679.06
406.212	671.06
406.436	682.06
406.66	701.06
406.883	679.06
407.107	705.06
407.331	744.06
407.555	832.06
407.778	829.06
408.002	770.06
408.226	710.06
408.449	705.06
408.673	696.06
408.896	748.06
409.12	758.06
409.344	743.06
409.567	668.06
409.791	673.06
410.014	636.06
410.238	618.06
410.461	637.06
410.685	635.06
410.908	650.06
411.132	685.06
411.355	721.06
411.578	693.06
411.802	635.06
412.025	629.06
412.249	637.06
412.472	640.06
412.695	692.06
412.919	691.06
413.142	636.06
413.365	629.06
413.589	631.06
413.812	627.06
414.035	572.06
414.258	607.06
414.482	607.06
414.705	593.06
414.928	595.06
415.151	596.06
415.374	592.06
415.597	617.06
415.821	574.06
416.044	604.06
416.267	599.06
416.49	598.06
416.713	603.06
416.936	603.06
417.159	588.06
417.382	599.06
417.605	585.06
417.828	630.06
418.051	625.06
418.274	612.06
418.497	615.06
418.72	597.06
418.943	610.06
419.166	635.06
419.389	665.06
419.611	664.06
419.834	649.06
420.057	650.06
420.28	636.06
420.503	641.06
420.726	625.06
420.948	634.06
421.171	661.06
421.394	725.06
421.617	654.06
421.839	631.06
422.062	625.06
422.285	624.06
422.507	703.06
422.73	774.06
422.953	743.06
423.175	703.06
423.398	659.06
423.621	648.06
423.843	647.06
424.066	681.06
424.288	677.06
424.511	679.06
424.733	753.06
424.956	827.06
425.178	801.06
425.401	775.06
425.623	821.06
425.846	704.06
426.068	649.06
426.291	646.06
426.513	663.06
426.735	653.06
426.958	709.06
427.18	791.06
427.402	912.06
427.625	968.06
427.847	869.06
428.069	762.06
428.292	703.06
428.514	639.06
428.736	617.06
428.958	629.06
429.181	597.06
429.403	596.06
429.625	623.06
429.847	648.06
430.069	723.06
430.292	719.06
430.514	648.06
430.736	616.06
430.958	612.06
431.18	587.06
431.402	585.06
431.624	583.06
431.846	572.06
432.068	567.06
432.29	591.06
432.512	588.06
432.734	586.06
432.956	579.06
433.178	587.06
433.4	591.06
433.622	579.06
433.844	572.06
434.066	591.06
434.287	598.06
434.509	602.06
434.731	578.06
434.953	625.06
435.175	627.06
435.397	662.06
435.618	647.06
435.84	697.06
436.062	775.06
436.284	863.06
436.505	742.06
436.727	668.06
436.949	613.06
437.17	582.06
437.392	600.06
437.614	623.06
437.835	639.06
438.057	727.06
438.278	835.06
438.5	831.06
438.721	927.06
438.943	919.06
439.165	716.06
439.386	664.06
439.608	660.06
439.829	645.06
440.05	694.06
440.272	734.06
440.493	667.06
440.715	650.06
440.936	648.06
441.158	620.06
441.379	628.06
441.6	653.06
441.822	660.06
442.043	697.06
442.264	791.06
442.486	811.06
442.707	692.06
442.928	683.06
443.149	675.06
443.371	691.06
443.592	770.06
443.813	857.06
444.034	915.06
444.255	754.06
444.476	729.06
444.698	691.06
444.919	671.06
445.14	761.06
445.361	703.06
445.582	738.06
445.803	751.06
446.024	843.06
446.245	905.06
446.466	807.06
446.687	685.06
446.908	654.06
447.129	645.06
447.35	636.06
447.571	601.06
447.792	577.06
448.013	605.06
448.234	621.06
448.455	659.06
448.675	773.06
448.896	914.06
449.117	791.06
449.338	733.06
449.559	851.06
449.779	963.06
450	799.06
450.221	643.06
450.442	604.06
450.662	591.06
450.883	581.06
451.104	597.06
451.324	574.06
451.545	570.06
451.766	546.06
451.986	556.06
452.207	556.06
452.428	540.06
452.648	537.06
452.869	522.06
453.089	556.06
453.31	550.06
453.53	553.06
453.751	545.06
453.971	537.06
454.192	573.06
454.412	541.06
454.633	533.06
454.853	533.06
455.073	533.06
455.294	580.06
455.514	617.06
455.734	619.06
455.955	539.06
456.175	519.06
456.395	509.06
456.616	508.06
456.836	534.06
457.056	491.06
457.276	478.06
457.497	483.06
457.717	520.06
457.937	503.06
458.157	543.06
458.377	531.06
458.598	553.06
458.818	583.06
459.038	659.06
459.258	700.06
459.478	638.06
459.698	579.06
459.918	586.06
460.138	603.06
460.358	587.06
460.578	594.06
460.798	604.06
461.018	605.06
461.238	595.06
461.458	588.06
461.678	594.06
461.898	602.06
462.118	619.06
462.338	637.06
462.558	615.06
462.777	649.06
462.997	672.06
463.217	709.06
463.437	694.06
463.657	679.06
463.876	655.06
464.096	649.06
464.316	653.06
464.536	648.06
464.755	642.06
464.975	655.06
465.195	657.06
465.414	723.06
465.634	651.06
465.854	620.06
466.073	608.06
466.293	578.06
466.512	567.06
466.732	572.06
466.951	569.06
467.171	565.06
467.391	556.06
467.61	571.06
467.829	556.06
468.049	562.06
468.268	547.06
468.488	543.06
468.707	537.06
468.927	551.06
469.146	535.06
469.365	552.06
469.585	549.06
469.804	572.06
470.023	565.06
470.243	578.06
470.462	571.06
470.681	613.06
470.901	587.06
471.12	574.06
471.339	586.06
471.558	547.06
471.777	564.06
471.997	542.06
472.216	579.06
472.435	599.06
472.654	571.06
472.873	554.06
473.092	549.06
473.311	554.06
473.53	561.06
473.749	573.06
473.968	614.06
474.187	696.06
474.406	741.06
474.625	643.06
474.844	586.06
475.063	554.06
475.282	546.06
475.501	547.06
475.72	560.06
475.939	580.06
476.158	587.06
476.377	590.06
476.596	559.06
476.814	581.06
477.033	615.06
477.252	604.06
477.471	617.06
477.69	583.06
477.908	612.06
478.127	630.06
478.346	619.06
478.564	689.06
478.783	633.06
479.002	636.06
479.22	652.06
479.439	665.06
479.658	664.06
479.876	704.06
480.095	685.06
480.313	726.06
480.532	682.06
480.751	714.06
480.969	712.06
481.188	759.06
481.406	771.06
481.624	725.06
481.843	691.06
482.061	659.06
482.28	654.06
482.498	657.06
482.717	652.06
482.935	648.06
483.153	657.06
483.372	668.06
483.59	660.06
483.808	666.06
484.027	673.06
484.245	669.06
484.463	655.06
484.681	681.06
484.9	676.06
485.118	651.06
485.336	681.06
485.554	680.06
485.772	688.06
485.99	681.06
486.209	685.06
486.427	713.06
486.645	683.06
486.863	723.06
487.081	709.06
487.299	723.06
487.517	734.06
487.735	719.06
487.953	708.06
488.171	711.06
488.389	703.06
488.607	715.06
488.825	733.06
489.043	708.06
489.261	716.06
489.479	742.06
489.696	725.06
489.914	741.06
490.132	745.06
490.35	735.06
490.568	752.06
490.786	787.06
491.003	779.06
491.221	778.06
491.439	818.06
491.657	804.06
491.874	815.06
492.092	826.06
492.31	815.06
492.527	813.06
492.745	809.06
492.963	831.06
493.18	845.06
493.398	857.06
493.615	851.06
493.833	865.06
494.05	837.06
494.268	841.06
494.485	811.06
494.703	837.06
494.92	842.06
495.138	852.06
495.355	834.06
495.573	836.06
495.79	836.06
496.008	832.06
496.225	865.06
496.442	842.06
496.66	854.06
496.877	867.06
497.094	862.06
497.312	866.06
497.529	889.06
497.746	895.06
497.963	891.06
498.181	928.06
498.398	957.06
498.615	949.06
498.832	998.06
499.049	998.06
499.267	1044.06
499.484	1087.06
499.701	1121.06
499.918	1171.06
500.135	1230.06
500.352	1331.06
500.569	1372.06
500.786	1355.06
501.003	1322.06
501.22	1260.06
501.437	1242.06
501.654	1136.06
