Data from 1974.PennyLincolnUp.Lamp.En5.5.200Scan.071719.P1.Changed Mount._HRD10591_15-54-00-857.txt Node
Date: Thu Jul 18 15:54:00 EDT 2019
User: cochatt
Spectrometer: HR+D1059
Trigger mode: 1
Integration Time (sec): 1.000000E-1
Scans to average: 1
Electric dark correction enabled: true
Nonlinearity correction enabled: false
Boxcar width: 0
XAxis mode: Wavelengths
Number of Pixels in Spectrum: 2048
>>>>>Begin Spectral Data<<<<<
223.165	-17.31
223.4	-17.31
223.635	-17.31
223.869	-12.31
224.104	-10.31
224.338	-18.31
224.573	-5.31
224.808	-6.31
225.042	2.69
225.277	-16.31
225.511	-18.31
225.746	1.69
225.98	16.69
226.215	5.69
226.449	9.69
226.683	22.69
226.918	23.69
227.152	21.69
227.387	29.69
227.621	49.69
227.856	37.69
228.09	46.69
228.324	49.69
228.559	52.69
228.793	75.69
229.027	84.69
229.262	113.69
229.496	119.69
229.73	131.69
229.964	168.69
230.199	135.69
230.433	118.69
230.667	110.69
230.901	110.69
231.136	120.69
231.37	113.69
231.604	121.69
231.838	119.69
232.072	123.69
232.306	131.69
232.541	127.69
232.775	124.69
233.009	111.69
233.243	119.69
233.477	123.69
233.711	114.69
233.945	105.69
234.179	133.69
234.413	124.69
234.647	136.69
234.881	129.69
235.115	121.69
235.349	126.69
235.583	127.69
235.817	132.69
236.051	135.69
236.285	127.69
236.519	126.69
236.753	131.69
236.987	135.69
237.221	179.69
237.455	234.69
237.689	195.69
237.922	157.69
238.156	131.69
238.39	131.69
238.624	127.69
238.858	143.69
239.091	129.69
239.325	133.69
239.559	124.69
239.793	136.69
240.027	134.69
240.26	157.69
240.494	158.69
240.728	153.69
240.961	160.69
241.195	150.69
241.429	140.69
241.662	143.69
241.896	131.69
242.13	148.69
242.363	144.69
242.597	130.69
242.83	149.69
243.064	133.69
243.298	136.69
243.531	144.69
243.765	147.69
243.998	147.69
244.232	164.69
244.465	159.69
244.699	154.69
244.932	144.69
245.166	158.69
245.399	169.69
245.633	152.69
245.866	155.69
246.099	174.69
246.333	165.69
246.566	149.69
246.8	161.69
247.033	171.69
247.266	164.69
247.5	173.69
247.733	175.69
247.966	180.69
248.2	183.69
248.433	186.69
248.666	189.69
248.899	196.69
249.133	216.69
249.366	214.69
249.599	200.69
249.832	195.69
250.066	182.69
250.299	202.69
250.532	204.69
250.765	220.69
250.998	234.69
251.231	232.69
251.465	225.69
251.698	214.69
251.931	228.69
252.164	225.69
252.397	214.69
252.63	215.69
252.863	210.69
253.096	236.69
253.329	227.69
253.562	247.69
253.795	238.69
254.028	229.69
254.261	229.69
254.494	251.69
254.727	272.69
254.96	295.69
255.193	279.69
255.426	266.69
255.659	231.69
255.892	235.69
256.124	250.69
256.357	249.69
256.59	242.69
256.823	226.69
257.056	222.69
257.289	217.69
257.521	226.69
257.754	215.69
257.987	210.69
258.22	233.69
258.452	225.69
258.685	227.69
258.918	219.69
259.151	226.69
259.383	230.69
259.616	238.69
259.849	258.69
260.081	248.69
260.314	265.69
260.547	283.69
260.779	255.69
261.012	259.69
261.244	246.69
261.477	271.69
261.71	236.69
261.942	234.69
262.175	246.69
262.407	244.69
262.64	212.69
262.872	229.69
263.105	231.69
263.337	229.69
263.57	225.69
263.802	234.69
264.035	241.69
264.267	225.69
264.499	230.69
264.732	253.69
264.964	232.69
265.197	253.69
265.429	244.69
265.661	212.69
265.894	233.69
266.126	249.69
266.358	228.69
266.591	253.69
266.823	239.69
267.055	249.69
267.287	239.69
267.52	255.69
267.752	241.69
267.984	250.69
268.216	238.69
268.448	246.69
268.681	265.69
268.913	269.69
269.145	289.69
269.377	288.69
269.609	294.69
269.841	290.69
270.073	300.69
270.306	307.69
270.538	327.69
270.77	343.69
271.002	339.69
271.234	316.69
271.466	319.69
271.698	314.69
271.93	327.69
272.162	334.69
272.394	336.69
272.626	347.69
272.858	315.69
273.09	302.69
273.322	301.69
273.553	289.69
273.785	283.69
274.017	291.69
274.249	286.69
274.481	287.69
274.713	278.69
274.945	297.69
275.176	277.69
275.408	297.69
275.64	298.69
275.872	287.69
276.104	299.69
276.335	301.69
276.567	277.69
276.799	311.69
277.031	329.69
277.262	329.69
277.494	333.69
277.726	313.69
277.957	311.69
278.189	291.69
278.421	313.69
278.652	293.69
278.884	293.69
279.115	272.69
279.347	306.69
279.579	302.69
279.81	312.69
280.042	321.69
280.273	292.69
280.505	301.69
280.736	300.69
280.968	282.69
281.199	283.69
281.431	300.69
281.662	301.69
281.894	317.69
282.125	275.69
282.356	319.69
282.588	310.69
282.819	341.69
283.051	287.69
283.282	289.69
283.513	313.69
283.745	308.69
283.976	309.69
284.207	320.69
284.439	307.69
284.67	313.69
284.901	330.69
285.132	312.69
285.364	312.69
285.595	292.69
285.826	301.69
286.057	314.69
286.288	310.69
286.52	308.69
286.751	313.69
286.982	302.69
287.213	307.69
287.444	314.69
287.675	327.69
287.906	320.69
288.138	330.69
288.369	348.69
288.6	320.69
288.831	309.69
289.062	335.69
289.293	309.69
289.524	308.69
289.755	294.69
289.986	317.69
290.217	331.69
290.448	309.69
290.679	312.69
290.91	341.69
291.141	326.69
291.371	337.69
291.602	322.69
291.833	324.69
292.064	323.69
292.295	322.69
292.526	309.69
292.757	335.69
292.987	319.69
293.218	333.69
293.449	308.69
293.68	318.69
293.91	321.69
294.141	328.69
294.372	323.69
294.603	321.69
294.833	332.69
295.064	329.69
295.295	339.69
295.525	335.69
295.756	329.69
295.987	324.69
296.217	335.69
296.448	377.69
296.679	331.69
296.909	326.69
297.14	332.69
297.37	342.69
297.601	340.69
297.831	342.69
298.062	338.69
298.292	332.69
298.523	345.69
298.753	339.69
298.984	331.69
299.214	341.69
299.445	333.69
299.675	341.69
299.905	348.69
300.136	339.69
300.366	337.69
300.597	356.69
300.827	356.69
301.057	355.69
301.288	367.69
301.518	350.69
301.748	347.69
301.979	369.69
302.209	355.69
302.439	362.69
302.669	352.69
302.9	358.69
303.13	364.69
303.36	369.69
303.59	383.69
303.82	376.69
304.051	363.69
304.281	357.69
304.511	367.69
304.741	366.69
304.971	374.69
305.201	369.69
305.431	351.69
305.661	349.69
305.891	378.69
306.121	351.69
306.352	379.69
306.582	379.69
306.812	362.69
307.042	355.69
307.272	365.69
307.502	354.69
307.731	365.69
307.961	383.69
308.191	371.69
308.421	366.69
308.651	349.69
308.881	379.69
309.111	373.69
309.341	361.69
309.571	385.69
309.8	378.69
310.03	381.69
310.26	412.69
310.49	395.69
310.72	394.69
310.949	415.69
311.179	411.69
311.409	398.69
311.639	393.69
311.868	419.69
312.098	427.69
312.328	405.69
312.557	430.69
312.787	439.69
313.017	426.69
313.246	409.69
313.476	407.69
313.706	418.69
313.935	435.69
314.165	426.69
314.394	437.69
314.624	437.69
314.853	430.69
315.083	412.69
315.312	430.69
315.542	390.69
315.771	399.69
316.001	410.69
316.23	421.69
316.46	391.69
316.689	422.69
316.919	422.69
317.148	438.69
317.377	407.69
317.607	416.69
317.836	411.69
318.065	393.69
318.295	406.69
318.524	432.69
318.753	408.69
318.983	417.69
319.212	400.69
319.441	418.69
319.67	407.69
319.9	409.69
320.129	418.69
320.358	414.69
320.587	410.69
320.816	422.69
321.046	432.69
321.275	420.69
321.504	428.69
321.733	425.69
321.962	424.69
322.191	435.69
322.42	450.69
322.649	489.69
322.878	464.69
323.108	486.69
323.337	486.69
323.566	498.69
323.795	529.69
324.024	554.69
324.253	635.69
324.482	880.69
324.71	1342.69
324.939	1990.69
325.168	1725.69
325.397	890.69
325.626	643.69
325.855	540.69
326.084	522.69
326.313	515.69
326.542	504.69
326.77	537.69
326.999	614.69
327.228	823.69
327.457	1222.69
327.686	1520.69
327.914	1044.69
328.143	693.69
328.372	609.69
328.6	581.69
328.829	566.69
329.058	552.69
329.287	573.69
329.515	565.69
329.744	554.69
329.972	529.69
330.201	523.69
330.43	581.69
330.658	606.69
330.887	631.69
331.115	605.69
331.344	550.69
331.572	522.69
331.801	489.69
332.03	528.69
332.258	486.69
332.486	498.69
332.715	509.69
332.943	509.69
333.172	514.69
333.4	507.69
333.629	499.69
333.857	528.69
334.085	535.69
334.314	550.69
334.542	564.69
334.771	583.69
334.999	547.69
335.227	513.69
335.455	515.69
335.684	498.69
335.912	533.69
336.14	491.69
336.369	484.69
336.597	505.69
336.825	515.69
337.053	514.69
337.281	475.69
337.51	483.69
337.738	477.69
337.966	468.69
338.194	494.69
338.422	483.69
338.65	483.69
338.878	491.69
339.106	493.69
339.334	487.69
339.562	478.69
339.79	463.69
340.018	469.69
340.246	468.69
340.474	482.69
340.702	458.69
340.93	477.69
341.158	485.69
341.386	469.69
341.614	459.69
341.842	461.69
342.07	429.69
342.298	451.69
342.526	442.69
342.754	466.69
342.981	459.69
343.209	464.69
343.437	456.69
343.665	465.69
343.893	494.69
344.12	503.69
344.348	503.69
344.576	509.69
344.804	487.69
345.031	477.69
345.259	479.69
345.487	472.69
345.714	474.69
345.942	459.69
346.17	454.69
346.397	444.69
346.625	453.69
346.853	452.69
347.08	455.69
347.308	471.69
347.535	461.69
347.763	465.69
347.99	465.69
348.218	467.69
348.445	483.69
348.673	474.69
348.9	460.69
349.128	453.69
349.355	436.69
349.583	456.69
349.81	421.69
350.037	443.69
350.265	425.69
350.492	450.69
350.72	462.69
350.947	463.69
351.174	458.69
351.402	452.69
351.629	476.69
351.856	446.69
352.083	438.69
352.311	473.69
352.538	451.69
352.765	465.69
352.992	454.69
353.22	454.69
353.447	418.69
353.674	445.69
353.901	449.69
354.128	433.69
354.355	449.69
354.583	463.69
354.81	457.69
355.037	443.69
355.264	439.69
355.491	449.69
355.718	450.69
355.945	430.69
356.172	437.69
356.399	443.69
356.626	439.69
356.853	411.69
357.08	447.69
357.307	435.69
357.534	426.69
357.761	422.69
357.988	446.69
358.215	409.69
358.441	426.69
358.668	455.69
358.895	432.69
359.122	441.69
359.349	430.69
359.576	449.69
359.802	485.69
360.029	491.69
360.256	474.69
360.483	478.69
360.709	441.69
360.936	464.69
361.163	465.69
361.39	454.69
361.616	465.69
361.843	442.69
362.07	436.69
362.296	486.69
362.523	455.69
362.749	476.69
362.976	462.69
363.203	473.69
363.429	440.69
363.656	455.69
363.882	435.69
364.109	436.69
364.335	443.69
364.562	455.69
364.788	449.69
365.015	447.69
365.241	448.69
365.468	437.69
365.694	445.69
365.92	455.69
366.147	450.69
366.373	453.69
366.599	441.69
366.826	443.69
367.052	435.69
367.278	447.69
367.505	459.69
367.731	447.69
367.957	442.69
368.184	445.69
368.41	441.69
368.636	453.69
368.862	466.69
369.089	452.69
369.315	447.69
369.541	456.69
369.767	446.69
369.993	460.69
370.219	449.69
370.445	451.69
370.672	448.69
370.898	458.69
371.124	447.69
371.35	456.69
371.576	465.69
371.802	461.69
372.028	460.69
372.254	450.69
372.48	454.69
372.706	461.69
372.932	485.69
373.158	461.69
373.384	452.69
373.61	465.69
373.835	443.69
374.061	455.69
374.287	463.69
374.513	447.69
374.739	471.69
374.965	474.69
375.191	442.69
375.416	470.69
375.642	482.69
375.868	457.69
376.094	451.69
376.319	445.69
376.545	457.69
376.771	451.69
376.997	442.69
377.222	459.69
377.448	487.69
377.674	448.69
377.899	446.69
378.125	441.69
378.35	471.69
378.576	450.69
378.802	453.69
379.027	450.69
379.253	435.69
379.478	456.69
379.704	442.69
379.929	451.69
380.155	477.69
380.38	450.69
380.606	462.69
380.831	450.69
381.057	480.69
381.282	466.69
381.507	471.69
381.733	446.69
381.958	462.69
382.184	479.69
382.409	457.69
382.634	484.69
382.86	465.69
383.085	471.69
383.31	471.69
383.535	482.69
383.761	462.69
383.986	504.69
384.211	492.69
384.436	497.69
384.662	522.69
384.887	516.69
385.112	525.69
385.337	508.69
385.562	496.69
385.787	508.69
386.013	527.69
386.238	536.69
386.463	510.69
386.688	519.69
386.913	515.69
387.138	517.69
387.363	517.69
387.588	511.69
387.813	501.69
388.038	493.69
388.263	534.69
388.488	517.69
388.713	491.69
388.938	490.69
389.163	521.69
389.387	496.69
389.612	504.69
389.837	492.69
390.062	519.69
390.287	500.69
390.512	518.69
390.736	516.69
390.961	527.69
391.186	506.69
391.411	528.69
391.636	538.69
391.86	548.69
392.085	532.69
392.31	548.69
392.534	536.69
392.759	530.69
392.984	518.69
393.208	518.69
393.433	525.69
393.658	509.69
393.882	514.69
394.107	527.69
394.331	517.69
394.556	529.69
394.78	535.69
395.005	514.69
395.229	512.69
395.454	519.69
395.678	536.69
395.903	530.69
396.127	551.69
396.352	596.69
396.576	565.69
396.801	531.69
397.025	549.69
397.249	542.69
397.474	528.69
397.698	541.69
397.922	563.69
398.147	582.69
398.371	605.69
398.595	568.69
398.82	595.69
399.044	586.69
399.268	636.69
399.492	711.69
399.717	734.69
399.941	745.69
400.165	754.69
400.389	744.69
400.613	660.69
400.837	639.69
401.062	631.69
401.286	621.69
401.51	620.69
401.734	605.69
401.958	598.69
402.182	619.69
402.406	616.69
402.63	630.69
402.854	608.69
403.078	613.69
403.302	648.69
403.526	640.69
403.75	632.69
403.974	630.69
404.198	603.69
404.422	631.69
404.645	635.69
404.869	650.69
405.093	684.69
405.317	726.69
405.541	753.69
405.765	699.69
405.988	645.69
406.212	653.69
406.436	685.69
406.66	703.69
406.883	689.69
407.107	676.69
407.331	762.69
407.555	794.69
407.778	831.69
408.002	751.69
408.226	698.69
408.449	672.69
408.673	659.69
408.896	726.69
409.12	740.69
409.344	726.69
409.567	653.69
409.791	655.69
410.014	635.69
410.238	631.69
410.461	620.69
410.685	639.69
410.908	645.69
411.132	657.69
411.355	709.69
411.578	661.69
411.802	639.69
412.025	629.69
412.249	643.69
412.472	663.69
412.695	697.69
412.919	703.69
413.142	611.69
413.365	620.69
413.589	614.69
413.812	599.69
414.035	586.69
414.258	594.69
414.482	583.69
414.705	588.69
414.928	600.69
415.151	591.69
415.374	585.69
415.597	586.69
415.821	587.69
416.044	620.69
416.267	591.69
416.49	581.69
416.713	589.69
416.936	582.69
417.159	574.69
417.382	609.69
417.605	567.69
417.828	599.69
418.051	629.69
418.274	600.69
418.497	613.69
418.72	599.69
418.943	597.69
419.166	629.69
419.389	654.69
419.611	657.69
419.834	647.69
420.057	635.69
420.28	619.69
420.503	627.69
420.726	608.69
420.948	650.69
421.171	667.69
421.394	706.69
421.617	673.69
421.839	643.69
422.062	613.69
422.285	649.69
422.507	673.69
422.73	778.69
422.953	753.69
423.175	670.69
423.398	631.69
423.621	665.69
423.843	689.69
424.066	677.69
424.288	681.69
424.511	686.69
424.733	722.69
424.956	829.69
425.178	775.69
425.401	802.69
425.623	819.69
425.846	684.69
426.068	643.69
426.291	639.69
426.513	647.69
426.735	657.69
426.958	689.69
427.18	798.69
427.402	937.69
427.625	1007.69
427.847	862.69
428.069	775.69
428.292	686.69
428.514	651.69
428.736	626.69
428.958	624.69
429.181	602.69
429.403	618.69
429.625	604.69
429.847	636.69
430.069	712.69
430.292	717.69
430.514	596.69
430.736	616.69
430.958	591.69
431.18	597.69
431.402	556.69
431.624	576.69
431.846	561.69
432.068	558.69
432.29	564.69
432.512	581.69
432.734	567.69
432.956	601.69
433.178	582.69
433.4	605.69
433.622	591.69
433.844	586.69
434.066	573.69
434.287	565.69
434.509	567.69
434.731	593.69
434.953	597.69
435.175	637.69
435.397	635.69
435.618	647.69
435.84	673.69
436.062	781.69
436.284	860.69
436.505	722.69
436.727	647.69
436.949	614.69
437.17	625.69
437.392	580.69
437.614	595.69
437.835	626.69
438.057	726.69
438.278	853.69
438.5	836.69
438.721	905.69
438.943	895.69
439.165	719.69
439.386	671.69
439.608	668.69
439.829	661.69
440.05	644.69
440.272	718.69
440.493	700.69
440.715	630.69
440.936	631.69
441.158	628.69
441.379	607.69
441.6	638.69
441.822	654.69
442.043	698.69
442.264	770.69
442.486	822.69
442.707	697.69
442.928	666.69
443.149	670.69
443.371	695.69
443.592	727.69
443.813	861.69
444.034	904.69
444.255	769.69
444.476	693.69
444.698	686.69
444.919	682.69
445.14	763.69
445.361	725.69
445.582	705.69
445.803	748.69
446.024	865.69
446.245	862.69
446.466	813.69
446.687	678.69
446.908	649.69
447.129	640.69
447.35	617.69
447.571	609.69
447.792	572.69
448.013	593.69
448.234	618.69
448.455	669.69
448.675	757.69
448.896	899.69
449.117	769.69
449.338	704.69
449.559	841.69
449.779	961.69
450	770.69
450.221	673.69
450.442	611.69
450.662	552.69
450.883	586.69
451.104	590.69
451.324	573.69
451.545	572.69
451.766	533.69
451.986	524.69
452.207	523.69
452.428	546.69
452.648	520.69
452.869	517.69
453.089	547.69
453.31	558.69
453.53	538.69
453.751	519.69
453.971	524.69
454.192	536.69
454.412	525.69
454.633	524.69
454.853	518.69
455.073	505.69
455.294	563.69
455.514	625.69
455.734	590.69
455.955	551.69
456.175	520.69
456.395	503.69
456.616	531.69
456.836	505.69
457.056	492.69
457.276	485.69
457.497	488.69
457.717	490.69
457.937	512.69
458.157	526.69
458.377	528.69
458.598	552.69
458.818	604.69
459.038	672.69
459.258	713.69
459.478	615.69
459.698	585.69
459.918	583.69
460.138	580.69
460.358	612.69
460.578	602.69
460.798	607.69
461.018	606.69
461.238	600.69
461.458	603.69
461.678	588.69
461.898	627.69
462.118	594.69
462.338	623.69
462.558	631.69
462.777	610.69
462.997	650.69
463.217	673.69
463.437	690.69
463.657	653.69
463.876	647.69
464.096	664.69
464.316	641.69
464.536	651.69
464.755	641.69
464.975	629.69
465.195	633.69
465.414	712.69
465.634	644.69
465.854	600.69
466.073	587.69
466.293	546.69
466.512	569.69
466.732	545.69
466.951	559.69
467.171	548.69
467.391	556.69
467.61	554.69
467.829	571.69
468.049	572.69
468.268	561.69
468.488	535.69
468.707	503.69
468.927	538.69
469.146	544.69
469.365	545.69
469.585	558.69
469.804	573.69
470.023	561.69
470.243	580.69
470.462	571.69
470.681	564.69
470.901	584.69
471.12	561.69
471.339	556.69
471.558	533.69
471.777	548.69
471.997	545.69
472.216	547.69
472.435	566.69
472.654	554.69
472.873	551.69
473.092	555.69
473.311	546.69
473.53	561.69
473.749	567.69
473.968	579.69
474.187	702.69
474.406	728.69
474.625	604.69
474.844	590.69
475.063	571.69
475.282	555.69
475.501	555.69
475.72	566.69
475.939	566.69
476.158	589.69
476.377	577.69
476.596	605.69
476.814	586.69
477.033	597.69
477.252	602.69
477.471	585.69
477.69	588.69
477.908	609.69
478.127	627.69
478.346	618.69
478.564	645.69
478.783	610.69
479.002	657.69
479.22	653.69
479.439	631.69
479.658	671.69
479.876	662.69
480.095	672.69
480.313	705.69
480.532	712.69
480.751	705.69
480.969	670.69
481.188	721.69
481.406	776.69
481.624	705.69
481.843	683.69
482.061	667.69
482.28	677.69
482.498	663.69
482.717	646.69
482.935	640.69
483.153	687.69
483.372	672.69
483.59	645.69
483.808	635.69
484.027	663.69
484.245	671.69
484.463	665.69
484.681	663.69
484.9	671.69
485.118	679.69
485.336	673.69
485.554	659.69
485.772	667.69
485.99	681.69
486.209	686.69
486.427	670.69
486.645	677.69
486.863	698.69
487.081	695.69
487.299	711.69
487.517	691.69
487.735	690.69
487.953	693.69
488.171	706.69
488.389	691.69
488.607	705.69
488.825	699.69
489.043	725.69
489.261	689.69
489.479	730.69
489.696	725.69
489.914	732.69
490.132	725.69
490.35	741.69
490.568	749.69
490.786	762.69
491.003	773.69
491.221	777.69
491.439	777.69
491.657	801.69
491.874	808.69
492.092	812.69
492.31	812.69
492.527	835.69
492.745	834.69
492.963	844.69
493.18	812.69
493.398	832.69
493.615	825.69
493.833	829.69
494.05	824.69
494.268	832.69
494.485	820.69
494.703	811.69
494.92	842.69
495.138	830.69
495.355	855.69
495.573	829.69
495.79	822.69
496.008	865.69
496.225	845.69
496.442	861.69
496.66	844.69
496.877	858.69
497.094	839.69
497.312	860.69
497.529	869.69
497.746	887.69
497.963	905.69
498.181	916.69
498.398	929.69
498.615	939.69
498.832	971.69
499.049	969.69
499.267	1019.69
499.484	1067.69
499.701	1117.69
499.918	1183.69
500.135	1269.69
500.352	1300.69
500.569	1385.69
500.786	1323.69
501.003	1246.69
501.22	1242.69
501.437	1172.69
501.654	1134.69
