Data from 1974.PennyLincolnUp.Lamp.En5.5.200Scan.071719.P1.Changed Mount._HRD10591_15-54-14-857.txt Node
Date: Thu Jul 18 15:54:14 EDT 2019
User: cochatt
Spectrometer: HR+D1059
Trigger mode: 1
Integration Time (sec): 1.000000E-1
Scans to average: 1
Electric dark correction enabled: true
Nonlinearity correction enabled: false
Boxcar width: 0
XAxis mode: Wavelengths
Number of Pixels in Spectrum: 2048
>>>>>Begin Spectral Data<<<<<
223.165	-15.62
223.4	-15.62
223.635	-15.62
223.869	-20.62
224.104	-22.62
224.338	-8.62
224.573	-13.62
224.808	-13.62
225.042	-13.62
225.277	-9.62
225.511	-4.62
225.746	11.38
225.98	15.38
226.215	14.38
226.449	9.38
226.683	12.38
226.918	20.38
227.152	39.38
227.387	55.38
227.621	37.38
227.856	41.38
228.09	39.38
228.324	37.38
228.559	59.38
228.793	72.38
229.027	103.38
229.262	120.38
229.496	117.38
229.73	140.38
229.964	165.38
230.199	142.38
230.433	107.38
230.667	113.38
230.901	101.38
231.136	117.38
231.37	107.38
231.604	121.38
231.838	122.38
232.072	120.38
232.306	128.38
232.541	132.38
232.775	109.38
233.009	118.38
233.243	111.38
233.477	127.38
233.711	126.38
233.945	129.38
234.179	128.38
234.413	130.38
234.647	123.38
234.881	120.38
235.115	126.38
235.349	153.38
235.583	123.38
235.817	125.38
236.051	136.38
236.285	146.38
236.519	144.38
236.753	139.38
236.987	148.38
237.221	182.38
237.455	228.38
237.689	204.38
237.922	144.38
238.156	147.38
238.39	138.38
238.624	130.38
238.858	145.38
239.091	126.38
239.325	121.38
239.559	145.38
239.793	135.38
240.027	143.38
240.26	149.38
240.494	164.38
240.728	166.38
240.961	155.38
241.195	159.38
241.429	143.38
241.662	153.38
241.896	140.38
242.13	123.38
242.363	139.38
242.597	134.38
242.83	157.38
243.064	154.38
243.298	140.38
243.531	157.38
243.765	150.38
243.998	150.38
244.232	150.38
244.465	168.38
244.699	148.38
244.932	167.38
245.166	164.38
245.399	159.38
245.633	167.38
245.866	168.38
246.099	178.38
246.333	179.38
246.566	165.38
246.8	170.38
247.033	179.38
247.266	181.38
247.5	167.38
247.733	181.38
247.966	200.38
248.2	189.38
248.433	192.38
248.666	191.38
248.899	195.38
249.133	217.38
249.366	219.38
249.599	205.38
249.832	202.38
250.066	213.38
250.299	204.38
250.532	215.38
250.765	219.38
250.998	261.38
251.231	255.38
251.465	241.38
251.698	217.38
251.931	219.38
252.164	220.38
252.397	224.38
252.63	219.38
252.863	231.38
253.096	231.38
253.329	228.38
253.562	252.38
253.795	234.38
254.028	242.38
254.261	251.38
254.494	263.38
254.727	284.38
254.96	322.38
255.193	302.38
255.426	278.38
255.659	259.38
255.892	254.38
256.124	260.38
256.357	253.38
256.59	231.38
256.823	238.38
257.056	243.38
257.289	216.38
257.521	243.38
257.754	230.38
257.987	235.38
258.22	234.38
258.452	229.38
258.685	228.38
258.918	221.38
259.151	241.38
259.383	243.38
259.616	260.38
259.849	249.38
260.081	260.38
260.314	285.38
260.547	284.38
260.779	274.38
261.012	234.38
261.244	238.38
261.477	237.38
261.71	249.38
261.942	251.38
262.175	247.38
262.407	244.38
262.64	235.38
262.872	243.38
263.105	241.38
263.337	249.38
263.57	248.38
263.802	229.38
264.035	228.38
264.267	239.38
264.499	222.38
264.732	243.38
264.964	233.38
265.197	236.38
265.429	229.38
265.661	230.38
265.894	245.38
266.126	254.38
266.358	236.38
266.591	234.38
266.823	248.38
267.055	259.38
267.287	243.38
267.52	248.38
267.752	242.38
267.984	249.38
268.216	238.38
268.448	268.38
268.681	262.38
268.913	259.38
269.145	278.38
269.377	298.38
269.609	299.38
269.841	284.38
270.073	307.38
270.306	313.38
270.538	335.38
270.77	346.38
271.002	331.38
271.234	323.38
271.466	332.38
271.698	343.38
271.93	329.38
272.162	345.38
272.394	350.38
272.626	327.38
272.858	321.38
273.09	311.38
273.322	305.38
273.553	307.38
273.785	290.38
274.017	289.38
274.249	305.38
274.481	300.38
274.713	293.38
274.945	306.38
275.176	288.38
275.408	298.38
275.64	291.38
275.872	290.38
276.104	298.38
276.335	295.38
276.567	299.38
276.799	305.38
277.031	328.38
277.262	340.38
277.494	331.38
277.726	333.38
277.957	317.38
278.189	304.38
278.421	296.38
278.652	305.38
278.884	308.38
279.115	307.38
279.347	299.38
279.579	313.38
279.81	309.38
280.042	302.38
280.273	294.38
280.505	296.38
280.736	306.38
280.968	279.38
281.199	285.38
281.431	303.38
281.662	309.38
281.894	309.38
282.125	308.38
282.356	314.38
282.588	333.38
282.819	318.38
283.051	309.38
283.282	309.38
283.513	306.38
283.745	327.38
283.976	321.38
284.207	298.38
284.439	331.38
284.67	323.38
284.901	320.38
285.132	337.38
285.364	311.38
285.595	313.38
285.826	318.38
286.057	308.38
286.288	313.38
286.52	331.38
286.751	322.38
286.982	326.38
287.213	340.38
287.444	324.38
287.675	334.38
287.906	328.38
288.138	340.38
288.369	332.38
288.6	322.38
288.831	348.38
289.062	321.38
289.293	336.38
289.524	316.38
289.755	340.38
289.986	338.38
290.217	312.38
290.448	339.38
290.679	313.38
290.91	330.38
291.141	333.38
291.371	329.38
291.602	355.38
291.833	319.38
292.064	317.38
292.295	334.38
292.526	329.38
292.757	330.38
292.987	339.38
293.218	311.38
293.449	318.38
293.68	338.38
293.91	335.38
294.141	344.38
294.372	333.38
294.603	335.38
294.833	333.38
295.064	338.38
295.295	323.38
295.525	344.38
295.756	339.38
295.987	337.38
296.217	353.38
296.448	372.38
296.679	354.38
296.909	354.38
297.14	349.38
297.37	343.38
297.601	315.38
297.831	343.38
298.062	349.38
298.292	333.38
298.523	362.38
298.753	362.38
298.984	356.38
299.214	360.38
299.445	346.38
299.675	349.38
299.905	347.38
300.136	370.38
300.366	359.38
300.597	361.38
300.827	356.38
301.057	371.38
301.288	373.38
301.518	377.38
301.748	370.38
301.979	366.38
302.209	374.38
302.439	372.38
302.669	387.38
302.9	370.38
303.13	353.38
303.36	370.38
303.59	368.38
303.82	377.38
304.051	379.38
304.281	377.38
304.511	352.38
304.741	349.38
304.971	363.38
305.201	369.38
305.431	353.38
305.661	378.38
305.891	361.38
306.121	371.38
306.352	369.38
306.582	369.38
306.812	365.38
307.042	385.38
307.272	366.38
307.502	375.38
307.731	378.38
307.961	367.38
308.191	377.38
308.421	381.38
308.651	380.38
308.881	383.38
309.111	367.38
309.341	381.38
309.571	399.38
309.8	388.38
310.03	397.38
310.26	389.38
310.49	399.38
310.72	391.38
310.949	438.38
311.179	421.38
311.409	407.38
311.639	405.38
311.868	410.38
312.098	405.38
312.328	406.38
312.557	430.38
312.787	444.38
313.017	434.38
313.246	404.38
313.476	423.38
313.706	402.38
313.935	427.38
314.165	424.38
314.394	426.38
314.624	438.38
314.853	422.38
315.083	427.38
315.312	421.38
315.542	415.38
315.771	410.38
316.001	394.38
316.23	425.38
316.46	415.38
316.689	419.38
316.919	436.38
317.148	435.38
317.377	430.38
317.607	421.38
317.836	418.38
318.065	418.38
318.295	409.38
318.524	421.38
318.753	426.38
318.983	423.38
319.212	417.38
319.441	431.38
319.67	419.38
319.9	418.38
320.129	430.38
320.358	427.38
320.587	441.38
320.816	426.38
321.046	423.38
321.275	431.38
321.504	440.38
321.733	429.38
321.962	462.38
322.191	454.38
322.42	474.38
322.649	463.38
322.878	474.38
323.108	472.38
323.337	489.38
323.566	525.38
323.795	527.38
324.024	585.38
324.253	646.38
324.482	917.38
324.71	1354.38
324.939	2109.38
325.168	1797.38
325.397	917.38
325.626	659.38
325.855	558.38
326.084	522.38
326.313	513.38
326.542	541.38
326.77	564.38
326.999	631.38
327.228	858.38
327.457	1285.38
327.686	1601.38
327.914	1035.38
328.143	707.38
328.372	635.38
328.6	595.38
328.829	574.38
329.058	575.38
329.287	585.38
329.515	559.38
329.744	539.38
329.972	532.38
330.201	541.38
330.43	604.38
330.658	594.38
330.887	638.38
331.115	630.38
331.344	566.38
331.572	521.38
331.801	529.38
332.03	543.38
332.258	501.38
332.486	523.38
332.715	521.38
332.943	506.38
333.172	518.38
333.4	530.38
333.629	525.38
333.857	565.38
334.085	570.38
334.314	569.38
334.542	605.38
334.771	616.38
334.999	569.38
335.227	544.38
335.455	534.38
335.684	511.38
335.912	535.38
336.14	509.38
336.369	503.38
336.597	537.38
336.825	524.38
337.053	534.38
337.281	521.38
337.51	494.38
337.738	505.38
337.966	490.38
338.194	482.38
338.422	486.38
338.65	504.38
338.878	491.38
339.106	461.38
339.334	499.38
339.562	491.38
339.79	463.38
340.018	485.38
340.246	463.38
340.474	488.38
340.702	481.38
340.93	482.38
341.158	471.38
341.386	463.38
341.614	487.38
341.842	486.38
342.07	476.38
342.298	464.38
342.526	468.38
342.754	460.38
342.981	495.38
343.209	450.38
343.437	483.38
343.665	500.38
343.893	499.38
344.12	504.38
344.348	514.38
344.576	502.38
344.804	495.38
345.031	506.38
345.259	518.38
345.487	486.38
345.714	477.38
345.942	481.38
346.17	468.38
346.397	473.38
346.625	463.38
346.853	450.38
347.08	450.38
347.308	463.38
347.535	469.38
347.763	492.38
347.99	477.38
348.218	493.38
348.445	466.38
348.673	466.38
348.9	471.38
349.128	457.38
349.355	473.38
349.583	463.38
349.81	466.38
350.037	436.38
350.265	443.38
350.492	474.38
350.72	446.38
350.947	469.38
351.174	468.38
351.402	482.38
351.629	487.38
351.856	466.38
352.083	481.38
352.311	457.38
352.538	473.38
352.765	471.38
352.992	461.38
353.22	466.38
353.447	475.38
353.674	451.38
353.901	461.38
354.128	455.38
354.355	456.38
354.583	452.38
354.81	447.38
355.037	458.38
355.264	435.38
355.491	442.38
355.718	449.38
355.945	443.38
356.172	456.38
356.399	442.38
356.626	441.38
356.853	441.38
357.08	435.38
357.307	422.38
357.534	447.38
357.761	420.38
357.988	438.38
358.215	441.38
358.441	459.38
358.668	446.38
358.895	441.38
359.122	453.38
359.349	467.38
359.576	435.38
359.802	507.38
360.029	524.38
360.256	517.38
360.483	522.38
360.709	471.38
360.936	488.38
361.163	465.38
361.39	455.38
361.616	470.38
361.843	456.38
362.07	467.38
362.296	460.38
362.523	456.38
362.749	469.38
362.976	480.38
363.203	467.38
363.429	451.38
363.656	438.38
363.882	463.38
364.109	448.38
364.335	445.38
364.562	461.38
364.788	464.38
365.015	453.38
365.241	441.38
365.468	455.38
365.694	457.38
365.92	459.38
366.147	445.38
366.373	439.38
366.599	441.38
366.826	421.38
367.052	457.38
367.278	454.38
367.505	463.38
367.731	473.38
367.957	461.38
368.184	460.38
368.41	463.38
368.636	473.38
368.862	481.38
369.089	447.38
369.315	454.38
369.541	468.38
369.767	477.38
369.993	465.38
370.219	457.38
370.445	454.38
370.672	449.38
370.898	455.38
371.124	449.38
371.35	455.38
371.576	456.38
371.802	465.38
372.028	446.38
372.254	461.38
372.48	458.38
372.706	482.38
372.932	466.38
373.158	452.38
373.384	477.38
373.61	478.38
373.835	495.38
374.061	470.38
374.287	485.38
374.513	462.38
374.739	495.38
374.965	486.38
375.191	476.38
375.416	493.38
375.642	479.38
375.868	475.38
376.094	475.38
376.319	465.38
376.545	461.38
376.771	443.38
376.997	467.38
377.222	462.38
377.448	470.38
377.674	477.38
377.899	470.38
378.125	467.38
378.35	447.38
378.576	445.38
378.802	453.38
379.027	466.38
379.253	455.38
379.478	463.38
379.704	462.38
379.929	470.38
380.155	476.38
380.38	463.38
380.606	466.38
380.831	485.38
381.057	490.38
381.282	471.38
381.507	454.38
381.733	471.38
381.958	464.38
382.184	476.38
382.409	477.38
382.634	469.38
382.86	464.38
383.085	481.38
383.31	490.38
383.535	481.38
383.761	517.38
383.986	495.38
384.211	499.38
384.436	532.38
384.662	505.38
384.887	493.38
385.112	504.38
385.337	513.38
385.562	516.38
385.787	517.38
386.013	524.38
386.238	541.38
386.463	518.38
386.688	504.38
386.913	515.38
387.138	517.38
387.363	515.38
387.588	515.38
387.813	491.38
388.038	521.38
388.263	531.38
388.488	539.38
388.713	502.38
388.938	523.38
389.163	524.38
389.387	534.38
389.612	535.38
389.837	506.38
390.062	515.38
390.287	547.38
390.512	519.38
390.736	533.38
390.961	527.38
391.186	539.38
391.411	541.38
391.636	513.38
391.86	531.38
392.085	549.38
392.31	547.38
392.534	571.38
392.759	552.38
392.984	531.38
393.208	529.38
393.433	551.38
393.658	534.38
393.882	503.38
394.107	531.38
394.331	543.38
394.556	532.38
394.78	538.38
395.005	526.38
395.229	537.38
395.454	573.38
395.678	570.38
395.903	567.38
396.127	588.38
396.352	575.38
396.576	552.38
396.801	550.38
397.025	547.38
397.249	562.38
397.474	578.38
397.698	551.38
397.922	565.38
398.147	588.38
398.371	616.38
398.595	607.38
398.82	618.38
399.044	635.38
399.268	663.38
399.492	674.38
399.717	750.38
399.941	783.38
400.165	769.38
400.389	771.38
400.613	698.38
400.837	637.38
401.062	627.38
401.286	621.38
401.51	612.38
401.734	616.38
401.958	617.38
402.182	609.38
402.406	635.38
402.63	623.38
402.854	625.38
403.078	614.38
403.302	625.38
403.526	649.38
403.75	648.38
403.974	646.38
404.198	667.38
404.422	661.38
404.645	655.38
404.869	647.38
405.093	656.38
405.317	716.38
405.541	763.38
405.765	702.38
405.988	657.38
406.212	676.38
406.436	684.38
406.66	707.38
406.883	715.38
407.107	753.38
407.331	785.38
407.555	820.38
407.778	860.38
408.002	773.38
408.226	705.38
408.449	698.38
408.673	718.38
408.896	738.38
409.12	781.38
409.344	718.38
409.567	668.38
409.791	661.38
410.014	647.38
410.238	619.38
410.461	627.38
410.685	637.38
410.908	697.38
411.132	697.38
411.355	731.38
411.578	689.38
411.802	679.38
412.025	628.38
412.249	646.38
412.472	669.38
412.695	705.38
412.919	702.38
413.142	643.38
413.365	641.38
413.589	629.38
413.812	609.38
414.035	639.38
414.258	612.38
414.482	617.38
414.705	609.38
414.928	628.38
415.151	622.38
415.374	616.38
415.597	598.38
415.821	597.38
416.044	602.38
416.267	596.38
416.49	602.38
416.713	593.38
416.936	585.38
417.159	590.38
417.382	612.38
417.605	629.38
417.828	632.38
418.051	631.38
418.274	637.38
418.497	580.38
418.72	601.38
418.943	600.38
419.166	646.38
419.389	653.38
419.611	664.38
419.834	679.38
420.057	647.38
420.28	642.38
420.503	635.38
420.726	654.38
420.948	641.38
421.171	685.38
421.394	728.38
421.617	655.38
421.839	614.38
422.062	635.38
422.285	631.38
422.507	713.38
422.73	790.38
422.953	765.38
423.175	677.38
423.398	673.38
423.621	638.38
423.843	675.38
424.066	685.38
424.288	678.38
424.511	677.38
424.733	770.38
424.956	839.38
425.178	812.38
425.401	827.38
425.623	848.38
425.846	729.38
426.068	659.38
426.291	643.38
426.513	646.38
426.735	662.38
426.958	697.38
427.18	793.38
427.402	943.38
427.625	1043.38
427.847	918.38
428.069	795.38
428.292	708.38
428.514	630.38
428.736	628.38
428.958	631.38
429.181	619.38
429.403	626.38
429.625	616.38
429.847	656.38
430.069	736.38
430.292	735.38
430.514	641.38
430.736	597.38
430.958	628.38
431.18	590.38
431.402	565.38
431.624	573.38
431.846	586.38
432.068	587.38
432.29	605.38
432.512	581.38
432.734	629.38
432.956	583.38
433.178	619.38
433.4	609.38
433.622	604.38
433.844	595.38
434.066	609.38
434.287	605.38
434.509	620.38
434.731	628.38
434.953	611.38
435.175	641.38
435.397	662.38
435.618	667.38
435.84	733.38
436.062	810.38
436.284	876.38
436.505	747.38
436.727	677.38
436.949	620.38
437.17	607.38
437.392	611.38
437.614	645.38
437.835	668.38
438.057	739.38
438.278	869.38
438.5	859.38
438.721	953.38
438.943	898.38
439.165	720.38
439.386	679.38
439.608	689.38
439.829	649.38
440.05	702.38
440.272	726.38
440.493	724.38
440.715	641.38
440.936	645.38
441.158	620.38
441.379	641.38
441.6	638.38
441.822	681.38
442.043	725.38
442.264	815.38
442.486	851.38
442.707	718.38
442.928	693.38
443.149	701.38
443.371	729.38
443.592	767.38
443.813	858.38
444.034	931.38
444.255	759.38
444.476	726.38
444.698	717.38
444.919	705.38
445.14	789.38
445.361	726.38
445.582	694.38
445.803	793.38
446.024	891.38
446.245	901.38
446.466	807.38
446.687	697.38
446.908	668.38
447.129	622.38
447.35	618.38
447.571	602.38
447.792	596.38
448.013	602.38
448.234	621.38
448.455	678.38
448.675	809.38
448.896	921.38
449.117	781.38
449.338	748.38
449.559	853.38
449.779	966.38
450	779.38
450.221	652.38
450.442	638.38
450.662	575.38
450.883	600.38
451.104	609.38
451.324	594.38
451.545	548.38
451.766	570.38
451.986	577.38
452.207	561.38
452.428	547.38
452.648	562.38
452.869	549.38
453.089	555.38
453.31	565.38
453.53	567.38
453.751	570.38
453.971	567.38
454.192	565.38
454.412	540.38
454.633	548.38
454.853	545.38
455.073	555.38
455.294	547.38
455.514	635.38
455.734	617.38
455.955	542.38
456.175	539.38
456.395	511.38
456.616	506.38
456.836	528.38
457.056	506.38
457.276	498.38
457.497	528.38
457.717	524.38
457.937	525.38
458.157	534.38
458.377	548.38
458.598	546.38
458.818	613.38
459.038	655.38
459.258	717.38
459.478	652.38
459.698	594.38
459.918	595.38
460.138	588.38
460.358	595.38
460.578	620.38
460.798	619.38
461.018	631.38
461.238	610.38
461.458	627.38
461.678	593.38
461.898	605.38
462.118	604.38
462.338	634.38
462.558	646.38
462.777	669.38
462.997	681.38
463.217	699.38
463.437	716.38
463.657	678.38
463.876	640.38
464.096	673.38
464.316	662.38
464.536	639.38
464.755	666.38
464.975	658.38
465.195	682.38
465.414	725.38
465.634	650.38
465.854	605.38
466.073	616.38
466.293	572.38
466.512	571.38
466.732	573.38
466.951	567.38
467.171	594.38
467.391	567.38
467.61	576.38
467.829	577.38
468.049	591.38
468.268	586.38
468.488	569.38
468.707	546.38
468.927	542.38
469.146	552.38
469.365	554.38
469.585	526.38
469.804	564.38
470.023	578.38
470.243	561.38
470.462	597.38
470.681	591.38
470.901	604.38
471.12	603.38
471.339	583.38
471.558	584.38
471.777	562.38
471.997	590.38
472.216	567.38
472.435	598.38
472.654	570.38
472.873	569.38
473.092	563.38
473.311	573.38
473.53	565.38
473.749	564.38
473.968	606.38
474.187	729.38
474.406	733.38
474.625	617.38
474.844	587.38
475.063	578.38
475.282	569.38
475.501	533.38
475.72	585.38
475.939	593.38
476.158	605.38
476.377	599.38
476.596	603.38
476.814	605.38
477.033	621.38
477.252	632.38
477.471	603.38
477.69	633.38
477.908	633.38
478.127	614.38
478.346	641.38
478.564	653.38
478.783	661.38
479.002	670.38
479.22	685.38
479.439	703.38
479.658	683.38
479.876	685.38
480.095	688.38
480.313	705.38
480.532	720.38
480.751	694.38
480.969	714.38
481.188	767.38
481.406	783.38
481.624	694.38
481.843	664.38
482.061	669.38
482.28	663.38
482.498	669.38
482.717	662.38
482.935	663.38
483.153	682.38
483.372	683.38
483.59	659.38
483.808	684.38
484.027	663.38
484.245	674.38
484.463	650.38
484.681	674.38
484.9	703.38
485.118	686.38
485.336	686.38
485.554	652.38
485.772	701.38
485.99	710.38
486.209	716.38
486.427	710.38
486.645	697.38
486.863	702.38
487.081	718.38
487.299	714.38
487.517	724.38
487.735	718.38
487.953	730.38
488.171	702.38
488.389	715.38
488.607	713.38
488.825	728.38
489.043	726.38
489.261	730.38
489.479	710.38
489.696	732.38
489.914	743.38
490.132	723.38
490.35	758.38
490.568	767.38
490.786	773.38
491.003	778.38
491.221	817.38
491.439	829.38
491.657	835.38
491.874	805.38
492.092	817.38
492.31	825.38
492.527	853.38
492.745	829.38
492.963	839.38
493.18	857.38
493.398	859.38
493.615	884.38
493.833	855.38
494.05	859.38
494.268	869.38
494.485	859.38
494.703	860.38
494.92	860.38
495.138	859.38
495.355	858.38
495.573	846.38
495.79	857.38
496.008	861.38
496.225	884.38
496.442	870.38
496.66	881.38
496.877	857.38
497.094	856.38
497.312	861.38
497.529	906.38
497.746	903.38
497.963	899.38
498.181	951.38
498.398	959.38
498.615	962.38
498.832	994.38
499.049	1025.38
499.267	1058.38
499.484	1096.38
499.701	1129.38
499.918	1213.38
500.135	1288.38
500.352	1341.38
500.569	1387.38
500.786	1405.38
501.003	1382.38
501.22	1279.38
501.437	1217.38
