Data from 1974.PennyLincolnUp.Lamp.En5.5.200Scan.071719.P1.Changed Mount._HRD10591_15-51-10-855.txt Node
Date: Thu Jul 18 15:51:10 EDT 2019
User: cochatt
Spectrometer: HR+D1059
Trigger mode: 1
Integration Time (sec): 1.000000E-1
Scans to average: 1
Electric dark correction enabled: true
Nonlinearity correction enabled: false
Boxcar width: 0
XAxis mode: Wavelengths
Number of Pixels in Spectrum: 2048
>>>>>Begin Spectral Data<<<<<
223.165	-12.12
223.4	-12.12
223.635	-12.12
223.869	-31.12
224.104	-24.12
224.338	-11.12
224.573	-9.12
224.808	3.88
225.042	-2.12
225.277	-21.12
225.511	-12.12
225.746	18.88
225.98	7.88
226.215	7.88
226.449	8.88
226.683	24.88
226.918	23.88
227.152	26.88
227.387	34.88
227.621	31.88
227.856	38.88
228.09	49.88
228.324	54.88
228.559	47.88
228.793	59.88
229.027	87.88
229.262	87.88
229.496	103.88
229.73	118.88
229.964	123.88
230.199	121.88
230.433	114.88
230.667	99.88
230.901	113.88
231.136	98.88
231.37	104.88
231.604	94.88
231.838	122.88
232.072	106.88
232.306	101.88
232.541	95.88
232.775	108.88
233.009	106.88
233.243	113.88
233.477	119.88
233.711	115.88
233.945	100.88
234.179	125.88
234.413	101.88
234.647	106.88
234.881	108.88
235.115	118.88
235.349	113.88
235.583	100.88
235.817	111.88
236.051	119.88
236.285	118.88
236.519	114.88
236.753	123.88
236.987	134.88
237.221	141.88
237.455	193.88
237.689	147.88
237.922	127.88
238.156	128.88
238.39	140.88
238.624	131.88
238.858	122.88
239.091	112.88
239.325	111.88
239.559	123.88
239.793	120.88
240.027	123.88
240.26	129.88
240.494	141.88
240.728	132.88
240.961	137.88
241.195	129.88
241.429	133.88
241.662	124.88
241.896	134.88
242.13	127.88
242.363	127.88
242.597	137.88
242.83	126.88
243.064	124.88
243.298	138.88
243.531	122.88
243.765	121.88
243.998	128.88
244.232	152.88
244.465	142.88
244.699	123.88
244.932	159.88
245.166	138.88
245.399	125.88
245.633	155.88
245.866	135.88
246.099	131.88
246.333	152.88
246.566	149.88
246.8	152.88
247.033	149.88
247.266	147.88
247.5	155.88
247.733	165.88
247.966	158.88
248.2	172.88
248.433	170.88
248.666	165.88
248.899	169.88
249.133	194.88
249.366	202.88
249.599	179.88
249.832	169.88
250.066	167.88
250.299	171.88
250.532	152.88
250.765	197.88
250.998	174.88
251.231	200.88
251.465	195.88
251.698	185.88
251.931	180.88
252.164	175.88
252.397	183.88
252.63	175.88
252.863	172.88
253.096	188.88
253.329	186.88
253.562	199.88
253.795	187.88
254.028	186.88
254.261	201.88
254.494	192.88
254.727	227.88
254.96	206.88
255.193	219.88
255.426	212.88
255.659	225.88
255.892	212.88
256.124	216.88
256.357	202.88
256.59	201.88
256.823	209.88
257.056	191.88
257.289	188.88
257.521	176.88
257.754	193.88
257.987	208.88
258.22	191.88
258.452	183.88
258.685	195.88
258.918	182.88
259.151	187.88
259.383	188.88
259.616	208.88
259.849	192.88
260.081	211.88
260.314	217.88
260.547	212.88
260.779	226.88
261.012	205.88
261.244	206.88
261.477	213.88
261.71	205.88
261.942	202.88
262.175	209.88
262.407	201.88
262.64	192.88
262.872	207.88
263.105	192.88
263.337	203.88
263.57	175.88
263.802	183.88
264.035	199.88
264.267	214.88
264.499	197.88
264.732	202.88
264.964	211.88
265.197	214.88
265.429	187.88
265.661	215.88
265.894	199.88
266.126	205.88
266.358	213.88
266.591	214.88
266.823	213.88
267.055	205.88
267.287	224.88
267.52	227.88
267.752	225.88
267.984	219.88
268.216	214.88
268.448	213.88
268.681	216.88
268.913	227.88
269.145	222.88
269.377	243.88
269.609	248.88
269.841	237.88
270.073	225.88
270.306	253.88
270.538	279.88
270.77	283.88
271.002	256.88
271.234	247.88
271.466	257.88
271.698	269.88
271.93	292.88
272.162	283.88
272.394	279.88
272.626	273.88
272.858	242.88
273.09	264.88
273.322	230.88
273.553	225.88
273.785	225.88
274.017	236.88
274.249	263.88
274.481	240.88
274.713	223.88
274.945	224.88
275.176	213.88
275.408	240.88
275.64	246.88
275.872	233.88
276.104	248.88
276.335	234.88
276.567	237.88
276.799	256.88
277.031	266.88
277.262	298.88
277.494	300.88
277.726	287.88
277.957	258.88
278.189	262.88
278.421	245.88
278.652	268.88
278.884	259.88
279.115	261.88
279.347	250.88
279.579	272.88
279.81	260.88
280.042	262.88
280.273	256.88
280.505	259.88
280.736	280.88
280.968	263.88
281.199	269.88
281.431	241.88
281.662	263.88
281.894	256.88
282.125	260.88
282.356	272.88
282.588	285.88
282.819	268.88
283.051	255.88
283.282	259.88
283.513	265.88
283.745	249.88
283.976	262.88
284.207	262.88
284.439	272.88
284.67	274.88
284.901	281.88
285.132	287.88
285.364	261.88
285.595	287.88
285.826	267.88
286.057	280.88
286.288	264.88
286.52	261.88
286.751	271.88
286.982	277.88
287.213	271.88
287.444	253.88
287.675	282.88
287.906	279.88
288.138	289.88
288.369	288.88
288.6	294.88
288.831	298.88
289.062	281.88
289.293	266.88
289.524	271.88
289.755	268.88
289.986	283.88
290.217	287.88
290.448	279.88
290.679	280.88
290.91	242.88
291.141	281.88
291.371	285.88
291.602	281.88
291.833	276.88
292.064	288.88
292.295	283.88
292.526	279.88
292.757	292.88
292.987	274.88
293.218	281.88
293.449	260.88
293.68	293.88
293.91	285.88
294.141	308.88
294.372	288.88
294.603	277.88
294.833	295.88
295.064	292.88
295.295	281.88
295.525	276.88
295.756	281.88
295.987	292.88
296.217	297.88
296.448	301.88
296.679	294.88
296.909	292.88
297.14	296.88
297.37	289.88
297.601	288.88
297.831	279.88
298.062	291.88
298.292	296.88
298.523	296.88
298.753	286.88
298.984	280.88
299.214	290.88
299.445	285.88
299.675	288.88
299.905	296.88
300.136	311.88
300.366	300.88
300.597	275.88
300.827	300.88
301.057	315.88
301.288	315.88
301.518	333.88
301.748	320.88
301.979	314.88
302.209	280.88
302.439	314.88
302.669	311.88
302.9	314.88
303.13	307.88
303.36	295.88
303.59	288.88
303.82	314.88
304.051	316.88
304.281	288.88
304.511	304.88
304.741	299.88
304.971	310.88
305.201	325.88
305.431	323.88
305.661	328.88
305.891	309.88
306.121	319.88
306.352	304.88
306.582	295.88
306.812	311.88
307.042	305.88
307.272	304.88
307.502	297.88
307.731	311.88
307.961	329.88
308.191	313.88
308.421	312.88
308.651	307.88
308.881	321.88
309.111	313.88
309.341	317.88
309.571	323.88
309.8	341.88
310.03	329.88
310.26	332.88
310.49	329.88
310.72	321.88
310.949	362.88
311.179	329.88
311.409	345.88
311.639	341.88
311.868	337.88
312.098	330.88
312.328	345.88
312.557	356.88
312.787	370.88
313.017	343.88
313.246	351.88
313.476	345.88
313.706	339.88
313.935	332.88
314.165	363.88
314.394	361.88
314.624	354.88
314.853	361.88
315.083	355.88
315.312	343.88
315.542	350.88
315.771	344.88
316.001	354.88
316.23	359.88
316.46	345.88
316.689	363.88
316.919	357.88
317.148	364.88
317.377	369.88
317.607	363.88
317.836	356.88
318.065	356.88
318.295	338.88
318.524	328.88
318.753	348.88
318.983	337.88
319.212	344.88
319.441	347.88
319.67	360.88
319.9	363.88
320.129	331.88
320.358	358.88
320.587	339.88
320.816	359.88
321.046	360.88
321.275	354.88
321.504	354.88
321.733	372.88
321.962	347.88
322.191	374.88
322.42	367.88
322.649	372.88
322.878	357.88
323.108	383.88
323.337	406.88
323.566	404.88
323.795	425.88
324.024	430.88
324.253	501.88
324.482	639.88
324.71	973.88
324.939	1448.88
325.168	1265.88
325.397	656.88
325.626	468.88
325.855	422.88
326.084	405.88
326.313	407.88
326.542	412.88
326.77	425.88
326.999	480.88
327.228	611.88
327.457	899.88
327.686	1104.88
327.914	735.88
328.143	516.88
328.372	458.88
328.6	450.88
328.829	448.88
329.058	438.88
329.287	476.88
329.515	454.88
329.744	435.88
329.972	416.88
330.201	410.88
330.43	451.88
330.658	440.88
330.887	465.88
331.115	477.88
331.344	429.88
331.572	414.88
331.801	423.88
332.03	406.88
332.258	411.88
332.486	424.88
332.715	419.88
332.943	401.88
333.172	416.88
333.4	422.88
333.629	445.88
333.857	429.88
334.085	456.88
334.314	447.88
334.542	456.88
334.771	444.88
334.999	456.88
335.227	453.88
335.455	453.88
335.684	440.88
335.912	420.88
336.14	421.88
336.369	424.88
336.597	445.88
336.825	432.88
337.053	423.88
337.281	418.88
337.51	405.88
337.738	421.88
337.966	437.88
338.194	393.88
338.422	413.88
338.65	402.88
338.878	407.88
339.106	419.88
339.334	417.88
339.562	410.88
339.79	413.88
340.018	403.88
340.246	401.88
340.474	409.88
340.702	403.88
340.93	407.88
341.158	412.88
341.386	402.88
341.614	412.88
341.842	410.88
342.07	379.88
342.298	398.88
342.526	395.88
342.754	379.88
342.981	407.88
343.209	408.88
343.437	402.88
343.665	409.88
343.893	419.88
344.12	436.88
344.348	435.88
344.576	432.88
344.804	417.88
345.031	405.88
345.259	405.88
345.487	410.88
345.714	395.88
345.942	396.88
346.17	396.88
346.397	396.88
346.625	395.88
346.853	386.88
347.08	367.88
347.308	374.88
347.535	380.88
347.763	382.88
347.99	393.88
348.218	383.88
348.445	409.88
348.673	403.88
348.9	394.88
349.128	385.88
349.355	403.88
349.583	379.88
349.81	365.88
350.037	377.88
350.265	381.88
350.492	378.88
350.72	399.88
350.947	391.88
351.174	377.88
351.402	385.88
351.629	377.88
351.856	372.88
352.083	400.88
352.311	423.88
352.538	407.88
352.765	383.88
352.992	392.88
353.22	363.88
353.447	381.88
353.674	380.88
353.901	373.88
354.128	359.88
354.355	371.88
354.583	373.88
354.81	391.88
355.037	379.88
355.264	389.88
355.491	381.88
355.718	391.88
355.945	385.88
356.172	382.88
356.399	392.88
356.626	355.88
356.853	367.88
357.08	371.88
357.307	387.88
357.534	355.88
357.761	374.88
357.988	378.88
358.215	367.88
358.441	396.88
358.668	391.88
358.895	388.88
359.122	391.88
359.349	389.88
359.576	389.88
359.802	412.88
360.029	415.88
360.256	415.88
360.483	396.88
360.709	397.88
360.936	381.88
361.163	391.88
361.39	385.88
361.616	403.88
361.843	386.88
362.07	384.88
362.296	386.88
362.523	385.88
362.749	386.88
362.976	387.88
363.203	377.88
363.429	379.88
363.656	381.88
363.882	392.88
364.109	388.88
364.335	380.88
364.562	386.88
364.788	385.88
365.015	402.88
365.241	402.88
365.468	404.88
365.694	374.88
365.92	394.88
366.147	376.88
366.373	379.88
366.599	377.88
366.826	389.88
367.052	365.88
367.278	379.88
367.505	395.88
367.731	410.88
367.957	381.88
368.184	380.88
368.41	379.88
368.636	400.88
368.862	397.88
369.089	395.88
369.315	370.88
369.541	388.88
369.767	414.88
369.993	396.88
370.219	395.88
370.445	385.88
370.672	387.88
370.898	405.88
371.124	412.88
371.35	403.88
371.576	416.88
371.802	407.88
372.028	385.88
372.254	401.88
372.48	416.88
372.706	419.88
372.932	393.88
373.158	399.88
373.384	395.88
373.61	417.88
373.835	419.88
374.061	417.88
374.287	424.88
374.513	407.88
374.739	399.88
374.965	406.88
375.191	427.88
375.416	425.88
375.642	418.88
375.868	417.88
376.094	418.88
376.319	395.88
376.545	407.88
376.771	388.88
376.997	401.88
377.222	418.88
377.448	407.88
377.674	408.88
377.899	424.88
378.125	394.88
378.35	391.88
378.576	416.88
378.802	421.88
379.027	426.88
379.253	394.88
379.478	408.88
379.704	410.88
379.929	400.88
380.155	422.88
380.38	424.88
380.606	426.88
380.831	404.88
381.057	402.88
381.282	417.88
381.507	423.88
381.733	403.88
381.958	423.88
382.184	417.88
382.409	421.88
382.634	419.88
382.86	432.88
383.085	437.88
383.31	425.88
383.535	442.88
383.761	437.88
383.986	443.88
384.211	446.88
384.436	424.88
384.662	460.88
384.887	450.88
385.112	450.88
385.337	475.88
385.562	451.88
385.787	470.88
386.013	476.88
386.238	496.88
386.463	486.88
386.688	464.88
386.913	466.88
387.138	484.88
387.363	510.88
387.588	460.88
387.813	461.88
388.038	476.88
388.263	495.88
388.488	491.88
388.713	455.88
388.938	433.88
389.163	454.88
389.387	473.88
389.612	469.88
389.837	436.88
390.062	460.88
390.287	453.88
390.512	454.88
390.736	436.88
390.961	467.88
391.186	457.88
391.411	467.88
391.636	460.88
391.86	476.88
392.085	466.88
392.31	482.88
392.534	483.88
392.759	467.88
392.984	468.88
393.208	459.88
393.433	484.88
393.658	500.88
393.882	473.88
394.107	471.88
394.331	457.88
394.556	455.88
394.78	465.88
395.005	461.88
395.229	483.88
395.454	474.88
395.678	466.88
395.903	500.88
396.127	513.88
396.352	492.88
396.576	478.88
396.801	499.88
397.025	515.88
397.249	519.88
397.474	481.88
397.698	501.88
397.922	496.88
398.147	532.88
398.371	533.88
398.595	536.88
398.82	543.88
399.044	522.88
399.268	571.88
399.492	600.88
399.717	641.88
399.941	653.88
400.165	662.88
400.389	643.88
400.613	597.88
400.837	577.88
401.062	549.88
401.286	546.88
401.51	554.88
401.734	528.88
401.958	553.88
402.182	524.88
402.406	536.88
402.63	556.88
402.854	548.88
403.078	552.88
403.302	542.88
403.526	559.88
403.75	551.88
403.974	530.88
404.198	550.88
404.422	535.88
404.645	539.88
404.869	568.88
405.093	581.88
405.317	621.88
405.541	637.88
405.765	581.88
405.988	563.88
406.212	563.88
406.436	585.88
406.66	577.88
406.883	592.88
407.107	627.88
407.331	637.88
407.555	719.88
407.778	727.88
408.002	681.88
408.226	615.88
408.449	614.88
408.673	588.88
408.896	618.88
409.12	665.88
409.344	647.88
409.567	591.88
409.791	563.88
410.014	548.88
410.238	536.88
410.461	544.88
410.685	560.88
410.908	571.88
411.132	599.88
411.355	613.88
411.578	586.88
411.802	556.88
412.025	549.88
412.249	562.88
412.472	550.88
412.695	594.88
412.919	566.88
413.142	546.88
413.365	567.88
413.589	549.88
413.812	519.88
414.035	541.88
414.258	544.88
414.482	515.88
414.705	539.88
414.928	504.88
415.151	539.88
415.374	551.88
415.597	522.88
415.821	524.88
416.044	521.88
416.267	523.88
416.49	533.88
416.713	522.88
416.936	512.88
417.159	521.88
417.382	502.88
417.605	540.88
417.828	533.88
418.051	544.88
418.274	527.88
418.497	501.88
418.72	532.88
418.943	524.88
419.166	541.88
419.389	555.88
419.611	562.88
419.834	556.88
420.057	563.88
420.28	542.88
420.503	543.88
420.726	545.88
420.948	543.88
421.171	599.88
421.394	594.88
421.617	566.88
421.839	526.88
422.062	536.88
422.285	547.88
422.507	607.88
422.73	688.88
422.953	653.88
423.175	570.88
423.398	547.88
423.621	540.88
423.843	578.88
424.066	589.88
424.288	567.88
424.511	579.88
424.733	624.88
424.956	707.88
425.178	691.88
425.401	679.88
425.623	699.88
425.846	612.88
426.068	561.88
426.291	575.88
426.513	552.88
426.735	566.88
426.958	592.88
427.18	663.88
427.402	801.88
427.625	874.88
427.847	737.88
428.069	649.88
428.292	594.88
428.514	545.88
428.736	533.88
428.958	507.88
429.181	526.88
429.403	497.88
429.625	531.88
429.847	576.88
430.069	618.88
430.292	606.88
430.514	529.88
430.736	503.88
430.958	536.88
431.18	491.88
431.402	508.88
431.624	502.88
431.846	487.88
432.068	488.88
432.29	510.88
432.512	520.88
432.734	508.88
432.956	498.88
433.178	509.88
433.4	534.88
433.622	495.88
433.844	504.88
434.066	512.88
434.287	512.88
434.509	504.88
434.731	524.88
434.953	538.88
435.175	546.88
435.397	562.88
435.618	584.88
435.84	618.88
436.062	682.88
436.284	731.88
436.505	615.88
436.727	546.88
436.949	540.88
437.17	508.88
437.392	524.88
437.614	529.88
437.835	535.88
438.057	607.88
438.278	711.88
438.5	727.88
438.721	790.88
438.943	738.88
439.165	620.88
439.386	529.88
439.608	567.88
439.829	553.88
440.05	569.88
440.272	598.88
440.493	578.88
440.715	524.88
440.936	526.88
441.158	536.88
441.379	524.88
441.6	560.88
441.822	554.88
442.043	595.88
442.264	673.88
442.486	698.88
442.707	609.88
442.928	546.88
443.149	566.88
443.371	591.88
443.592	627.88
443.813	725.88
444.034	787.88
444.255	647.88
444.476	601.88
444.698	595.88
444.919	601.88
445.14	701.88
445.361	650.88
445.582	613.88
445.803	641.88
446.024	711.88
446.245	731.88
446.466	663.88
446.687	566.88
446.908	557.88
447.129	529.88
447.35	501.88
447.571	508.88
447.792	508.88
448.013	496.88
448.234	533.88
448.455	573.88
448.675	652.88
448.896	756.88
449.117	664.88
449.338	609.88
449.559	714.88
449.779	820.88
450	641.88
450.221	527.88
450.442	503.88
450.662	495.88
450.883	490.88
451.104	518.88
451.324	483.88
451.545	449.88
451.766	472.88
451.986	447.88
452.207	450.88
452.428	457.88
452.648	461.88
452.869	454.88
453.089	455.88
453.31	458.88
453.53	459.88
453.751	477.88
453.971	459.88
454.192	460.88
454.412	442.88
454.633	453.88
454.853	450.88
455.073	460.88
455.294	464.88
455.514	528.88
455.734	535.88
455.955	451.88
456.175	460.88
456.395	464.88
456.616	449.88
456.836	444.88
457.056	441.88
457.276	415.88
457.497	453.88
457.717	437.88
457.937	439.88
458.157	449.88
458.377	441.88
458.598	480.88
458.818	498.88
459.038	572.88
459.258	595.88
459.478	543.88
459.698	494.88
459.918	511.88
460.138	513.88
460.358	514.88
460.578	503.88
460.798	522.88
461.018	503.88
461.238	533.88
461.458	539.88
461.678	522.88
461.898	533.88
462.118	537.88
462.338	563.88
462.558	552.88
462.777	556.88
462.997	589.88
463.217	601.88
463.437	607.88
463.657	619.88
463.876	572.88
464.096	599.88
464.316	580.88
464.536	580.88
464.755	564.88
464.975	553.88
465.195	561.88
465.414	568.88
465.634	554.88
465.854	533.88
466.073	545.88
466.293	503.88
466.512	501.88
466.732	523.88
466.951	502.88
467.171	496.88
467.391	512.88
467.61	504.88
467.829	497.88
468.049	502.88
468.268	486.88
468.488	465.88
468.707	468.88
468.927	488.88
469.146	481.88
469.365	475.88
469.585	491.88
469.804	490.88
470.023	502.88
470.243	497.88
470.462	497.88
470.681	516.88
470.901	515.88
471.12	501.88
471.339	500.88
471.558	490.88
471.777	483.88
471.997	492.88
472.216	505.88
472.435	517.88
472.654	497.88
472.873	469.88
473.092	470.88
473.311	497.88
473.53	483.88
473.749	489.88
473.968	525.88
474.187	613.88
474.406	605.88
474.625	555.88
474.844	523.88
475.063	504.88
475.282	484.88
475.501	488.88
475.72	528.88
475.939	493.88
476.158	496.88
476.377	515.88
476.596	503.88
476.814	519.88
477.033	509.88
477.252	515.88
477.471	515.88
477.69	532.88
477.908	538.88
478.127	551.88
478.346	571.88
478.564	556.88
478.783	557.88
479.002	556.88
479.22	565.88
479.439	585.88
479.658	589.88
479.876	577.88
480.095	596.88
480.313	625.88
480.532	631.88
480.751	616.88
480.969	604.88
481.188	612.88
481.406	646.88
481.624	609.88
481.843	594.88
482.061	575.88
482.28	588.88
482.498	592.88
482.717	569.88
482.935	573.88
483.153	582.88
483.372	581.88
483.59	593.88
483.808	611.88
484.027	590.88
484.245	585.88
484.463	603.88
484.681	615.88
484.9	620.88
485.118	595.88
485.336	585.88
485.554	591.88
485.772	622.88
485.99	604.88
486.209	591.88
486.427	610.88
486.645	619.88
486.863	607.88
487.081	626.88
487.299	613.88
487.517	626.88
487.735	606.88
487.953	641.88
488.171	625.88
488.389	643.88
488.607	625.88
488.825	637.88
489.043	620.88
489.261	620.88
489.479	632.88
489.696	646.88
489.914	631.88
490.132	642.88
490.35	654.88
490.568	689.88
490.786	675.88
491.003	666.88
491.221	679.88
491.439	679.88
491.657	695.88
491.874	675.88
492.092	707.88
492.31	724.88
492.527	735.88
492.745	714.88
492.963	729.88
493.18	717.88
493.398	717.88
493.615	710.88
493.833	721.88
494.05	741.88
494.268	746.88
494.485	721.88
494.703	713.88
494.92	699.88
495.138	747.88
495.355	716.88
495.573	697.88
495.79	722.88
496.008	755.88
496.225	726.88
496.442	722.88
496.66	748.88
496.877	742.88
497.094	744.88
497.312	760.88
497.529	779.88
497.746	753.88
497.963	786.88
498.181	808.88
498.398	834.88
498.615	832.88
498.832	847.88
499.049	865.88
499.267	925.88
499.484	950.88
499.701	992.88
499.918	1036.88
500.135	1124.88
500.352	1161.88
500.569	1190.88
500.786	1248.88
501.003	1179.88
501.22	1124.88
501.437	1087.88
501.654	1039.88
