Data from 1974.PennyLincolnUp.Lamp.En5.5.200Scan.071719.P1.Changed Mount._HRD10591_15-51-08-856.txt Node
Date: Thu Jul 18 15:51:08 EDT 2019
User: cochatt
Spectrometer: HR+D1059
Trigger mode: 1
Integration Time (sec): 1.000000E-1
Scans to average: 1
Electric dark correction enabled: true
Nonlinearity correction enabled: false
Boxcar width: 0
XAxis mode: Wavelengths
Number of Pixels in Spectrum: 2048
>>>>>Begin Spectral Data<<<<<
223.165	-7.56
223.4	-7.56
223.635	-7.56
223.869	-20.56
224.104	-26.56
224.338	-19.56
224.573	-17.56
224.808	-24.56
225.042	5.44
225.277	-2.56
225.511	3.44
225.746	5.44
225.98	18.44
226.215	15.44
226.449	11.44
226.683	11.44
226.918	17.44
227.152	30.44
227.387	28.44
227.621	35.44
227.856	41.44
228.09	31.44
228.324	43.44
228.559	53.44
228.793	72.44
229.027	106.44
229.262	115.44
229.496	125.44
229.73	158.44
229.964	158.44
230.199	150.44
230.433	98.44
230.667	103.44
230.901	116.44
231.136	115.44
231.37	106.44
231.604	112.44
231.838	128.44
232.072	117.44
232.306	112.44
232.541	126.44
232.775	113.44
233.009	137.44
233.243	116.44
233.477	115.44
233.711	122.44
233.945	131.44
234.179	128.44
234.413	122.44
234.647	111.44
234.881	113.44
235.115	125.44
235.349	127.44
235.583	118.44
235.817	131.44
236.051	135.44
236.285	137.44
236.519	133.44
236.753	139.44
236.987	152.44
237.221	181.44
237.455	251.44
237.689	187.44
237.922	152.44
238.156	138.44
238.39	142.44
238.624	124.44
238.858	129.44
239.091	120.44
239.325	140.44
239.559	150.44
239.793	132.44
240.027	135.44
240.26	137.44
240.494	167.44
240.728	181.44
240.961	161.44
241.195	149.44
241.429	149.44
241.662	136.44
241.896	154.44
242.13	133.44
242.363	155.44
242.597	160.44
242.83	147.44
243.064	139.44
243.298	167.44
243.531	147.44
243.765	151.44
243.998	135.44
244.232	139.44
244.465	161.44
244.699	154.44
244.932	168.44
245.166	142.44
245.399	153.44
245.633	145.44
245.866	139.44
246.099	155.44
246.333	147.44
246.566	169.44
246.8	157.44
247.033	156.44
247.266	170.44
247.5	172.44
247.733	180.44
247.966	206.44
248.2	213.44
248.433	187.44
248.666	187.44
248.899	196.44
249.133	201.44
249.366	232.44
249.599	216.44
249.832	197.44
250.066	208.44
250.299	190.44
250.532	208.44
250.765	217.44
250.998	209.44
251.231	255.44
251.465	241.44
251.698	226.44
251.931	223.44
252.164	224.44
252.397	219.44
252.63	211.44
252.863	229.44
253.096	222.44
253.329	240.44
253.562	224.44
253.795	236.44
254.028	225.44
254.261	245.44
254.494	257.44
254.727	267.44
254.96	290.44
255.193	283.44
255.426	253.44
255.659	252.44
255.892	239.44
256.124	235.44
256.357	261.44
256.59	247.44
256.823	229.44
257.056	235.44
257.289	236.44
257.521	230.44
257.754	220.44
257.987	215.44
258.22	223.44
258.452	221.44
258.685	230.44
258.918	217.44
259.151	215.44
259.383	225.44
259.616	231.44
259.849	264.44
260.081	258.44
260.314	262.44
260.547	277.44
260.779	248.44
261.012	252.44
261.244	258.44
261.477	257.44
261.71	236.44
261.942	231.44
262.175	266.44
262.407	248.44
262.64	234.44
262.872	234.44
263.105	235.44
263.337	251.44
263.57	239.44
263.802	243.44
264.035	225.44
264.267	229.44
264.499	243.44
264.732	233.44
264.964	237.44
265.197	240.44
265.429	232.44
265.661	231.44
265.894	237.44
266.126	261.44
266.358	246.44
266.591	255.44
266.823	234.44
267.055	234.44
267.287	242.44
267.52	237.44
267.752	261.44
267.984	254.44
268.216	260.44
268.448	248.44
268.681	263.44
268.913	283.44
269.145	302.44
269.377	290.44
269.609	294.44
269.841	273.44
270.073	287.44
270.306	312.44
270.538	339.44
270.77	349.44
271.002	330.44
271.234	310.44
271.466	323.44
271.698	335.44
271.93	345.44
272.162	352.44
272.394	330.44
272.626	329.44
272.858	316.44
273.09	313.44
273.322	301.44
273.553	289.44
273.785	294.44
274.017	288.44
274.249	304.44
274.481	296.44
274.713	296.44
274.945	299.44
275.176	316.44
275.408	293.44
275.64	307.44
275.872	286.44
276.104	301.44
276.335	297.44
276.567	290.44
276.799	308.44
277.031	337.44
277.262	344.44
277.494	328.44
277.726	332.44
277.957	319.44
278.189	329.44
278.421	317.44
278.652	301.44
278.884	325.44
279.115	322.44
279.347	324.44
279.579	384.44
279.81	427.44
280.042	389.44
280.273	374.44
280.505	369.44
280.736	362.44
280.968	309.44
281.199	290.44
281.431	309.44
281.662	321.44
281.894	319.44
282.125	323.44
282.356	325.44
282.588	348.44
282.819	336.44
283.051	320.44
283.282	320.44
283.513	309.44
283.745	314.44
283.976	324.44
284.207	328.44
284.439	317.44
284.67	313.44
284.901	315.44
285.132	315.44
285.364	329.44
285.595	343.44
285.826	312.44
286.057	328.44
286.288	335.44
286.52	330.44
286.751	316.44
286.982	301.44
287.213	321.44
287.444	341.44
287.675	326.44
287.906	348.44
288.138	348.44
288.369	346.44
288.6	371.44
288.831	346.44
289.062	337.44
289.293	326.44
289.524	329.44
289.755	322.44
289.986	337.44
290.217	325.44
290.448	327.44
290.679	337.44
290.91	349.44
291.141	337.44
291.371	349.44
291.602	320.44
291.833	339.44
292.064	332.44
292.295	321.44
292.526	316.44
292.757	336.44
292.987	327.44
293.218	333.44
293.449	327.44
293.68	332.44
293.91	342.44
294.141	338.44
294.372	327.44
294.603	328.44
294.833	338.44
295.064	317.44
295.295	340.44
295.525	352.44
295.756	336.44
295.987	350.44
296.217	385.44
296.448	386.44
296.679	361.44
296.909	348.44
297.14	353.44
297.37	356.44
297.601	342.44
297.831	341.44
298.062	347.44
298.292	352.44
298.523	343.44
298.753	353.44
298.984	345.44
299.214	348.44
299.445	343.44
299.675	360.44
299.905	355.44
300.136	367.44
300.366	370.44
300.597	350.44
300.827	385.44
301.057	375.44
301.288	372.44
301.518	374.44
301.748	354.44
301.979	365.44
302.209	372.44
302.439	369.44
302.669	371.44
302.9	379.44
303.13	364.44
303.36	363.44
303.59	375.44
303.82	405.44
304.051	390.44
304.281	389.44
304.511	383.44
304.741	359.44
304.971	389.44
305.201	373.44
305.431	379.44
305.661	391.44
305.891	377.44
306.121	371.44
306.352	368.44
306.582	382.44
306.812	380.44
307.042	359.44
307.272	372.44
307.502	373.44
307.731	381.44
307.961	381.44
308.191	384.44
308.421	408.44
308.651	363.44
308.881	385.44
309.111	389.44
309.341	411.44
309.571	396.44
309.8	386.44
310.03	401.44
310.26	423.44
310.49	434.44
310.72	433.44
310.949	451.44
311.179	441.44
311.409	412.44
311.639	415.44
311.868	431.44
312.098	439.44
312.328	428.44
312.557	450.44
312.787	466.44
313.017	457.44
313.246	419.44
313.476	432.44
313.706	416.44
313.935	433.44
314.165	448.44
314.394	444.44
314.624	473.44
314.853	435.44
315.083	428.44
315.312	429.44
315.542	416.44
315.771	435.44
316.001	451.44
316.23	433.44
316.46	435.44
316.689	424.44
316.919	439.44
317.148	433.44
317.377	429.44
317.607	454.44
317.836	434.44
318.065	419.44
318.295	437.44
318.524	447.44
318.753	424.44
318.983	415.44
319.212	415.44
319.441	425.44
319.67	452.44
319.9	423.44
320.129	431.44
320.358	435.44
320.587	446.44
320.816	416.44
321.046	442.44
321.275	445.44
321.504	450.44
321.733	453.44
321.962	449.44
322.191	440.44
322.42	473.44
322.649	504.44
322.878	491.44
323.108	499.44
323.337	549.44
323.566	563.44
323.795	596.44
324.024	612.44
324.253	775.44
324.482	1101.44
324.71	1744.44
324.939	2607.44
325.168	2285.44
325.397	1109.44
325.626	724.44
325.855	607.44
326.084	577.44
326.313	548.44
326.542	555.44
326.77	616.44
326.999	706.44
327.228	1018.44
327.457	1571.44
327.686	2024.44
327.914	1231.44
328.143	791.44
328.372	690.44
328.6	651.44
328.829	623.44
329.058	622.44
329.287	617.44
329.515	593.44
329.744	562.44
329.972	553.44
330.201	554.44
330.43	596.44
330.658	606.44
330.887	666.44
331.115	639.44
331.344	586.44
331.572	547.44
331.801	569.44
332.03	563.44
332.258	522.44
332.486	544.44
332.715	511.44
332.943	544.44
333.172	537.44
333.4	542.44
333.629	552.44
333.857	562.44
334.085	567.44
334.314	569.44
334.542	572.44
334.771	578.44
334.999	579.44
335.227	562.44
335.455	534.44
335.684	555.44
335.912	525.44
336.14	541.44
336.369	529.44
336.597	517.44
336.825	531.44
337.053	504.44
337.281	528.44
337.51	497.44
337.738	489.44
337.966	510.44
338.194	533.44
338.422	524.44
338.65	511.44
338.878	497.44
339.106	484.44
339.334	496.44
339.562	498.44
339.79	469.44
340.018	488.44
340.246	485.44
340.474	487.44
340.702	478.44
340.93	501.44
341.158	497.44
341.386	483.44
341.614	498.44
341.842	501.44
342.07	492.44
342.298	489.44
342.526	489.44
342.754	474.44
342.981	470.44
343.209	485.44
343.437	498.44
343.665	470.44
343.893	485.44
344.12	516.44
344.348	524.44
344.576	514.44
344.804	520.44
345.031	510.44
345.259	515.44
345.487	508.44
345.714	497.44
345.942	487.44
346.17	474.44
346.397	475.44
346.625	477.44
346.853	477.44
347.08	461.44
347.308	474.44
347.535	480.44
347.763	484.44
347.99	500.44
348.218	497.44
348.445	507.44
348.673	486.44
348.9	466.44
349.128	480.44
349.355	461.44
349.583	465.44
349.81	470.44
350.037	467.44
350.265	480.44
350.492	477.44
350.72	465.44
350.947	474.44
351.174	487.44
351.402	502.44
351.629	494.44
351.856	499.44
352.083	519.44
352.311	476.44
352.538	480.44
352.765	519.44
352.992	492.44
353.22	497.44
353.447	474.44
353.674	482.44
353.901	476.44
354.128	455.44
354.355	430.44
354.583	473.44
354.81	431.44
355.037	473.44
355.264	449.44
355.491	450.44
355.718	443.44
355.945	437.44
356.172	458.44
356.399	456.44
356.626	447.44
356.853	461.44
357.08	465.44
357.307	453.44
357.534	451.44
357.761	458.44
357.988	464.44
358.215	492.44
358.441	476.44
358.668	461.44
358.895	462.44
359.122	464.44
359.349	469.44
359.576	497.44
359.802	504.44
360.029	525.44
360.256	538.44
360.483	530.44
360.709	506.44
360.936	485.44
361.163	502.44
361.39	495.44
361.616	508.44
361.843	481.44
362.07	476.44
362.296	475.44
362.523	475.44
362.749	477.44
362.976	491.44
363.203	470.44
363.429	465.44
363.656	481.44
363.882	470.44
364.109	479.44
364.335	480.44
364.562	464.44
364.788	453.44
365.015	465.44
365.241	481.44
365.468	475.44
365.694	489.44
365.92	492.44
366.147	465.44
366.373	475.44
366.599	457.44
366.826	476.44
367.052	458.44
367.278	473.44
367.505	458.44
367.731	473.44
367.957	468.44
368.184	471.44
368.41	455.44
368.636	493.44
368.862	500.44
369.089	475.44
369.315	468.44
369.541	497.44
369.767	462.44
369.993	464.44
370.219	468.44
370.445	466.44
370.672	484.44
370.898	484.44
371.124	477.44
371.35	480.44
371.576	483.44
371.802	458.44
372.028	461.44
372.254	486.44
372.48	470.44
372.706	466.44
372.932	476.44
373.158	474.44
373.384	479.44
373.61	497.44
373.835	472.44
374.061	467.44
374.287	482.44
374.513	484.44
374.739	512.44
374.965	478.44
375.191	508.44
375.416	495.44
375.642	477.44
375.868	492.44
376.094	485.44
376.319	487.44
376.545	483.44
376.771	485.44
376.997	468.44
377.222	489.44
377.448	473.44
377.674	464.44
377.899	480.44
378.125	476.44
378.35	485.44
378.576	473.44
378.802	471.44
379.027	492.44
379.253	473.44
379.478	474.44
379.704	475.44
379.929	492.44
380.155	484.44
380.38	481.44
380.606	490.44
380.831	493.44
381.057	497.44
381.282	501.44
381.507	472.44
381.733	500.44
381.958	508.44
382.184	512.44
382.409	500.44
382.634	513.44
382.86	525.44
383.085	525.44
383.31	534.44
383.535	535.44
383.761	528.44
383.986	551.44
384.211	552.44
384.436	539.44
384.662	550.44
384.887	565.44
385.112	571.44
385.337	588.44
385.562	583.44
385.787	587.44
386.013	615.44
386.238	600.44
386.463	564.44
386.688	571.44
386.913	572.44
387.138	584.44
387.363	572.44
387.588	582.44
387.813	563.44
388.038	543.44
388.263	589.44
388.488	596.44
388.713	565.44
388.938	545.44
389.163	531.44
389.387	551.44
389.612	532.44
389.837	558.44
390.062	533.44
390.287	546.44
390.512	531.44
390.736	535.44
390.961	551.44
391.186	533.44
391.411	544.44
391.636	574.44
391.86	578.44
392.085	588.44
392.31	560.44
392.534	576.44
392.759	583.44
392.984	592.44
393.208	672.44
393.433	810.44
393.658	843.44
393.882	649.44
394.107	586.44
394.331	565.44
394.556	560.44
394.78	578.44
395.005	569.44
395.229	557.44
395.454	543.44
395.678	577.44
395.903	578.44
396.127	595.44
396.352	647.44
396.576	625.44
396.801	659.44
397.025	747.44
397.249	685.44
397.474	593.44
397.698	583.44
397.922	603.44
398.147	611.44
398.371	627.44
398.595	600.44
398.82	625.44
399.044	637.44
399.268	691.44
399.492	719.44
399.717	747.44
399.941	802.44
400.165	817.44
400.389	796.44
400.613	713.44
400.837	643.44
401.062	654.44
401.286	662.44
401.51	654.44
401.734	643.44
401.958	639.44
402.182	630.44
402.406	656.44
402.63	650.44
402.854	637.44
403.078	657.44
403.302	649.44
403.526	652.44
403.75	680.44
403.974	676.44
404.198	657.44
404.422	687.44
404.645	668.44
404.869	669.44
405.093	675.44
405.317	723.44
405.541	778.44
405.765	715.44
405.988	672.44
406.212	712.44
406.436	704.44
406.66	744.44
406.883	729.44
407.107	757.44
407.331	807.44
407.555	879.44
407.778	885.44
408.002	828.44
408.226	779.44
408.449	715.44
408.673	714.44
408.896	739.44
409.12	791.44
409.344	773.44
409.567	672.44
409.791	683.44
410.014	668.44
410.238	651.44
410.461	678.44
410.685	678.44
410.908	702.44
411.132	690.44
411.355	773.44
411.578	708.44
411.802	659.44
412.025	637.44
412.249	656.44
412.472	660.44
412.695	685.44
412.919	662.44
413.142	628.44
413.365	659.44
413.589	644.44
413.812	639.44
414.035	602.44
414.258	634.44
414.482	613.44
414.705	643.44
414.928	625.44
415.151	657.44
415.374	609.44
415.597	625.44
415.821	601.44
416.044	624.44
416.267	636.44
416.49	643.44
416.713	620.44
416.936	625.44
417.159	632.44
417.382	627.44
417.605	618.44
417.828	627.44
418.051	642.44
418.274	656.44
418.497	630.44
418.72	644.44
418.943	628.44
419.166	655.44
419.389	659.44
419.611	692.44
419.834	663.44
420.057	634.44
420.28	659.44
420.503	631.44
420.726	644.44
420.948	662.44
421.171	694.44
421.394	728.44
421.617	678.44
421.839	628.44
422.062	641.44
422.285	667.44
422.507	716.44
422.73	881.44
422.953	875.44
423.175	716.44
423.398	691.44
423.621	691.44
423.843	715.44
424.066	704.44
424.288	701.44
424.511	729.44
424.733	777.44
424.956	840.44
425.178	843.44
425.401	843.44
425.623	852.44
425.846	732.44
426.068	696.44
426.291	701.44
426.513	687.44
426.735	701.44
426.958	709.44
427.18	843.44
427.402	976.44
427.625	1087.44
427.847	927.44
428.069	797.44
428.292	719.44
428.514	684.44
428.736	660.44
428.958	643.44
429.181	649.44
429.403	634.44
429.625	636.44
429.847	680.44
430.069	756.44
430.292	743.44
430.514	655.44
430.736	657.44
430.958	625.44
431.18	610.44
431.402	623.44
431.624	627.44
431.846	611.44
432.068	610.44
432.29	607.44
432.512	618.44
432.734	623.44
432.956	607.44
433.178	633.44
433.4	629.44
433.622	610.44
433.844	639.44
434.066	607.44
434.287	620.44
434.509	619.44
434.731	634.44
434.953	657.44
435.175	665.44
435.397	675.44
435.618	706.44
435.84	728.44
436.062	809.44
436.284	931.44
436.505	773.44
436.727	678.44
436.949	628.44
437.17	619.44
437.392	645.44
437.614	629.44
437.835	686.44
438.057	781.44
438.278	895.44
438.5	876.44
438.721	1003.44
438.943	925.44
439.165	754.44
439.386	716.44
439.608	691.44
439.829	703.44
440.05	727.44
440.272	781.44
440.493	739.44
440.715	687.44
440.936	667.44
441.158	637.44
441.379	678.44
441.6	668.44
441.822	692.44
442.043	723.44
442.264	827.44
442.486	885.44
442.707	759.44
442.928	712.44
443.149	709.44
443.371	758.44
443.592	803.44
443.813	897.44
444.034	981.44
444.255	810.44
444.476	746.44
444.698	744.44
444.919	737.44
445.14	867.44
445.361	809.44
445.582	769.44
445.803	855.44
446.024	936.44
446.245	917.44
446.466	855.44
446.687	748.44
446.908	705.44
447.129	651.44
447.35	635.44
447.571	633.44
447.792	634.44
448.013	646.44
448.234	649.44
448.455	696.44
448.675	816.44
448.896	948.44
449.117	809.44
449.338	759.44
449.559	889.44
449.779	1010.44
450	823.44
450.221	688.44
450.442	625.44
450.662	628.44
450.883	626.44
451.104	636.44
451.324	631.44
451.545	604.44
451.766	597.44
451.986	571.44
452.207	567.44
452.428	577.44
452.648	569.44
452.869	574.44
453.089	593.44
453.31	601.44
453.53	568.44
453.751	570.44
453.971	591.44
454.192	602.44
454.412	589.44
454.633	579.44
454.853	570.44
455.073	576.44
455.294	592.44
455.514	667.44
455.734	649.44
455.955	563.44
456.175	553.44
456.395	529.44
456.616	529.44
456.836	542.44
457.056	527.44
457.276	499.44
457.497	515.44
457.717	557.44
457.937	548.44
458.157	573.44
458.377	563.44
458.598	583.44
458.818	663.44
459.038	738.44
459.258	775.44
459.478	674.44
459.698	638.44
459.918	626.44
460.138	620.44
460.358	609.44
460.578	638.44
460.798	623.44
461.018	641.44
461.238	636.44
461.458	647.44
461.678	625.44
461.898	677.44
462.118	616.44
462.338	638.44
462.558	674.44
462.777	684.44
462.997	715.44
463.217	721.44
463.437	725.44
463.657	718.44
463.876	709.44
464.096	693.44
464.316	682.44
464.536	684.44
464.755	673.44
464.975	691.44
465.195	738.44
465.414	832.44
465.634	715.44
465.854	658.44
466.073	654.44
466.293	616.44
466.512	578.44
466.732	609.44
466.951	605.44
467.171	574.44
467.391	599.44
467.61	610.44
467.829	624.44
468.049	591.44
468.268	588.44
468.488	584.44
468.707	550.44
468.927	580.44
469.146	565.44
469.365	562.44
469.585	559.44
469.804	603.44
470.023	598.44
470.243	586.44
470.462	611.44
470.681	631.44
470.901	619.44
471.12	604.44
471.339	610.44
471.558	588.44
471.777	608.44
471.997	601.44
472.216	585.44
472.435	595.44
472.654	596.44
472.873	581.44
473.092	585.44
473.311	588.44
473.53	584.44
473.749	609.44
473.968	634.44
474.187	741.44
474.406	802.44
474.625	647.44
474.844	607.44
475.063	583.44
475.282	579.44
475.501	613.44
475.72	622.44
475.939	603.44
476.158	591.44
476.377	627.44
476.596	598.44
476.814	641.44
477.033	641.44
477.252	638.44
477.471	633.44
477.69	639.44
477.908	667.44
478.127	672.44
478.346	667.44
478.564	675.44
478.783	669.44
479.002	692.44
479.22	705.44
479.439	719.44
479.658	709.44
479.876	749.44
480.095	730.44
480.313	783.44
480.532	733.44
480.751	730.44
480.969	758.44
481.188	795.44
481.406	769.44
481.624	759.44
481.843	739.44
482.061	743.44
482.28	724.44
482.498	725.44
482.717	705.44
482.935	696.44
483.153	698.44
483.372	689.44
483.59	705.44
483.808	735.44
484.027	687.44
484.245	737.44
484.463	724.44
484.681	714.44
484.9	752.44
485.118	733.44
485.336	721.44
485.554	769.44
485.772	755.44
485.99	742.44
486.209	753.44
486.427	757.44
486.645	771.44
486.863	775.44
487.081	787.44
487.299	755.44
487.517	770.44
487.735	785.44
487.953	745.44
488.171	770.44
488.389	779.44
488.607	746.44
488.825	773.44
489.043	766.44
489.261	767.44
489.479	769.44
489.696	756.44
489.914	770.44
490.132	790.44
490.35	789.44
490.568	796.44
490.786	796.44
491.003	837.44
491.221	825.44
491.439	855.44
491.657	839.44
491.874	878.44
492.092	839.44
492.31	860.44
492.527	877.44
492.745	869.44
492.963	853.44
493.18	848.44
493.398	873.44
493.615	883.44
493.833	893.44
494.05	890.44
494.268	884.44
494.485	871.44
494.703	883.44
494.92	899.44
495.138	899.44
495.355	859.44
495.573	897.44
495.79	887.44
496.008	931.44
496.225	920.44
496.442	885.44
496.66	923.44
496.877	887.44
497.094	900.44
497.312	911.44
497.529	933.44
497.746	908.44
497.963	916.44
498.181	974.44
498.398	986.44
498.615	1009.44
498.832	1051.44
499.049	1076.44
499.267	1101.44
499.484	1151.44
499.701	1210.44
499.918	1257.44
500.135	1305.44
500.352	1437.44
500.569	1433.44
500.786	1417.44
501.003	1395.44
501.22	1363.44
501.437	1287.44
