Data from 1974.PennyLincolnUp.Lamp.En5.5.200Scan.071719.P1.Changed Mount._HRD10591_15-53-55-857.txt Node
Date: Thu Jul 18 15:53:55 EDT 2019
User: cochatt
Spectrometer: HR+D1059
Trigger mode: 1
Integration Time (sec): 1.000000E-1
Scans to average: 1
Electric dark correction enabled: true
Nonlinearity correction enabled: false
Boxcar width: 0
XAxis mode: Wavelengths
Number of Pixels in Spectrum: 2048
>>>>>Begin Spectral Data<<<<<
223.165	-12.88
223.4	-12.88
223.635	-12.88
223.869	-15.88
224.104	-23.88
224.338	-12.88
224.573	5.12
224.808	-10.88
225.042	-11.88
225.277	-10.88
225.511	2.12
225.746	4.12
225.98	16.12
226.215	4.12
226.449	12.12
226.683	18.12
226.918	29.12
227.152	8.12
227.387	27.12
227.621	27.12
227.856	27.12
228.09	37.12
228.324	49.12
228.559	52.12
228.793	51.12
229.027	83.12
229.262	96.12
229.496	110.12
229.73	137.12
229.964	141.12
230.199	118.12
230.433	117.12
230.667	130.12
230.901	123.12
231.136	100.12
231.37	113.12
231.604	107.12
231.838	114.12
232.072	116.12
232.306	123.12
232.541	112.12
232.775	122.12
233.009	123.12
233.243	125.12
233.477	107.12
233.711	126.12
233.945	120.12
234.179	120.12
234.413	122.12
234.647	127.12
234.881	112.12
235.115	108.12
235.349	133.12
235.583	133.12
235.817	124.12
236.051	127.12
236.285	111.12
236.519	131.12
236.753	140.12
236.987	141.12
237.221	184.12
237.455	225.12
237.689	191.12
237.922	133.12
238.156	137.12
238.39	133.12
238.624	131.12
238.858	121.12
239.091	127.12
239.325	130.12
239.559	132.12
239.793	129.12
240.027	135.12
240.26	156.12
240.494	156.12
240.728	165.12
240.961	144.12
241.195	160.12
241.429	163.12
241.662	136.12
241.896	143.12
242.13	141.12
242.363	136.12
242.597	140.12
242.83	138.12
243.064	139.12
243.298	140.12
243.531	149.12
243.765	135.12
243.998	151.12
244.232	156.12
244.465	148.12
244.699	155.12
244.932	157.12
245.166	162.12
245.399	161.12
245.633	154.12
245.866	155.12
246.099	153.12
246.333	163.12
246.566	184.12
246.8	163.12
247.033	167.12
247.266	162.12
247.5	167.12
247.733	187.12
247.966	180.12
248.2	193.12
248.433	191.12
248.666	179.12
248.899	183.12
249.133	208.12
249.366	222.12
249.599	211.12
249.832	193.12
250.066	183.12
250.299	200.12
250.532	187.12
250.765	212.12
250.998	237.12
251.231	236.12
251.465	217.12
251.698	211.12
251.931	195.12
252.164	195.12
252.397	224.12
252.63	203.12
252.863	228.12
253.096	232.12
253.329	240.12
253.562	219.12
253.795	233.12
254.028	225.12
254.261	221.12
254.494	245.12
254.727	271.12
254.96	280.12
255.193	289.12
255.426	248.12
255.659	230.12
255.892	240.12
256.124	253.12
256.357	248.12
256.59	219.12
256.823	235.12
257.056	233.12
257.289	222.12
257.521	231.12
257.754	218.12
257.987	232.12
258.22	224.12
258.452	244.12
258.685	223.12
258.918	225.12
259.151	226.12
259.383	235.12
259.616	219.12
259.849	249.12
260.081	246.12
260.314	259.12
260.547	271.12
260.779	266.12
261.012	257.12
261.244	232.12
261.477	260.12
261.71	261.12
261.942	239.12
262.175	251.12
262.407	225.12
262.64	232.12
262.872	234.12
263.105	236.12
263.337	228.12
263.57	220.12
263.802	231.12
264.035	220.12
264.267	225.12
264.499	239.12
264.732	234.12
264.964	240.12
265.197	234.12
265.429	237.12
265.661	236.12
265.894	240.12
266.126	243.12
266.358	222.12
266.591	241.12
266.823	255.12
267.055	233.12
267.287	238.12
267.52	239.12
267.752	230.12
267.984	256.12
268.216	243.12
268.448	251.12
268.681	250.12
268.913	279.12
269.145	273.12
269.377	294.12
269.609	300.12
269.841	288.12
270.073	287.12
270.306	306.12
270.538	332.12
270.77	357.12
271.002	317.12
271.234	311.12
271.466	327.12
271.698	324.12
271.93	329.12
272.162	337.12
272.394	347.12
272.626	308.12
272.858	296.12
273.09	306.12
273.322	297.12
273.553	294.12
273.785	295.12
274.017	286.12
274.249	278.12
274.481	288.12
274.713	293.12
274.945	286.12
275.176	267.12
275.408	295.12
275.64	291.12
275.872	282.12
276.104	282.12
276.335	272.12
276.567	288.12
276.799	288.12
277.031	317.12
277.262	323.12
277.494	343.12
277.726	319.12
277.957	302.12
278.189	312.12
278.421	319.12
278.652	299.12
278.884	297.12
279.115	296.12
279.347	290.12
279.579	288.12
279.81	296.12
280.042	299.12
280.273	307.12
280.505	294.12
280.736	278.12
280.968	310.12
281.199	284.12
281.431	287.12
281.662	293.12
281.894	295.12
282.125	288.12
282.356	321.12
282.588	337.12
282.819	329.12
283.051	318.12
283.282	306.12
283.513	303.12
283.745	320.12
283.976	306.12
284.207	307.12
284.439	304.12
284.67	300.12
284.901	305.12
285.132	323.12
285.364	307.12
285.595	312.12
285.826	300.12
286.057	306.12
286.288	295.12
286.52	307.12
286.751	317.12
286.982	319.12
287.213	295.12
287.444	322.12
287.675	325.12
287.906	316.12
288.138	340.12
288.369	324.12
288.6	325.12
288.831	318.12
289.062	319.12
289.293	321.12
289.524	322.12
289.755	333.12
289.986	304.12
290.217	331.12
290.448	328.12
290.679	331.12
290.91	323.12
291.141	330.12
291.371	324.12
291.602	311.12
291.833	319.12
292.064	325.12
292.295	321.12
292.526	314.12
292.757	330.12
292.987	326.12
293.218	313.12
293.449	326.12
293.68	313.12
293.91	328.12
294.141	318.12
294.372	325.12
294.603	338.12
294.833	346.12
295.064	335.12
295.295	309.12
295.525	337.12
295.756	333.12
295.987	334.12
296.217	367.12
296.448	377.12
296.679	342.12
296.909	335.12
297.14	341.12
297.37	351.12
297.601	331.12
297.831	332.12
298.062	335.12
298.292	337.12
298.523	337.12
298.753	349.12
298.984	321.12
299.214	327.12
299.445	344.12
299.675	325.12
299.905	342.12
300.136	325.12
300.366	343.12
300.597	348.12
300.827	349.12
301.057	370.12
301.288	369.12
301.518	367.12
301.748	334.12
301.979	337.12
302.209	347.12
302.439	363.12
302.669	364.12
302.9	355.12
303.13	351.12
303.36	349.12
303.59	367.12
303.82	369.12
304.051	368.12
304.281	369.12
304.511	359.12
304.741	367.12
304.971	349.12
305.201	369.12
305.431	349.12
305.661	369.12
305.891	381.12
306.121	381.12
306.352	367.12
306.582	361.12
306.812	363.12
307.042	365.12
307.272	350.12
307.502	356.12
307.731	378.12
307.961	378.12
308.191	364.12
308.421	383.12
308.651	375.12
308.881	380.12
309.111	383.12
309.341	403.12
309.571	381.12
309.8	363.12
310.03	383.12
310.26	407.12
310.49	399.12
310.72	407.12
310.949	425.12
311.179	432.12
311.409	411.12
311.639	409.12
311.868	411.12
312.098	397.12
312.328	406.12
312.557	411.12
312.787	450.12
313.017	451.12
313.246	427.12
313.476	409.12
313.706	389.12
313.935	414.12
314.165	433.12
314.394	420.12
314.624	413.12
314.853	397.12
315.083	400.12
315.312	394.12
315.542	398.12
315.771	417.12
316.001	415.12
316.23	378.12
316.46	416.12
316.689	417.12
316.919	397.12
317.148	412.12
317.377	415.12
317.607	417.12
317.836	441.12
318.065	411.12
318.295	396.12
318.524	415.12
318.753	391.12
318.983	404.12
319.212	388.12
319.441	424.12
319.67	418.12
319.9	412.12
320.129	414.12
320.358	426.12
320.587	434.12
320.816	433.12
321.046	414.12
321.275	419.12
321.504	430.12
321.733	439.12
321.962	433.12
322.191	433.12
322.42	434.12
322.649	459.12
322.878	451.12
323.108	457.12
323.337	488.12
323.566	488.12
323.795	531.12
324.024	545.12
324.253	641.12
324.482	890.12
324.71	1327.12
324.939	1934.12
325.168	1711.12
325.397	887.12
325.626	634.12
325.855	543.12
326.084	523.12
326.313	517.12
326.542	511.12
326.77	538.12
326.999	628.12
327.228	795.12
327.457	1190.12
327.686	1473.12
327.914	991.12
328.143	683.12
328.372	615.12
328.6	596.12
328.829	537.12
329.058	578.12
329.287	573.12
329.515	540.12
329.744	512.12
329.972	534.12
330.201	539.12
330.43	572.12
330.658	599.12
330.887	607.12
331.115	602.12
331.344	537.12
331.572	513.12
331.801	496.12
332.03	513.12
332.258	517.12
332.486	509.12
332.715	501.12
332.943	510.12
333.172	518.12
333.4	515.12
333.629	519.12
333.857	518.12
334.085	533.12
334.314	545.12
334.542	571.12
334.771	584.12
334.999	549.12
335.227	543.12
335.455	534.12
335.684	523.12
335.912	502.12
336.14	490.12
336.369	507.12
336.597	503.12
336.825	496.12
337.053	489.12
337.281	499.12
337.51	484.12
337.738	494.12
337.966	484.12
338.194	498.12
338.422	483.12
338.65	493.12
338.878	481.12
339.106	459.12
339.334	479.12
339.562	471.12
339.79	477.12
340.018	489.12
340.246	475.12
340.474	479.12
340.702	474.12
340.93	493.12
341.158	480.12
341.386	464.12
341.614	468.12
341.842	470.12
342.07	464.12
342.298	482.12
342.526	465.12
342.754	450.12
342.981	472.12
343.209	471.12
343.437	470.12
343.665	473.12
343.893	483.12
344.12	511.12
344.348	509.12
344.576	488.12
344.804	502.12
345.031	491.12
345.259	496.12
345.487	482.12
345.714	483.12
345.942	462.12
346.17	468.12
346.397	465.12
346.625	451.12
346.853	448.12
347.08	473.12
347.308	457.12
347.535	458.12
347.763	456.12
347.99	449.12
348.218	474.12
348.445	473.12
348.673	458.12
348.9	471.12
349.128	444.12
349.355	438.12
349.583	452.12
349.81	441.12
350.037	452.12
350.265	444.12
350.492	440.12
350.72	458.12
350.947	449.12
351.174	436.12
351.402	467.12
351.629	464.12
351.856	453.12
352.083	448.12
352.311	462.12
352.538	467.12
352.765	451.12
352.992	447.12
353.22	463.12
353.447	456.12
353.674	456.12
353.901	444.12
354.128	447.12
354.355	439.12
354.583	452.12
354.81	420.12
355.037	441.12
355.264	443.12
355.491	415.12
355.718	426.12
355.945	439.12
356.172	432.12
356.399	427.12
356.626	463.12
356.853	451.12
357.08	422.12
357.307	443.12
357.534	428.12
357.761	451.12
357.988	434.12
358.215	457.12
358.441	457.12
358.668	467.12
358.895	418.12
359.122	428.12
359.349	451.12
359.576	456.12
359.802	469.12
360.029	497.12
360.256	502.12
360.483	521.12
360.709	473.12
360.936	476.12
361.163	453.12
361.39	447.12
361.616	471.12
361.843	465.12
362.07	456.12
362.296	442.12
362.523	462.12
362.749	458.12
362.976	457.12
363.203	435.12
363.429	444.12
363.656	447.12
363.882	447.12
364.109	453.12
364.335	437.12
364.562	456.12
364.788	456.12
365.015	437.12
365.241	455.12
365.468	444.12
365.694	433.12
365.92	448.12
366.147	431.12
366.373	449.12
366.599	444.12
366.826	425.12
367.052	420.12
367.278	458.12
367.505	471.12
367.731	481.12
367.957	455.12
368.184	443.12
368.41	456.12
368.636	436.12
368.862	467.12
369.089	469.12
369.315	457.12
369.541	447.12
369.767	452.12
369.993	442.12
370.219	456.12
370.445	445.12
370.672	447.12
370.898	449.12
371.124	443.12
371.35	454.12
371.576	467.12
371.802	437.12
372.028	448.12
372.254	448.12
372.48	455.12
372.706	455.12
372.932	460.12
373.158	454.12
373.384	459.12
373.61	459.12
373.835	455.12
374.061	462.12
374.287	474.12
374.513	470.12
374.739	476.12
374.965	493.12
375.191	460.12
375.416	469.12
375.642	468.12
375.868	468.12
376.094	458.12
376.319	473.12
376.545	459.12
376.771	457.12
376.997	461.12
377.222	447.12
377.448	441.12
377.674	457.12
377.899	451.12
378.125	464.12
378.35	462.12
378.576	483.12
378.802	445.12
379.027	439.12
379.253	451.12
379.478	451.12
379.704	445.12
379.929	477.12
380.155	447.12
380.38	436.12
380.606	454.12
380.831	441.12
381.057	469.12
381.282	451.12
381.507	475.12
381.733	470.12
381.958	449.12
382.184	480.12
382.409	472.12
382.634	466.12
382.86	472.12
383.085	492.12
383.31	472.12
383.535	501.12
383.761	500.12
383.986	513.12
384.211	490.12
384.436	503.12
384.662	496.12
384.887	523.12
385.112	503.12
385.337	495.12
385.562	528.12
385.787	498.12
386.013	538.12
386.238	518.12
386.463	537.12
386.688	508.12
386.913	499.12
387.138	493.12
387.363	517.12
387.588	517.12
387.813	500.12
388.038	490.12
388.263	501.12
388.488	530.12
388.713	529.12
388.938	524.12
389.163	519.12
389.387	515.12
389.612	513.12
389.837	511.12
390.062	497.12
390.287	506.12
390.512	498.12
390.736	499.12
390.961	493.12
391.186	531.12
391.411	527.12
391.636	532.12
391.86	531.12
392.085	536.12
392.31	546.12
392.534	553.12
392.759	549.12
392.984	530.12
393.208	518.12
393.433	519.12
393.658	505.12
393.882	524.12
394.107	528.12
394.331	503.12
394.556	520.12
394.78	504.12
395.005	544.12
395.229	521.12
395.454	543.12
395.678	540.12
395.903	559.12
396.127	577.12
396.352	547.12
396.576	544.12
396.801	536.12
397.025	531.12
397.249	563.12
397.474	566.12
397.698	573.12
397.922	564.12
398.147	559.12
398.371	592.12
398.595	587.12
398.82	594.12
399.044	594.12
399.268	656.12
399.492	661.12
399.717	723.12
399.941	743.12
400.165	775.12
400.389	763.12
400.613	698.12
400.837	631.12
401.062	612.12
401.286	645.12
401.51	612.12
401.734	596.12
401.958	611.12
402.182	604.12
402.406	607.12
402.63	615.12
402.854	625.12
403.078	618.12
403.302	617.12
403.526	611.12
403.75	629.12
403.974	633.12
404.198	624.12
404.422	650.12
404.645	649.12
404.869	649.12
405.093	656.12
405.317	715.12
405.541	755.12
405.765	690.12
405.988	675.12
406.212	653.12
406.436	670.12
406.66	691.12
406.883	685.12
407.107	711.12
407.331	756.12
407.555	811.12
407.778	843.12
408.002	755.12
408.226	708.12
408.449	695.12
408.673	673.12
408.896	729.12
409.12	743.12
409.344	731.12
409.567	669.12
409.791	648.12
410.014	625.12
410.238	622.12
410.461	633.12
410.685	617.12
410.908	642.12
411.132	684.12
411.355	704.12
411.578	687.12
411.802	639.12
412.025	622.12
412.249	613.12
412.472	643.12
412.695	701.12
412.919	661.12
413.142	658.12
413.365	635.12
413.589	624.12
413.812	607.12
414.035	600.12
414.258	606.12
414.482	581.12
414.705	619.12
414.928	595.12
415.151	589.12
415.374	598.12
415.597	597.12
415.821	582.12
416.044	572.12
416.267	611.12
416.49	579.12
416.713	591.12
416.936	605.12
417.159	597.12
417.382	608.12
417.605	592.12
417.828	613.12
418.051	617.12
418.274	626.12
418.497	611.12
418.72	590.12
418.943	601.12
419.166	599.12
419.389	678.12
419.611	645.12
419.834	641.12
420.057	618.12
420.28	629.12
420.503	619.12
420.726	630.12
420.948	631.12
421.171	697.12
421.394	700.12
421.617	657.12
421.839	629.12
422.062	623.12
422.285	630.12
422.507	701.12
422.73	782.12
422.953	715.12
423.175	651.12
423.398	636.12
423.621	644.12
423.843	668.12
424.066	671.12
424.288	673.12
424.511	699.12
424.733	730.12
424.956	826.12
425.178	758.12
425.401	771.12
425.623	840.12
425.846	716.12
426.068	651.12
426.291	635.12
426.513	658.12
426.735	633.12
426.958	712.12
427.18	795.12
427.402	891.12
427.625	1011.12
427.847	820.12
428.069	732.12
428.292	713.12
428.514	640.12
428.736	624.12
428.958	623.12
429.181	592.12
429.403	591.12
429.625	623.12
429.847	675.12
430.069	724.12
430.292	708.12
430.514	614.12
430.736	587.12
430.958	590.12
431.18	581.12
431.402	564.12
431.624	551.12
431.846	561.12
432.068	559.12
432.29	583.12
432.512	569.12
432.734	608.12
432.956	583.12
433.178	594.12
433.4	613.12
433.622	605.12
433.844	593.12
434.066	579.12
434.287	585.12
434.509	554.12
434.731	607.12
434.953	595.12
435.175	630.12
435.397	657.12
435.618	649.12
435.84	696.12
436.062	779.12
436.284	855.12
436.505	718.12
436.727	643.12
436.949	620.12
437.17	604.12
437.392	587.12
437.614	582.12
437.835	640.12
438.057	701.12
438.278	801.12
438.5	847.12
438.721	930.12
438.943	881.12
439.165	709.12
439.386	661.12
439.608	643.12
439.829	663.12
440.05	672.12
440.272	706.12
440.493	679.12
440.715	635.12
440.936	607.12
441.158	600.12
441.379	590.12
441.6	636.12
441.822	637.12
442.043	698.12
442.264	763.12
442.486	822.12
442.707	735.12
442.928	672.12
443.149	677.12
443.371	681.12
443.592	735.12
443.813	874.12
444.034	926.12
444.255	765.12
444.476	690.12
444.698	692.12
444.919	697.12
445.14	743.12
445.361	726.12
445.582	688.12
445.803	768.12
446.024	858.12
446.245	858.12
446.466	813.12
446.687	711.12
446.908	640.12
447.129	624.12
447.35	594.12
447.571	601.12
447.792	597.12
448.013	607.12
448.234	603.12
448.455	664.12
448.675	785.12
448.896	916.12
449.117	783.12
449.338	734.12
449.559	849.12
449.779	949.12
450	770.12
450.221	648.12
450.442	625.12
450.662	588.12
450.883	577.12
451.104	612.12
451.324	569.12
451.545	575.12
451.766	541.12
451.986	537.12
452.207	545.12
452.428	540.12
452.648	543.12
452.869	531.12
453.089	544.12
453.31	566.12
453.53	552.12
453.751	534.12
453.971	526.12
454.192	531.12
454.412	511.12
454.633	520.12
454.853	533.12
455.073	531.12
455.294	550.12
455.514	629.12
455.734	609.12
455.955	540.12
456.175	522.12
456.395	507.12
456.616	494.12
456.836	504.12
457.056	493.12
457.276	495.12
457.497	521.12
457.717	509.12
457.937	525.12
458.157	509.12
458.377	508.12
458.598	564.12
458.818	577.12
459.038	653.12
459.258	693.12
459.478	611.12
459.698	564.12
459.918	569.12
460.138	603.12
460.358	599.12
460.578	611.12
460.798	581.12
461.018	583.12
461.238	606.12
461.458	591.12
461.678	578.12
461.898	603.12
462.118	577.12
462.338	632.12
462.558	625.12
462.777	633.12
462.997	655.12
463.217	687.12
463.437	694.12
463.657	648.12
463.876	658.12
464.096	629.12
464.316	649.12
464.536	629.12
464.755	644.12
464.975	637.12
465.195	665.12
465.414	702.12
465.634	648.12
465.854	606.12
466.073	589.12
466.293	573.12
466.512	545.12
466.732	556.12
466.951	548.12
467.171	543.12
467.391	536.12
467.61	545.12
467.829	563.12
468.049	550.12
468.268	568.12
468.488	541.12
468.707	555.12
468.927	528.12
469.146	532.12
469.365	536.12
469.585	549.12
469.804	557.12
470.023	564.12
470.243	568.12
470.462	571.12
470.681	587.12
470.901	589.12
471.12	580.12
471.339	554.12
471.558	578.12
471.777	550.12
471.997	546.12
472.216	557.12
472.435	569.12
472.654	600.12
472.873	547.12
473.092	531.12
473.311	539.12
473.53	544.12
473.749	572.12
473.968	595.12
474.187	705.12
474.406	723.12
474.625	620.12
474.844	567.12
475.063	583.12
475.282	584.12
475.501	571.12
475.72	577.12
475.939	567.12
476.158	582.12
476.377	565.12
476.596	564.12
476.814	593.12
477.033	579.12
477.252	598.12
477.471	575.12
477.69	618.12
477.908	605.12
478.127	619.12
478.346	631.12
478.564	613.12
478.783	634.12
479.002	656.12
479.22	639.12
479.439	670.12
479.658	665.12
479.876	656.12
480.095	687.12
480.313	709.12
480.532	724.12
480.751	695.12
480.969	685.12
481.188	722.12
481.406	734.12
481.624	722.12
481.843	683.12
482.061	674.12
482.28	651.12
482.498	672.12
482.717	644.12
482.935	681.12
483.153	671.12
483.372	637.12
483.59	667.12
483.808	647.12
484.027	636.12
484.245	667.12
484.463	662.12
484.681	669.12
484.9	675.12
485.118	693.12
485.336	674.12
485.554	679.12
485.772	688.12
485.99	659.12
486.209	699.12
486.427	693.12
486.645	685.12
486.863	729.12
487.081	730.12
487.299	701.12
487.517	713.12
487.735	699.12
487.953	717.12
488.171	722.12
488.389	712.12
488.607	689.12
488.825	730.12
489.043	713.12
489.261	704.12
489.479	744.12
489.696	710.12
489.914	734.12
490.132	751.12
490.35	751.12
490.568	732.12
490.786	761.12
491.003	777.12
491.221	780.12
491.439	807.12
491.657	808.12
491.874	780.12
492.092	797.12
492.31	830.12
492.527	831.12
492.745	846.12
492.963	833.12
493.18	834.12
493.398	862.12
493.615	815.12
493.833	845.12
494.05	821.12
494.268	838.12
494.485	836.12
494.703	860.12
494.92	850.12
495.138	844.12
495.355	836.12
495.573	846.12
495.79	814.12
496.008	812.12
496.225	834.12
496.442	848.12
496.66	848.12
496.877	856.12
497.094	858.12
497.312	871.12
497.529	885.12
497.746	887.12
497.963	900.12
498.181	901.12
498.398	932.12
498.615	952.12
498.832	982.12
499.049	1000.12
499.267	1025.12
499.484	1055.12
499.701	1146.12
499.918	1163.12
500.135	1259.12
500.352	1329.12
500.569	1346.12
500.786	1360.12
501.003	1280.12
501.22	1270.12
501.437	1204.12
501.654	1150.12
