Data from 1974.PennyLincolnUp.Lamp.En5.5.200Scan.071719.P1.Changed Mount._HRD10591_15-51-20-856.txt Node
Date: Thu Jul 18 15:51:20 EDT 2019
User: cochatt
Spectrometer: HR+D1059
Trigger mode: 1
Integration Time (sec): 1.000000E-1
Scans to average: 1
Electric dark correction enabled: true
Nonlinearity correction enabled: false
Boxcar width: 0
XAxis mode: Wavelengths
Number of Pixels in Spectrum: 2048
>>>>>Begin Spectral Data<<<<<
223.165	-19.5
223.4	-19.5
223.635	-19.5
223.869	-23.5
224.104	-23.5
224.338	-15.5
224.573	-13.5
224.808	-3.5
225.042	-14.5
225.277	7.5
225.511	-4.5
225.746	-7.5
225.98	9.5
226.215	12.5
226.449	23.5
226.683	18.5
226.918	24.5
227.152	29.5
227.387	53.5
227.621	23.5
227.856	48.5
228.09	33.5
228.324	56.5
228.559	55.5
228.793	65.5
229.027	92.5
229.262	105.5
229.496	89.5
229.73	122.5
229.964	150.5
230.199	109.5
230.433	116.5
230.667	98.5
230.901	102.5
231.136	109.5
231.37	109.5
231.604	101.5
231.838	107.5
232.072	114.5
232.306	108.5
232.541	117.5
232.775	114.5
233.009	119.5
233.243	113.5
233.477	108.5
233.711	114.5
233.945	117.5
234.179	105.5
234.413	113.5
234.647	114.5
234.881	109.5
235.115	112.5
235.349	123.5
235.583	132.5
235.817	109.5
236.051	112.5
236.285	106.5
236.519	114.5
236.753	123.5
236.987	141.5
237.221	155.5
237.455	193.5
237.689	153.5
237.922	141.5
238.156	126.5
238.39	138.5
238.624	125.5
238.858	124.5
239.091	115.5
239.325	126.5
239.559	118.5
239.793	121.5
240.027	123.5
240.26	143.5
240.494	138.5
240.728	137.5
240.961	124.5
241.195	133.5
241.429	128.5
241.662	125.5
241.896	132.5
242.13	130.5
242.363	146.5
242.597	154.5
242.83	135.5
243.064	138.5
243.298	136.5
243.531	141.5
243.765	134.5
243.998	133.5
244.232	138.5
244.465	146.5
244.699	148.5
244.932	136.5
245.166	152.5
245.399	140.5
245.633	148.5
245.866	150.5
246.099	148.5
246.333	143.5
246.566	148.5
246.8	133.5
247.033	152.5
247.266	160.5
247.5	155.5
247.733	172.5
247.966	152.5
248.2	168.5
248.433	168.5
248.666	156.5
248.899	173.5
249.133	189.5
249.366	193.5
249.599	184.5
249.832	165.5
250.066	178.5
250.299	187.5
250.532	173.5
250.765	209.5
250.998	212.5
251.231	190.5
251.465	220.5
251.698	194.5
251.931	186.5
252.164	185.5
252.397	166.5
252.63	184.5
252.863	182.5
253.096	198.5
253.329	193.5
253.562	214.5
253.795	201.5
254.028	215.5
254.261	196.5
254.494	217.5
254.727	222.5
254.96	264.5
255.193	244.5
255.426	231.5
255.659	202.5
255.892	217.5
256.124	214.5
256.357	204.5
256.59	207.5
256.823	196.5
257.056	211.5
257.289	196.5
257.521	204.5
257.754	194.5
257.987	200.5
258.22	219.5
258.452	207.5
258.685	190.5
258.918	185.5
259.151	199.5
259.383	200.5
259.616	201.5
259.849	205.5
260.081	221.5
260.314	232.5
260.547	226.5
260.779	234.5
261.012	226.5
261.244	213.5
261.477	203.5
261.71	209.5
261.942	203.5
262.175	217.5
262.407	206.5
262.64	200.5
262.872	201.5
263.105	197.5
263.337	209.5
263.57	200.5
263.802	198.5
264.035	212.5
264.267	208.5
264.499	187.5
264.732	206.5
264.964	210.5
265.197	214.5
265.429	206.5
265.661	210.5
265.894	201.5
266.126	204.5
266.358	203.5
266.591	206.5
266.823	238.5
267.055	215.5
267.287	218.5
267.52	204.5
267.752	224.5
267.984	229.5
268.216	222.5
268.448	224.5
268.681	218.5
268.913	215.5
269.145	248.5
269.377	251.5
269.609	261.5
269.841	273.5
270.073	249.5
270.306	249.5
270.538	284.5
270.77	282.5
271.002	244.5
271.234	248.5
271.466	272.5
271.698	282.5
271.93	269.5
272.162	282.5
272.394	274.5
272.626	268.5
272.858	269.5
273.09	257.5
273.322	251.5
273.553	256.5
273.785	240.5
274.017	242.5
274.249	283.5
274.481	244.5
274.713	260.5
274.945	269.5
275.176	232.5
275.408	265.5
275.64	247.5
275.872	260.5
276.104	262.5
276.335	256.5
276.567	244.5
276.799	264.5
277.031	270.5
277.262	307.5
277.494	287.5
277.726	262.5
277.957	256.5
278.189	237.5
278.421	277.5
278.652	263.5
278.884	264.5
279.115	237.5
279.347	246.5
279.579	263.5
279.81	259.5
280.042	247.5
280.273	264.5
280.505	252.5
280.736	247.5
280.968	277.5
281.199	265.5
281.431	258.5
281.662	254.5
281.894	262.5
282.125	261.5
282.356	252.5
282.588	269.5
282.819	277.5
283.051	252.5
283.282	261.5
283.513	236.5
283.745	258.5
283.976	267.5
284.207	265.5
284.439	282.5
284.67	262.5
284.901	263.5
285.132	265.5
285.364	278.5
285.595	258.5
285.826	268.5
286.057	271.5
286.288	268.5
286.52	247.5
286.751	270.5
286.982	253.5
287.213	281.5
287.444	261.5
287.675	257.5
287.906	284.5
288.138	298.5
288.369	273.5
288.6	288.5
288.831	289.5
289.062	288.5
289.293	288.5
289.524	287.5
289.755	283.5
289.986	285.5
290.217	270.5
290.448	264.5
290.679	275.5
290.91	272.5
291.141	268.5
291.371	278.5
291.602	261.5
291.833	263.5
292.064	280.5
292.295	277.5
292.526	269.5
292.757	298.5
292.987	295.5
293.218	298.5
293.449	291.5
293.68	292.5
293.91	273.5
294.141	288.5
294.372	277.5
294.603	290.5
294.833	280.5
295.064	276.5
295.295	293.5
295.525	285.5
295.756	276.5
295.987	268.5
296.217	306.5
296.448	295.5
296.679	286.5
296.909	298.5
297.14	298.5
297.37	307.5
297.601	297.5
297.831	306.5
298.062	309.5
298.292	283.5
298.523	292.5
298.753	290.5
298.984	289.5
299.214	302.5
299.445	298.5
299.675	314.5
299.905	313.5
300.136	285.5
300.366	290.5
300.597	295.5
300.827	315.5
301.057	312.5
301.288	308.5
301.518	301.5
301.748	302.5
301.979	312.5
302.209	322.5
302.439	316.5
302.669	318.5
302.9	307.5
303.13	309.5
303.36	311.5
303.59	316.5
303.82	330.5
304.051	317.5
304.281	300.5
304.511	301.5
304.741	304.5
304.971	308.5
305.201	308.5
305.431	309.5
305.661	319.5
305.891	327.5
306.121	329.5
306.352	321.5
306.582	323.5
306.812	310.5
307.042	288.5
307.272	307.5
307.502	313.5
307.731	308.5
307.961	313.5
308.191	316.5
308.421	311.5
308.651	339.5
308.881	323.5
309.111	328.5
309.341	314.5
309.571	320.5
309.8	334.5
310.03	326.5
310.26	348.5
310.49	341.5
310.72	346.5
310.949	343.5
311.179	341.5
311.409	330.5
311.639	342.5
311.868	343.5
312.098	339.5
312.328	355.5
312.557	338.5
312.787	355.5
313.017	351.5
313.246	356.5
313.476	342.5
313.706	368.5
313.935	334.5
314.165	349.5
314.394	345.5
314.624	352.5
314.853	336.5
315.083	356.5
315.312	352.5
315.542	354.5
315.771	349.5
316.001	345.5
316.23	349.5
316.46	356.5
316.689	343.5
316.919	329.5
317.148	357.5
317.377	374.5
317.607	353.5
317.836	372.5
318.065	348.5
318.295	359.5
318.524	350.5
318.753	333.5
318.983	364.5
319.212	349.5
319.441	358.5
319.67	346.5
319.9	372.5
320.129	346.5
320.358	341.5
320.587	350.5
320.816	371.5
321.046	365.5
321.275	362.5
321.504	359.5
321.733	377.5
321.962	366.5
322.191	384.5
322.42	390.5
322.649	358.5
322.878	376.5
323.108	391.5
323.337	401.5
323.566	413.5
323.795	425.5
324.024	461.5
324.253	518.5
324.482	673.5
324.71	957.5
324.939	1410.5
325.168	1256.5
325.397	659.5
325.626	476.5
325.855	421.5
326.084	408.5
326.313	408.5
326.542	419.5
326.77	438.5
326.999	482.5
327.228	610.5
327.457	892.5
327.686	1106.5
327.914	757.5
328.143	516.5
328.372	469.5
328.6	476.5
328.829	454.5
329.058	446.5
329.287	456.5
329.515	451.5
329.744	429.5
329.972	426.5
330.201	451.5
330.43	461.5
330.658	473.5
330.887	490.5
331.115	485.5
331.344	437.5
331.572	440.5
331.801	435.5
332.03	454.5
332.258	414.5
332.486	401.5
332.715	409.5
332.943	424.5
333.172	445.5
333.4	441.5
333.629	457.5
333.857	459.5
334.085	471.5
334.314	457.5
334.542	473.5
334.771	484.5
334.999	438.5
335.227	446.5
335.455	441.5
335.684	448.5
335.912	429.5
336.14	416.5
336.369	423.5
336.597	430.5
336.825	411.5
337.053	424.5
337.281	422.5
337.51	414.5
337.738	428.5
337.966	416.5
338.194	408.5
338.422	403.5
338.65	420.5
338.878	409.5
339.106	412.5
339.334	410.5
339.562	395.5
339.79	419.5
340.018	401.5
340.246	412.5
340.474	413.5
340.702	394.5
340.93	418.5
341.158	396.5
341.386	414.5
341.614	411.5
341.842	384.5
342.07	407.5
342.298	390.5
342.526	396.5
342.754	407.5
342.981	405.5
343.209	383.5
343.437	416.5
343.665	420.5
343.893	441.5
344.12	440.5
344.348	428.5
344.576	435.5
344.804	421.5
345.031	414.5
345.259	425.5
345.487	414.5
345.714	416.5
345.942	409.5
346.17	390.5
346.397	403.5
346.625	375.5
346.853	384.5
347.08	386.5
347.308	391.5
347.535	398.5
347.763	392.5
347.99	394.5
348.218	372.5
348.445	386.5
348.673	383.5
348.9	417.5
349.128	394.5
349.355	379.5
349.583	375.5
349.81	382.5
350.037	377.5
350.265	389.5
350.492	388.5
350.72	369.5
350.947	393.5
351.174	391.5
351.402	403.5
351.629	386.5
351.856	390.5
352.083	385.5
352.311	371.5
352.538	405.5
352.765	378.5
352.992	395.5
353.22	379.5
353.447	403.5
353.674	382.5
353.901	385.5
354.128	382.5
354.355	374.5
354.583	393.5
354.81	373.5
355.037	384.5
355.264	384.5
355.491	395.5
355.718	370.5
355.945	360.5
356.172	372.5
356.399	382.5
356.626	374.5
356.853	373.5
357.08	369.5
357.307	386.5
357.534	380.5
357.761	366.5
357.988	364.5
358.215	372.5
358.441	386.5
358.668	352.5
358.895	381.5
359.122	388.5
359.349	382.5
359.576	405.5
359.802	401.5
360.029	404.5
360.256	413.5
360.483	419.5
360.709	408.5
360.936	394.5
361.163	384.5
361.39	387.5
361.616	403.5
361.843	393.5
362.07	380.5
362.296	394.5
362.523	398.5
362.749	397.5
362.976	397.5
363.203	393.5
363.429	406.5
363.656	390.5
363.882	390.5
364.109	366.5
364.335	376.5
364.562	407.5
364.788	386.5
365.015	386.5
365.241	368.5
365.468	417.5
365.694	404.5
365.92	402.5
366.147	384.5
366.373	386.5
366.599	390.5
366.826	377.5
367.052	387.5
367.278	399.5
367.505	393.5
367.731	386.5
367.957	384.5
368.184	385.5
368.41	369.5
368.636	424.5
368.862	395.5
369.089	395.5
369.315	392.5
369.541	411.5
369.767	402.5
369.993	407.5
370.219	390.5
370.445	403.5
370.672	402.5
370.898	405.5
371.124	393.5
371.35	413.5
371.576	409.5
371.802	410.5
372.028	397.5
372.254	376.5
372.48	392.5
372.706	408.5
372.932	399.5
373.158	410.5
373.384	410.5
373.61	412.5
373.835	389.5
374.061	397.5
374.287	412.5
374.513	396.5
374.739	434.5
374.965	411.5
375.191	410.5
375.416	406.5
375.642	411.5
375.868	417.5
376.094	403.5
376.319	411.5
376.545	397.5
376.771	402.5
376.997	406.5
377.222	384.5
377.448	399.5
377.674	389.5
377.899	416.5
378.125	401.5
378.35	386.5
378.576	385.5
378.802	401.5
379.027	404.5
379.253	420.5
379.478	403.5
379.704	412.5
379.929	405.5
380.155	419.5
380.38	411.5
380.606	401.5
380.831	417.5
381.057	418.5
381.282	421.5
381.507	417.5
381.733	402.5
381.958	402.5
382.184	417.5
382.409	422.5
382.634	409.5
382.86	402.5
383.085	416.5
383.31	413.5
383.535	438.5
383.761	422.5
383.986	418.5
384.211	426.5
384.436	429.5
384.662	434.5
384.887	449.5
385.112	438.5
385.337	440.5
385.562	471.5
385.787	463.5
386.013	441.5
386.238	460.5
386.463	453.5
386.688	432.5
386.913	458.5
387.138	462.5
387.363	446.5
387.588	448.5
387.813	445.5
388.038	464.5
388.263	457.5
388.488	460.5
388.713	453.5
388.938	446.5
389.163	437.5
389.387	445.5
389.612	446.5
389.837	424.5
390.062	452.5
390.287	443.5
390.512	452.5
390.736	460.5
390.961	466.5
391.186	460.5
391.411	446.5
391.636	451.5
391.86	491.5
392.085	482.5
392.31	474.5
392.534	459.5
392.759	488.5
392.984	463.5
393.208	462.5
393.433	451.5
393.658	478.5
393.882	454.5
394.107	470.5
394.331	457.5
394.556	466.5
394.78	464.5
395.005	460.5
395.229	457.5
395.454	474.5
395.678	480.5
395.903	515.5
396.127	486.5
396.352	488.5
396.576	503.5
396.801	477.5
397.025	474.5
397.249	466.5
397.474	477.5
397.698	492.5
397.922	504.5
398.147	500.5
398.371	531.5
398.595	508.5
398.82	511.5
399.044	518.5
399.268	567.5
399.492	590.5
399.717	650.5
399.941	653.5
400.165	671.5
400.389	648.5
400.613	594.5
400.837	554.5
401.062	525.5
401.286	538.5
401.51	546.5
401.734	513.5
401.958	521.5
402.182	546.5
402.406	552.5
402.63	548.5
402.854	528.5
403.078	539.5
403.302	552.5
403.526	558.5
403.75	576.5
403.974	549.5
404.198	532.5
404.422	578.5
404.645	582.5
404.869	563.5
405.093	580.5
405.317	614.5
405.541	647.5
405.765	585.5
405.988	544.5
406.212	552.5
406.436	581.5
406.66	605.5
406.883	580.5
407.107	604.5
407.331	644.5
407.555	722.5
407.778	708.5
408.002	653.5
408.226	588.5
408.449	593.5
408.673	601.5
408.896	617.5
409.12	644.5
409.344	624.5
409.567	586.5
409.791	568.5
410.014	556.5
410.238	533.5
410.461	550.5
410.685	568.5
410.908	566.5
411.132	602.5
411.355	616.5
411.578	586.5
411.802	548.5
412.025	534.5
412.249	565.5
412.472	557.5
412.695	597.5
412.919	585.5
413.142	567.5
413.365	561.5
413.589	518.5
413.812	498.5
414.035	530.5
414.258	525.5
414.482	532.5
414.705	529.5
414.928	500.5
415.151	500.5
415.374	512.5
415.597	535.5
415.821	524.5
416.044	511.5
416.267	536.5
416.49	519.5
416.713	505.5
416.936	526.5
417.159	493.5
417.382	482.5
417.605	515.5
417.828	529.5
418.051	554.5
418.274	531.5
418.497	537.5
418.72	534.5
418.943	513.5
419.166	547.5
419.389	556.5
419.611	570.5
419.834	557.5
420.057	544.5
420.28	565.5
420.503	548.5
420.726	550.5
420.948	541.5
421.171	578.5
421.394	623.5
421.617	570.5
421.839	547.5
422.062	547.5
422.285	554.5
422.507	597.5
422.73	627.5
422.953	634.5
423.175	582.5
423.398	560.5
423.621	539.5
423.843	580.5
424.066	567.5
424.288	553.5
424.511	584.5
424.733	650.5
424.956	718.5
425.178	656.5
425.401	666.5
425.623	705.5
425.846	611.5
426.068	572.5
426.291	559.5
426.513	573.5
426.735	555.5
426.958	580.5
427.18	668.5
427.402	790.5
427.625	854.5
427.847	722.5
428.069	621.5
428.292	577.5
428.514	553.5
428.736	540.5
428.958	527.5
429.181	511.5
429.403	526.5
429.625	533.5
429.847	566.5
430.069	610.5
430.292	597.5
430.514	540.5
430.736	522.5
430.958	538.5
431.18	532.5
431.402	516.5
431.624	506.5
431.846	485.5
432.068	488.5
432.29	491.5
432.512	484.5
432.734	513.5
432.956	524.5
433.178	532.5
433.4	530.5
433.622	504.5
433.844	517.5
434.066	520.5
434.287	520.5
434.509	513.5
434.731	513.5
434.953	543.5
435.175	540.5
435.397	563.5
435.618	571.5
435.84	583.5
436.062	664.5
436.284	727.5
436.505	631.5
436.727	571.5
436.949	540.5
437.17	540.5
437.392	540.5
437.614	537.5
437.835	553.5
438.057	636.5
438.278	722.5
438.5	731.5
438.721	828.5
438.943	790.5
439.165	613.5
439.386	576.5
439.608	555.5
439.829	545.5
440.05	586.5
440.272	610.5
440.493	599.5
440.715	543.5
440.936	517.5
441.158	532.5
441.379	530.5
441.6	563.5
441.822	555.5
442.043	580.5
442.264	647.5
442.486	710.5
442.707	603.5
442.928	582.5
443.149	565.5
443.371	592.5
443.592	646.5
443.813	720.5
444.034	761.5
444.255	657.5
444.476	604.5
444.698	574.5
444.919	603.5
445.14	685.5
445.361	642.5
445.582	595.5
445.803	654.5
446.024	730.5
446.245	731.5
446.466	654.5
446.687	602.5
446.908	566.5
447.129	541.5
447.35	533.5
447.571	506.5
447.792	504.5
448.013	488.5
448.234	515.5
448.455	560.5
448.675	643.5
448.896	750.5
449.117	674.5
449.338	636.5
449.559	688.5
449.779	795.5
450	651.5
450.221	545.5
450.442	525.5
450.662	481.5
450.883	501.5
451.104	492.5
451.324	501.5
451.545	482.5
451.766	485.5
451.986	458.5
452.207	450.5
452.428	467.5
452.648	470.5
452.869	487.5
453.089	478.5
453.31	476.5
453.53	451.5
453.751	453.5
453.971	456.5
454.192	455.5
454.412	447.5
454.633	442.5
454.853	457.5
455.073	467.5
455.294	488.5
455.514	520.5
455.734	521.5
455.955	469.5
456.175	447.5
456.395	438.5
456.616	429.5
456.836	439.5
457.056	430.5
457.276	428.5
457.497	435.5
457.717	445.5
457.937	442.5
458.157	449.5
458.377	456.5
458.598	477.5
458.818	519.5
459.038	551.5
459.258	590.5
459.478	543.5
459.698	522.5
459.918	525.5
460.138	484.5
460.358	502.5
460.578	520.5
460.798	537.5
461.018	527.5
461.238	519.5
461.458	535.5
461.678	527.5
461.898	534.5
462.118	525.5
462.338	556.5
462.558	554.5
462.777	559.5
462.997	582.5
463.217	599.5
463.437	594.5
463.657	551.5
463.876	579.5
464.096	562.5
464.316	569.5
464.536	586.5
464.755	558.5
464.975	553.5
465.195	571.5
465.414	580.5
465.634	546.5
465.854	540.5
466.073	514.5
466.293	480.5
466.512	488.5
466.732	465.5
466.951	466.5
467.171	474.5
467.391	485.5
467.61	506.5
467.829	518.5
468.049	480.5
468.268	475.5
468.488	501.5
468.707	472.5
468.927	487.5
469.146	476.5
469.365	478.5
469.585	491.5
469.804	474.5
470.023	500.5
470.243	490.5
470.462	491.5
470.681	499.5
470.901	512.5
471.12	509.5
471.339	489.5
471.558	484.5
471.777	495.5
471.997	481.5
472.216	493.5
472.435	493.5
472.654	497.5
472.873	477.5
473.092	470.5
473.311	483.5
473.53	475.5
473.749	492.5
473.968	513.5
474.187	601.5
474.406	618.5
474.625	544.5
474.844	500.5
475.063	477.5
475.282	508.5
475.501	512.5
475.72	487.5
475.939	463.5
476.158	505.5
476.377	490.5
476.596	492.5
476.814	504.5
477.033	490.5
477.252	509.5
477.471	523.5
477.69	550.5
477.908	562.5
478.127	544.5
478.346	531.5
478.564	558.5
478.783	547.5
479.002	555.5
479.22	554.5
479.439	560.5
479.658	572.5
479.876	597.5
480.095	576.5
480.313	625.5
480.532	602.5
480.751	589.5
480.969	598.5
481.188	625.5
481.406	630.5
481.624	582.5
481.843	557.5
482.061	551.5
482.28	579.5
482.498	563.5
482.717	569.5
482.935	551.5
483.153	576.5
483.372	587.5
483.59	557.5
483.808	562.5
484.027	577.5
484.245	585.5
484.463	584.5
484.681	578.5
484.9	584.5
485.118	597.5
485.336	579.5
485.554	598.5
485.772	584.5
485.99	624.5
486.209	582.5
486.427	572.5
486.645	610.5
486.863	615.5
487.081	589.5
487.299	604.5
487.517	595.5
487.735	567.5
487.953	595.5
488.171	595.5
488.389	597.5
488.607	623.5
488.825	590.5
489.043	617.5
489.261	606.5
489.479	624.5
489.696	597.5
489.914	610.5
490.132	637.5
490.35	625.5
490.568	646.5
490.786	654.5
491.003	659.5
491.221	675.5
491.439	683.5
491.657	688.5
491.874	683.5
492.092	693.5
492.31	704.5
492.527	706.5
492.745	720.5
492.963	705.5
493.18	744.5
493.398	709.5
493.615	725.5
493.833	699.5
494.05	725.5
494.268	722.5
494.485	685.5
494.703	698.5
494.92	717.5
495.138	722.5
495.355	711.5
495.573	712.5
495.79	740.5
496.008	731.5
496.225	736.5
496.442	721.5
496.66	710.5
496.877	737.5
497.094	726.5
497.312	734.5
497.529	740.5
497.746	749.5
497.963	763.5
498.181	769.5
498.398	796.5
498.615	812.5
498.832	841.5
499.049	874.5
499.267	887.5
499.484	938.5
499.701	953.5
499.918	1001.5
500.135	1077.5
500.352	1135.5
500.569	1155.5
500.786	1172.5
501.003	1141.5
501.22	1079.5
501.437	1014.5
501.654	1013.5
501.871	968.5
502.088	889.5
502.305	875.5
502.522	843.5
502.739	869.5
502.956	777.5
503.172	792.5
503.389	787.5
503.606	774.5
503.823	758.5
504.04	744.5
504.256	726.5
504.473	741.5
504.69	746.5
504.907	710.5
505.123	692.5
505.34	700.5
505.557	707.5
505.773	698.5
505.99	672.5
506.207	678.5
506.423	661.5
506.64	680.5
506.856	680.5
507.073	668.5
507.289	665.5
507.506	627.5
507.722	632.5
507.939	666.5
508.155	654.5
508.372	628.5
508.588	626.5
508.805	657.5
509.021	661.5
509.238	631.5
509.454	635.5
509.67	624.5
509.887	629.5
510.103	616.5
510.319	608.5
510.536	651.5
510.752	862.5
510.968	760.5
511.184	615.5
511.401	592.5
511.617	604.5
511.833	592.5
512.049	600.5
512.265	572.5
512.481	579.5
512.698	589.5
512.914	575.5
513.13	582.5
513.346	591.5
513.562	603.5
513.778	591.5
513.994	596.5
514.21	596.5
514.426	585.5
514.642	612.5
514.858	634.5
515.074	648.5
515.29	695.5
515.506	884.5
515.721	777.5
515.937	663.5
516.153	633.5
516.369	610.5
516.585	611.5
516.801	629.5
517.016	628.5
517.232	648.5
517.448	646.5
517.664	632.5
517.879	641.5
518.095	637.5
518.311	640.5
518.527	618.5
518.742	601.5
518.958	622.5
519.173	602.5
519.389	581.5
519.605	599.5
