Data from 1974.PennyLincolnUp.Lamp.En5.5.200Scan.071719.P1.Changed Mount._HRD10591_15-54-12-857.txt Node
Date: Thu Jul 18 15:54:12 EDT 2019
User: cochatt
Spectrometer: HR+D1059
Trigger mode: 1
Integration Time (sec): 1.000000E-1
Scans to average: 1
Electric dark correction enabled: true
Nonlinearity correction enabled: false
Boxcar width: 0
XAxis mode: Wavelengths
Number of Pixels in Spectrum: 2048
>>>>>Begin Spectral Data<<<<<
223.165	-9.31
223.4	-9.31
223.635	-9.31
223.869	-22.31
224.104	-16.31
224.338	-7.31
224.573	-13.31
224.808	-11.31
225.042	-0.31
225.277	-2.31
225.511	-5.31
225.746	-6.31
225.98	7.69
226.215	-2.31
226.449	23.69
226.683	17.69
226.918	20.69
227.152	26.69
227.387	43.69
227.621	26.69
227.856	32.69
228.09	62.69
228.324	42.69
228.559	54.69
228.793	78.69
229.027	99.69
229.262	115.69
229.496	126.69
229.73	139.69
229.964	161.69
230.199	150.69
230.433	124.69
230.667	108.69
230.901	120.69
231.136	119.69
231.37	123.69
231.604	132.69
231.838	129.69
232.072	126.69
232.306	139.69
232.541	123.69
232.775	126.69
233.009	130.69
233.243	121.69
233.477	130.69
233.711	121.69
233.945	139.69
234.179	129.69
234.413	114.69
234.647	131.69
234.881	119.69
235.115	137.69
235.349	122.69
235.583	129.69
235.817	137.69
236.051	146.69
236.285	128.69
236.519	133.69
236.753	122.69
236.987	161.69
237.221	204.69
237.455	262.69
237.689	205.69
237.922	161.69
238.156	151.69
238.39	145.69
238.624	137.69
238.858	125.69
239.091	153.69
239.325	139.69
239.559	160.69
239.793	132.69
240.027	152.69
240.26	156.69
240.494	161.69
240.728	152.69
240.961	161.69
241.195	174.69
241.429	145.69
241.662	141.69
241.896	146.69
242.13	148.69
242.363	152.69
242.597	149.69
242.83	158.69
243.064	154.69
243.298	140.69
243.531	144.69
243.765	155.69
243.998	150.69
244.232	170.69
244.465	160.69
244.699	158.69
244.932	154.69
245.166	156.69
245.399	159.69
245.633	166.69
245.866	166.69
246.099	160.69
246.333	162.69
246.566	159.69
246.8	168.69
247.033	186.69
247.266	173.69
247.5	178.69
247.733	181.69
247.966	200.69
248.2	197.69
248.433	211.69
248.666	196.69
248.899	210.69
249.133	245.69
249.366	225.69
249.599	232.69
249.832	200.69
250.066	199.69
250.299	207.69
250.532	210.69
250.765	225.69
250.998	239.69
251.231	284.69
251.465	241.69
251.698	224.69
251.931	208.69
252.164	224.69
252.397	224.69
252.63	215.69
252.863	212.69
253.096	229.69
253.329	271.69
253.562	240.69
253.795	251.69
254.028	231.69
254.261	247.69
254.494	258.69
254.727	283.69
254.96	303.69
255.193	298.69
255.426	264.69
255.659	264.69
255.892	268.69
256.124	260.69
256.357	253.69
256.59	266.69
256.823	239.69
257.056	240.69
257.289	228.69
257.521	236.69
257.754	246.69
257.987	241.69
258.22	225.69
258.452	225.69
258.685	220.69
258.918	236.69
259.151	233.69
259.383	235.69
259.616	236.69
259.849	256.69
260.081	278.69
260.314	286.69
260.547	290.69
260.779	288.69
261.012	233.69
261.244	246.69
261.477	262.69
261.71	260.69
261.942	242.69
262.175	247.69
262.407	234.69
262.64	237.69
262.872	238.69
263.105	248.69
263.337	260.69
263.57	233.69
263.802	273.69
264.035	233.69
264.267	253.69
264.499	239.69
264.732	249.69
264.964	241.69
265.197	252.69
265.429	254.69
265.661	252.69
265.894	231.69
266.126	238.69
266.358	238.69
266.591	257.69
266.823	246.69
267.055	254.69
267.287	266.69
267.52	238.69
267.752	262.69
267.984	282.69
268.216	269.69
268.448	268.69
268.681	267.69
268.913	262.69
269.145	276.69
269.377	294.69
269.609	310.69
269.841	314.69
270.073	298.69
270.306	340.69
270.538	344.69
270.77	345.69
271.002	334.69
271.234	345.69
271.466	327.69
271.698	352.69
271.93	356.69
272.162	356.69
272.394	354.69
272.626	341.69
272.858	330.69
273.09	318.69
273.322	304.69
273.553	313.69
273.785	316.69
274.017	292.69
274.249	303.69
274.481	295.69
274.713	300.69
274.945	314.69
275.176	310.69
275.408	309.69
275.64	305.69
275.872	297.69
276.104	294.69
276.335	312.69
276.567	292.69
276.799	325.69
277.031	350.69
277.262	369.69
277.494	367.69
277.726	357.69
277.957	332.69
278.189	327.69
278.421	316.69
278.652	300.69
278.884	301.69
279.115	321.69
279.347	314.69
279.579	317.69
279.81	303.69
280.042	289.69
280.273	318.69
280.505	294.69
280.736	302.69
280.968	293.69
281.199	324.69
281.431	320.69
281.662	305.69
281.894	312.69
282.125	315.69
282.356	320.69
282.588	342.69
282.819	354.69
283.051	328.69
283.282	310.69
283.513	310.69
283.745	323.69
283.976	325.69
284.207	309.69
284.439	322.69
284.67	321.69
284.901	324.69
285.132	318.69
285.364	306.69
285.595	328.69
285.826	320.69
286.057	318.69
286.288	322.69
286.52	328.69
286.751	303.69
286.982	333.69
287.213	329.69
287.444	318.69
287.675	349.69
287.906	342.69
288.138	357.69
288.369	357.69
288.6	350.69
288.831	339.69
289.062	347.69
289.293	333.69
289.524	330.69
289.755	346.69
289.986	345.69
290.217	340.69
290.448	351.69
290.679	350.69
290.91	331.69
291.141	331.69
291.371	335.69
291.602	341.69
291.833	351.69
292.064	334.69
292.295	319.69
292.526	333.69
292.757	350.69
292.987	342.69
293.218	310.69
293.449	330.69
293.68	341.69
293.91	343.69
294.141	332.69
294.372	324.69
294.603	338.69
294.833	344.69
295.064	333.69
295.295	325.69
295.525	333.69
295.756	366.69
295.987	354.69
296.217	375.69
296.448	383.69
296.679	362.69
296.909	355.69
297.14	351.69
297.37	351.69
297.601	360.69
297.831	369.69
298.062	363.69
298.292	340.69
298.523	348.69
298.753	348.69
298.984	365.69
299.214	359.69
299.445	356.69
299.675	357.69
299.905	351.69
300.136	380.69
300.366	358.69
300.597	382.69
300.827	367.69
301.057	374.69
301.288	364.69
301.518	372.69
301.748	380.69
301.979	362.69
302.209	380.69
302.439	384.69
302.669	379.69
302.9	384.69
303.13	375.69
303.36	380.69
303.59	390.69
303.82	388.69
304.051	397.69
304.281	376.69
304.511	364.69
304.741	392.69
304.971	390.69
305.201	368.69
305.431	378.69
305.661	380.69
305.891	363.69
306.121	381.69
306.352	392.69
306.582	404.69
306.812	395.69
307.042	368.69
307.272	398.69
307.502	367.69
307.731	388.69
307.961	380.69
308.191	366.69
308.421	376.69
308.651	396.69
308.881	396.69
309.111	385.69
309.341	388.69
309.571	385.69
309.8	412.69
310.03	416.69
310.26	436.69
310.49	396.69
310.72	448.69
310.949	440.69
311.179	449.69
311.409	420.69
311.639	415.69
311.868	411.69
312.098	419.69
312.328	422.69
312.557	436.69
312.787	448.69
313.017	440.69
313.246	450.69
313.476	420.69
313.706	438.69
313.935	436.69
314.165	458.69
314.394	443.69
314.624	464.69
314.853	439.69
315.083	418.69
315.312	415.69
315.542	429.69
315.771	421.69
316.001	433.69
316.23	411.69
316.46	445.69
316.689	430.69
316.919	461.69
317.148	445.69
317.377	446.69
317.607	424.69
317.836	428.69
318.065	446.69
318.295	424.69
318.524	438.69
318.753	431.69
318.983	426.69
319.212	420.69
319.441	441.69
319.67	446.69
319.9	443.69
320.129	431.69
320.358	448.69
320.587	429.69
320.816	452.69
321.046	450.69
321.275	446.69
321.504	466.69
321.733	457.69
321.962	446.69
322.191	484.69
322.42	471.69
322.649	488.69
322.878	506.69
323.108	501.69
323.337	516.69
323.566	552.69
323.795	557.69
324.024	599.69
324.253	707.69
324.482	937.69
324.71	1488.69
324.939	2199.69
325.168	1961.69
325.397	951.69
325.626	679.69
325.855	587.69
326.084	559.69
326.313	544.69
326.542	532.69
326.77	592.69
326.999	682.69
327.228	900.69
327.457	1350.69
327.686	1695.69
327.914	1116.69
328.143	713.69
328.372	656.69
328.6	632.69
328.829	585.69
329.058	622.69
329.287	618.69
329.515	592.69
329.744	558.69
329.972	558.69
330.201	567.69
330.43	618.69
330.658	652.69
330.887	642.69
331.115	637.69
331.344	578.69
331.572	560.69
331.801	553.69
332.03	554.69
332.258	544.69
332.486	525.69
332.715	512.69
332.943	512.69
333.172	523.69
333.4	513.69
333.629	561.69
333.857	526.69
334.085	567.69
334.314	594.69
334.542	595.69
334.771	608.69
334.999	582.69
335.227	540.69
335.455	541.69
335.684	548.69
335.912	530.69
336.14	535.69
336.369	518.69
336.597	504.69
336.825	537.69
337.053	519.69
337.281	500.69
337.51	512.69
337.738	515.69
337.966	508.69
338.194	506.69
338.422	505.69
338.65	517.69
338.878	492.69
339.106	507.69
339.334	503.69
339.562	482.69
339.79	501.69
340.018	528.69
340.246	490.69
340.474	511.69
340.702	520.69
340.93	486.69
341.158	504.69
341.386	482.69
341.614	498.69
341.842	523.69
342.07	482.69
342.298	482.69
342.526	507.69
342.754	482.69
342.981	488.69
343.209	500.69
343.437	507.69
343.665	488.69
343.893	527.69
344.12	522.69
344.348	494.69
344.576	530.69
344.804	512.69
345.031	517.69
345.259	515.69
345.487	528.69
345.714	481.69
345.942	472.69
346.17	457.69
346.397	472.69
346.625	466.69
346.853	490.69
347.08	477.69
347.308	476.69
347.535	491.69
347.763	473.69
347.99	472.69
348.218	483.69
348.445	483.69
348.673	488.69
348.9	474.69
349.128	487.69
349.355	487.69
349.583	474.69
349.81	441.69
350.037	473.69
350.265	476.69
350.492	470.69
350.72	458.69
350.947	467.69
351.174	496.69
351.402	481.69
351.629	462.69
351.856	461.69
352.083	484.69
352.311	513.69
352.538	494.69
352.765	516.69
352.992	496.69
353.22	479.69
353.447	487.69
353.674	466.69
353.901	478.69
354.128	457.69
354.355	452.69
354.583	442.69
354.81	460.69
355.037	478.69
355.264	458.69
355.491	448.69
355.718	422.69
355.945	442.69
356.172	448.69
356.399	461.69
356.626	482.69
356.853	475.69
357.08	447.69
357.307	455.69
357.534	457.69
357.761	439.69
357.988	462.69
358.215	432.69
358.441	471.69
358.668	456.69
358.895	463.69
359.122	458.69
359.349	465.69
359.576	479.69
359.802	491.69
360.029	512.69
360.256	516.69
360.483	522.69
360.709	498.69
360.936	474.69
361.163	480.69
361.39	494.69
361.616	468.69
361.843	485.69
362.07	477.69
362.296	484.69
362.523	482.69
362.749	486.69
362.976	478.69
363.203	480.69
363.429	457.69
363.656	448.69
363.882	460.69
364.109	491.69
364.335	474.69
364.562	471.69
364.788	463.69
365.015	467.69
365.241	469.69
365.468	460.69
365.694	477.69
365.92	472.69
366.147	454.69
366.373	484.69
366.599	467.69
366.826	450.69
367.052	470.69
367.278	486.69
367.505	452.69
367.731	482.69
367.957	456.69
368.184	468.69
368.41	491.69
368.636	460.69
368.862	493.69
369.089	475.69
369.315	480.69
369.541	469.69
369.767	487.69
369.993	479.69
370.219	446.69
370.445	468.69
370.672	464.69
370.898	465.69
371.124	462.69
371.35	462.69
371.576	473.69
371.802	470.69
372.028	460.69
372.254	476.69
372.48	485.69
372.706	492.69
372.932	482.69
373.158	481.69
373.384	473.69
373.61	480.69
373.835	460.69
374.061	488.69
374.287	471.69
374.513	480.69
374.739	496.69
374.965	479.69
375.191	495.69
375.416	490.69
375.642	502.69
375.868	478.69
376.094	473.69
376.319	481.69
376.545	493.69
376.771	488.69
376.997	473.69
377.222	462.69
377.448	471.69
377.674	477.69
377.899	459.69
378.125	473.69
378.35	450.69
378.576	447.69
378.802	473.69
379.027	474.69
379.253	490.69
379.478	478.69
379.704	500.69
379.929	484.69
380.155	470.69
380.38	464.69
380.606	487.69
380.831	488.69
381.057	485.69
381.282	488.69
381.507	486.69
381.733	477.69
381.958	492.69
382.184	504.69
382.409	494.69
382.634	486.69
382.86	489.69
383.085	493.69
383.31	482.69
383.535	500.69
383.761	505.69
383.986	521.69
384.211	500.69
384.436	500.69
384.662	525.69
384.887	495.69
385.112	525.69
385.337	512.69
385.562	517.69
385.787	548.69
386.013	551.69
386.238	527.69
386.463	542.69
386.688	534.69
386.913	528.69
387.138	521.69
387.363	551.69
387.588	537.69
387.813	535.69
388.038	516.69
388.263	531.69
388.488	545.69
388.713	532.69
388.938	526.69
389.163	557.69
389.387	529.69
389.612	509.69
389.837	542.69
390.062	529.69
390.287	538.69
390.512	558.69
390.736	539.69
390.961	545.69
391.186	529.69
391.411	560.69
391.636	558.69
391.86	569.69
392.085	582.69
392.31	544.69
392.534	566.69
392.759	545.69
392.984	552.69
393.208	556.69
393.433	540.69
393.658	526.69
393.882	558.69
394.107	558.69
394.331	545.69
394.556	543.69
394.78	570.69
395.005	550.69
395.229	541.69
395.454	552.69
395.678	554.69
395.903	561.69
396.127	592.69
396.352	588.69
396.576	582.69
396.801	568.69
397.025	562.69
397.249	579.69
397.474	589.69
397.698	585.69
397.922	570.69
398.147	637.69
398.371	624.69
398.595	604.69
398.82	621.69
399.044	645.69
399.268	660.69
399.492	701.69
399.717	747.69
399.941	780.69
400.165	794.69
400.389	790.69
400.613	730.69
400.837	670.69
401.062	642.69
401.286	639.69
401.51	632.69
401.734	620.69
401.958	644.69
402.182	632.69
402.406	634.69
402.63	676.69
402.854	652.69
403.078	648.69
403.302	663.69
403.526	650.69
403.75	644.69
403.974	664.69
404.198	625.69
404.422	654.69
404.645	667.69
404.869	649.69
405.093	710.69
405.317	741.69
405.541	783.69
405.765	713.69
405.988	689.69
406.212	700.69
406.436	686.69
406.66	696.69
406.883	700.69
407.107	741.69
407.331	791.69
407.555	836.69
407.778	840.69
408.002	782.69
408.226	715.69
408.449	743.69
408.673	706.69
408.896	726.69
409.12	780.69
409.344	757.69
409.567	680.69
409.791	680.69
410.014	656.69
410.238	645.69
410.461	642.69
410.685	648.69
410.908	655.69
411.132	701.69
411.355	748.69
411.578	719.69
411.802	656.69
412.025	647.69
412.249	652.69
412.472	690.69
412.695	734.69
412.919	709.69
413.142	669.69
413.365	648.69
413.589	641.69
413.812	636.69
414.035	641.69
414.258	614.69
414.482	648.69
414.705	606.69
414.928	595.69
415.151	621.69
415.374	620.69
415.597	595.69
415.821	598.69
416.044	640.69
416.267	613.69
416.49	634.69
416.713	610.69
416.936	614.69
417.159	622.69
417.382	618.69
417.605	625.69
417.828	641.69
418.051	655.69
418.274	642.69
418.497	617.69
418.72	613.69
418.943	623.69
419.166	632.69
419.389	664.69
419.611	667.69
419.834	648.69
420.057	664.69
420.28	652.69
420.503	633.69
420.726	646.69
420.948	677.69
421.171	708.69
421.394	732.69
421.617	681.69
421.839	641.69
422.062	646.69
422.285	665.69
422.507	731.69
422.73	815.69
422.953	769.69
423.175	696.69
423.398	674.69
423.621	666.69
423.843	704.69
424.066	694.69
424.288	676.69
424.511	719.69
424.733	785.69
424.956	857.69
425.178	814.69
425.401	802.69
425.623	837.69
425.846	721.69
426.068	699.69
426.291	684.69
426.513	684.69
426.735	677.69
426.958	713.69
427.18	837.69
427.402	1002.69
427.625	1050.69
427.847	909.69
428.069	824.69
428.292	728.69
428.514	671.69
428.736	642.69
428.958	651.69
429.181	608.69
429.403	622.69
429.625	602.69
429.847	654.69
430.069	751.69
430.292	744.69
430.514	647.69
430.736	620.69
430.958	636.69
431.18	621.69
431.402	621.69
431.624	627.69
431.846	578.69
432.068	605.69
432.29	597.69
432.512	589.69
432.734	592.69
432.956	567.69
433.178	615.69
433.4	633.69
433.622	621.69
433.844	596.69
434.066	596.69
434.287	608.69
434.509	591.69
434.731	631.69
434.953	634.69
435.175	654.69
435.397	698.69
435.618	679.69
435.84	700.69
436.062	821.69
436.284	886.69
436.505	761.69
436.727	687.69
436.949	649.69
437.17	638.69
437.392	628.69
437.614	647.69
437.835	677.69
438.057	771.69
438.278	868.69
438.5	873.69
438.721	960.69
438.943	956.69
439.165	744.69
439.386	693.69
439.608	685.69
439.829	688.69
440.05	727.69
440.272	759.69
440.493	710.69
440.715	667.69
440.936	649.69
441.158	638.69
441.379	684.69
441.6	676.69
441.822	677.69
442.043	746.69
442.264	819.69
442.486	855.69
442.707	738.69
442.928	696.69
443.149	715.69
443.371	738.69
443.592	757.69
443.813	863.69
444.034	954.69
444.255	798.69
444.476	724.69
444.698	718.69
444.919	724.69
445.14	818.69
445.361	764.69
445.582	742.69
445.803	795.69
446.024	894.69
446.245	928.69
446.466	838.69
446.687	728.69
446.908	668.69
447.129	657.69
447.35	618.69
447.571	631.69
447.792	606.69
448.013	650.69
448.234	647.69
448.455	677.69
448.675	829.69
448.896	952.69
449.117	800.69
449.338	749.69
449.559	877.69
449.779	973.69
450	824.69
450.221	659.69
450.442	635.69
450.662	617.69
450.883	592.69
451.104	625.69
451.324	604.69
451.545	612.69
451.766	593.69
451.986	549.69
452.207	552.69
452.428	559.69
452.648	533.69
452.869	518.69
453.089	575.69
453.31	564.69
453.53	573.69
453.751	577.69
453.971	542.69
454.192	577.69
454.412	548.69
454.633	535.69
454.853	527.69
455.073	557.69
455.294	580.69
455.514	665.69
455.734	656.69
455.955	555.69
456.175	542.69
456.395	508.69
456.616	501.69
456.836	532.69
457.056	529.69
457.276	524.69
457.497	536.69
457.717	530.69
457.937	541.69
458.157	547.69
458.377	545.69
458.598	596.69
458.818	623.69
459.038	700.69
459.258	734.69
459.478	637.69
459.698	619.69
459.918	594.69
460.138	605.69
460.358	633.69
460.578	625.69
460.798	634.69
461.018	649.69
461.238	616.69
461.458	638.69
461.678	617.69
461.898	632.69
462.118	632.69
462.338	667.69
462.558	636.69
462.777	672.69
462.997	681.69
463.217	733.69
463.437	708.69
463.657	694.69
463.876	670.69
464.096	640.69
464.316	670.69
464.536	682.69
464.755	690.69
464.975	688.69
465.195	686.69
465.414	753.69
465.634	694.69
465.854	637.69
466.073	647.69
466.293	584.69
466.512	576.69
466.732	613.69
466.951	592.69
467.171	582.69
467.391	572.69
467.61	602.69
467.829	583.69
468.049	588.69
468.268	592.69
468.488	589.69
468.707	571.69
468.927	566.69
469.146	555.69
469.365	556.69
469.585	560.69
469.804	580.69
470.023	593.69
470.243	599.69
470.462	596.69
470.681	621.69
470.901	610.69
471.12	589.69
471.339	588.69
471.558	597.69
471.777	570.69
471.997	564.69
472.216	568.69
472.435	617.69
472.654	618.69
472.873	599.69
473.092	576.69
473.311	560.69
473.53	571.69
473.749	615.69
473.968	634.69
474.187	710.69
474.406	780.69
474.625	680.69
474.844	606.69
475.063	605.69
475.282	560.69
475.501	602.69
475.72	607.69
475.939	624.69
476.158	607.69
476.377	599.69
476.596	635.69
476.814	601.69
477.033	611.69
477.252	609.69
477.471	626.69
477.69	625.69
477.908	630.69
478.127	644.69
478.346	619.69
478.564	644.69
478.783	668.69
479.002	664.69
479.22	703.69
479.439	708.69
479.658	722.69
479.876	723.69
480.095	697.69
480.313	753.69
480.532	735.69
480.751	715.69
480.969	718.69
481.188	778.69
481.406	813.69
481.624	737.69
481.843	706.69
482.061	674.69
482.28	709.69
482.498	694.69
482.717	674.69
482.935	684.69
483.153	723.69
483.372	674.69
483.59	696.69
483.808	660.69
484.027	664.69
484.245	667.69
484.463	676.69
484.681	711.69
484.9	695.69
485.118	690.69
485.336	700.69
485.554	690.69
485.772	716.69
485.99	706.69
486.209	719.69
486.427	718.69
486.645	718.69
486.863	733.69
487.081	744.69
487.299	737.69
487.517	736.69
487.735	749.69
487.953	733.69
488.171	760.69
488.389	740.69
488.607	742.69
488.825	745.69
489.043	738.69
489.261	752.69
489.479	765.69
489.696	746.69
489.914	766.69
490.132	767.69
490.35	754.69
490.568	751.69
490.786	815.69
491.003	816.69
491.221	841.69
491.439	800.69
491.657	857.69
491.874	830.69
492.092	860.69
492.31	866.69
492.527	872.69
492.745	847.69
492.963	874.69
493.18	864.69
493.398	872.69
493.615	884.69
493.833	856.69
494.05	880.69
494.268	869.69
494.485	876.69
494.703	877.69
494.92	876.69
495.138	895.69
495.355	884.69
495.573	872.69
495.79	902.69
496.008	896.69
496.225	884.69
496.442	890.69
496.66	898.69
496.877	886.69
497.094	908.69
497.312	929.69
497.529	925.69
497.746	905.69
497.963	923.69
498.181	943.69
498.398	982.69
498.615	988.69
498.832	1006.69
499.049	1042.69
499.267	1064.69
499.484	1129.69
499.701	1204.69
499.918	1231.69
500.135	1274.69
500.352	1368.69
500.569	1398.69
500.786	1428.69
501.003	1359.69
501.22	1328.69
501.437	1283.69
501.654	1199.69
