Data from 1974.PennyLincolnUp.Lamp.En5.5.200Scan.071719.P1.Changed Mount._HRD10591_15-53-08-857.txt Node
Date: Thu Jul 18 15:53:08 EDT 2019
User: cochatt
Spectrometer: HR+D1059
Trigger mode: 1
Integration Time (sec): 1.000000E-1
Scans to average: 1
Electric dark correction enabled: true
Nonlinearity correction enabled: false
Boxcar width: 0
XAxis mode: Wavelengths
Number of Pixels in Spectrum: 2048
>>>>>Begin Spectral Data<<<<<
223.165	-18.75
223.4	-18.75
223.635	-18.75
223.869	-15.75
224.104	3.25
224.338	-11.75
224.573	-9.75
224.808	-14.75
225.042	-8.75
225.277	-15.75
225.511	-0.75
225.746	7.25
225.98	6.25
226.215	18.25
226.449	17.25
226.683	14.25
226.918	11.25
227.152	18.25
227.387	42.25
227.621	49.25
227.856	47.25
228.09	50.25
228.324	71.25
228.559	50.25
228.793	74.25
229.027	105.25
229.262	113.25
229.496	131.25
229.73	139.25
229.964	149.25
230.199	127.25
230.433	120.25
230.667	121.25
230.901	114.25
231.136	105.25
231.37	105.25
231.604	127.25
231.838	122.25
232.072	121.25
232.306	127.25
232.541	122.25
232.775	123.25
233.009	99.25
233.243	123.25
233.477	130.25
233.711	131.25
233.945	125.25
234.179	111.25
234.413	142.25
234.647	132.25
234.881	126.25
235.115	138.25
235.349	110.25
235.583	128.25
235.817	124.25
236.051	140.25
236.285	162.25
236.519	131.25
236.753	151.25
236.987	141.25
237.221	173.25
237.455	232.25
237.689	203.25
237.922	144.25
238.156	134.25
238.39	152.25
238.624	140.25
238.858	122.25
239.091	127.25
239.325	116.25
239.559	131.25
239.793	136.25
240.027	128.25
240.26	147.25
240.494	171.25
240.728	165.25
240.961	156.25
241.195	152.25
241.429	148.25
241.662	144.25
241.896	152.25
242.13	156.25
242.363	125.25
242.597	159.25
242.83	140.25
243.064	161.25
243.298	146.25
243.531	163.25
243.765	157.25
243.998	137.25
244.232	156.25
244.465	147.25
244.699	160.25
244.932	160.25
245.166	160.25
245.399	153.25
245.633	154.25
245.866	161.25
246.099	158.25
246.333	164.25
246.566	154.25
246.8	158.25
247.033	171.25
247.266	166.25
247.5	182.25
247.733	188.25
247.966	171.25
248.2	193.25
248.433	170.25
248.666	194.25
248.899	206.25
249.133	231.25
249.366	234.25
249.599	240.25
249.832	201.25
250.066	211.25
250.299	189.25
250.532	214.25
250.765	207.25
250.998	239.25
251.231	252.25
251.465	231.25
251.698	212.25
251.931	205.25
252.164	223.25
252.397	218.25
252.63	210.25
252.863	216.25
253.096	219.25
253.329	251.25
253.562	229.25
253.795	229.25
254.028	240.25
254.261	242.25
254.494	236.25
254.727	270.25
254.96	312.25
255.193	297.25
255.426	282.25
255.659	257.25
255.892	246.25
256.124	238.25
256.357	245.25
256.59	229.25
256.823	252.25
257.056	222.25
257.289	227.25
257.521	233.25
257.754	222.25
257.987	231.25
258.22	238.25
258.452	208.25
258.685	218.25
258.918	240.25
259.151	228.25
259.383	240.25
259.616	217.25
259.849	230.25
260.081	255.25
260.314	273.25
260.547	266.25
260.779	266.25
261.012	253.25
261.244	262.25
261.477	261.25
261.71	246.25
261.942	237.25
262.175	249.25
262.407	231.25
262.64	229.25
262.872	243.25
263.105	243.25
263.337	236.25
263.57	222.25
263.802	233.25
264.035	226.25
264.267	223.25
264.499	222.25
264.732	237.25
264.964	239.25
265.197	238.25
265.429	242.25
265.661	225.25
265.894	248.25
266.126	228.25
266.358	247.25
266.591	238.25
266.823	237.25
267.055	240.25
267.287	257.25
267.52	239.25
267.752	251.25
267.984	268.25
268.216	247.25
268.448	273.25
268.681	266.25
268.913	272.25
269.145	292.25
269.377	312.25
269.609	323.25
269.841	284.25
270.073	289.25
270.306	329.25
270.538	340.25
270.77	328.25
271.002	325.25
271.234	317.25
271.466	316.25
271.698	338.25
271.93	345.25
272.162	339.25
272.394	329.25
272.626	316.25
272.858	310.25
273.09	302.25
273.322	284.25
273.553	314.25
273.785	290.25
274.017	302.25
274.249	291.25
274.481	300.25
274.713	295.25
274.945	301.25
275.176	290.25
275.408	277.25
275.64	288.25
275.872	299.25
276.104	279.25
276.335	288.25
276.567	296.25
276.799	294.25
277.031	322.25
277.262	332.25
277.494	336.25
277.726	334.25
277.957	326.25
278.189	311.25
278.421	305.25
278.652	307.25
278.884	315.25
279.115	293.25
279.347	290.25
279.579	290.25
279.81	301.25
280.042	282.25
280.273	314.25
280.505	311.25
280.736	291.25
280.968	284.25
281.199	299.25
281.431	304.25
281.662	289.25
281.894	303.25
282.125	305.25
282.356	320.25
282.588	340.25
282.819	315.25
283.051	313.25
283.282	291.25
283.513	310.25
283.745	300.25
283.976	303.25
284.207	320.25
284.439	321.25
284.67	289.25
284.901	330.25
285.132	295.25
285.364	296.25
285.595	316.25
285.826	291.25
286.057	305.25
286.288	334.25
286.52	318.25
286.751	312.25
286.982	296.25
287.213	303.25
287.444	333.25
287.675	307.25
287.906	338.25
288.138	326.25
288.369	346.25
288.6	340.25
288.831	328.25
289.062	335.25
289.293	312.25
289.524	322.25
289.755	323.25
289.986	330.25
290.217	318.25
290.448	318.25
290.679	327.25
290.91	328.25
291.141	335.25
291.371	307.25
291.602	334.25
291.833	321.25
292.064	336.25
292.295	340.25
292.526	315.25
292.757	314.25
292.987	339.25
293.218	309.25
293.449	334.25
293.68	322.25
293.91	310.25
294.141	330.25
294.372	315.25
294.603	326.25
294.833	333.25
295.064	327.25
295.295	319.25
295.525	333.25
295.756	326.25
295.987	334.25
296.217	361.25
296.448	342.25
296.679	334.25
296.909	324.25
297.14	351.25
297.37	348.25
297.601	350.25
297.831	346.25
298.062	328.25
298.292	338.25
298.523	356.25
298.753	328.25
298.984	345.25
299.214	340.25
299.445	352.25
299.675	337.25
299.905	358.25
300.136	353.25
300.366	349.25
300.597	350.25
300.827	381.25
301.057	369.25
301.288	378.25
301.518	369.25
301.748	363.25
301.979	360.25
302.209	362.25
302.439	349.25
302.669	367.25
302.9	355.25
303.13	361.25
303.36	363.25
303.59	359.25
303.82	376.25
304.051	384.25
304.281	351.25
304.511	364.25
304.741	356.25
304.971	377.25
305.201	385.25
305.431	370.25
305.661	367.25
305.891	362.25
306.121	353.25
306.352	383.25
306.582	386.25
306.812	353.25
307.042	368.25
307.272	380.25
307.502	352.25
307.731	382.25
307.961	359.25
308.191	361.25
308.421	345.25
308.651	382.25
308.881	363.25
309.111	381.25
309.341	372.25
309.571	390.25
309.8	396.25
310.03	396.25
310.26	411.25
310.49	398.25
310.72	412.25
310.949	408.25
311.179	406.25
311.409	414.25
311.639	413.25
311.868	416.25
312.098	398.25
312.328	399.25
312.557	422.25
312.787	419.25
313.017	412.25
313.246	408.25
313.476	407.25
313.706	385.25
313.935	412.25
314.165	428.25
314.394	431.25
314.624	418.25
314.853	422.25
315.083	418.25
315.312	384.25
315.542	431.25
315.771	406.25
316.001	415.25
316.23	418.25
316.46	409.25
316.689	416.25
316.919	401.25
317.148	414.25
317.377	428.25
317.607	400.25
317.836	425.25
318.065	422.25
318.295	415.25
318.524	400.25
318.753	406.25
318.983	403.25
319.212	414.25
319.441	405.25
319.67	418.25
319.9	401.25
320.129	406.25
320.358	419.25
320.587	404.25
320.816	427.25
321.046	436.25
321.275	431.25
321.504	420.25
321.733	427.25
321.962	443.25
322.191	422.25
322.42	467.25
322.649	458.25
322.878	443.25
323.108	459.25
323.337	482.25
323.566	503.25
323.795	526.25
324.024	568.25
324.253	663.25
324.482	873.25
324.71	1312.25
324.939	1879.25
325.168	1678.25
325.397	886.25
325.626	606.25
325.855	532.25
326.084	498.25
326.313	499.25
326.542	501.25
326.77	543.25
326.999	597.25
327.228	794.25
327.457	1160.25
327.686	1477.25
327.914	1004.25
328.143	669.25
328.372	602.25
328.6	574.25
328.829	552.25
329.058	591.25
329.287	579.25
329.515	553.25
329.744	508.25
329.972	509.25
330.201	534.25
330.43	569.25
330.658	587.25
330.887	585.25
331.115	607.25
331.344	521.25
331.572	510.25
331.801	524.25
332.03	535.25
332.258	499.25
332.486	494.25
332.715	508.25
332.943	504.25
333.172	491.25
333.4	509.25
333.629	520.25
333.857	528.25
334.085	548.25
334.314	564.25
334.542	576.25
334.771	596.25
334.999	551.25
335.227	508.25
335.455	522.25
335.684	531.25
335.912	515.25
336.14	487.25
336.369	481.25
336.597	501.25
336.825	508.25
337.053	496.25
337.281	474.25
337.51	491.25
337.738	489.25
337.966	486.25
338.194	501.25
338.422	497.25
338.65	488.25
338.878	481.25
339.106	481.25
339.334	473.25
339.562	459.25
339.79	479.25
340.018	470.25
340.246	472.25
340.474	465.25
340.702	478.25
340.93	483.25
341.158	470.25
341.386	468.25
341.614	458.25
341.842	461.25
342.07	473.25
342.298	464.25
342.526	462.25
342.754	467.25
342.981	478.25
343.209	451.25
343.437	492.25
343.665	470.25
343.893	490.25
344.12	504.25
344.348	476.25
344.576	484.25
344.804	504.25
345.031	479.25
345.259	489.25
345.487	484.25
345.714	457.25
345.942	474.25
346.17	471.25
346.397	439.25
346.625	459.25
346.853	457.25
347.08	457.25
347.308	455.25
347.535	459.25
347.763	480.25
347.99	455.25
348.218	471.25
348.445	464.25
348.673	466.25
348.9	458.25
349.128	430.25
349.355	435.25
349.583	447.25
349.81	435.25
350.037	449.25
350.265	437.25
350.492	440.25
350.72	426.25
350.947	442.25
351.174	430.25
351.402	450.25
351.629	461.25
351.856	456.25
352.083	455.25
352.311	474.25
352.538	477.25
352.765	467.25
352.992	474.25
353.22	460.25
353.447	436.25
353.674	434.25
353.901	445.25
354.128	447.25
354.355	442.25
354.583	446.25
354.81	432.25
355.037	450.25
355.264	424.25
355.491	440.25
355.718	414.25
355.945	459.25
356.172	433.25
356.399	434.25
356.626	426.25
356.853	425.25
357.08	434.25
357.307	439.25
357.534	424.25
357.761	427.25
357.988	448.25
358.215	410.25
358.441	427.25
358.668	454.25
358.895	451.25
359.122	424.25
359.349	444.25
359.576	470.25
359.802	462.25
360.029	452.25
360.256	508.25
360.483	494.25
360.709	462.25
360.936	470.25
361.163	452.25
361.39	455.25
361.616	465.25
361.843	451.25
362.07	435.25
362.296	478.25
362.523	459.25
362.749	438.25
362.976	460.25
363.203	449.25
363.429	441.25
363.656	459.25
363.882	427.25
364.109	461.25
364.335	427.25
364.562	451.25
364.788	459.25
365.015	438.25
365.241	433.25
365.468	450.25
365.694	452.25
365.92	455.25
366.147	424.25
366.373	432.25
366.599	442.25
366.826	457.25
367.052	431.25
367.278	442.25
367.505	452.25
367.731	443.25
367.957	438.25
368.184	459.25
368.41	450.25
368.636	468.25
368.862	477.25
369.089	463.25
369.315	470.25
369.541	453.25
369.767	459.25
369.993	449.25
370.219	427.25
370.445	468.25
370.672	477.25
370.898	446.25
371.124	446.25
371.35	464.25
371.576	444.25
371.802	451.25
372.028	462.25
372.254	465.25
372.48	469.25
372.706	476.25
372.932	470.25
373.158	481.25
373.384	456.25
373.61	469.25
373.835	468.25
374.061	470.25
374.287	476.25
374.513	466.25
374.739	476.25
374.965	483.25
375.191	473.25
375.416	493.25
375.642	469.25
375.868	481.25
376.094	475.25
376.319	455.25
376.545	456.25
376.771	461.25
376.997	467.25
377.222	453.25
377.448	454.25
377.674	445.25
377.899	468.25
378.125	452.25
378.35	466.25
378.576	431.25
378.802	442.25
379.027	446.25
379.253	448.25
379.478	446.25
379.704	464.25
379.929	444.25
380.155	458.25
380.38	458.25
380.606	468.25
380.831	468.25
381.057	469.25
381.282	447.25
381.507	458.25
381.733	462.25
381.958	479.25
382.184	487.25
382.409	475.25
382.634	472.25
382.86	478.25
383.085	459.25
383.31	462.25
383.535	484.25
383.761	476.25
383.986	493.25
384.211	483.25
384.436	477.25
384.662	502.25
384.887	493.25
385.112	520.25
385.337	505.25
385.562	475.25
385.787	498.25
386.013	539.25
386.238	545.25
386.463	502.25
386.688	521.25
386.913	509.25
387.138	503.25
387.363	527.25
387.588	518.25
387.813	507.25
388.038	520.25
388.263	503.25
388.488	503.25
388.713	510.25
388.938	532.25
389.163	507.25
389.387	521.25
389.612	507.25
389.837	503.25
390.062	522.25
390.287	521.25
390.512	497.25
390.736	505.25
390.961	518.25
391.186	535.25
391.411	513.25
391.636	497.25
391.86	548.25
392.085	558.25
392.31	536.25
392.534	540.25
392.759	531.25
392.984	508.25
393.208	530.25
393.433	520.25
393.658	523.25
393.882	506.25
394.107	526.25
394.331	518.25
394.556	521.25
394.78	517.25
395.005	540.25
395.229	524.25
395.454	542.25
395.678	555.25
395.903	565.25
396.127	566.25
396.352	584.25
396.576	566.25
396.801	542.25
397.025	555.25
397.249	539.25
397.474	566.25
397.698	562.25
397.922	564.25
398.147	599.25
398.371	581.25
398.595	590.25
398.82	580.25
399.044	587.25
399.268	637.25
399.492	683.25
399.717	722.25
399.941	769.25
400.165	737.25
400.389	743.25
400.613	682.25
400.837	638.25
401.062	634.25
401.286	609.25
401.51	607.25
401.734	590.25
401.958	583.25
402.182	608.25
402.406	579.25
402.63	604.25
402.854	626.25
403.078	619.25
403.302	625.25
403.526	630.25
403.75	633.25
403.974	641.25
404.198	637.25
404.422	625.25
404.645	640.25
404.869	658.25
405.093	674.25
405.317	712.25
405.541	778.25
405.765	701.25
405.988	644.25
406.212	656.25
406.436	660.25
406.66	683.25
406.883	671.25
407.107	706.25
407.331	741.25
407.555	851.25
407.778	841.25
408.002	736.25
408.226	718.25
408.449	690.25
408.673	670.25
408.896	692.25
409.12	747.25
409.344	702.25
409.567	676.25
409.791	650.25
410.014	640.25
410.238	616.25
410.461	652.25
410.685	653.25
410.908	620.25
411.132	666.25
411.355	730.25
411.578	668.25
411.802	650.25
412.025	642.25
412.249	658.25
412.472	642.25
412.695	711.25
412.919	704.25
413.142	640.25
413.365	637.25
413.589	603.25
413.812	586.25
414.035	589.25
414.258	590.25
414.482	589.25
414.705	608.25
414.928	625.25
415.151	627.25
415.374	614.25
415.597	602.25
415.821	576.25
416.044	592.25
416.267	597.25
416.49	618.25
416.713	608.25
416.936	599.25
417.159	579.25
417.382	593.25
417.605	582.25
417.828	594.25
418.051	617.25
418.274	601.25
418.497	603.25
418.72	617.25
418.943	609.25
419.166	628.25
419.389	648.25
419.611	668.25
419.834	635.25
420.057	633.25
420.28	610.25
420.503	600.25
420.726	622.25
420.948	616.25
421.171	672.25
421.394	698.25
421.617	640.25
421.839	599.25
422.062	615.25
422.285	638.25
422.507	691.25
422.73	780.25
422.953	728.25
423.175	691.25
423.398	674.25
423.621	633.25
423.843	686.25
424.066	682.25
424.288	673.25
424.511	680.25
424.733	746.25
424.956	824.25
425.178	787.25
425.401	777.25
425.623	796.25
425.846	699.25
426.068	674.25
426.291	660.25
426.513	656.25
426.735	648.25
426.958	691.25
427.18	770.25
427.402	890.25
427.625	1011.25
427.847	847.25
428.069	754.25
428.292	691.25
428.514	637.25
428.736	607.25
428.958	619.25
429.181	592.25
429.403	605.25
429.625	611.25
429.847	618.25
430.069	718.25
430.292	709.25
430.514	626.25
430.736	619.25
430.958	594.25
431.18	573.25
431.402	578.25
431.624	559.25
431.846	569.25
432.068	576.25
432.29	568.25
432.512	555.25
432.734	608.25
432.956	578.25
433.178	582.25
433.4	617.25
433.622	572.25
433.844	568.25
434.066	574.25
434.287	590.25
434.509	597.25
434.731	622.25
434.953	591.25
435.175	621.25
435.397	648.25
435.618	667.25
435.84	678.25
436.062	797.25
436.284	856.25
436.505	718.25
436.727	646.25
436.949	623.25
437.17	598.25
437.392	559.25
437.614	617.25
437.835	656.25
438.057	731.25
438.278	814.25
438.5	844.25
438.721	930.25
438.943	890.25
439.165	718.25
439.386	641.25
439.608	632.25
439.829	652.25
440.05	668.25
440.272	722.25
440.493	658.25
440.715	615.25
440.936	619.25
441.158	616.25
441.379	607.25
441.6	619.25
441.822	668.25
442.043	678.25
442.264	784.25
442.486	834.25
442.707	724.25
442.928	646.25
443.149	684.25
443.371	676.25
443.592	752.25
443.813	818.25
444.034	918.25
444.255	786.25
444.476	678.25
444.698	676.25
444.919	673.25
445.14	790.25
445.361	718.25
445.582	698.25
445.803	744.25
446.024	834.25
446.245	842.25
446.466	792.25
446.687	688.25
446.908	628.25
447.129	609.25
447.35	592.25
447.571	590.25
447.792	577.25
448.013	592.25
448.234	622.25
448.455	656.25
448.675	776.25
448.896	906.25
449.117	793.25
449.338	734.25
449.559	816.25
449.779	964.25
450	760.25
450.221	660.25
450.442	607.25
450.662	569.25
450.883	572.25
451.104	575.25
451.324	580.25
451.545	568.25
451.766	563.25
451.986	551.25
452.207	541.25
452.428	532.25
452.648	520.25
452.869	518.25
453.089	529.25
453.31	542.25
453.53	526.25
453.751	538.25
453.971	525.25
454.192	536.25
454.412	533.25
454.633	508.25
454.853	528.25
455.073	515.25
455.294	560.25
455.514	633.25
455.734	618.25
455.955	524.25
456.175	522.25
456.395	520.25
456.616	486.25
456.836	509.25
457.056	499.25
457.276	520.25
457.497	487.25
457.717	495.25
457.937	495.25
458.157	528.25
458.377	542.25
458.598	525.25
458.818	591.25
459.038	691.25
459.258	675.25
459.478	593.25
459.698	586.25
459.918	571.25
460.138	590.25
460.358	619.25
460.578	595.25
460.798	612.25
461.018	603.25
461.238	607.25
461.458	590.25
461.678	594.25
461.898	605.25
462.118	596.25
462.338	590.25
462.558	632.25
462.777	659.25
462.997	654.25
463.217	694.25
463.437	684.25
463.657	655.25
463.876	667.25
464.096	648.25
464.316	627.25
464.536	655.25
464.755	646.25
464.975	630.25
465.195	656.25
465.414	683.25
465.634	670.25
465.854	604.25
466.073	587.25
466.293	546.25
466.512	559.25
466.732	553.25
466.951	544.25
467.171	536.25
467.391	538.25
467.61	547.25
467.829	558.25
468.049	553.25
468.268	569.25
468.488	545.25
468.707	547.25
468.927	540.25
469.146	547.25
469.365	549.25
469.585	561.25
469.804	547.25
470.023	563.25
470.243	554.25
470.462	565.25
470.681	577.25
470.901	585.25
471.12	554.25
471.339	560.25
471.558	548.25
471.777	543.25
471.997	552.25
472.216	542.25
472.435	580.25
472.654	577.25
472.873	565.25
473.092	553.25
473.311	536.25
473.53	560.25
473.749	572.25
473.968	607.25
474.187	680.25
474.406	730.25
474.625	600.25
474.844	574.25
475.063	562.25
475.282	536.25
475.501	543.25
475.72	547.25
475.939	572.25
476.158	579.25
476.377	582.25
476.596	575.25
476.814	594.25
477.033	607.25
477.252	586.25
477.471	572.25
477.69	599.25
477.908	615.25
478.127	623.25
478.346	613.25
478.564	633.25
478.783	616.25
479.002	633.25
479.22	626.25
479.439	641.25
479.658	672.25
479.876	678.25
480.095	670.25
480.313	724.25
480.532	714.25
480.751	721.25
480.969	702.25
481.188	732.25
481.406	742.25
481.624	702.25
481.843	648.25
482.061	665.25
482.28	664.25
482.498	628.25
482.717	646.25
482.935	664.25
483.153	667.25
483.372	651.25
483.59	673.25
483.808	659.25
484.027	641.25
484.245	652.25
484.463	638.25
484.681	663.25
484.9	668.25
485.118	659.25
485.336	673.25
485.554	677.25
485.772	666.25
485.99	664.25
486.209	678.25
486.427	687.25
486.645	698.25
486.863	723.25
487.081	678.25
487.299	700.25
487.517	691.25
487.735	696.25
487.953	707.25
488.171	666.25
488.389	688.25
488.607	718.25
488.825	692.25
489.043	699.25
489.261	729.25
489.479	700.25
489.696	716.25
489.914	705.25
490.132	714.25
490.35	730.25
490.568	747.25
490.786	758.25
491.003	780.25
491.221	767.25
491.439	767.25
491.657	809.25
491.874	768.25
492.092	788.25
492.31	828.25
492.527	826.25
492.745	813.25
492.963	820.25
493.18	824.25
493.398	860.25
493.615	828.25
493.833	832.25
494.05	836.25
494.268	824.25
494.485	863.25
494.703	830.25
494.92	813.25
495.138	811.25
495.355	834.25
495.573	818.25
495.79	822.25
496.008	846.25
496.225	823.25
496.442	844.25
496.66	868.25
496.877	862.25
497.094	849.25
497.312	846.25
497.529	875.25
497.746	916.25
497.963	918.25
498.181	912.25
498.398	902.25
498.615	937.25
498.832	1002.25
499.049	1002.25
499.267	1013.25
499.484	1086.25
499.701	1119.25
499.918	1156.25
500.135	1216.25
500.352	1298.25
500.569	1361.25
500.786	1324.25
501.003	1328.25
501.22	1261.25
501.437	1210.25
501.654	1130.25
