Data from 1974.PennyLincolnUp.Lamp.En5.5.200Scan.071719.P1.Changed Mount._HRD10591_15-51-13-856.txt Node
Date: Thu Jul 18 15:51:13 EDT 2019
User: cochatt
Spectrometer: HR+D1059
Trigger mode: 1
Integration Time (sec): 1.000000E-1
Scans to average: 1
Electric dark correction enabled: true
Nonlinearity correction enabled: false
Boxcar width: 0
XAxis mode: Wavelengths
Number of Pixels in Spectrum: 2048
>>>>>Begin Spectral Data<<<<<
223.165	-5.69
223.4	-5.69
223.635	-5.69
223.869	-17.69
224.104	-21.69
224.338	-11.69
224.573	-15.69
224.808	-15.69
225.042	-11.69
225.277	-6.69
225.511	-8.69
225.746	0.31
225.98	21.31
226.215	12.31
226.449	23.31
226.683	13.31
226.918	19.31
227.152	25.31
227.387	33.31
227.621	36.31
227.856	42.31
228.09	37.31
228.324	50.31
228.559	60.31
228.793	70.31
229.027	76.31
229.262	93.31
229.496	97.31
229.73	120.31
229.964	144.31
230.199	117.31
230.433	98.31
230.667	101.31
230.901	98.31
231.136	108.31
231.37	97.31
231.604	117.31
231.838	103.31
232.072	99.31
232.306	124.31
232.541	104.31
232.775	121.31
233.009	117.31
233.243	117.31
233.477	126.31
233.711	105.31
233.945	122.31
234.179	108.31
234.413	128.31
234.647	119.31
234.881	120.31
235.115	115.31
235.349	121.31
235.583	106.31
235.817	120.31
236.051	117.31
236.285	127.31
236.519	132.31
236.753	136.31
236.987	136.31
237.221	154.31
237.455	208.31
237.689	166.31
237.922	138.31
238.156	135.31
238.39	112.31
238.624	133.31
238.858	130.31
239.091	120.31
239.325	118.31
239.559	116.31
239.793	113.31
240.027	120.31
240.26	124.31
240.494	142.31
240.728	138.31
240.961	140.31
241.195	154.31
241.429	138.31
241.662	125.31
241.896	143.31
242.13	122.31
242.363	120.31
242.597	135.31
242.83	147.31
243.064	137.31
243.298	140.31
243.531	142.31
243.765	126.31
243.998	138.31
244.232	136.31
244.465	139.31
244.699	143.31
244.932	138.31
245.166	141.31
245.399	157.31
245.633	141.31
245.866	151.31
246.099	141.31
246.333	139.31
246.566	157.31
246.8	149.31
247.033	151.31
247.266	170.31
247.5	169.31
247.733	158.31
247.966	182.31
248.2	172.31
248.433	160.31
248.666	160.31
248.899	153.31
249.133	179.31
249.366	193.31
249.599	179.31
249.832	167.31
250.066	179.31
250.299	166.31
250.532	178.31
250.765	180.31
250.998	201.31
251.231	200.31
251.465	200.31
251.698	198.31
251.931	189.31
252.164	173.31
252.397	184.31
252.63	202.31
252.863	189.31
253.096	196.31
253.329	218.31
253.562	199.31
253.795	201.31
254.028	180.31
254.261	201.31
254.494	216.31
254.727	241.31
254.96	260.31
255.193	236.31
255.426	227.31
255.659	221.31
255.892	207.31
256.124	203.31
256.357	219.31
256.59	216.31
256.823	177.31
257.056	202.31
257.289	198.31
257.521	192.31
257.754	203.31
257.987	188.31
258.22	213.31
258.452	184.31
258.685	203.31
258.918	194.31
259.151	187.31
259.383	202.31
259.616	193.31
259.849	206.31
260.081	226.31
260.314	237.31
260.547	233.31
260.779	229.31
261.012	215.31
261.244	222.31
261.477	196.31
261.71	212.31
261.942	206.31
262.175	214.31
262.407	200.31
262.64	203.31
262.872	195.31
263.105	205.31
263.337	224.31
263.57	205.31
263.802	192.31
264.035	206.31
264.267	204.31
264.499	195.31
264.732	185.31
264.964	211.31
265.197	209.31
265.429	196.31
265.661	209.31
265.894	201.31
266.126	220.31
266.358	196.31
266.591	208.31
266.823	199.31
267.055	208.31
267.287	217.31
267.52	197.31
267.752	203.31
267.984	213.31
268.216	228.31
268.448	231.31
268.681	221.31
268.913	233.31
269.145	242.31
269.377	244.31
269.609	250.31
269.841	236.31
270.073	238.31
270.306	255.31
270.538	285.31
270.77	269.31
271.002	277.31
271.234	258.31
271.466	271.31
271.698	271.31
271.93	273.31
272.162	291.31
272.394	271.31
272.626	280.31
272.858	252.31
273.09	235.31
273.322	240.31
273.553	244.31
273.785	252.31
274.017	254.31
274.249	249.31
274.481	242.31
274.713	244.31
274.945	249.31
275.176	250.31
275.408	248.31
275.64	232.31
275.872	250.31
276.104	253.31
276.335	251.31
276.567	242.31
276.799	260.31
277.031	282.31
277.262	271.31
277.494	294.31
277.726	254.31
277.957	280.31
278.189	260.31
278.421	252.31
278.652	237.31
278.884	256.31
279.115	242.31
279.347	249.31
279.579	247.31
279.81	260.31
280.042	251.31
280.273	252.31
280.505	255.31
280.736	264.31
280.968	237.31
281.199	236.31
281.431	255.31
281.662	257.31
281.894	271.31
282.125	250.31
282.356	257.31
282.588	298.31
282.819	266.31
283.051	259.31
283.282	257.31
283.513	252.31
283.745	259.31
283.976	276.31
284.207	268.31
284.439	263.31
284.67	282.31
284.901	263.31
285.132	254.31
285.364	270.31
285.595	284.31
285.826	279.31
286.057	271.31
286.288	264.31
286.52	282.31
286.751	278.31
286.982	263.31
287.213	255.31
287.444	281.31
287.675	282.31
287.906	305.31
288.138	294.31
288.369	282.31
288.6	307.31
288.831	280.31
289.062	269.31
289.293	292.31
289.524	286.31
289.755	273.31
289.986	262.31
290.217	287.31
290.448	270.31
290.679	289.31
290.91	286.31
291.141	280.31
291.371	289.31
291.602	291.31
291.833	276.31
292.064	278.31
292.295	287.31
292.526	279.31
292.757	289.31
292.987	270.31
293.218	283.31
293.449	281.31
293.68	279.31
293.91	275.31
294.141	264.31
294.372	284.31
294.603	274.31
294.833	289.31
295.064	278.31
295.295	269.31
295.525	275.31
295.756	273.31
295.987	285.31
296.217	311.31
296.448	321.31
296.679	294.31
296.909	278.31
297.14	281.31
297.37	292.31
297.601	293.31
297.831	299.31
298.062	289.31
298.292	298.31
298.523	294.31
298.753	294.31
298.984	281.31
299.214	287.31
299.445	282.31
299.675	278.31
299.905	271.31
300.136	306.31
300.366	292.31
300.597	302.31
300.827	293.31
301.057	292.31
301.288	304.31
301.518	296.31
301.748	292.31
301.979	312.31
302.209	303.31
302.439	302.31
302.669	323.31
302.9	330.31
303.13	316.31
303.36	310.31
303.59	315.31
303.82	324.31
304.051	317.31
304.281	300.31
304.511	301.31
304.741	315.31
304.971	308.31
305.201	318.31
305.431	315.31
305.661	309.31
305.891	331.31
306.121	308.31
306.352	303.31
306.582	319.31
306.812	317.31
307.042	316.31
307.272	321.31
307.502	304.31
307.731	306.31
307.961	311.31
308.191	308.31
308.421	306.31
308.651	326.31
308.881	311.31
309.111	329.31
309.341	320.31
309.571	313.31
309.8	327.31
310.03	327.31
310.26	338.31
310.49	334.31
310.72	333.31
310.949	329.31
311.179	350.31
311.409	339.31
311.639	338.31
311.868	328.31
312.098	349.31
312.328	362.31
312.557	371.31
312.787	358.31
313.017	358.31
313.246	352.31
313.476	345.31
313.706	350.31
313.935	342.31
314.165	355.31
314.394	353.31
314.624	378.31
314.853	336.31
315.083	352.31
315.312	337.31
315.542	361.31
315.771	346.31
316.001	351.31
316.23	338.31
316.46	318.31
316.689	354.31
316.919	350.31
317.148	350.31
317.377	348.31
317.607	370.31
317.836	331.31
318.065	351.31
318.295	353.31
318.524	333.31
318.753	348.31
318.983	376.31
319.212	351.31
319.441	352.31
319.67	353.31
319.9	355.31
320.129	338.31
320.358	347.31
320.587	352.31
320.816	350.31
321.046	368.31
321.275	370.31
321.504	359.31
321.733	354.31
321.962	342.31
322.191	356.31
322.42	373.31
322.649	380.31
322.878	373.31
323.108	394.31
323.337	387.31
323.566	385.31
323.795	412.31
324.024	444.31
324.253	474.31
324.482	660.31
324.71	948.31
324.939	1424.31
325.168	1241.31
325.397	647.31
325.626	452.31
325.855	418.31
326.084	418.31
326.313	397.31
326.542	433.31
326.77	460.31
326.999	490.31
327.228	611.31
327.457	865.31
327.686	1105.31
327.914	722.31
328.143	513.31
328.372	483.31
328.6	459.31
328.829	442.31
329.058	421.31
329.287	458.31
329.515	448.31
329.744	413.31
329.972	416.31
330.201	421.31
330.43	440.31
330.658	452.31
330.887	482.31
331.115	467.31
331.344	438.31
331.572	414.31
331.801	412.31
332.03	414.31
332.258	435.31
332.486	408.31
332.715	396.31
332.943	397.31
333.172	432.31
333.4	432.31
333.629	453.31
333.857	439.31
334.085	461.31
334.314	468.31
334.542	470.31
334.771	482.31
334.999	460.31
335.227	429.31
335.455	417.31
335.684	432.31
335.912	420.31
336.14	434.31
336.369	408.31
336.597	428.31
336.825	420.31
337.053	434.31
337.281	411.31
337.51	406.31
337.738	411.31
337.966	421.31
338.194	423.31
338.422	427.31
338.65	397.31
338.878	411.31
339.106	405.31
339.334	425.31
339.562	411.31
339.79	398.31
340.018	413.31
340.246	408.31
340.474	409.31
340.702	401.31
340.93	420.31
341.158	413.31
341.386	391.31
341.614	399.31
341.842	396.31
342.07	398.31
342.298	394.31
342.526	389.31
342.754	392.31
342.981	381.31
343.209	404.31
343.437	401.31
343.665	417.31
343.893	442.31
344.12	458.31
344.348	437.31
344.576	435.31
344.804	425.31
345.031	411.31
345.259	422.31
345.487	408.31
345.714	391.31
345.942	408.31
346.17	386.31
346.397	376.31
346.625	388.31
346.853	385.31
347.08	389.31
347.308	397.31
347.535	394.31
347.763	405.31
347.99	394.31
348.218	402.31
348.445	399.31
348.673	386.31
348.9	402.31
349.128	387.31
349.355	369.31
349.583	379.31
349.81	369.31
350.037	373.31
350.265	384.31
350.492	376.31
350.72	355.31
350.947	364.31
351.174	382.31
351.402	398.31
351.629	390.31
351.856	380.31
352.083	395.31
352.311	404.31
352.538	404.31
352.765	403.31
352.992	398.31
353.22	414.31
353.447	387.31
353.674	378.31
353.901	382.31
354.128	395.31
354.355	382.31
354.583	381.31
354.81	370.31
355.037	370.31
355.264	384.31
355.491	377.31
355.718	391.31
355.945	372.31
356.172	368.31
356.399	380.31
356.626	373.31
356.853	388.31
357.08	383.31
357.307	389.31
357.534	394.31
357.761	376.31
357.988	370.31
358.215	397.31
358.441	392.31
358.668	371.31
358.895	382.31
359.122	387.31
359.349	410.31
359.576	386.31
359.802	403.31
360.029	410.31
360.256	418.31
360.483	419.31
360.709	384.31
360.936	408.31
361.163	380.31
361.39	404.31
361.616	408.31
361.843	399.31
362.07	413.31
362.296	383.31
362.523	378.31
362.749	396.31
362.976	393.31
363.203	382.31
363.429	356.31
363.656	381.31
363.882	396.31
364.109	403.31
364.335	388.31
364.562	391.31
364.788	391.31
365.015	418.31
365.241	379.31
365.468	390.31
365.694	368.31
365.92	386.31
366.147	391.31
366.373	384.31
366.599	375.31
366.826	385.31
367.052	382.31
367.278	386.31
367.505	387.31
367.731	395.31
367.957	388.31
368.184	404.31
368.41	403.31
368.636	408.31
368.862	399.31
369.089	421.31
369.315	396.31
369.541	402.31
369.767	397.31
369.993	386.31
370.219	388.31
370.445	397.31
370.672	393.31
370.898	414.31
371.124	398.31
371.35	409.31
371.576	390.31
371.802	417.31
372.028	396.31
372.254	410.31
372.48	403.31
372.706	394.31
372.932	404.31
373.158	388.31
373.384	401.31
373.61	399.31
373.835	407.31
374.061	428.31
374.287	419.31
374.513	399.31
374.739	395.31
374.965	419.31
375.191	429.31
375.416	422.31
375.642	397.31
375.868	420.31
376.094	403.31
376.319	414.31
376.545	410.31
376.771	402.31
376.997	375.31
377.222	400.31
377.448	401.31
377.674	403.31
377.899	402.31
378.125	414.31
378.35	410.31
378.576	398.31
378.802	376.31
379.027	421.31
379.253	420.31
379.478	388.31
379.704	433.31
379.929	384.31
380.155	412.31
380.38	418.31
380.606	404.31
380.831	400.31
381.057	407.31
381.282	411.31
381.507	424.31
381.733	398.31
381.958	412.31
382.184	406.31
382.409	410.31
382.634	413.31
382.86	437.31
383.085	419.31
383.31	407.31
383.535	438.31
383.761	438.31
383.986	434.31
384.211	432.31
384.436	453.31
384.662	444.31
384.887	454.31
385.112	436.31
385.337	456.31
385.562	457.31
385.787	462.31
386.013	453.31
386.238	461.31
386.463	487.31
386.688	452.31
386.913	468.31
387.138	461.31
387.363	462.31
387.588	450.31
387.813	468.31
388.038	453.31
388.263	454.31
388.488	482.31
388.713	451.31
388.938	456.31
389.163	427.31
389.387	450.31
389.612	476.31
389.837	439.31
390.062	448.31
390.287	442.31
390.512	453.31
390.736	458.31
390.961	444.31
391.186	454.31
391.411	452.31
391.636	467.31
391.86	474.31
392.085	470.31
392.31	470.31
392.534	457.31
392.759	480.31
392.984	477.31
393.208	480.31
393.433	456.31
393.658	477.31
393.882	461.31
394.107	458.31
394.331	465.31
394.556	471.31
394.78	483.31
395.005	450.31
395.229	480.31
395.454	476.31
395.678	478.31
395.903	515.31
396.127	510.31
396.352	483.31
396.576	488.31
396.801	475.31
397.025	464.31
397.249	481.31
397.474	479.31
397.698	477.31
397.922	502.31
398.147	512.31
398.371	531.31
398.595	516.31
398.82	521.31
399.044	508.31
399.268	554.31
399.492	592.31
399.717	651.31
399.941	669.31
400.165	655.31
400.389	640.31
400.613	609.31
400.837	551.31
401.062	546.31
401.286	538.31
401.51	534.31
401.734	536.31
401.958	549.31
402.182	534.31
402.406	546.31
402.63	534.31
402.854	545.31
403.078	547.31
403.302	557.31
403.526	540.31
403.75	526.31
403.974	539.31
404.198	567.31
404.422	549.31
404.645	547.31
404.869	565.31
405.093	590.31
405.317	606.31
405.541	637.31
405.765	577.31
405.988	587.31
406.212	568.31
406.436	580.31
406.66	600.31
406.883	599.31
407.107	638.31
407.331	679.31
407.555	717.31
407.778	732.31
408.002	672.31
408.226	610.31
408.449	611.31
408.673	595.31
408.896	608.31
409.12	657.31
409.344	626.31
409.567	584.31
409.791	566.31
410.014	568.31
410.238	550.31
410.461	567.31
410.685	551.31
410.908	557.31
411.132	588.31
411.355	608.31
411.578	589.31
411.802	530.31
412.025	569.31
412.249	553.31
412.472	562.31
412.695	595.31
412.919	600.31
413.142	569.31
413.365	545.31
413.589	550.31
413.812	542.31
414.035	547.31
414.258	529.31
414.482	527.31
414.705	531.31
414.928	536.31
415.151	503.31
415.374	545.31
415.597	532.31
415.821	516.31
416.044	524.31
416.267	505.31
416.49	548.31
416.713	516.31
416.936	520.31
417.159	531.31
417.382	557.31
417.605	523.31
417.828	508.31
418.051	544.31
418.274	526.31
418.497	520.31
418.72	525.31
418.943	514.31
419.166	550.31
419.389	550.31
419.611	571.31
419.834	555.31
420.057	562.31
420.28	557.31
420.503	548.31
420.726	546.31
420.948	571.31
421.171	594.31
421.394	620.31
421.617	560.31
421.839	560.31
422.062	542.31
422.285	558.31
422.507	600.31
422.73	690.31
422.953	666.31
423.175	581.31
423.398	558.31
423.621	544.31
423.843	594.31
424.066	586.31
424.288	581.31
424.511	572.31
424.733	638.31
424.956	698.31
425.178	698.31
425.401	650.31
425.623	695.31
425.846	624.31
426.068	566.31
426.291	576.31
426.513	541.31
426.735	570.31
426.958	604.31
427.18	654.31
427.402	788.31
427.625	850.31
427.847	725.31
428.069	634.31
428.292	594.31
428.514	551.31
428.736	545.31
428.958	535.31
429.181	536.31
429.403	518.31
429.625	518.31
429.847	552.31
430.069	620.31
430.292	637.31
430.514	540.31
430.736	546.31
430.958	534.31
431.18	513.31
431.402	512.31
431.624	491.31
431.846	484.31
432.068	487.31
432.29	501.31
432.512	512.31
432.734	506.31
432.956	504.31
433.178	531.31
433.4	520.31
433.622	503.31
433.844	502.31
434.066	517.31
434.287	505.31
434.509	505.31
434.731	508.31
434.953	529.31
435.175	538.31
435.397	560.31
435.618	569.31
435.84	602.31
436.062	670.31
436.284	781.31
436.505	625.31
436.727	571.31
436.949	558.31
437.17	508.31
437.392	530.31
437.614	544.31
437.835	541.31
438.057	635.31
438.278	718.31
438.5	704.31
438.721	811.31
438.943	762.31
439.165	630.31
439.386	566.31
439.608	569.31
439.829	538.31
440.05	566.31
440.272	597.31
440.493	593.31
440.715	573.31
440.936	518.31
441.158	541.31
441.379	525.31
441.6	564.31
441.822	577.31
442.043	588.31
442.264	685.31
442.486	694.31
442.707	595.31
442.928	576.31
443.149	584.31
443.371	591.31
443.592	642.31
443.813	721.31
444.034	784.31
444.255	648.31
444.476	610.31
444.698	582.31
444.919	613.31
445.14	732.31
445.361	656.31
445.582	612.31
445.803	675.31
446.024	731.31
446.245	742.31
446.466	669.31
446.687	592.31
446.908	575.31
447.129	530.31
447.35	501.31
447.571	510.31
447.792	501.31
448.013	520.31
448.234	537.31
448.455	543.31
448.675	662.31
448.896	777.31
449.117	662.31
449.338	640.31
449.559	698.31
449.779	811.31
450	660.31
450.221	537.31
450.442	525.31
450.662	517.31
450.883	513.31
451.104	506.31
451.324	486.31
451.545	488.31
451.766	475.31
451.986	463.31
452.207	460.31
452.428	478.31
452.648	473.31
452.869	460.31
453.089	471.31
453.31	468.31
453.53	459.31
453.751	457.31
453.971	466.31
454.192	474.31
454.412	453.31
454.633	459.31
454.853	462.31
455.073	445.31
455.294	486.31
455.514	537.31
455.734	513.31
455.955	477.31
456.175	452.31
456.395	460.31
456.616	436.31
456.836	456.31
457.056	434.31
457.276	432.31
457.497	420.31
457.717	429.31
457.937	461.31
458.157	457.31
458.377	457.31
458.598	464.31
458.818	512.31
459.038	589.31
459.258	578.31
459.478	517.31
459.698	496.31
459.918	485.31
460.138	512.31
460.358	512.31
460.578	524.31
460.798	551.31
461.018	493.31
461.238	534.31
461.458	531.31
461.678	522.31
461.898	539.31
462.118	546.31
462.338	548.31
462.558	558.31
462.777	561.31
462.997	597.31
463.217	611.31
463.437	604.31
463.657	598.31
463.876	566.31
464.096	575.31
464.316	550.31
464.536	577.31
464.755	562.31
464.975	567.31
465.195	582.31
465.414	597.31
465.634	567.31
465.854	535.31
466.073	533.31
466.293	504.31
466.512	475.31
466.732	479.31
466.951	497.31
467.171	480.31
467.391	498.31
467.61	493.31
467.829	458.31
468.049	477.31
468.268	480.31
468.488	472.31
468.707	459.31
468.927	475.31
469.146	456.31
469.365	483.31
469.585	494.31
469.804	486.31
470.023	499.31
470.243	473.31
470.462	509.31
470.681	489.31
470.901	490.31
471.12	489.31
471.339	493.31
471.558	506.31
471.777	497.31
471.997	483.31
472.216	501.31
472.435	482.31
472.654	483.31
472.873	489.31
473.092	513.31
473.311	482.31
473.53	482.31
473.749	489.31
473.968	527.31
474.187	596.31
474.406	624.31
474.625	525.31
474.844	491.31
475.063	491.31
475.282	489.31
475.501	510.31
475.72	490.31
475.939	482.31
476.158	504.31
476.377	530.31
476.596	512.31
476.814	524.31
477.033	495.31
477.252	517.31
477.471	508.31
477.69	497.31
477.908	532.31
478.127	556.31
478.346	557.31
478.564	557.31
478.783	554.31
479.002	570.31
479.22	587.31
479.439	593.31
479.658	566.31
479.876	600.31
480.095	597.31
480.313	619.31
480.532	600.31
480.751	613.31
480.969	620.31
481.188	629.31
481.406	660.31
481.624	594.31
481.843	584.31
482.061	587.31
482.28	588.31
482.498	561.31
482.717	581.31
482.935	557.31
483.153	562.31
483.372	589.31
483.59	586.31
483.808	590.31
484.027	568.31
484.245	580.31
484.463	565.31
484.681	573.31
484.9	589.31
485.118	589.31
485.336	594.31
485.554	590.31
485.772	605.31
485.99	584.31
486.209	585.31
486.427	595.31
486.645	586.31
486.863	612.31
487.081	616.31
487.299	609.31
487.517	599.31
487.735	626.31
487.953	632.31
488.171	622.31
488.389	622.31
488.607	625.31
488.825	610.31
489.043	618.31
489.261	641.31
489.479	621.31
489.696	627.31
489.914	648.31
490.132	646.31
490.35	650.31
490.568	613.31
490.786	661.31
491.003	666.31
491.221	673.31
491.439	672.31
491.657	655.31
491.874	689.31
492.092	670.31
492.31	728.31
492.527	726.31
492.745	698.31
492.963	706.31
493.18	679.31
493.398	699.31
493.615	706.31
493.833	709.31
494.05	704.31
494.268	733.31
494.485	735.31
494.703	719.31
494.92	728.31
495.138	727.31
495.355	724.31
495.573	736.31
495.79	709.31
496.008	714.31
496.225	731.31
496.442	745.31
496.66	724.31
496.877	734.31
497.094	716.31
497.312	752.31
497.529	752.31
497.746	773.31
497.963	782.31
498.181	806.31
498.398	824.31
498.615	816.31
498.832	876.31
499.049	873.31
499.267	896.31
499.484	953.31
499.701	1002.31
499.918	1039.31
500.135	1101.31
500.352	1136.31
500.569	1152.31
500.786	1166.31
501.003	1188.31
501.22	1146.31
501.437	1048.31
501.654	1025.31
