Data from 1974.PennyLincolnUp.Lamp.En5.5.200Scan.071719.P1.Changed Mount._HRD10591_15-53-36-856.txt Node
Date: Thu Jul 18 15:53:36 EDT 2019
User: cochatt
Spectrometer: HR+D1059
Trigger mode: 1
Integration Time (sec): 1.000000E-1
Scans to average: 1
Electric dark correction enabled: true
Nonlinearity correction enabled: false
Boxcar width: 0
XAxis mode: Wavelengths
Number of Pixels in Spectrum: 2048
>>>>>Begin Spectral Data<<<<<
223.165	-3.94
223.4	-3.94
223.635	-3.94
223.869	-12.94
224.104	-16.94
224.338	-13.94
224.573	-14.94
224.808	-16.94
225.042	-4.94
225.277	-1.94
225.511	-12.94
225.746	5.06
225.98	18.06
226.215	2.06
226.449	5.06
226.683	15.06
226.918	23.06
227.152	31.06
227.387	26.06
227.621	42.06
227.856	43.06
228.09	39.06
228.324	41.06
228.559	53.06
228.793	70.06
229.027	119.06
229.262	108.06
229.496	100.06
229.73	107.06
229.964	155.06
230.199	114.06
230.433	115.06
230.667	117.06
230.901	110.06
231.136	110.06
231.37	113.06
231.604	116.06
231.838	112.06
232.072	114.06
232.306	118.06
232.541	111.06
232.775	115.06
233.009	115.06
233.243	111.06
233.477	122.06
233.711	123.06
233.945	118.06
234.179	123.06
234.413	120.06
234.647	121.06
234.881	112.06
235.115	125.06
235.349	119.06
235.583	118.06
235.817	124.06
236.051	126.06
236.285	139.06
236.519	131.06
236.753	126.06
236.987	159.06
237.221	202.06
237.455	236.06
237.689	195.06
237.922	155.06
238.156	125.06
238.39	150.06
238.624	127.06
238.858	140.06
239.091	131.06
239.325	135.06
239.559	133.06
239.793	142.06
240.027	145.06
240.26	132.06
240.494	167.06
240.728	161.06
240.961	175.06
241.195	164.06
241.429	144.06
241.662	128.06
241.896	132.06
242.13	125.06
242.363	144.06
242.597	144.06
242.83	138.06
243.064	147.06
243.298	162.06
243.531	147.06
243.765	153.06
243.998	156.06
244.232	144.06
244.465	140.06
244.699	149.06
244.932	145.06
245.166	158.06
245.399	138.06
245.633	150.06
245.866	151.06
246.099	125.06
246.333	167.06
246.566	164.06
246.8	169.06
247.033	178.06
247.266	170.06
247.5	178.06
247.733	168.06
247.966	183.06
248.2	186.06
248.433	179.06
248.666	190.06
248.899	204.06
249.133	200.06
249.366	208.06
249.599	209.06
249.832	186.06
250.066	190.06
250.299	187.06
250.532	194.06
250.765	205.06
250.998	231.06
251.231	244.06
251.465	239.06
251.698	225.06
251.931	213.06
252.164	196.06
252.397	188.06
252.63	205.06
252.863	197.06
253.096	225.06
253.329	225.06
253.562	235.06
253.795	222.06
254.028	240.06
254.261	230.06
254.494	236.06
254.727	235.06
254.96	280.06
255.193	286.06
255.426	257.06
255.659	249.06
255.892	239.06
256.124	242.06
256.357	235.06
256.59	239.06
256.823	224.06
257.056	223.06
257.289	233.06
257.521	214.06
257.754	231.06
257.987	226.06
258.22	219.06
258.452	223.06
258.685	209.06
258.918	218.06
259.151	219.06
259.383	214.06
259.616	256.06
259.849	241.06
260.081	235.06
260.314	256.06
260.547	282.06
260.779	256.06
261.012	233.06
261.244	244.06
261.477	231.06
261.71	213.06
261.942	235.06
262.175	239.06
262.407	252.06
262.64	230.06
262.872	229.06
263.105	231.06
263.337	239.06
263.57	220.06
263.802	241.06
264.035	212.06
264.267	230.06
264.499	219.06
264.732	245.06
264.964	250.06
265.197	223.06
265.429	227.06
265.661	235.06
265.894	239.06
266.126	244.06
266.358	230.06
266.591	232.06
266.823	236.06
267.055	233.06
267.287	237.06
267.52	240.06
267.752	239.06
267.984	229.06
268.216	226.06
268.448	242.06
268.681	240.06
268.913	268.06
269.145	298.06
269.377	304.06
269.609	299.06
269.841	295.06
270.073	280.06
270.306	312.06
270.538	329.06
270.77	341.06
271.002	313.06
271.234	320.06
271.466	303.06
271.698	358.06
271.93	332.06
272.162	314.06
272.394	338.06
272.626	304.06
272.858	316.06
273.09	299.06
273.322	300.06
273.553	290.06
273.785	287.06
274.017	290.06
274.249	288.06
274.481	287.06
274.713	290.06
274.945	293.06
275.176	284.06
275.408	286.06
275.64	294.06
275.872	276.06
276.104	273.06
276.335	266.06
276.567	293.06
276.799	291.06
277.031	313.06
277.262	326.06
277.494	323.06
277.726	328.06
277.957	308.06
278.189	306.06
278.421	296.06
278.652	289.06
278.884	293.06
279.115	309.06
279.347	289.06
279.579	289.06
279.81	296.06
280.042	284.06
280.273	292.06
280.505	300.06
280.736	282.06
280.968	270.06
281.199	299.06
281.431	292.06
281.662	301.06
281.894	303.06
282.125	296.06
282.356	325.06
282.588	307.06
282.819	316.06
283.051	306.06
283.282	312.06
283.513	306.06
283.745	294.06
283.976	294.06
284.207	309.06
284.439	305.06
284.67	287.06
284.901	298.06
285.132	298.06
285.364	303.06
285.595	310.06
285.826	281.06
286.057	308.06
286.288	301.06
286.52	319.06
286.751	294.06
286.982	314.06
287.213	300.06
287.444	315.06
287.675	314.06
287.906	331.06
288.138	330.06
288.369	322.06
288.6	309.06
288.831	317.06
289.062	314.06
289.293	322.06
289.524	319.06
289.755	315.06
289.986	309.06
290.217	321.06
290.448	311.06
290.679	307.06
290.91	320.06
291.141	315.06
291.371	313.06
291.602	307.06
291.833	306.06
292.064	291.06
292.295	296.06
292.526	315.06
292.757	308.06
292.987	323.06
293.218	305.06
293.449	318.06
293.68	331.06
293.91	321.06
294.141	321.06
294.372	320.06
294.603	312.06
294.833	324.06
295.064	325.06
295.295	294.06
295.525	320.06
295.756	320.06
295.987	341.06
296.217	342.06
296.448	360.06
296.679	333.06
296.909	322.06
297.14	333.06
297.37	344.06
297.601	313.06
297.831	332.06
298.062	324.06
298.292	324.06
298.523	328.06
298.753	335.06
298.984	325.06
299.214	343.06
299.445	347.06
299.675	352.06
299.905	342.06
300.136	341.06
300.366	350.06
300.597	336.06
300.827	364.06
301.057	359.06
301.288	348.06
301.518	330.06
301.748	371.06
301.979	341.06
302.209	353.06
302.439	343.06
302.669	358.06
302.9	355.06
303.13	355.06
303.36	368.06
303.59	361.06
303.82	379.06
304.051	366.06
304.281	357.06
304.511	360.06
304.741	354.06
304.971	343.06
305.201	342.06
305.431	355.06
305.661	360.06
305.891	351.06
306.121	349.06
306.352	350.06
306.582	371.06
306.812	362.06
307.042	364.06
307.272	359.06
307.502	360.06
307.731	371.06
307.961	357.06
308.191	364.06
308.421	358.06
308.651	359.06
308.881	376.06
309.111	363.06
309.341	369.06
309.571	382.06
309.8	385.06
310.03	388.06
310.26	411.06
310.49	389.06
310.72	410.06
310.949	423.06
311.179	424.06
311.409	408.06
311.639	405.06
311.868	399.06
312.098	413.06
312.328	396.06
312.557	404.06
312.787	425.06
313.017	415.06
313.246	399.06
313.476	388.06
313.706	392.06
313.935	420.06
314.165	423.06
314.394	416.06
314.624	416.06
314.853	403.06
315.083	403.06
315.312	411.06
315.542	400.06
315.771	387.06
316.001	406.06
316.23	405.06
316.46	390.06
316.689	407.06
316.919	423.06
317.148	414.06
317.377	408.06
317.607	418.06
317.836	393.06
318.065	405.06
318.295	404.06
318.524	391.06
318.753	383.06
318.983	421.06
319.212	418.06
319.441	411.06
319.67	402.06
319.9	392.06
320.129	422.06
320.358	427.06
320.587	435.06
320.816	417.06
321.046	417.06
321.275	428.06
321.504	419.06
321.733	417.06
321.962	423.06
322.191	441.06
322.42	431.06
322.649	454.06
322.878	441.06
323.108	473.06
323.337	463.06
323.566	498.06
323.795	525.06
324.024	529.06
324.253	623.06
324.482	864.06
324.71	1311.06
324.939	1899.06
325.168	1711.06
325.397	876.06
325.626	629.06
325.855	547.06
326.084	525.06
326.313	496.06
326.542	477.06
326.77	535.06
326.999	633.06
327.228	803.06
327.457	1191.06
327.686	1486.06
327.914	1003.06
328.143	664.06
328.372	598.06
328.6	565.06
328.829	553.06
329.058	563.06
329.287	571.06
329.515	539.06
329.744	531.06
329.972	531.06
330.201	532.06
330.43	568.06
330.658	571.06
330.887	604.06
331.115	597.06
331.344	544.06
331.572	513.06
331.801	521.06
332.03	517.06
332.258	474.06
332.486	500.06
332.715	483.06
332.943	484.06
333.172	488.06
333.4	511.06
333.629	504.06
333.857	538.06
334.085	536.06
334.314	529.06
334.542	560.06
334.771	549.06
334.999	552.06
335.227	519.06
335.455	495.06
335.684	504.06
335.912	475.06
336.14	510.06
336.369	499.06
336.597	492.06
336.825	485.06
337.053	474.06
337.281	488.06
337.51	497.06
337.738	488.06
337.966	476.06
338.194	504.06
338.422	474.06
338.65	476.06
338.878	482.06
339.106	469.06
339.334	477.06
339.562	466.06
339.79	466.06
340.018	481.06
340.246	453.06
340.474	452.06
340.702	469.06
340.93	439.06
341.158	455.06
341.386	454.06
341.614	460.06
341.842	483.06
342.07	466.06
342.298	449.06
342.526	449.06
342.754	481.06
342.981	466.06
343.209	459.06
343.437	449.06
343.665	468.06
343.893	480.06
344.12	499.06
344.348	483.06
344.576	481.06
344.804	487.06
345.031	484.06
345.259	483.06
345.487	474.06
345.714	480.06
345.942	460.06
346.17	448.06
346.397	461.06
346.625	445.06
346.853	458.06
347.08	464.06
347.308	453.06
347.535	470.06
347.763	444.06
347.99	455.06
348.218	456.06
348.445	466.06
348.673	461.06
348.9	433.06
349.128	444.06
349.355	443.06
349.583	439.06
349.81	436.06
350.037	460.06
350.265	436.06
350.492	452.06
350.72	453.06
350.947	451.06
351.174	477.06
351.402	461.06
351.629	446.06
351.856	457.06
352.083	464.06
352.311	488.06
352.538	451.06
352.765	467.06
352.992	443.06
353.22	445.06
353.447	431.06
353.674	448.06
353.901	436.06
354.128	445.06
354.355	435.06
354.583	432.06
354.81	448.06
355.037	432.06
355.264	438.06
355.491	426.06
355.718	425.06
355.945	435.06
356.172	419.06
356.399	433.06
356.626	421.06
356.853	427.06
357.08	430.06
357.307	422.06
357.534	420.06
357.761	443.06
357.988	442.06
358.215	426.06
358.441	438.06
358.668	445.06
358.895	438.06
359.122	434.06
359.349	459.06
359.576	453.06
359.802	475.06
360.029	483.06
360.256	483.06
360.483	493.06
360.709	457.06
360.936	468.06
361.163	452.06
361.39	453.06
361.616	477.06
361.843	456.06
362.07	441.06
362.296	467.06
362.523	456.06
362.749	463.06
362.976	455.06
363.203	442.06
363.429	433.06
363.656	439.06
363.882	438.06
364.109	457.06
364.335	430.06
364.562	449.06
364.788	435.06
365.015	448.06
365.241	442.06
365.468	451.06
365.694	453.06
365.92	463.06
366.147	449.06
366.373	455.06
366.599	428.06
366.826	433.06
367.052	428.06
367.278	437.06
367.505	411.06
367.731	426.06
367.957	443.06
368.184	441.06
368.41	451.06
368.636	437.06
368.862	464.06
369.089	456.06
369.315	432.06
369.541	432.06
369.767	441.06
369.993	438.06
370.219	445.06
370.445	452.06
370.672	444.06
370.898	438.06
371.124	459.06
371.35	462.06
371.576	439.06
371.802	457.06
372.028	451.06
372.254	457.06
372.48	444.06
372.706	441.06
372.932	470.06
373.158	449.06
373.384	436.06
373.61	460.06
373.835	442.06
374.061	449.06
374.287	463.06
374.513	447.06
374.739	467.06
374.965	472.06
375.191	466.06
375.416	461.06
375.642	458.06
375.868	459.06
376.094	449.06
376.319	451.06
376.545	450.06
376.771	460.06
376.997	453.06
377.222	443.06
377.448	442.06
377.674	459.06
377.899	460.06
378.125	467.06
378.35	436.06
378.576	434.06
378.802	434.06
379.027	432.06
379.253	465.06
379.478	443.06
379.704	464.06
379.929	451.06
380.155	476.06
380.38	456.06
380.606	454.06
380.831	460.06
381.057	460.06
381.282	448.06
381.507	460.06
381.733	451.06
381.958	470.06
382.184	460.06
382.409	465.06
382.634	466.06
382.86	482.06
383.085	465.06
383.31	465.06
383.535	497.06
383.761	462.06
383.986	488.06
384.211	499.06
384.436	465.06
384.662	476.06
384.887	492.06
385.112	477.06
385.337	490.06
385.562	518.06
385.787	505.06
386.013	511.06
386.238	537.06
386.463	520.06
386.688	515.06
386.913	491.06
387.138	511.06
387.363	507.06
387.588	501.06
387.813	492.06
388.038	507.06
388.263	500.06
388.488	516.06
388.713	513.06
388.938	517.06
389.163	508.06
389.387	532.06
389.612	505.06
389.837	515.06
390.062	499.06
390.287	484.06
390.512	517.06
390.736	520.06
390.961	526.06
391.186	513.06
391.411	533.06
391.636	531.06
391.86	511.06
392.085	563.06
392.31	538.06
392.534	525.06
392.759	525.06
392.984	532.06
393.208	507.06
393.433	537.06
393.658	516.06
393.882	518.06
394.107	483.06
394.331	508.06
394.556	519.06
394.78	516.06
395.005	521.06
395.229	527.06
395.454	549.06
395.678	544.06
395.903	553.06
396.127	570.06
396.352	563.06
396.576	541.06
396.801	536.06
397.025	547.06
397.249	543.06
397.474	552.06
397.698	545.06
397.922	569.06
398.147	554.06
398.371	588.06
398.595	595.06
398.82	585.06
399.044	592.06
399.268	617.06
399.492	664.06
399.717	731.06
399.941	741.06
400.165	752.06
400.389	744.06
400.613	663.06
400.837	608.06
401.062	614.06
401.286	603.06
401.51	594.06
401.734	575.06
401.958	608.06
402.182	615.06
402.406	613.06
402.63	586.06
402.854	599.06
403.078	602.06
403.302	632.06
403.526	627.06
403.75	630.06
403.974	645.06
404.198	618.06
404.422	615.06
404.645	644.06
404.869	619.06
405.093	657.06
405.317	729.06
405.541	753.06
405.765	667.06
405.988	654.06
406.212	634.06
406.436	661.06
406.66	678.06
406.883	663.06
407.107	722.06
407.331	743.06
407.555	818.06
407.778	812.06
408.002	743.06
408.226	699.06
408.449	696.06
408.673	680.06
408.896	709.06
409.12	739.06
409.344	709.06
409.567	657.06
409.791	625.06
410.014	608.06
410.238	608.06
410.461	629.06
410.685	619.06
410.908	652.06
411.132	694.06
411.355	699.06
411.578	692.06
411.802	651.06
412.025	621.06
412.249	626.06
412.472	661.06
412.695	697.06
412.919	681.06
413.142	639.06
413.365	637.06
413.589	611.06
413.812	598.06
414.035	579.06
414.258	605.06
414.482	597.06
414.705	572.06
414.928	576.06
415.151	589.06
415.374	595.06
415.597	589.06
415.821	568.06
416.044	589.06
416.267	595.06
416.49	593.06
416.713	588.06
416.936	555.06
417.159	590.06
417.382	608.06
417.605	602.06
417.828	613.06
418.051	622.06
418.274	604.06
418.497	595.06
418.72	579.06
418.943	597.06
419.166	601.06
419.389	632.06
419.611	626.06
419.834	632.06
420.057	631.06
420.28	602.06
420.503	640.06
420.726	625.06
420.948	617.06
421.171	653.06
421.394	707.06
421.617	630.06
421.839	617.06
422.062	647.06
422.285	627.06
422.507	680.06
422.73	753.06
422.953	743.06
423.175	651.06
423.398	636.06
423.621	643.06
423.843	652.06
424.066	681.06
424.288	657.06
424.511	688.06
424.733	701.06
424.956	798.06
425.178	755.06
425.401	752.06
425.623	786.06
425.846	688.06
426.068	643.06
426.291	638.06
426.513	631.06
426.735	659.06
426.958	689.06
427.18	745.06
427.402	906.06
427.625	972.06
427.847	856.06
428.069	728.06
428.292	687.06
428.514	642.06
428.736	612.06
428.958	616.06
429.181	598.06
429.403	588.06
429.625	601.06
429.847	629.06
430.069	715.06
430.292	712.06
430.514	613.06
430.736	612.06
430.958	586.06
431.18	583.06
431.402	538.06
431.624	556.06
431.846	583.06
432.068	576.06
432.29	577.06
432.512	584.06
432.734	598.06
432.956	571.06
433.178	581.06
433.4	587.06
433.622	576.06
433.844	557.06
434.066	576.06
434.287	569.06
434.509	595.06
434.731	590.06
434.953	605.06
435.175	613.06
435.397	643.06
435.618	635.06
435.84	675.06
436.062	765.06
436.284	863.06
436.505	698.06
436.727	659.06
436.949	609.06
437.17	610.06
437.392	616.06
437.614	624.06
437.835	641.06
438.057	714.06
438.278	857.06
438.5	835.06
438.721	900.06
438.943	896.06
439.165	709.06
439.386	641.06
439.608	649.06
439.829	652.06
440.05	680.06
440.272	687.06
440.493	673.06
440.715	627.06
440.936	633.06
441.158	609.06
441.379	625.06
441.6	630.06
441.822	641.06
442.043	678.06
442.264	766.06
442.486	823.06
442.707	717.06
442.928	654.06
443.149	694.06
443.371	705.06
443.592	723.06
443.813	815.06
444.034	929.06
444.255	760.06
444.476	722.06
444.698	696.06
444.919	687.06
445.14	760.06
445.361	702.06
445.582	681.06
445.803	741.06
446.024	849.06
446.245	859.06
446.466	799.06
446.687	684.06
446.908	667.06
447.129	644.06
447.35	587.06
447.571	581.06
447.792	569.06
448.013	597.06
448.234	624.06
448.455	654.06
448.675	781.06
448.896	923.06
449.117	760.06
449.338	698.06
449.559	815.06
449.779	938.06
450	738.06
450.221	624.06
450.442	583.06
450.662	586.06
450.883	586.06
451.104	589.06
451.324	599.06
451.545	557.06
451.766	551.06
451.986	543.06
452.207	521.06
452.428	525.06
452.648	533.06
452.869	512.06
453.089	539.06
453.31	562.06
453.53	551.06
453.751	520.06
453.971	527.06
454.192	536.06
454.412	533.06
454.633	520.06
454.853	504.06
455.073	532.06
455.294	533.06
455.514	610.06
455.734	589.06
455.955	537.06
456.175	529.06
456.395	517.06
456.616	491.06
456.836	501.06
457.056	488.06
457.276	489.06
457.497	489.06
457.717	496.06
457.937	509.06
458.157	526.06
458.377	523.06
458.598	533.06
458.818	582.06
459.038	664.06
459.258	700.06
459.478	607.06
459.698	580.06
459.918	560.06
460.138	589.06
460.358	585.06
460.578	592.06
460.798	596.06
461.018	612.06
461.238	608.06
461.458	595.06
461.678	585.06
461.898	595.06
462.118	609.06
462.338	636.06
462.558	625.06
462.777	627.06
462.997	634.06
463.217	655.06
463.437	680.06
463.657	658.06
463.876	655.06
464.096	637.06
464.316	627.06
464.536	658.06
464.755	665.06
464.975	660.06
465.195	639.06
465.414	703.06
465.634	654.06
465.854	590.06
466.073	564.06
466.293	568.06
466.512	582.06
466.732	556.06
466.951	561.06
467.171	564.06
467.391	559.06
467.61	554.06
467.829	519.06
468.049	551.06
468.268	555.06
468.488	520.06
468.707	527.06
468.927	531.06
469.146	541.06
469.365	538.06
469.585	529.06
469.804	527.06
470.023	552.06
470.243	545.06
470.462	579.06
470.681	588.06
470.901	598.06
471.12	552.06
471.339	565.06
471.558	550.06
471.777	545.06
471.997	554.06
472.216	561.06
472.435	563.06
472.654	552.06
472.873	532.06
473.092	548.06
473.311	545.06
473.53	547.06
473.749	537.06
473.968	568.06
474.187	669.06
474.406	714.06
474.625	582.06
474.844	555.06
475.063	540.06
475.282	557.06
475.501	563.06
475.72	561.06
475.939	555.06
476.158	566.06
476.377	575.06
476.596	555.06
476.814	568.06
477.033	554.06
477.252	577.06
477.471	607.06
477.69	614.06
477.908	612.06
478.127	613.06
478.346	620.06
478.564	635.06
478.783	635.06
479.002	639.06
479.22	625.06
479.439	645.06
479.658	655.06
479.876	654.06
480.095	668.06
480.313	716.06
480.532	693.06
480.751	677.06
480.969	691.06
481.188	715.06
481.406	774.06
481.624	672.06
481.843	683.06
482.061	663.06
482.28	651.06
482.498	648.06
482.717	644.06
482.935	661.06
483.153	652.06
483.372	684.06
483.59	649.06
483.808	654.06
484.027	651.06
484.245	639.06
484.463	661.06
484.681	641.06
484.9	659.06
485.118	663.06
485.336	643.06
485.554	656.06
485.772	655.06
485.99	674.06
486.209	647.06
486.427	673.06
486.645	704.06
486.863	693.06
487.081	693.06
487.299	697.06
487.517	693.06
487.735	690.06
487.953	709.06
488.171	678.06
488.389	680.06
488.607	689.06
488.825	699.06
489.043	706.06
489.261	699.06
489.479	731.06
489.696	717.06
489.914	717.06
490.132	715.06
490.35	724.06
490.568	732.06
490.786	746.06
491.003	753.06
491.221	753.06
491.439	778.06
491.657	777.06
491.874	787.06
492.092	789.06
492.31	821.06
492.527	811.06
492.745	793.06
492.963	787.06
493.18	827.06
493.398	832.06
493.615	856.06
493.833	849.06
494.05	819.06
494.268	842.06
494.485	821.06
494.703	807.06
494.92	824.06
495.138	837.06
495.355	825.06
495.573	824.06
495.79	823.06
496.008	828.06
496.225	824.06
496.442	836.06
496.66	817.06
496.877	844.06
497.094	860.06
497.312	853.06
497.529	879.06
497.746	868.06
497.963	868.06
498.181	915.06
498.398	939.06
498.615	946.06
498.832	977.06
499.049	962.06
499.267	1008.06
499.484	1069.06
499.701	1116.06
499.918	1160.06
500.135	1240.06
500.352	1299.06
500.569	1324.06
500.786	1312.06
501.003	1296.06
501.22	1234.06
501.437	1173.06
501.654	1168.06
