Data from 1974.PennyLincolnUp.Lamp.En5.5.200Scan.071719.P1.Changed Mount._HRD10591_15-51-19-856.txt Node
Date: Thu Jul 18 15:51:19 EDT 2019
User: cochatt
Spectrometer: HR+D1059
Trigger mode: 1
Integration Time (sec): 1.000000E-1
Scans to average: 1
Electric dark correction enabled: true
Nonlinearity correction enabled: false
Boxcar width: 0
XAxis mode: Wavelengths
Number of Pixels in Spectrum: 2048
>>>>>Begin Spectral Data<<<<<
223.165	-13.56
223.4	-13.56
223.635	-13.56
223.869	-21.56
224.104	-8.56
224.338	-4.56
224.573	-5.56
224.808	-10.56
225.042	-2.56
225.277	-3.56
225.511	-9.56
225.746	1.44
225.98	13.44
226.215	7.44
226.449	19.44
226.683	-2.56
226.918	9.44
227.152	31.44
227.387	34.44
227.621	30.44
227.856	49.44
228.09	53.44
228.324	44.44
228.559	67.44
228.793	62.44
229.027	95.44
229.262	104.44
229.496	104.44
229.73	119.44
229.964	134.44
230.199	120.44
230.433	114.44
230.667	117.44
230.901	114.44
231.136	125.44
231.37	111.44
231.604	119.44
231.838	111.44
232.072	107.44
232.306	107.44
232.541	127.44
232.775	131.44
233.009	117.44
233.243	109.44
233.477	107.44
233.711	108.44
233.945	111.44
234.179	122.44
234.413	114.44
234.647	113.44
234.881	117.44
235.115	113.44
235.349	116.44
235.583	117.44
235.817	121.44
236.051	123.44
236.285	115.44
236.519	120.44
236.753	133.44
236.987	130.44
237.221	163.44
237.455	197.44
237.689	170.44
237.922	127.44
238.156	124.44
238.39	125.44
238.624	127.44
238.858	118.44
239.091	120.44
239.325	123.44
239.559	126.44
239.793	122.44
240.027	146.44
240.26	127.44
240.494	136.44
240.728	143.44
240.961	159.44
241.195	147.44
241.429	135.44
241.662	147.44
241.896	134.44
242.13	133.44
242.363	132.44
242.597	140.44
242.83	139.44
243.064	135.44
243.298	142.44
243.531	133.44
243.765	131.44
243.998	143.44
244.232	148.44
244.465	147.44
244.699	154.44
244.932	155.44
245.166	145.44
245.399	144.44
245.633	153.44
245.866	150.44
246.099	150.44
246.333	162.44
246.566	149.44
246.8	153.44
247.033	162.44
247.266	168.44
247.5	164.44
247.733	161.44
247.966	168.44
248.2	156.44
248.433	155.44
248.666	165.44
248.899	166.44
249.133	170.44
249.366	200.44
249.599	171.44
249.832	169.44
250.066	171.44
250.299	174.44
250.532	188.44
250.765	197.44
250.998	197.44
251.231	204.44
251.465	185.44
251.698	199.44
251.931	192.44
252.164	183.44
252.397	186.44
252.63	188.44
252.863	201.44
253.096	205.44
253.329	213.44
253.562	227.44
253.795	214.44
254.028	217.44
254.261	226.44
254.494	215.44
254.727	230.44
254.96	258.44
255.193	247.44
255.426	209.44
255.659	228.44
255.892	219.44
256.124	222.44
256.357	225.44
256.59	200.44
256.823	198.44
257.056	205.44
257.289	194.44
257.521	188.44
257.754	206.44
257.987	199.44
258.22	199.44
258.452	212.44
258.685	205.44
258.918	186.44
259.151	195.44
259.383	205.44
259.616	208.44
259.849	211.44
260.081	222.44
260.314	226.44
260.547	233.44
260.779	241.44
261.012	218.44
261.244	216.44
261.477	196.44
261.71	190.44
261.942	218.44
262.175	216.44
262.407	207.44
262.64	212.44
262.872	207.44
263.105	207.44
263.337	221.44
263.57	215.44
263.802	210.44
264.035	199.44
264.267	217.44
264.499	224.44
264.732	218.44
264.964	205.44
265.197	201.44
265.429	222.44
265.661	212.44
265.894	210.44
266.126	214.44
266.358	200.44
266.591	204.44
266.823	224.44
267.055	218.44
267.287	214.44
267.52	214.44
267.752	222.44
267.984	228.44
268.216	224.44
268.448	218.44
268.681	237.44
268.913	233.44
269.145	256.44
269.377	246.44
269.609	260.44
269.841	247.44
270.073	262.44
270.306	265.44
270.538	292.44
270.77	294.44
271.002	287.44
271.234	255.44
271.466	276.44
271.698	273.44
271.93	290.44
272.162	301.44
272.394	298.44
272.626	273.44
272.858	266.44
273.09	257.44
273.322	257.44
273.553	264.44
273.785	247.44
274.017	248.44
274.249	245.44
274.481	250.44
274.713	255.44
274.945	264.44
275.176	254.44
275.408	244.44
275.64	257.44
275.872	234.44
276.104	259.44
276.335	244.44
276.567	252.44
276.799	265.44
277.031	264.44
277.262	295.44
277.494	298.44
277.726	284.44
277.957	261.44
278.189	280.44
278.421	258.44
278.652	257.44
278.884	267.44
279.115	256.44
279.347	270.44
279.579	267.44
279.81	271.44
280.042	265.44
280.273	262.44
280.505	266.44
280.736	256.44
280.968	269.44
281.199	268.44
281.431	262.44
281.662	259.44
281.894	266.44
282.125	253.44
282.356	269.44
282.588	286.44
282.819	280.44
283.051	282.44
283.282	286.44
283.513	281.44
283.745	262.44
283.976	277.44
284.207	282.44
284.439	269.44
284.67	275.44
284.901	274.44
285.132	293.44
285.364	262.44
285.595	286.44
285.826	294.44
286.057	286.44
286.288	274.44
286.52	290.44
286.751	286.44
286.982	265.44
287.213	276.44
287.444	272.44
287.675	276.44
287.906	291.44
288.138	307.44
288.369	291.44
288.6	302.44
288.831	296.44
289.062	282.44
289.293	293.44
289.524	285.44
289.755	299.44
289.986	292.44
290.217	290.44
290.448	300.44
290.679	298.44
290.91	295.44
291.141	296.44
291.371	297.44
291.602	284.44
291.833	300.44
292.064	292.44
292.295	298.44
292.526	279.44
292.757	279.44
292.987	286.44
293.218	279.44
293.449	290.44
293.68	289.44
293.91	288.44
294.141	283.44
294.372	275.44
294.603	285.44
294.833	303.44
295.064	306.44
295.295	291.44
295.525	292.44
295.756	298.44
295.987	296.44
296.217	317.44
296.448	314.44
296.679	308.44
296.909	302.44
297.14	281.44
297.37	300.44
297.601	293.44
297.831	277.44
298.062	288.44
298.292	299.44
298.523	286.44
298.753	324.44
298.984	295.44
299.214	306.44
299.445	297.44
299.675	332.44
299.905	320.44
300.136	292.44
300.366	306.44
300.597	305.44
300.827	307.44
301.057	316.44
301.288	318.44
301.518	298.44
301.748	312.44
301.979	299.44
302.209	335.44
302.439	322.44
302.669	331.44
302.9	321.44
303.13	321.44
303.36	328.44
303.59	332.44
303.82	334.44
304.051	326.44
304.281	313.44
304.511	332.44
304.741	313.44
304.971	313.44
305.201	320.44
305.431	314.44
305.661	324.44
305.891	325.44
306.121	305.44
306.352	314.44
306.582	322.44
306.812	326.44
307.042	329.44
307.272	309.44
307.502	326.44
307.731	326.44
307.961	314.44
308.191	323.44
308.421	315.44
308.651	310.44
308.881	328.44
309.111	326.44
309.341	334.44
309.571	340.44
309.8	356.44
310.03	333.44
310.26	339.44
310.49	343.44
310.72	346.44
310.949	335.44
311.179	370.44
311.409	360.44
311.639	351.44
311.868	347.44
312.098	350.44
312.328	368.44
312.557	375.44
312.787	384.44
313.017	386.44
313.246	362.44
313.476	378.44
313.706	343.44
313.935	347.44
314.165	352.44
314.394	367.44
314.624	381.44
314.853	341.44
315.083	377.44
315.312	373.44
315.542	349.44
315.771	354.44
316.001	347.44
316.23	373.44
316.46	369.44
316.689	355.44
316.919	368.44
317.148	375.44
317.377	359.44
317.607	365.44
317.836	349.44
318.065	360.44
318.295	345.44
318.524	350.44
318.753	346.44
318.983	362.44
319.212	332.44
319.441	363.44
319.67	370.44
319.9	369.44
320.129	385.44
320.358	357.44
320.587	371.44
320.816	382.44
321.046	378.44
321.275	374.44
321.504	376.44
321.733	379.44
321.962	379.44
322.191	404.44
322.42	373.44
322.649	370.44
322.878	374.44
323.108	399.44
323.337	413.44
323.566	419.44
323.795	433.44
324.024	437.44
324.253	528.44
324.482	664.44
324.71	999.44
324.939	1453.44
325.168	1298.44
325.397	683.44
325.626	493.44
325.855	437.44
326.084	442.44
326.313	429.44
326.542	425.44
326.77	463.44
326.999	518.44
327.228	639.44
327.457	915.44
327.686	1120.44
327.914	773.44
328.143	555.44
328.372	509.44
328.6	446.44
328.829	447.44
329.058	453.44
329.287	480.44
329.515	437.44
329.744	434.44
329.972	439.44
330.201	458.44
330.43	443.44
330.658	474.44
330.887	506.44
331.115	500.44
331.344	441.44
331.572	425.44
331.801	443.44
332.03	424.44
332.258	415.44
332.486	430.44
332.715	418.44
332.943	436.44
333.172	425.44
333.4	439.44
333.629	461.44
333.857	459.44
334.085	461.44
334.314	485.44
334.542	462.44
334.771	492.44
334.999	469.44
335.227	464.44
335.455	441.44
335.684	428.44
335.912	429.44
336.14	423.44
336.369	442.44
336.597	445.44
336.825	447.44
337.053	419.44
337.281	417.44
337.51	431.44
337.738	422.44
337.966	423.44
338.194	418.44
338.422	441.44
338.65	405.44
338.878	413.44
339.106	423.44
339.334	424.44
339.562	417.44
339.79	411.44
340.018	416.44
340.246	422.44
340.474	418.44
340.702	426.44
340.93	410.44
341.158	397.44
341.386	415.44
341.614	405.44
341.842	387.44
342.07	422.44
342.298	381.44
342.526	433.44
342.754	413.44
342.981	425.44
343.209	394.44
343.437	405.44
343.665	435.44
343.893	437.44
344.12	460.44
344.348	444.44
344.576	437.44
344.804	427.44
345.031	438.44
345.259	443.44
345.487	412.44
345.714	418.44
345.942	414.44
346.17	415.44
346.397	396.44
346.625	403.44
346.853	395.44
347.08	394.44
347.308	391.44
347.535	414.44
347.763	403.44
347.99	398.44
348.218	412.44
348.445	397.44
348.673	406.44
348.9	387.44
349.128	379.44
349.355	385.44
349.583	402.44
349.81	418.44
350.037	397.44
350.265	391.44
350.492	397.44
350.72	383.44
350.947	389.44
351.174	417.44
351.402	392.44
351.629	398.44
351.856	409.44
352.083	409.44
352.311	408.44
352.538	421.44
352.765	404.44
352.992	406.44
353.22	399.44
353.447	361.44
353.674	393.44
353.901	391.44
354.128	411.44
354.355	387.44
354.583	411.44
354.81	383.44
355.037	398.44
355.264	377.44
355.491	369.44
355.718	391.44
355.945	385.44
356.172	388.44
356.399	397.44
356.626	384.44
356.853	383.44
357.08	374.44
357.307	390.44
357.534	370.44
357.761	388.44
357.988	397.44
358.215	393.44
358.441	412.44
358.668	387.44
358.895	387.44
359.122	421.44
359.349	389.44
359.576	391.44
359.802	406.44
360.029	443.44
360.256	442.44
360.483	426.44
360.709	406.44
360.936	421.44
361.163	414.44
361.39	414.44
361.616	430.44
361.843	411.44
362.07	408.44
362.296	397.44
362.523	418.44
362.749	386.44
362.976	390.44
363.203	402.44
363.429	384.44
363.656	429.44
363.882	384.44
364.109	393.44
364.335	411.44
364.562	400.44
364.788	393.44
365.015	417.44
365.241	400.44
365.468	399.44
365.694	407.44
365.92	420.44
366.147	409.44
366.373	404.44
366.599	398.44
366.826	406.44
367.052	384.44
367.278	396.44
367.505	391.44
367.731	399.44
367.957	397.44
368.184	373.44
368.41	386.44
368.636	403.44
368.862	407.44
369.089	407.44
369.315	392.44
369.541	405.44
369.767	394.44
369.993	411.44
370.219	389.44
370.445	407.44
370.672	413.44
370.898	402.44
371.124	429.44
371.35	398.44
371.576	418.44
371.802	403.44
372.028	397.44
372.254	403.44
372.48	407.44
372.706	409.44
372.932	436.44
373.158	395.44
373.384	406.44
373.61	415.44
373.835	405.44
374.061	422.44
374.287	435.44
374.513	431.44
374.739	435.44
374.965	435.44
375.191	410.44
375.416	421.44
375.642	424.44
375.868	424.44
376.094	415.44
376.319	420.44
376.545	410.44
376.771	414.44
376.997	432.44
377.222	423.44
377.448	412.44
377.674	417.44
377.899	409.44
378.125	421.44
378.35	404.44
378.576	408.44
378.802	410.44
379.027	426.44
379.253	427.44
379.478	400.44
379.704	424.44
379.929	427.44
380.155	398.44
380.38	407.44
380.606	398.44
380.831	429.44
381.057	417.44
381.282	419.44
381.507	398.44
381.733	409.44
381.958	408.44
382.184	413.44
382.409	420.44
382.634	436.44
382.86	421.44
383.085	442.44
383.31	439.44
383.535	444.44
383.761	439.44
383.986	449.44
384.211	459.44
384.436	449.44
384.662	435.44
384.887	450.44
385.112	463.44
385.337	454.44
385.562	491.44
385.787	462.44
386.013	483.44
386.238	487.44
386.463	474.44
386.688	478.44
386.913	461.44
387.138	475.44
387.363	461.44
387.588	481.44
387.813	456.44
388.038	448.44
388.263	482.44
388.488	474.44
388.713	467.44
388.938	445.44
389.163	475.44
389.387	465.44
389.612	475.44
389.837	469.44
390.062	450.44
390.287	460.44
390.512	464.44
390.736	481.44
390.961	493.44
391.186	469.44
391.411	479.44
391.636	469.44
391.86	488.44
392.085	503.44
392.31	481.44
392.534	477.44
392.759	494.44
392.984	484.44
393.208	441.44
393.433	474.44
393.658	458.44
393.882	437.44
394.107	462.44
394.331	473.44
394.556	467.44
394.78	476.44
395.005	488.44
395.229	486.44
395.454	471.44
395.678	487.44
395.903	490.44
396.127	526.44
396.352	522.44
396.576	490.44
396.801	504.44
397.025	478.44
397.249	499.44
397.474	513.44
397.698	473.44
397.922	516.44
398.147	515.44
398.371	541.44
398.595	503.44
398.82	559.44
399.044	573.44
399.268	583.44
399.492	614.44
399.717	671.44
399.941	695.44
400.165	685.44
400.389	681.44
400.613	605.44
400.837	579.44
401.062	550.44
401.286	556.44
401.51	539.44
401.734	556.44
401.958	553.44
402.182	545.44
402.406	552.44
402.63	546.44
402.854	577.44
403.078	553.44
403.302	542.44
403.526	571.44
403.75	572.44
403.974	579.44
404.198	567.44
404.422	566.44
404.645	582.44
404.869	586.44
405.093	610.44
405.317	631.44
405.541	653.44
405.765	622.44
405.988	571.44
406.212	568.44
406.436	604.44
406.66	586.44
406.883	598.44
407.107	647.44
407.331	672.44
407.555	729.44
407.778	751.44
408.002	691.44
408.226	610.44
408.449	614.44
408.673	609.44
408.896	627.44
409.12	681.44
409.344	649.44
409.567	568.44
409.791	567.44
410.014	557.44
410.238	569.44
410.461	571.44
410.685	579.44
410.908	580.44
411.132	620.44
411.355	652.44
411.578	641.44
411.802	581.44
412.025	578.44
412.249	574.44
412.472	580.44
412.695	598.44
412.919	596.44
413.142	556.44
413.365	561.44
413.589	563.44
413.812	550.44
414.035	529.44
414.258	550.44
414.482	540.44
414.705	558.44
414.928	539.44
415.151	541.44
415.374	548.44
415.597	550.44
415.821	545.44
416.044	542.44
416.267	541.44
416.49	554.44
416.713	525.44
416.936	524.44
417.159	549.44
417.382	535.44
417.605	549.44
417.828	546.44
418.051	559.44
418.274	552.44
418.497	543.44
418.72	535.44
418.943	521.44
419.166	563.44
419.389	587.44
419.611	577.44
419.834	580.44
420.057	558.44
420.28	567.44
420.503	545.44
420.726	544.44
420.948	561.44
421.171	603.44
421.394	613.44
421.617	568.44
421.839	541.44
422.062	537.44
422.285	538.44
422.507	595.44
422.73	687.44
422.953	669.44
423.175	604.44
423.398	574.44
423.621	576.44
423.843	590.44
424.066	596.44
424.288	584.44
424.511	611.44
424.733	645.44
424.956	735.44
425.178	690.44
425.401	656.44
425.623	695.44
425.846	617.44
426.068	578.44
426.291	570.44
426.513	546.44
426.735	569.44
426.958	633.44
427.18	669.44
427.402	805.44
427.625	871.44
427.847	749.44
428.069	661.44
428.292	594.44
428.514	559.44
428.736	561.44
428.958	534.44
429.181	517.44
429.403	500.44
429.625	534.44
429.847	550.44
430.069	604.44
430.292	631.44
430.514	551.44
430.736	523.44
430.958	502.44
431.18	524.44
431.402	516.44
431.624	499.44
431.846	512.44
432.068	514.44
432.29	505.44
432.512	513.44
432.734	518.44
432.956	518.44
433.178	526.44
433.4	538.44
433.622	518.44
433.844	515.44
434.066	499.44
434.287	515.44
434.509	510.44
434.731	527.44
434.953	542.44
435.175	558.44
435.397	564.44
435.618	566.44
435.84	627.44
436.062	656.44
436.284	763.44
436.505	634.44
436.727	563.44
436.949	548.44
437.17	528.44
437.392	546.44
437.614	536.44
437.835	547.44
438.057	620.44
438.278	761.44
438.5	721.44
438.721	809.44
438.943	783.44
439.165	618.44
439.386	581.44
439.608	551.44
439.829	561.44
440.05	602.44
440.272	621.44
440.493	587.44
440.715	558.44
440.936	547.44
441.158	555.44
441.379	536.44
441.6	561.44
441.822	570.44
442.043	601.44
442.264	680.44
442.486	717.44
442.707	643.44
442.928	582.44
443.149	598.44
443.371	612.44
443.592	645.44
443.813	723.44
444.034	806.44
444.255	689.44
444.476	604.44
444.698	607.44
444.919	582.44
445.14	721.44
445.361	655.44
445.582	633.44
445.803	686.44
446.024	754.44
446.245	740.44
446.466	705.44
446.687	609.44
446.908	589.44
447.129	534.44
447.35	517.44
447.571	534.44
447.792	514.44
448.013	513.44
448.234	519.44
448.455	609.44
448.675	665.44
448.896	778.44
449.117	669.44
449.338	636.44
449.559	722.44
449.779	857.44
450	670.44
450.221	561.44
450.442	540.44
450.662	519.44
450.883	517.44
451.104	518.44
451.324	521.44
451.545	501.44
451.766	480.44
451.986	475.44
452.207	479.44
452.428	477.44
452.648	475.44
452.869	470.44
453.089	477.44
453.31	464.44
453.53	467.44
453.751	458.44
453.971	479.44
454.192	478.44
454.412	494.44
454.633	460.44
454.853	470.44
455.073	446.44
455.294	487.44
455.514	533.44
455.734	551.44
455.955	471.44
456.175	457.44
456.395	467.44
456.616	466.44
456.836	434.44
457.056	454.44
457.276	429.44
457.497	458.44
457.717	444.44
457.937	454.44
458.157	458.44
458.377	471.44
458.598	486.44
458.818	526.44
459.038	565.44
459.258	600.44
459.478	545.44
459.698	510.44
459.918	497.44
460.138	515.44
460.358	523.44
460.578	562.44
460.798	530.44
461.018	542.44
461.238	546.44
461.458	535.44
461.678	550.44
461.898	553.44
462.118	534.44
462.338	560.44
462.558	581.44
462.777	597.44
462.997	613.44
463.217	627.44
463.437	621.44
463.657	603.44
463.876	580.44
464.096	583.44
464.316	585.44
464.536	599.44
464.755	583.44
464.975	574.44
465.195	587.44
465.414	590.44
465.634	570.44
465.854	536.44
466.073	527.44
466.293	485.44
466.512	513.44
466.732	515.44
466.951	498.44
467.171	510.44
467.391	497.44
467.61	492.44
467.829	494.44
468.049	527.44
468.268	484.44
468.488	491.44
468.707	501.44
468.927	477.44
469.146	473.44
469.365	481.44
469.585	464.44
469.804	502.44
470.023	514.44
470.243	511.44
470.462	494.44
470.681	512.44
470.901	497.44
471.12	512.44
471.339	527.44
471.558	491.44
471.777	496.44
471.997	477.44
472.216	489.44
472.435	509.44
472.654	496.44
472.873	481.44
473.092	500.44
473.311	479.44
473.53	489.44
473.749	495.44
473.968	533.44
474.187	600.44
474.406	651.44
474.625	537.44
474.844	505.44
475.063	484.44
475.282	521.44
475.501	491.44
475.72	504.44
475.939	498.44
476.158	513.44
476.377	511.44
476.596	509.44
476.814	535.44
477.033	495.44
477.252	546.44
477.471	533.44
477.69	546.44
477.908	545.44
478.127	564.44
478.346	547.44
478.564	582.44
478.783	557.44
479.002	549.44
479.22	597.44
479.439	583.44
479.658	598.44
479.876	598.44
480.095	618.44
480.313	646.44
480.532	613.44
480.751	630.44
480.969	633.44
481.188	627.44
481.406	640.44
481.624	600.44
481.843	584.44
482.061	599.44
482.28	594.44
482.498	584.44
482.717	575.44
482.935	599.44
483.153	590.44
483.372	585.44
483.59	590.44
483.808	569.44
484.027	579.44
484.245	579.44
484.463	579.44
484.681	611.44
484.9	614.44
485.118	607.44
485.336	586.44
485.554	599.44
485.772	632.44
485.99	609.44
486.209	589.44
486.427	607.44
486.645	615.44
486.863	634.44
487.081	630.44
487.299	609.44
487.517	627.44
487.735	622.44
487.953	616.44
488.171	654.44
488.389	650.44
488.607	623.44
488.825	647.44
489.043	658.44
489.261	633.44
489.479	637.44
489.696	621.44
489.914	638.44
490.132	639.44
490.35	669.44
490.568	627.44
490.786	647.44
491.003	682.44
491.221	688.44
491.439	663.44
491.657	709.44
491.874	707.44
492.092	727.44
492.31	704.44
492.527	698.44
492.745	706.44
492.963	727.44
493.18	723.44
493.398	716.44
493.615	742.44
493.833	755.44
494.05	723.44
494.268	716.44
494.485	732.44
494.703	742.44
494.92	746.44
495.138	734.44
495.355	736.44
495.573	724.44
495.79	729.44
496.008	731.44
496.225	757.44
496.442	718.44
496.66	746.44
496.877	734.44
497.094	749.44
497.312	757.44
497.529	786.44
497.746	779.44
497.963	800.44
498.181	796.44
498.398	801.44
498.615	853.44
498.832	867.44
499.049	876.44
499.267	947.44
499.484	964.44
499.701	1003.44
499.918	1053.44
500.135	1122.44
500.352	1196.44
500.569	1221.44
500.786	1167.44
501.003	1199.44
501.22	1170.44
501.437	1079.44
501.654	1039.44
