Data from 1974.PennyLincolnUp.Lamp.En5.5.200Scan.071719.P1.Changed Mount._HRD10591_15-53-33-856.txt Node
Date: Thu Jul 18 15:53:33 EDT 2019
User: cochatt
Spectrometer: HR+D1059
Trigger mode: 1
Integration Time (sec): 1.000000E-1
Scans to average: 1
Electric dark correction enabled: true
Nonlinearity correction enabled: false
Boxcar width: 0
XAxis mode: Wavelengths
Number of Pixels in Spectrum: 2048
>>>>>Begin Spectral Data<<<<<
223.165	-20.75
223.4	-20.75
223.635	-20.75
223.869	-21.75
224.104	-7.75
224.338	-15.75
224.573	-12.75
224.808	-6.75
225.042	-30.75
225.277	9.25
225.511	-3.75
225.746	4.25
225.98	16.25
226.215	9.25
226.449	12.25
226.683	16.25
226.918	34.25
227.152	18.25
227.387	20.25
227.621	28.25
227.856	40.25
228.09	36.25
228.324	48.25
228.559	45.25
228.793	56.25
229.027	86.25
229.262	110.25
229.496	114.25
229.73	138.25
229.964	153.25
230.199	150.25
230.433	126.25
230.667	124.25
230.901	119.25
231.136	99.25
231.37	116.25
231.604	120.25
231.838	115.25
232.072	123.25
232.306	120.25
232.541	121.25
232.775	127.25
233.009	102.25
233.243	120.25
233.477	117.25
233.711	127.25
233.945	135.25
234.179	110.25
234.413	131.25
234.647	104.25
234.881	117.25
235.115	115.25
235.349	139.25
235.583	128.25
235.817	136.25
236.051	130.25
236.285	120.25
236.519	122.25
236.753	115.25
236.987	152.25
237.221	175.25
237.455	240.25
237.689	199.25
237.922	152.25
238.156	147.25
238.39	124.25
238.624	129.25
238.858	133.25
239.091	134.25
239.325	133.25
239.559	140.25
239.793	127.25
240.027	147.25
240.26	133.25
240.494	163.25
240.728	146.25
240.961	170.25
241.195	161.25
241.429	147.25
241.662	135.25
241.896	138.25
242.13	139.25
242.363	140.25
242.597	137.25
242.83	133.25
243.064	151.25
243.298	152.25
243.531	135.25
243.765	139.25
243.998	149.25
244.232	144.25
244.465	140.25
244.699	158.25
244.932	158.25
245.166	145.25
245.399	154.25
245.633	153.25
245.866	172.25
246.099	157.25
246.333	142.25
246.566	152.25
246.8	157.25
247.033	176.25
247.266	170.25
247.5	162.25
247.733	170.25
247.966	178.25
248.2	180.25
248.433	178.25
248.666	180.25
248.899	186.25
249.133	215.25
249.366	201.25
249.599	214.25
249.832	197.25
250.066	196.25
250.299	193.25
250.532	210.25
250.765	214.25
250.998	216.25
251.231	246.25
251.465	224.25
251.698	214.25
251.931	197.25
252.164	215.25
252.397	203.25
252.63	200.25
252.863	220.25
253.096	254.25
253.329	234.25
253.562	229.25
253.795	230.25
254.028	225.25
254.261	240.25
254.494	233.25
254.727	268.25
254.96	299.25
255.193	294.25
255.426	268.25
255.659	244.25
255.892	238.25
256.124	235.25
256.357	242.25
256.59	225.25
256.823	227.25
257.056	224.25
257.289	207.25
257.521	208.25
257.754	235.25
257.987	220.25
258.22	212.25
258.452	217.25
258.685	219.25
258.918	234.25
259.151	233.25
259.383	231.25
259.616	252.25
259.849	232.25
260.081	248.25
260.314	278.25
260.547	278.25
260.779	282.25
261.012	258.25
261.244	223.25
261.477	244.25
261.71	249.25
261.942	218.25
262.175	250.25
262.407	239.25
262.64	247.25
262.872	234.25
263.105	238.25
263.337	241.25
263.57	232.25
263.802	225.25
264.035	222.25
264.267	222.25
264.499	234.25
264.732	238.25
264.964	236.25
265.197	231.25
265.429	238.25
265.661	229.25
265.894	240.25
266.126	231.25
266.358	231.25
266.591	229.25
266.823	234.25
267.055	239.25
267.287	255.25
267.52	244.25
267.752	242.25
267.984	258.25
268.216	259.25
268.448	253.25
268.681	256.25
268.913	271.25
269.145	274.25
269.377	306.25
269.609	283.25
269.841	289.25
270.073	289.25
270.306	309.25
270.538	322.25
270.77	329.25
271.002	308.25
271.234	316.25
271.466	332.25
271.698	324.25
271.93	327.25
272.162	318.25
272.394	326.25
272.626	326.25
272.858	313.25
273.09	286.25
273.322	296.25
273.553	289.25
273.785	272.25
274.017	274.25
274.249	287.25
274.481	288.25
274.713	274.25
274.945	293.25
275.176	304.25
275.408	293.25
275.64	280.25
275.872	278.25
276.104	291.25
276.335	281.25
276.567	291.25
276.799	316.25
277.031	318.25
277.262	339.25
277.494	333.25
277.726	318.25
277.957	306.25
278.189	296.25
278.421	286.25
278.652	277.25
278.884	281.25
279.115	282.25
279.347	300.25
279.579	300.25
279.81	290.25
280.042	271.25
280.273	273.25
280.505	292.25
280.736	279.25
280.968	314.25
281.199	282.25
281.431	295.25
281.662	283.25
281.894	289.25
282.125	298.25
282.356	289.25
282.588	280.25
282.819	316.25
283.051	296.25
283.282	296.25
283.513	323.25
283.745	294.25
283.976	302.25
284.207	314.25
284.439	318.25
284.67	314.25
284.901	297.25
285.132	299.25
285.364	321.25
285.595	300.25
285.826	297.25
286.057	312.25
286.288	299.25
286.52	298.25
286.751	313.25
286.982	292.25
287.213	312.25
287.444	302.25
287.675	306.25
287.906	325.25
288.138	314.25
288.369	323.25
288.6	313.25
288.831	334.25
289.062	334.25
289.293	317.25
289.524	312.25
289.755	313.25
289.986	314.25
290.217	300.25
290.448	295.25
290.679	318.25
290.91	314.25
291.141	316.25
291.371	312.25
291.602	321.25
291.833	319.25
292.064	314.25
292.295	327.25
292.526	306.25
292.757	324.25
292.987	306.25
293.218	302.25
293.449	310.25
293.68	317.25
293.91	319.25
294.141	322.25
294.372	303.25
294.603	329.25
294.833	304.25
295.064	315.25
295.295	328.25
295.525	303.25
295.756	315.25
295.987	326.25
296.217	331.25
296.448	354.25
296.679	320.25
296.909	336.25
297.14	330.25
297.37	340.25
297.601	343.25
297.831	335.25
298.062	338.25
298.292	337.25
298.523	337.25
298.753	338.25
298.984	334.25
299.214	347.25
299.445	334.25
299.675	343.25
299.905	332.25
300.136	343.25
300.366	340.25
300.597	360.25
300.827	348.25
301.057	354.25
301.288	359.25
301.518	346.25
301.748	366.25
301.979	355.25
302.209	363.25
302.439	362.25
302.669	353.25
302.9	367.25
303.13	356.25
303.36	348.25
303.59	366.25
303.82	358.25
304.051	369.25
304.281	370.25
304.511	346.25
304.741	371.25
304.971	359.25
305.201	373.25
305.431	358.25
305.661	360.25
305.891	343.25
306.121	339.25
306.352	345.25
306.582	373.25
306.812	356.25
307.042	366.25
307.272	362.25
307.502	360.25
307.731	335.25
307.961	372.25
308.191	376.25
308.421	356.25
308.651	391.25
308.881	364.25
309.111	371.25
309.341	352.25
309.571	378.25
309.8	388.25
310.03	376.25
310.26	385.25
310.49	392.25
310.72	391.25
310.949	391.25
311.179	421.25
311.409	398.25
311.639	382.25
311.868	403.25
312.098	400.25
312.328	403.25
312.557	415.25
312.787	449.25
313.017	436.25
313.246	404.25
313.476	400.25
313.706	399.25
313.935	440.25
314.165	412.25
314.394	420.25
314.624	433.25
314.853	426.25
315.083	418.25
315.312	403.25
315.542	404.25
315.771	402.25
316.001	403.25
316.23	400.25
316.46	413.25
316.689	400.25
316.919	400.25
317.148	417.25
317.377	431.25
317.607	414.25
317.836	400.25
318.065	412.25
318.295	396.25
318.524	397.25
318.753	408.25
318.983	394.25
319.212	423.25
319.441	412.25
319.67	405.25
319.9	404.25
320.129	406.25
320.358	424.25
320.587	416.25
320.816	418.25
321.046	415.25
321.275	422.25
321.504	409.25
321.733	426.25
321.962	419.25
322.191	429.25
322.42	436.25
322.649	462.25
322.878	479.25
323.108	471.25
323.337	473.25
323.566	486.25
323.795	524.25
324.024	543.25
324.253	625.25
324.482	861.25
324.71	1278.25
324.939	1942.25
325.168	1722.25
325.397	872.25
325.626	632.25
325.855	528.25
326.084	527.25
326.313	511.25
326.542	493.25
326.77	534.25
326.999	622.25
327.228	808.25
327.457	1203.25
327.686	1461.25
327.914	1001.25
328.143	678.25
328.372	615.25
328.6	564.25
328.829	549.25
329.058	558.25
329.287	567.25
329.515	555.25
329.744	529.25
329.972	500.25
330.201	532.25
330.43	554.25
330.658	588.25
330.887	606.25
331.115	607.25
331.344	544.25
331.572	528.25
331.801	503.25
332.03	506.25
332.258	512.25
332.486	504.25
332.715	487.25
332.943	503.25
333.172	509.25
333.4	512.25
333.629	521.25
333.857	520.25
334.085	547.25
334.314	562.25
334.542	566.25
334.771	569.25
334.999	539.25
335.227	524.25
335.455	512.25
335.684	489.25
335.912	487.25
336.14	504.25
336.369	492.25
336.597	478.25
336.825	515.25
337.053	487.25
337.281	498.25
337.51	486.25
337.738	485.25
337.966	488.25
338.194	487.25
338.422	483.25
338.65	482.25
338.878	471.25
339.106	449.25
339.334	469.25
339.562	466.25
339.79	457.25
340.018	476.25
340.246	474.25
340.474	465.25
340.702	475.25
340.93	459.25
341.158	449.25
341.386	465.25
341.614	483.25
341.842	472.25
342.07	467.25
342.298	446.25
342.526	449.25
342.754	465.25
342.981	445.25
343.209	466.25
343.437	499.25
343.665	503.25
343.893	477.25
344.12	498.25
344.348	486.25
344.576	479.25
344.804	498.25
345.031	487.25
345.259	494.25
345.487	474.25
345.714	483.25
345.942	466.25
346.17	456.25
346.397	475.25
346.625	473.25
346.853	468.25
347.08	454.25
347.308	442.25
347.535	474.25
347.763	459.25
347.99	460.25
348.218	454.25
348.445	462.25
348.673	454.25
348.9	445.25
349.128	465.25
349.355	451.25
349.583	452.25
349.81	446.25
350.037	456.25
350.265	457.25
350.492	436.25
350.72	426.25
350.947	458.25
351.174	448.25
351.402	472.25
351.629	452.25
351.856	458.25
352.083	460.25
352.311	459.25
352.538	467.25
352.765	462.25
352.992	461.25
353.22	462.25
353.447	428.25
353.674	448.25
353.901	442.25
354.128	437.25
354.355	446.25
354.583	452.25
354.81	419.25
355.037	429.25
355.264	428.25
355.491	432.25
355.718	443.25
355.945	399.25
356.172	420.25
356.399	431.25
356.626	420.25
356.853	442.25
357.08	433.25
357.307	461.25
357.534	419.25
357.761	432.25
357.988	442.25
358.215	434.25
358.441	442.25
358.668	424.25
358.895	440.25
359.122	444.25
359.349	444.25
359.576	449.25
359.802	451.25
360.029	483.25
360.256	500.25
360.483	457.25
360.709	453.25
360.936	448.25
361.163	449.25
361.39	454.25
361.616	457.25
361.843	451.25
362.07	451.25
362.296	445.25
362.523	469.25
362.749	437.25
362.976	432.25
363.203	444.25
363.429	442.25
363.656	461.25
363.882	456.25
364.109	426.25
364.335	434.25
364.562	440.25
364.788	444.25
365.015	457.25
365.241	442.25
365.468	447.25
365.694	448.25
365.92	431.25
366.147	431.25
366.373	442.25
366.599	434.25
366.826	450.25
367.052	433.25
367.278	443.25
367.505	431.25
367.731	452.25
367.957	431.25
368.184	436.25
368.41	462.25
368.636	460.25
368.862	454.25
369.089	453.25
369.315	461.25
369.541	436.25
369.767	450.25
369.993	445.25
370.219	438.25
370.445	459.25
370.672	431.25
370.898	445.25
371.124	446.25
371.35	444.25
371.576	459.25
371.802	450.25
372.028	420.25
372.254	456.25
372.48	474.25
372.706	452.25
372.932	454.25
373.158	460.25
373.384	465.25
373.61	457.25
373.835	455.25
374.061	455.25
374.287	466.25
374.513	473.25
374.739	456.25
374.965	487.25
375.191	498.25
375.416	472.25
375.642	472.25
375.868	452.25
376.094	455.25
376.319	466.25
376.545	456.25
376.771	452.25
376.997	450.25
377.222	461.25
377.448	453.25
377.674	447.25
377.899	438.25
378.125	447.25
378.35	455.25
378.576	452.25
378.802	459.25
379.027	449.25
379.253	440.25
379.478	427.25
379.704	448.25
379.929	445.25
380.155	472.25
380.38	472.25
380.606	435.25
380.831	460.25
381.057	475.25
381.282	474.25
381.507	452.25
381.733	469.25
381.958	454.25
382.184	465.25
382.409	467.25
382.634	464.25
382.86	491.25
383.085	471.25
383.31	484.25
383.535	486.25
383.761	487.25
383.986	494.25
384.211	466.25
384.436	494.25
384.662	496.25
384.887	483.25
385.112	478.25
385.337	488.25
385.562	510.25
385.787	504.25
386.013	533.25
386.238	525.25
386.463	537.25
386.688	507.25
386.913	515.25
387.138	528.25
387.363	499.25
387.588	510.25
387.813	505.25
388.038	480.25
388.263	520.25
388.488	514.25
388.713	491.25
388.938	510.25
389.163	516.25
389.387	534.25
389.612	490.25
389.837	512.25
390.062	500.25
390.287	516.25
390.512	517.25
390.736	530.25
390.961	512.25
391.186	507.25
391.411	527.25
391.636	516.25
391.86	539.25
392.085	545.25
392.31	535.25
392.534	516.25
392.759	533.25
392.984	529.25
393.208	532.25
393.433	508.25
393.658	498.25
393.882	506.25
394.107	535.25
394.331	523.25
394.556	512.25
394.78	511.25
395.005	520.25
395.229	527.25
395.454	522.25
395.678	544.25
395.903	554.25
396.127	565.25
396.352	562.25
396.576	530.25
396.801	538.25
397.025	540.25
397.249	538.25
397.474	528.25
397.698	565.25
397.922	560.25
398.147	584.25
398.371	582.25
398.595	605.25
398.82	593.25
399.044	596.25
399.268	634.25
399.492	679.25
399.717	719.25
399.941	755.25
400.165	767.25
400.389	744.25
400.613	673.25
400.837	619.25
401.062	622.25
401.286	603.25
401.51	575.25
401.734	590.25
401.958	610.25
402.182	623.25
402.406	607.25
402.63	602.25
402.854	588.25
403.078	596.25
403.302	634.25
403.526	622.25
403.75	629.25
403.974	640.25
404.198	632.25
404.422	628.25
404.645	635.25
404.869	633.25
405.093	653.25
405.317	700.25
405.541	750.25
405.765	675.25
405.988	654.25
406.212	662.25
406.436	662.25
406.66	702.25
406.883	673.25
407.107	697.25
407.331	751.25
407.555	816.25
407.778	818.25
408.002	756.25
408.226	695.25
408.449	670.25
408.673	667.25
408.896	711.25
409.12	763.25
409.344	730.25
409.567	678.25
409.791	641.25
410.014	620.25
410.238	642.25
410.461	615.25
410.685	619.25
410.908	650.25
411.132	670.25
411.355	708.25
411.578	672.25
411.802	649.25
412.025	605.25
412.249	625.25
412.472	649.25
412.695	706.25
412.919	656.25
413.142	645.25
413.365	610.25
413.589	629.25
413.812	596.25
414.035	604.25
414.258	590.25
414.482	591.25
414.705	582.25
414.928	609.25
415.151	606.25
415.374	556.25
415.597	615.25
415.821	581.25
416.044	595.25
416.267	576.25
416.49	570.25
416.713	558.25
416.936	573.25
417.159	585.25
417.382	598.25
417.605	586.25
417.828	603.25
418.051	614.25
418.274	603.25
418.497	619.25
418.72	598.25
418.943	593.25
419.166	607.25
419.389	648.25
419.611	626.25
419.834	612.25
420.057	620.25
420.28	648.25
420.503	624.25
420.726	613.25
420.948	630.25
421.171	680.25
421.394	708.25
421.617	631.25
421.839	616.25
422.062	618.25
422.285	637.25
422.507	684.25
422.73	767.25
422.953	746.25
423.175	665.25
423.398	639.25
423.621	650.25
423.843	660.25
424.066	676.25
424.288	674.25
424.511	669.25
424.733	739.25
424.956	794.25
425.178	775.25
425.401	790.25
425.623	816.25
425.846	698.25
426.068	668.25
426.291	666.25
426.513	659.25
426.735	658.25
426.958	696.25
427.18	795.25
427.402	902.25
427.625	964.25
427.847	857.25
428.069	757.25
428.292	702.25
428.514	633.25
428.736	634.25
428.958	641.25
429.181	603.25
429.403	599.25
429.625	598.25
429.847	613.25
430.069	706.25
430.292	713.25
430.514	644.25
430.736	600.25
430.958	588.25
431.18	580.25
431.402	561.25
431.624	577.25
431.846	572.25
432.068	564.25
432.29	576.25
432.512	580.25
432.734	571.25
432.956	583.25
433.178	602.25
433.4	590.25
433.622	569.25
433.844	568.25
434.066	576.25
434.287	576.25
434.509	585.25
434.731	599.25
434.953	593.25
435.175	626.25
435.397	644.25
435.618	630.25
435.84	678.25
436.062	794.25
436.284	857.25
436.505	702.25
436.727	660.25
436.949	626.25
437.17	606.25
437.392	595.25
437.614	597.25
437.835	647.25
438.057	747.25
438.278	831.25
438.5	837.25
438.721	912.25
438.943	891.25
439.165	686.25
439.386	658.25
439.608	636.25
439.829	620.25
440.05	681.25
440.272	727.25
440.493	670.25
440.715	622.25
440.936	601.25
441.158	635.25
441.379	617.25
441.6	659.25
441.822	658.25
442.043	694.25
442.264	778.25
442.486	839.25
442.707	714.25
442.928	679.25
443.149	658.25
443.371	708.25
443.592	762.25
443.813	838.25
444.034	913.25
444.255	760.25
444.476	692.25
444.698	668.25
444.919	663.25
445.14	772.25
445.361	720.25
445.582	708.25
445.803	736.25
446.024	855.25
446.245	900.25
446.466	778.25
446.687	684.25
446.908	640.25
447.129	598.25
447.35	588.25
447.571	598.25
447.792	592.25
448.013	608.25
448.234	617.25
448.455	652.25
448.675	779.25
448.896	894.25
449.117	773.25
449.338	736.25
449.559	831.25
449.779	950.25
450	766.25
450.221	631.25
450.442	594.25
450.662	576.25
450.883	585.25
451.104	594.25
451.324	598.25
451.545	563.25
451.766	536.25
451.986	548.25
452.207	536.25
452.428	527.25
452.648	554.25
452.869	555.25
453.089	553.25
453.31	554.25
453.53	534.25
453.751	535.25
453.971	525.25
454.192	559.25
454.412	532.25
454.633	518.25
454.853	495.25
455.073	539.25
455.294	570.25
455.514	645.25
455.734	620.25
455.955	518.25
456.175	514.25
456.395	483.25
456.616	512.25
456.836	491.25
457.056	503.25
457.276	490.25
457.497	494.25
457.717	500.25
457.937	504.25
458.157	497.25
458.377	526.25
458.598	533.25
458.818	588.25
459.038	634.25
459.258	703.25
459.478	614.25
459.698	589.25
459.918	577.25
460.138	564.25
460.358	577.25
460.578	608.25
460.798	572.25
461.018	607.25
461.238	607.25
461.458	589.25
461.678	580.25
461.898	596.25
462.118	626.25
462.338	638.25
462.558	614.25
462.777	619.25
462.997	667.25
463.217	674.25
463.437	688.25
463.657	671.25
463.876	650.25
464.096	652.25
464.316	637.25
464.536	633.25
464.755	634.25
464.975	643.25
465.195	663.25
465.414	690.25
465.634	658.25
465.854	596.25
466.073	596.25
466.293	567.25
466.512	560.25
466.732	545.25
466.951	565.25
467.171	556.25
467.391	561.25
467.61	548.25
467.829	568.25
468.049	569.25
468.268	547.25
468.488	538.25
468.707	535.25
468.927	542.25
469.146	538.25
469.365	534.25
469.585	534.25
469.804	551.25
470.023	539.25
470.243	536.25
470.462	567.25
470.681	579.25
470.901	569.25
471.12	586.25
471.339	566.25
471.558	552.25
471.777	548.25
471.997	548.25
472.216	575.25
472.435	582.25
472.654	583.25
472.873	544.25
473.092	555.25
473.311	546.25
473.53	534.25
473.749	553.25
473.968	599.25
474.187	720.25
474.406	726.25
474.625	626.25
474.844	582.25
475.063	579.25
475.282	574.25
475.501	538.25
475.72	555.25
475.939	556.25
476.158	549.25
476.377	578.25
476.596	582.25
476.814	592.25
477.033	586.25
477.252	583.25
477.471	592.25
477.69	607.25
477.908	614.25
478.127	590.25
478.346	627.25
478.564	615.25
478.783	638.25
479.002	660.25
479.22	663.25
479.439	676.25
479.658	663.25
479.876	659.25
480.095	674.25
480.313	722.25
480.532	695.25
480.751	686.25
480.969	695.25
481.188	714.25
481.406	754.25
481.624	689.25
481.843	663.25
482.061	666.25
482.28	667.25
482.498	648.25
482.717	642.25
482.935	657.25
483.153	680.25
483.372	650.25
483.59	664.25
483.808	670.25
484.027	642.25
484.245	636.25
484.463	648.25
484.681	683.25
484.9	656.25
485.118	676.25
485.336	652.25
485.554	672.25
485.772	686.25
485.99	674.25
486.209	667.25
486.427	674.25
486.645	710.25
486.863	696.25
487.081	689.25
487.299	696.25
487.517	702.25
487.735	698.25
487.953	698.25
488.171	709.25
488.389	690.25
488.607	682.25
488.825	672.25
489.043	691.25
489.261	692.25
489.479	707.25
489.696	691.25
489.914	740.25
490.132	739.25
490.35	741.25
490.568	754.25
490.786	766.25
491.003	767.25
491.221	759.25
491.439	804.25
491.657	810.25
491.874	798.25
492.092	798.25
492.31	810.25
492.527	833.25
492.745	795.25
492.963	811.25
493.18	820.25
493.398	822.25
493.615	836.25
493.833	834.25
494.05	842.25
494.268	841.25
494.485	825.25
494.703	844.25
494.92	821.25
495.138	815.25
495.355	833.25
495.573	832.25
495.79	843.25
496.008	842.25
496.225	830.25
496.442	838.25
496.66	850.25
496.877	852.25
497.094	862.25
497.312	878.25
497.529	859.25
497.746	866.25
497.963	902.25
498.181	912.25
498.398	899.25
498.615	936.25
498.832	988.25
499.049	1012.25
499.267	1014.25
499.484	1028.25
499.701	1119.25
499.918	1185.25
500.135	1231.25
500.352	1305.25
500.569	1309.25
500.786	1339.25
501.003	1336.25
501.22	1275.25
501.437	1176.25
501.654	1121.25
