Data from 1974.PennyLincolnUp.Lamp.En5.5.200Scan.071719.P1.Changed Mount._HRD10591_15-51-16-856.txt Node
Date: Thu Jul 18 15:51:16 EDT 2019
User: cochatt
Spectrometer: HR+D1059
Trigger mode: 1
Integration Time (sec): 1.000000E-1
Scans to average: 1
Electric dark correction enabled: true
Nonlinearity correction enabled: false
Boxcar width: 0
XAxis mode: Wavelengths
Number of Pixels in Spectrum: 2048
>>>>>Begin Spectral Data<<<<<
223.165	-5.75
223.4	-5.75
223.635	-5.75
223.869	-26.75
224.104	-18.75
224.338	-21.75
224.573	-14.75
224.808	-13.75
225.042	-7.75
225.277	-6.75
225.511	-5.75
225.746	0.25
225.98	23.25
226.215	21.25
226.449	16.25
226.683	14.25
226.918	18.25
227.152	28.25
227.387	46.25
227.621	37.25
227.856	43.25
228.09	31.25
228.324	50.25
228.559	53.25
228.793	69.25
229.027	94.25
229.262	103.25
229.496	97.25
229.73	117.25
229.964	134.25
230.199	101.25
230.433	109.25
230.667	96.25
230.901	97.25
231.136	104.25
231.37	109.25
231.604	104.25
231.838	110.25
232.072	108.25
232.306	116.25
232.541	91.25
232.775	112.25
233.009	107.25
233.243	115.25
233.477	103.25
233.711	121.25
233.945	116.25
234.179	109.25
234.413	109.25
234.647	120.25
234.881	119.25
235.115	114.25
235.349	110.25
235.583	102.25
235.817	123.25
236.051	114.25
236.285	121.25
236.519	113.25
236.753	124.25
236.987	112.25
237.221	156.25
237.455	198.25
237.689	179.25
237.922	143.25
238.156	113.25
238.39	129.25
238.624	121.25
238.858	109.25
239.091	115.25
239.325	128.25
239.559	115.25
239.793	114.25
240.027	118.25
240.26	145.25
240.494	146.25
240.728	138.25
240.961	143.25
241.195	134.25
241.429	137.25
241.662	132.25
241.896	129.25
242.13	122.25
242.363	133.25
242.597	123.25
242.83	136.25
243.064	138.25
243.298	135.25
243.531	122.25
243.765	131.25
243.998	141.25
244.232	125.25
244.465	137.25
244.699	134.25
244.932	137.25
245.166	139.25
245.399	145.25
245.633	139.25
245.866	141.25
246.099	143.25
246.333	139.25
246.566	145.25
246.8	146.25
247.033	134.25
247.266	150.25
247.5	152.25
247.733	135.25
247.966	160.25
248.2	180.25
248.433	160.25
248.666	156.25
248.899	165.25
249.133	185.25
249.366	179.25
249.599	168.25
249.832	159.25
250.066	171.25
250.299	177.25
250.532	175.25
250.765	180.25
250.998	205.25
251.231	217.25
251.465	189.25
251.698	183.25
251.931	194.25
252.164	185.25
252.397	193.25
252.63	191.25
252.863	194.25
253.096	198.25
253.329	203.25
253.562	199.25
253.795	210.25
254.028	194.25
254.261	211.25
254.494	226.25
254.727	233.25
254.96	231.25
255.193	240.25
255.426	226.25
255.659	207.25
255.892	210.25
256.124	201.25
256.357	196.25
256.59	210.25
256.823	191.25
257.056	203.25
257.289	198.25
257.521	190.25
257.754	185.25
257.987	198.25
258.22	197.25
258.452	181.25
258.685	209.25
258.918	202.25
259.151	187.25
259.383	200.25
259.616	192.25
259.849	207.25
260.081	203.25
260.314	229.25
260.547	241.25
260.779	233.25
261.012	225.25
261.244	220.25
261.477	209.25
261.71	194.25
261.942	209.25
262.175	212.25
262.407	198.25
262.64	200.25
262.872	190.25
263.105	191.25
263.337	198.25
263.57	208.25
263.802	208.25
264.035	211.25
264.267	205.25
264.499	193.25
264.732	208.25
264.964	208.25
265.197	192.25
265.429	212.25
265.661	190.25
265.894	194.25
266.126	193.25
266.358	226.25
266.591	199.25
266.823	204.25
267.055	205.25
267.287	225.25
267.52	227.25
267.752	212.25
267.984	224.25
268.216	222.25
268.448	226.25
268.681	222.25
268.913	222.25
269.145	254.25
269.377	264.25
269.609	266.25
269.841	257.25
270.073	244.25
270.306	234.25
270.538	263.25
270.77	289.25
271.002	257.25
271.234	265.25
271.466	267.25
271.698	277.25
271.93	271.25
272.162	269.25
272.394	249.25
272.626	274.25
272.858	257.25
273.09	247.25
273.322	230.25
273.553	231.25
273.785	242.25
274.017	237.25
274.249	239.25
274.481	250.25
274.713	239.25
274.945	254.25
275.176	252.25
275.408	251.25
275.64	243.25
275.872	243.25
276.104	245.25
276.335	239.25
276.567	232.25
276.799	269.25
277.031	265.25
277.262	287.25
277.494	288.25
277.726	288.25
277.957	274.25
278.189	265.25
278.421	273.25
278.652	261.25
278.884	264.25
279.115	245.25
279.347	255.25
279.579	241.25
279.81	256.25
280.042	254.25
280.273	256.25
280.505	271.25
280.736	253.25
280.968	266.25
281.199	243.25
281.431	262.25
281.662	275.25
281.894	251.25
282.125	259.25
282.356	283.25
282.588	276.25
282.819	282.25
283.051	263.25
283.282	267.25
283.513	262.25
283.745	280.25
283.976	264.25
284.207	273.25
284.439	262.25
284.67	269.25
284.901	277.25
285.132	265.25
285.364	249.25
285.595	264.25
285.826	271.25
286.057	269.25
286.288	271.25
286.52	273.25
286.751	281.25
286.982	273.25
287.213	279.25
287.444	292.25
287.675	292.25
287.906	280.25
288.138	279.25
288.369	284.25
288.6	278.25
288.831	264.25
289.062	291.25
289.293	277.25
289.524	283.25
289.755	273.25
289.986	289.25
290.217	275.25
290.448	280.25
290.679	290.25
290.91	289.25
291.141	280.25
291.371	288.25
291.602	270.25
291.833	278.25
292.064	275.25
292.295	262.25
292.526	273.25
292.757	280.25
292.987	284.25
293.218	281.25
293.449	277.25
293.68	268.25
293.91	279.25
294.141	283.25
294.372	271.25
294.603	274.25
294.833	270.25
295.064	289.25
295.295	274.25
295.525	289.25
295.756	276.25
295.987	290.25
296.217	297.25
296.448	304.25
296.679	285.25
296.909	297.25
297.14	292.25
297.37	286.25
297.601	293.25
297.831	287.25
298.062	283.25
298.292	282.25
298.523	296.25
298.753	286.25
298.984	307.25
299.214	287.25
299.445	290.25
299.675	303.25
299.905	283.25
300.136	294.25
300.366	295.25
300.597	304.25
300.827	320.25
301.057	313.25
301.288	308.25
301.518	306.25
301.748	313.25
301.979	305.25
302.209	314.25
302.439	320.25
302.669	304.25
302.9	311.25
303.13	310.25
303.36	324.25
303.59	329.25
303.82	329.25
304.051	334.25
304.281	303.25
304.511	315.25
304.741	316.25
304.971	311.25
305.201	314.25
305.431	294.25
305.661	314.25
305.891	298.25
306.121	314.25
306.352	319.25
306.582	301.25
306.812	316.25
307.042	296.25
307.272	309.25
307.502	309.25
307.731	329.25
307.961	334.25
308.191	324.25
308.421	315.25
308.651	327.25
308.881	328.25
309.111	329.25
309.341	317.25
309.571	315.25
309.8	328.25
310.03	329.25
310.26	324.25
310.49	322.25
310.72	339.25
310.949	345.25
311.179	357.25
311.409	328.25
311.639	347.25
311.868	347.25
312.098	345.25
312.328	347.25
312.557	346.25
312.787	358.25
313.017	356.25
313.246	336.25
313.476	341.25
313.706	341.25
313.935	341.25
314.165	345.25
314.394	365.25
314.624	359.25
314.853	350.25
315.083	352.25
315.312	337.25
315.542	334.25
315.771	353.25
316.001	344.25
316.23	355.25
316.46	342.25
316.689	351.25
316.919	327.25
317.148	352.25
317.377	377.25
317.607	342.25
317.836	371.25
318.065	351.25
318.295	360.25
318.524	358.25
318.753	354.25
318.983	364.25
319.212	360.25
319.441	363.25
319.67	363.25
319.9	354.25
320.129	353.25
320.358	340.25
320.587	336.25
320.816	344.25
321.046	366.25
321.275	374.25
321.504	359.25
321.733	362.25
321.962	374.25
322.191	373.25
322.42	378.25
322.649	377.25
322.878	374.25
323.108	367.25
323.337	402.25
323.566	405.25
323.795	420.25
324.024	468.25
324.253	495.25
324.482	660.25
324.71	964.25
324.939	1449.25
325.168	1249.25
325.397	638.25
325.626	473.25
325.855	421.25
326.084	426.25
326.313	415.25
326.542	406.25
326.77	448.25
326.999	474.25
327.228	627.25
327.457	861.25
327.686	1117.25
327.914	729.25
328.143	508.25
328.372	476.25
328.6	438.25
328.829	452.25
329.058	449.25
329.287	461.25
329.515	456.25
329.744	417.25
329.972	417.25
330.201	406.25
330.43	465.25
330.658	438.25
330.887	459.25
331.115	467.25
331.344	441.25
331.572	434.25
331.801	423.25
332.03	407.25
332.258	411.25
332.486	431.25
332.715	422.25
332.943	409.25
333.172	436.25
333.4	429.25
333.629	420.25
333.857	453.25
334.085	459.25
334.314	456.25
334.542	451.25
334.771	470.25
334.999	450.25
335.227	452.25
335.455	437.25
335.684	446.25
335.912	425.25
336.14	437.25
336.369	412.25
336.597	427.25
336.825	423.25
337.053	429.25
337.281	425.25
337.51	411.25
337.738	414.25
337.966	407.25
338.194	393.25
338.422	410.25
338.65	404.25
338.878	406.25
339.106	396.25
339.334	421.25
339.562	405.25
339.79	406.25
340.018	406.25
340.246	390.25
340.474	393.25
340.702	425.25
340.93	407.25
341.158	405.25
341.386	404.25
341.614	430.25
341.842	394.25
342.07	405.25
342.298	382.25
342.526	409.25
342.754	411.25
342.981	388.25
343.209	411.25
343.437	410.25
343.665	412.25
343.893	450.25
344.12	423.25
344.348	436.25
344.576	433.25
344.804	423.25
345.031	423.25
345.259	438.25
345.487	400.25
345.714	407.25
345.942	407.25
346.17	408.25
346.397	399.25
346.625	387.25
346.853	383.25
347.08	371.25
347.308	380.25
347.535	385.25
347.763	392.25
347.99	406.25
348.218	381.25
348.445	405.25
348.673	409.25
348.9	376.25
349.128	387.25
349.355	411.25
349.583	393.25
349.81	401.25
350.037	398.25
350.265	385.25
350.492	403.25
350.72	377.25
350.947	365.25
351.174	381.25
351.402	403.25
351.629	346.25
351.856	391.25
352.083	389.25
352.311	396.25
352.538	406.25
352.765	395.25
352.992	383.25
353.22	402.25
353.447	383.25
353.674	380.25
353.901	385.25
354.128	386.25
354.355	369.25
354.583	374.25
354.81	382.25
355.037	366.25
355.264	383.25
355.491	366.25
355.718	382.25
355.945	372.25
356.172	372.25
356.399	369.25
356.626	373.25
356.853	374.25
357.08	374.25
357.307	367.25
357.534	369.25
357.761	354.25
357.988	387.25
358.215	378.25
358.441	397.25
358.668	385.25
358.895	390.25
359.122	376.25
359.349	396.25
359.576	403.25
359.802	392.25
360.029	413.25
360.256	426.25
360.483	414.25
360.709	424.25
360.936	409.25
361.163	385.25
361.39	394.25
361.616	400.25
361.843	388.25
362.07	391.25
362.296	397.25
362.523	399.25
362.749	388.25
362.976	399.25
363.203	388.25
363.429	379.25
363.656	413.25
363.882	378.25
364.109	385.25
364.335	411.25
364.562	398.25
364.788	400.25
365.015	374.25
365.241	384.25
365.468	389.25
365.694	381.25
365.92	377.25
366.147	405.25
366.373	410.25
366.599	401.25
366.826	390.25
367.052	413.25
367.278	402.25
367.505	393.25
367.731	393.25
367.957	392.25
368.184	390.25
368.41	392.25
368.636	388.25
368.862	389.25
369.089	410.25
369.315	390.25
369.541	385.25
369.767	406.25
369.993	377.25
370.219	391.25
370.445	405.25
370.672	382.25
370.898	385.25
371.124	396.25
371.35	391.25
371.576	393.25
371.802	389.25
372.028	399.25
372.254	393.25
372.48	408.25
372.706	422.25
372.932	415.25
373.158	407.25
373.384	404.25
373.61	386.25
373.835	403.25
374.061	417.25
374.287	408.25
374.513	419.25
374.739	414.25
374.965	419.25
375.191	400.25
375.416	408.25
375.642	406.25
375.868	409.25
376.094	426.25
376.319	409.25
376.545	405.25
376.771	396.25
376.997	405.25
377.222	427.25
377.448	399.25
377.674	387.25
377.899	414.25
378.125	386.25
378.35	401.25
378.576	372.25
378.802	399.25
379.027	399.25
379.253	423.25
379.478	418.25
379.704	410.25
379.929	417.25
380.155	415.25
380.38	404.25
380.606	405.25
380.831	374.25
381.057	413.25
381.282	411.25
381.507	423.25
381.733	409.25
381.958	425.25
382.184	429.25
382.409	423.25
382.634	407.25
382.86	407.25
383.085	435.25
383.31	419.25
383.535	425.25
383.761	434.25
383.986	425.25
384.211	446.25
384.436	438.25
384.662	431.25
384.887	469.25
385.112	449.25
385.337	449.25
385.562	442.25
385.787	474.25
386.013	494.25
386.238	468.25
386.463	473.25
386.688	472.25
386.913	473.25
387.138	466.25
387.363	466.25
387.588	456.25
387.813	460.25
388.038	459.25
388.263	481.25
388.488	474.25
388.713	459.25
388.938	450.25
389.163	450.25
389.387	453.25
389.612	474.25
389.837	451.25
390.062	463.25
390.287	467.25
390.512	458.25
390.736	456.25
390.961	446.25
391.186	462.25
391.411	455.25
391.636	465.25
391.86	475.25
392.085	473.25
392.31	480.25
392.534	483.25
392.759	486.25
392.984	469.25
393.208	464.25
393.433	467.25
393.658	468.25
393.882	459.25
394.107	455.25
394.331	450.25
394.556	445.25
394.78	469.25
395.005	476.25
395.229	480.25
395.454	492.25
395.678	488.25
395.903	495.25
396.127	512.25
396.352	504.25
396.576	471.25
396.801	487.25
397.025	510.25
397.249	475.25
397.474	485.25
397.698	497.25
397.922	509.25
398.147	520.25
398.371	523.25
398.595	533.25
398.82	529.25
399.044	533.25
399.268	572.25
399.492	587.25
399.717	650.25
399.941	673.25
400.165	644.25
400.389	663.25
400.613	621.25
400.837	562.25
401.062	567.25
401.286	554.25
401.51	541.25
401.734	532.25
401.958	540.25
402.182	544.25
402.406	534.25
402.63	542.25
402.854	523.25
403.078	520.25
403.302	551.25
403.526	542.25
403.75	569.25
403.974	559.25
404.198	560.25
404.422	563.25
404.645	582.25
404.869	582.25
405.093	608.25
405.317	610.25
405.541	648.25
405.765	590.25
405.988	569.25
406.212	587.25
406.436	597.25
406.66	606.25
406.883	561.25
407.107	614.25
407.331	670.25
407.555	721.25
407.778	716.25
408.002	641.25
408.226	628.25
408.449	622.25
408.673	586.25
408.896	600.25
409.12	662.25
409.344	625.25
409.567	581.25
409.791	545.25
410.014	567.25
410.238	523.25
410.461	576.25
410.685	541.25
410.908	568.25
411.132	601.25
411.355	633.25
411.578	603.25
411.802	567.25
412.025	565.25
412.249	548.25
412.472	579.25
412.695	584.25
412.919	594.25
413.142	567.25
413.365	545.25
413.589	544.25
413.812	524.25
414.035	525.25
414.258	529.25
414.482	538.25
414.705	514.25
414.928	523.25
415.151	522.25
415.374	521.25
415.597	516.25
415.821	516.25
416.044	515.25
416.267	541.25
416.49	517.25
416.713	511.25
416.936	538.25
417.159	514.25
417.382	515.25
417.605	534.25
417.828	535.25
418.051	525.25
418.274	533.25
418.497	502.25
418.72	527.25
418.943	516.25
419.166	553.25
419.389	590.25
419.611	586.25
419.834	574.25
420.057	580.25
420.28	554.25
420.503	536.25
420.726	545.25
420.948	558.25
421.171	567.25
421.394	602.25
421.617	557.25
421.839	561.25
422.062	522.25
422.285	547.25
422.507	605.25
422.73	675.25
422.953	651.25
423.175	576.25
423.398	576.25
423.621	558.25
423.843	575.25
424.066	565.25
424.288	565.25
424.511	615.25
424.733	611.25
424.956	671.25
425.178	683.25
425.401	664.25
425.623	700.25
425.846	611.25
426.068	571.25
426.291	554.25
426.513	556.25
426.735	570.25
426.958	592.25
427.18	665.25
427.402	792.25
427.625	872.25
427.847	707.25
428.069	653.25
428.292	573.25
428.514	534.25
428.736	530.25
428.958	524.25
429.181	525.25
429.403	513.25
429.625	533.25
429.847	555.25
430.069	606.25
430.292	625.25
430.514	534.25
430.736	521.25
430.958	525.25
431.18	521.25
431.402	497.25
431.624	498.25
431.846	489.25
432.068	484.25
432.29	501.25
432.512	513.25
432.734	533.25
432.956	514.25
433.178	506.25
433.4	521.25
433.622	507.25
433.844	524.25
434.066	513.25
434.287	521.25
434.509	523.25
434.731	514.25
434.953	533.25
435.175	552.25
435.397	575.25
435.618	589.25
435.84	595.25
436.062	687.25
436.284	730.25
436.505	623.25
436.727	582.25
436.949	539.25
437.17	522.25
437.392	517.25
437.614	546.25
437.835	552.25
438.057	640.25
438.278	744.25
438.5	732.25
438.721	809.25
438.943	771.25
439.165	608.25
439.386	567.25
439.608	547.25
439.829	566.25
440.05	569.25
440.272	627.25
440.493	578.25
440.715	555.25
440.936	533.25
441.158	533.25
441.379	543.25
441.6	539.25
441.822	555.25
442.043	619.25
442.264	675.25
442.486	723.25
442.707	623.25
442.928	584.25
443.149	570.25
443.371	584.25
443.592	655.25
443.813	727.25
444.034	775.25
444.255	667.25
444.476	600.25
444.698	587.25
444.919	612.25
445.14	743.25
445.361	632.25
445.582	617.25
445.803	643.25
446.024	735.25
446.245	720.25
446.466	667.25
446.687	591.25
446.908	559.25
447.129	523.25
447.35	506.25
447.571	535.25
447.792	510.25
448.013	517.25
448.234	518.25
448.455	555.25
448.675	673.25
448.896	778.25
449.117	654.25
449.338	621.25
449.559	702.25
449.779	817.25
450	652.25
450.221	585.25
450.442	529.25
450.662	484.25
450.883	474.25
451.104	520.25
451.324	522.25
451.545	481.25
451.766	480.25
451.986	454.25
452.207	450.25
452.428	467.25
452.648	492.25
452.869	457.25
453.089	456.25
453.31	461.25
453.53	464.25
453.751	455.25
453.971	449.25
454.192	448.25
454.412	451.25
454.633	452.25
454.853	460.25
455.073	457.25
455.294	467.25
455.514	525.25
455.734	527.25
455.955	453.25
456.175	445.25
456.395	442.25
456.616	454.25
456.836	420.25
457.056	436.25
457.276	430.25
457.497	436.25
457.717	438.25
457.937	451.25
458.157	448.25
458.377	475.25
458.598	474.25
458.818	482.25
459.038	560.25
459.258	597.25
459.478	535.25
459.698	486.25
459.918	508.25
460.138	509.25
460.358	534.25
460.578	516.25
460.798	532.25
461.018	527.25
461.238	513.25
461.458	522.25
461.678	510.25
461.898	528.25
462.118	525.25
462.338	568.25
462.558	559.25
462.777	576.25
462.997	575.25
463.217	607.25
463.437	625.25
463.657	582.25
463.876	570.25
464.096	580.25
464.316	560.25
464.536	582.25
464.755	578.25
464.975	565.25
465.195	574.25
465.414	622.25
465.634	548.25
465.854	533.25
466.073	521.25
466.293	517.25
466.512	484.25
466.732	486.25
466.951	467.25
467.171	501.25
467.391	497.25
467.61	485.25
467.829	501.25
468.049	506.25
468.268	484.25
468.488	465.25
468.707	474.25
468.927	458.25
469.146	474.25
469.365	470.25
469.585	469.25
469.804	489.25
470.023	499.25
470.243	501.25
470.462	499.25
470.681	501.25
470.901	500.25
471.12	509.25
471.339	494.25
471.558	486.25
471.777	497.25
471.997	484.25
472.216	485.25
472.435	486.25
472.654	476.25
472.873	480.25
473.092	471.25
473.311	485.25
473.53	497.25
473.749	477.25
473.968	503.25
474.187	594.25
474.406	626.25
474.625	523.25
474.844	499.25
475.063	498.25
475.282	495.25
475.501	506.25
475.72	500.25
475.939	499.25
476.158	494.25
476.377	488.25
476.596	513.25
476.814	522.25
477.033	491.25
477.252	508.25
477.471	509.25
477.69	528.25
477.908	535.25
478.127	541.25
478.346	537.25
478.564	548.25
478.783	568.25
479.002	585.25
479.22	568.25
479.439	575.25
479.658	584.25
479.876	595.25
480.095	600.25
480.313	607.25
480.532	612.25
480.751	610.25
480.969	634.25
481.188	635.25
481.406	619.25
481.624	599.25
481.843	570.25
482.061	579.25
482.28	565.25
482.498	569.25
482.717	574.25
482.935	578.25
483.153	568.25
483.372	600.25
483.59	560.25
483.808	592.25
484.027	567.25
484.245	559.25
484.463	564.25
484.681	592.25
484.9	587.25
485.118	594.25
485.336	579.25
485.554	593.25
485.772	606.25
485.99	596.25
486.209	574.25
486.427	595.25
486.645	604.25
486.863	615.25
487.081	626.25
487.299	594.25
487.517	632.25
487.735	632.25
487.953	628.25
488.171	619.25
488.389	627.25
488.607	605.25
488.825	602.25
489.043	622.25
489.261	610.25
489.479	601.25
489.696	622.25
489.914	643.25
490.132	615.25
490.35	647.25
490.568	626.25
490.786	669.25
491.003	658.25
491.221	680.25
491.439	662.25
491.657	683.25
491.874	671.25
492.092	699.25
492.31	708.25
492.527	706.25
492.745	700.25
492.963	691.25
493.18	731.25
493.398	718.25
493.615	731.25
493.833	724.25
494.05	725.25
494.268	707.25
494.485	693.25
494.703	720.25
494.92	722.25
495.138	734.25
495.355	705.25
495.573	716.25
495.79	721.25
496.008	742.25
496.225	734.25
496.442	717.25
496.66	723.25
496.877	714.25
497.094	744.25
497.312	768.25
497.529	763.25
497.746	778.25
497.963	783.25
498.181	789.25
498.398	805.25
498.615	829.25
498.832	826.25
499.049	871.25
499.267	919.25
499.484	932.25
499.701	989.25
499.918	1024.25
500.135	1118.25
500.352	1186.25
500.569	1198.25
500.786	1189.25
501.003	1169.25
501.22	1117.25
501.437	1069.25
501.654	1018.25
