Data from 1974.PennyLincolnUp.Lamp.En5.5.200Scan.071719.P1.Changed Mount._HRD10591_15-51-50-856.txt Node
Date: Thu Jul 18 15:51:50 EDT 2019
User: cochatt
Spectrometer: HR+D1059
Trigger mode: 1
Integration Time (sec): 1.000000E-1
Scans to average: 1
Electric dark correction enabled: true
Nonlinearity correction enabled: false
Boxcar width: 0
XAxis mode: Wavelengths
Number of Pixels in Spectrum: 2048
>>>>>Begin Spectral Data<<<<<
223.165	-25.94
223.4	-25.94
223.635	-25.94
223.869	-21.94
224.104	-27.94
224.338	-9.94
224.573	-21.94
224.808	-14.94
225.042	-1.94
225.277	9.06
225.511	-4.94
225.746	7.06
225.98	3.06
226.215	28.06
226.449	20.06
226.683	16.06
226.918	9.06
227.152	37.06
227.387	22.06
227.621	36.06
227.856	43.06
228.09	38.06
228.324	52.06
228.559	63.06
228.793	71.06
229.027	98.06
229.262	99.06
229.496	121.06
229.73	122.06
229.964	142.06
230.199	134.06
230.433	117.06
230.667	115.06
230.901	95.06
231.136	99.06
231.37	96.06
231.604	118.06
231.838	118.06
232.072	111.06
232.306	107.06
232.541	104.06
232.775	110.06
233.009	110.06
233.243	109.06
233.477	107.06
233.711	102.06
233.945	115.06
234.179	130.06
234.413	116.06
234.647	122.06
234.881	124.06
235.115	131.06
235.349	117.06
235.583	110.06
235.817	118.06
236.051	130.06
236.285	127.06
236.519	133.06
236.753	130.06
236.987	145.06
237.221	175.06
237.455	225.06
237.689	178.06
237.922	123.06
238.156	129.06
238.39	138.06
238.624	119.06
238.858	137.06
239.091	147.06
239.325	123.06
239.559	121.06
239.793	127.06
240.027	135.06
240.26	133.06
240.494	148.06
240.728	155.06
240.961	150.06
241.195	141.06
241.429	142.06
241.662	129.06
241.896	152.06
242.13	140.06
242.363	139.06
242.597	148.06
242.83	157.06
243.064	135.06
243.298	155.06
243.531	163.06
243.765	146.06
243.998	145.06
244.232	148.06
244.465	147.06
244.699	144.06
244.932	152.06
245.166	157.06
245.399	164.06
245.633	155.06
245.866	157.06
246.099	157.06
246.333	157.06
246.566	166.06
246.8	168.06
247.033	166.06
247.266	171.06
247.5	167.06
247.733	188.06
247.966	177.06
248.2	172.06
248.433	180.06
248.666	178.06
248.899	197.06
249.133	212.06
249.366	211.06
249.599	196.06
249.832	174.06
250.066	193.06
250.299	200.06
250.532	216.06
250.765	209.06
250.998	218.06
251.231	236.06
251.465	223.06
251.698	228.06
251.931	221.06
252.164	206.06
252.397	207.06
252.63	227.06
252.863	214.06
253.096	226.06
253.329	234.06
253.562	232.06
253.795	223.06
254.028	231.06
254.261	232.06
254.494	237.06
254.727	252.06
254.96	268.06
255.193	272.06
255.426	258.06
255.659	234.06
255.892	238.06
256.124	229.06
256.357	235.06
256.59	231.06
256.823	228.06
257.056	220.06
257.289	208.06
257.521	211.06
257.754	221.06
257.987	210.06
258.22	206.06
258.452	222.06
258.685	217.06
258.918	215.06
259.151	220.06
259.383	225.06
259.616	235.06
259.849	232.06
260.081	239.06
260.314	250.06
260.547	273.06
260.779	245.06
261.012	251.06
261.244	233.06
261.477	236.06
261.71	222.06
261.942	228.06
262.175	234.06
262.407	223.06
262.64	207.06
262.872	218.06
263.105	208.06
263.337	231.06
263.57	236.06
263.802	214.06
264.035	228.06
264.267	227.06
264.499	231.06
264.732	225.06
264.964	219.06
265.197	221.06
265.429	229.06
265.661	215.06
265.894	228.06
266.126	224.06
266.358	229.06
266.591	233.06
266.823	236.06
267.055	243.06
267.287	244.06
267.52	234.06
267.752	226.06
267.984	245.06
268.216	247.06
268.448	260.06
268.681	240.06
268.913	248.06
269.145	264.06
269.377	303.06
269.609	271.06
269.841	277.06
270.073	271.06
270.306	324.06
270.538	323.06
270.77	308.06
271.002	286.06
271.234	281.06
271.466	300.06
271.698	307.06
271.93	327.06
272.162	317.06
272.394	325.06
272.626	310.06
272.858	310.06
273.09	281.06
273.322	272.06
273.553	255.06
273.785	272.06
274.017	281.06
274.249	262.06
274.481	252.06
274.713	278.06
274.945	276.06
275.176	271.06
275.408	280.06
275.64	278.06
275.872	274.06
276.104	270.06
276.335	287.06
276.567	267.06
276.799	272.06
277.031	322.06
277.262	333.06
277.494	321.06
277.726	317.06
277.957	303.06
278.189	293.06
278.421	278.06
278.652	284.06
278.884	276.06
279.115	267.06
279.347	280.06
279.579	259.06
279.81	273.06
280.042	293.06
280.273	293.06
280.505	274.06
280.736	288.06
280.968	279.06
281.199	298.06
281.431	298.06
281.662	288.06
281.894	286.06
282.125	294.06
282.356	296.06
282.588	309.06
282.819	311.06
283.051	291.06
283.282	295.06
283.513	268.06
283.745	302.06
283.976	275.06
284.207	285.06
284.439	315.06
284.67	290.06
284.901	294.06
285.132	292.06
285.364	300.06
285.595	284.06
285.826	285.06
286.057	303.06
286.288	296.06
286.52	317.06
286.751	300.06
286.982	296.06
287.213	283.06
287.444	303.06
287.675	308.06
287.906	316.06
288.138	317.06
288.369	317.06
288.6	295.06
288.831	294.06
289.062	309.06
289.293	315.06
289.524	328.06
289.755	291.06
289.986	309.06
290.217	318.06
290.448	319.06
290.679	299.06
290.91	300.06
291.141	287.06
291.371	304.06
291.602	327.06
291.833	302.06
292.064	307.06
292.295	307.06
292.526	331.06
292.757	302.06
292.987	309.06
293.218	311.06
293.449	327.06
293.68	327.06
293.91	318.06
294.141	318.06
294.372	328.06
294.603	324.06
294.833	307.06
295.064	325.06
295.295	324.06
295.525	311.06
295.756	320.06
295.987	322.06
296.217	327.06
296.448	348.06
296.679	320.06
296.909	328.06
297.14	334.06
297.37	335.06
297.601	324.06
297.831	320.06
298.062	339.06
298.292	313.06
298.523	313.06
298.753	320.06
298.984	316.06
299.214	338.06
299.445	325.06
299.675	320.06
299.905	346.06
300.136	328.06
300.366	334.06
300.597	334.06
300.827	346.06
301.057	340.06
301.288	353.06
301.518	346.06
301.748	334.06
301.979	342.06
302.209	341.06
302.439	349.06
302.669	333.06
302.9	341.06
303.13	330.06
303.36	348.06
303.59	351.06
303.82	352.06
304.051	344.06
304.281	330.06
304.511	349.06
304.741	349.06
304.971	346.06
305.201	350.06
305.431	348.06
305.661	341.06
305.891	348.06
306.121	357.06
306.352	349.06
306.582	365.06
306.812	351.06
307.042	354.06
307.272	338.06
307.502	323.06
307.731	353.06
307.961	336.06
308.191	342.06
308.421	358.06
308.651	375.06
308.881	348.06
309.111	348.06
309.341	359.06
309.571	343.06
309.8	366.06
310.03	390.06
310.26	373.06
310.49	362.06
310.72	358.06
310.949	400.06
311.179	406.06
311.409	365.06
311.639	393.06
311.868	401.06
312.098	359.06
312.328	394.06
312.557	398.06
312.787	413.06
313.017	420.06
313.246	378.06
313.476	378.06
313.706	395.06
313.935	382.06
314.165	418.06
314.394	380.06
314.624	421.06
314.853	406.06
315.083	372.06
315.312	400.06
315.542	384.06
315.771	381.06
316.001	366.06
316.23	388.06
316.46	398.06
316.689	388.06
316.919	393.06
317.148	404.06
317.377	398.06
317.607	404.06
317.836	410.06
318.065	382.06
318.295	375.06
318.524	395.06
318.753	397.06
318.983	415.06
319.212	403.06
319.441	395.06
319.67	394.06
319.9	386.06
320.129	378.06
320.358	397.06
320.587	386.06
320.816	401.06
321.046	408.06
321.275	419.06
321.504	414.06
321.733	426.06
321.962	406.06
322.191	414.06
322.42	427.06
322.649	415.06
322.878	434.06
323.108	454.06
323.337	467.06
323.566	450.06
323.795	478.06
324.024	515.06
324.253	598.06
324.482	795.06
324.71	1198.06
324.939	1769.06
325.168	1567.06
325.397	799.06
325.626	582.06
325.855	494.06
326.084	482.06
326.313	482.06
326.542	483.06
326.77	518.06
326.999	568.06
327.228	736.06
327.457	1077.06
327.686	1325.06
327.914	928.06
328.143	630.06
328.372	558.06
328.6	533.06
328.829	520.06
329.058	517.06
329.287	536.06
329.515	522.06
329.744	491.06
329.972	482.06
330.201	497.06
330.43	517.06
330.658	559.06
330.887	573.06
331.115	567.06
331.344	491.06
331.572	479.06
331.801	488.06
332.03	485.06
332.258	467.06
332.486	476.06
332.715	471.06
332.943	480.06
333.172	462.06
333.4	471.06
333.629	473.06
333.857	504.06
334.085	499.06
334.314	512.06
334.542	542.06
334.771	562.06
334.999	522.06
335.227	502.06
335.455	512.06
335.684	486.06
335.912	481.06
336.14	491.06
336.369	475.06
336.597	487.06
336.825	486.06
337.053	469.06
337.281	469.06
337.51	476.06
337.738	472.06
337.966	468.06
338.194	464.06
338.422	459.06
338.65	456.06
338.878	446.06
339.106	447.06
339.334	464.06
339.562	442.06
339.79	452.06
340.018	461.06
340.246	439.06
340.474	469.06
340.702	461.06
340.93	442.06
341.158	439.06
341.386	432.06
341.614	464.06
341.842	449.06
342.07	458.06
342.298	446.06
342.526	453.06
342.754	420.06
342.981	428.06
343.209	440.06
343.437	464.06
343.665	437.06
343.893	466.06
344.12	490.06
344.348	497.06
344.576	485.06
344.804	473.06
345.031	461.06
345.259	447.06
345.487	457.06
345.714	437.06
345.942	447.06
346.17	431.06
346.397	428.06
346.625	443.06
346.853	424.06
347.08	435.06
347.308	426.06
347.535	427.06
347.763	458.06
347.99	458.06
348.218	436.06
348.445	443.06
348.673	434.06
348.9	436.06
349.128	458.06
349.355	444.06
349.583	412.06
349.81	429.06
350.037	434.06
350.265	438.06
350.492	434.06
350.72	436.06
350.947	426.06
351.174	429.06
351.402	456.06
351.629	435.06
351.856	427.06
352.083	435.06
352.311	444.06
352.538	424.06
352.765	458.06
352.992	416.06
353.22	441.06
353.447	437.06
353.674	442.06
353.901	404.06
354.128	407.06
354.355	423.06
354.583	428.06
354.81	413.06
355.037	420.06
355.264	402.06
355.491	424.06
355.718	418.06
355.945	440.06
356.172	411.06
356.399	410.06
356.626	431.06
356.853	420.06
357.08	407.06
357.307	403.06
357.534	407.06
357.761	417.06
357.988	414.06
358.215	423.06
358.441	417.06
358.668	414.06
358.895	422.06
359.122	428.06
359.349	414.06
359.576	440.06
359.802	454.06
360.029	455.06
360.256	462.06
360.483	470.06
360.709	439.06
360.936	451.06
361.163	444.06
361.39	444.06
361.616	436.06
361.843	418.06
362.07	442.06
362.296	446.06
362.523	427.06
362.749	450.06
362.976	440.06
363.203	428.06
363.429	428.06
363.656	430.06
363.882	445.06
364.109	420.06
364.335	416.06
364.562	421.06
364.788	442.06
365.015	437.06
365.241	415.06
365.468	414.06
365.694	429.06
365.92	430.06
366.147	412.06
366.373	429.06
366.599	448.06
366.826	418.06
367.052	416.06
367.278	435.06
367.505	441.06
367.731	446.06
367.957	430.06
368.184	415.06
368.41	437.06
368.636	432.06
368.862	441.06
369.089	445.06
369.315	419.06
369.541	422.06
369.767	441.06
369.993	422.06
370.219	427.06
370.445	446.06
370.672	442.06
370.898	450.06
371.124	424.06
371.35	444.06
371.576	423.06
371.802	450.06
372.028	459.06
372.254	429.06
372.48	444.06
372.706	450.06
372.932	454.06
373.158	458.06
373.384	459.06
373.61	423.06
373.835	440.06
374.061	448.06
374.287	444.06
374.513	453.06
374.739	460.06
374.965	462.06
375.191	436.06
375.416	459.06
375.642	442.06
375.868	454.06
376.094	442.06
376.319	445.06
376.545	460.06
376.771	457.06
376.997	443.06
377.222	429.06
377.448	437.06
377.674	455.06
377.899	429.06
378.125	429.06
378.35	438.06
378.576	428.06
378.802	431.06
379.027	449.06
379.253	442.06
379.478	451.06
379.704	436.06
379.929	445.06
380.155	446.06
380.38	423.06
380.606	430.06
380.831	451.06
381.057	443.06
381.282	418.06
381.507	443.06
381.733	443.06
381.958	454.06
382.184	467.06
382.409	458.06
382.634	480.06
382.86	442.06
383.085	456.06
383.31	447.06
383.535	462.06
383.761	462.06
383.986	469.06
384.211	470.06
384.436	462.06
384.662	462.06
384.887	484.06
385.112	492.06
385.337	471.06
385.562	470.06
385.787	478.06
386.013	499.06
386.238	510.06
386.463	508.06
386.688	509.06
386.913	498.06
387.138	494.06
387.363	489.06
387.588	498.06
387.813	507.06
388.038	487.06
388.263	493.06
388.488	480.06
388.713	501.06
388.938	503.06
389.163	494.06
389.387	511.06
389.612	506.06
389.837	492.06
390.062	475.06
390.287	501.06
390.512	488.06
390.736	511.06
390.961	500.06
391.186	502.06
391.411	501.06
391.636	491.06
391.86	506.06
392.085	510.06
392.31	524.06
392.534	523.06
392.759	512.06
392.984	504.06
393.208	509.06
393.433	516.06
393.658	508.06
393.882	501.06
394.107	525.06
394.331	489.06
394.556	511.06
394.78	498.06
395.005	542.06
395.229	510.06
395.454	503.06
395.678	491.06
395.903	531.06
396.127	552.06
396.352	532.06
396.576	517.06
396.801	524.06
397.025	536.06
397.249	530.06
397.474	526.06
397.698	543.06
397.922	519.06
398.147	554.06
398.371	542.06
398.595	550.06
398.82	558.06
399.044	588.06
399.268	622.06
399.492	650.06
399.717	696.06
399.941	717.06
400.165	717.06
400.389	723.06
400.613	651.06
400.837	630.06
401.062	568.06
401.286	568.06
401.51	586.06
401.734	600.06
401.958	583.06
402.182	582.06
402.406	575.06
402.63	579.06
402.854	571.06
403.078	586.06
403.302	605.06
403.526	591.06
403.75	616.06
403.974	619.06
404.198	609.06
404.422	602.06
404.645	628.06
404.869	630.06
405.093	672.06
405.317	674.06
405.541	726.06
405.765	666.06
405.988	626.06
406.212	645.06
406.436	632.06
406.66	687.06
406.883	628.06
407.107	681.06
407.331	716.06
407.555	814.06
407.778	808.06
408.002	732.06
408.226	692.06
408.449	654.06
408.673	650.06
408.896	663.06
409.12	723.06
409.344	667.06
409.567	623.06
409.791	604.06
410.014	602.06
410.238	619.06
410.461	594.06
410.685	598.06
410.908	611.06
411.132	653.06
411.355	699.06
411.578	642.06
411.802	630.06
412.025	605.06
412.249	603.06
412.472	599.06
412.695	659.06
412.919	640.06
413.142	590.06
413.365	589.06
413.589	585.06
413.812	585.06
414.035	550.06
414.258	570.06
414.482	562.06
414.705	555.06
414.928	570.06
415.151	587.06
415.374	584.06
415.597	582.06
415.821	587.06
416.044	558.06
416.267	551.06
416.49	546.06
416.713	550.06
416.936	569.06
417.159	543.06
417.382	592.06
417.605	571.06
417.828	595.06
418.051	603.06
418.274	587.06
418.497	571.06
418.72	583.06
418.943	602.06
419.166	605.06
419.389	622.06
419.611	613.06
419.834	606.06
420.057	626.06
420.28	614.06
420.503	592.06
420.726	599.06
420.948	588.06
421.171	628.06
421.394	679.06
421.617	615.06
421.839	610.06
422.062	617.06
422.285	603.06
422.507	668.06
422.73	734.06
422.953	719.06
423.175	638.06
423.398	630.06
423.621	598.06
423.843	638.06
424.066	637.06
424.288	644.06
424.511	669.06
424.733	681.06
424.956	783.06
425.178	746.06
425.401	724.06
425.623	758.06
425.846	669.06
426.068	642.06
426.291	624.06
426.513	604.06
426.735	635.06
426.958	653.06
427.18	742.06
427.402	854.06
427.625	934.06
427.847	819.06
428.069	724.06
428.292	675.06
428.514	618.06
428.736	567.06
428.958	573.06
429.181	574.06
429.403	569.06
429.625	586.06
429.847	603.06
430.069	685.06
430.292	678.06
430.514	602.06
430.736	574.06
430.958	597.06
431.18	552.06
431.402	537.06
431.624	537.06
431.846	548.06
432.068	572.06
432.29	548.06
432.512	552.06
432.734	560.06
432.956	544.06
433.178	584.06
433.4	563.06
433.622	585.06
433.844	544.06
434.066	543.06
434.287	549.06
434.509	563.06
434.731	573.06
434.953	580.06
435.175	591.06
435.397	613.06
435.618	616.06
435.84	649.06
436.062	735.06
436.284	804.06
436.505	671.06
436.727	616.06
436.949	588.06
437.17	558.06
437.392	564.06
437.614	594.06
437.835	611.06
438.057	700.06
438.278	806.06
438.5	783.06
438.721	878.06
438.943	848.06
439.165	691.06
439.386	639.06
439.608	618.06
439.829	623.06
440.05	626.06
440.272	676.06
440.493	658.06
440.715	614.06
440.936	588.06
441.158	616.06
441.379	583.06
441.6	608.06
441.822	624.06
442.043	660.06
442.264	744.06
442.486	805.06
442.707	691.06
442.928	619.06
443.149	630.06
443.371	648.06
443.592	719.06
443.813	798.06
444.034	879.06
444.255	739.06
444.476	662.06
444.698	640.06
444.919	638.06
445.14	778.06
445.361	733.06
445.582	668.06
445.803	719.06
446.024	803.06
446.245	834.06
446.466	747.06
446.687	649.06
446.908	601.06
447.129	578.06
447.35	587.06
447.571	574.06
447.792	573.06
448.013	568.06
448.234	598.06
448.455	641.06
448.675	746.06
448.896	875.06
449.117	729.06
449.338	698.06
449.559	814.06
449.779	919.06
450	715.06
450.221	620.06
450.442	587.06
450.662	540.06
450.883	551.06
451.104	559.06
451.324	567.06
451.545	552.06
451.766	513.06
451.986	517.06
452.207	512.06
452.428	514.06
452.648	510.06
452.869	501.06
453.089	524.06
453.31	518.06
453.53	527.06
453.751	524.06
453.971	501.06
454.192	536.06
454.412	499.06
454.633	502.06
454.853	479.06
455.073	506.06
455.294	523.06
455.514	580.06
455.734	596.06
455.955	498.06
456.175	479.06
456.395	484.06
456.616	469.06
456.836	477.06
457.056	459.06
457.276	461.06
457.497	460.06
457.717	482.06
457.937	492.06
458.157	513.06
458.377	513.06
458.598	511.06
458.818	544.06
459.038	639.06
459.258	671.06
459.478	579.06
459.698	564.06
459.918	550.06
460.138	560.06
460.358	585.06
460.578	578.06
460.798	569.06
461.018	581.06
461.238	593.06
461.458	563.06
461.678	579.06
461.898	559.06
462.118	550.06
462.338	583.06
462.558	605.06
462.777	610.06
462.997	635.06
463.217	654.06
463.437	666.06
463.657	624.06
463.876	640.06
464.096	621.06
464.316	632.06
464.536	620.06
464.755	604.06
464.975	596.06
465.195	644.06
465.414	686.06
465.634	617.06
465.854	605.06
466.073	578.06
466.293	552.06
466.512	549.06
466.732	539.06
466.951	532.06
467.171	543.06
467.391	536.06
467.61	560.06
467.829	556.06
468.049	563.06
468.268	542.06
468.488	518.06
468.707	513.06
468.927	515.06
469.146	523.06
469.365	532.06
469.585	512.06
469.804	504.06
470.023	534.06
470.243	531.06
470.462	541.06
470.681	553.06
470.901	566.06
471.12	545.06
471.339	537.06
471.558	542.06
471.777	555.06
471.997	531.06
472.216	531.06
472.435	581.06
472.654	546.06
472.873	521.06
473.092	523.06
473.311	527.06
473.53	531.06
473.749	542.06
473.968	582.06
474.187	669.06
474.406	690.06
474.625	590.06
474.844	543.06
475.063	545.06
475.282	527.06
475.501	539.06
475.72	543.06
475.939	568.06
476.158	535.06
476.377	542.06
476.596	568.06
476.814	565.06
477.033	571.06
477.252	567.06
477.471	558.06
477.69	584.06
477.908	609.06
478.127	583.06
478.346	581.06
478.564	594.06
478.783	628.06
479.002	614.06
479.22	606.06
479.439	629.06
479.658	648.06
479.876	646.06
480.095	679.06
480.313	696.06
480.532	690.06
480.751	677.06
480.969	648.06
481.188	682.06
481.406	714.06
481.624	666.06
481.843	628.06
482.061	622.06
482.28	614.06
482.498	632.06
482.717	604.06
482.935	639.06
483.153	602.06
483.372	644.06
483.59	654.06
483.808	629.06
484.027	620.06
484.245	627.06
484.463	636.06
484.681	659.06
484.9	647.06
485.118	649.06
485.336	636.06
485.554	630.06
485.772	663.06
485.99	654.06
486.209	646.06
486.427	645.06
486.645	651.06
486.863	655.06
487.081	663.06
487.299	670.06
487.517	667.06
487.735	663.06
487.953	678.06
488.171	679.06
488.389	680.06
488.607	685.06
488.825	667.06
489.043	650.06
489.261	678.06
489.479	685.06
489.696	668.06
489.914	684.06
490.132	696.06
490.35	695.06
490.568	693.06
490.786	712.06
491.003	702.06
491.221	734.06
491.439	744.06
491.657	764.06
491.874	792.06
492.092	770.06
492.31	786.06
492.527	792.06
492.745	794.06
492.963	764.06
493.18	776.06
493.398	801.06
493.615	807.06
493.833	791.06
494.05	829.06
494.268	815.06
494.485	800.06
494.703	787.06
494.92	788.06
495.138	804.06
495.355	784.06
495.573	780.06
495.79	789.06
496.008	804.06
496.225	808.06
496.442	829.06
496.66	805.06
496.877	805.06
497.094	803.06
497.312	812.06
497.529	845.06
497.746	826.06
497.963	824.06
498.181	857.06
498.398	887.06
498.615	918.06
498.832	918.06
499.049	960.06
499.267	1007.06
499.484	1024.06
499.701	1118.06
499.918	1114.06
500.135	1199.06
500.352	1243.06
500.569	1281.06
500.786	1330.06
501.003	1246.06
501.22	1197.06
501.437	1172.06
501.654	1125.06
