Data from 1974.PennyLincolnUp.Lamp.En5.5.200Scan.071719.P1.Changed Mount._HRD10591_15-51-41-856.txt Node
Date: Thu Jul 18 15:51:41 EDT 2019
User: cochatt
Spectrometer: HR+D1059
Trigger mode: 1
Integration Time (sec): 1.000000E-1
Scans to average: 1
Electric dark correction enabled: true
Nonlinearity correction enabled: false
Boxcar width: 0
XAxis mode: Wavelengths
Number of Pixels in Spectrum: 2048
>>>>>Begin Spectral Data<<<<<
223.165	-25.94
223.4	-25.94
223.635	-25.94
223.869	-9.94
224.104	-18.94
224.338	-22.94
224.573	-12.94
224.808	-12.94
225.042	-3.94
225.277	-8.94
225.511	-8.94
225.746	7.06
225.98	5.06
226.215	19.06
226.449	18.06
226.683	27.06
226.918	31.06
227.152	18.06
227.387	24.06
227.621	44.06
227.856	50.06
228.09	53.06
228.324	58.06
228.559	43.06
228.793	61.06
229.027	89.06
229.262	85.06
229.496	116.06
229.73	116.06
229.964	140.06
230.199	121.06
230.433	117.06
230.667	112.06
230.901	109.06
231.136	114.06
231.37	99.06
231.604	94.06
231.838	118.06
232.072	112.06
232.306	120.06
232.541	114.06
232.775	107.06
233.009	113.06
233.243	110.06
233.477	110.06
233.711	111.06
233.945	109.06
234.179	117.06
234.413	110.06
234.647	103.06
234.881	105.06
235.115	116.06
235.349	114.06
235.583	138.06
235.817	137.06
236.051	117.06
236.285	138.06
236.519	119.06
236.753	132.06
236.987	133.06
237.221	162.06
237.455	217.06
237.689	182.06
237.922	129.06
238.156	136.06
238.39	123.06
238.624	134.06
238.858	126.06
239.091	131.06
239.325	122.06
239.559	138.06
239.793	125.06
240.027	140.06
240.26	145.06
240.494	169.06
240.728	131.06
240.961	153.06
241.195	168.06
241.429	129.06
241.662	136.06
241.896	126.06
242.13	130.06
242.363	134.06
242.597	139.06
242.83	147.06
243.064	153.06
243.298	128.06
243.531	144.06
243.765	129.06
243.998	146.06
244.232	148.06
244.465	144.06
244.699	156.06
244.932	142.06
245.166	164.06
245.399	162.06
245.633	148.06
245.866	149.06
246.099	156.06
246.333	157.06
246.566	161.06
246.8	165.06
247.033	163.06
247.266	154.06
247.5	169.06
247.733	171.06
247.966	173.06
248.2	167.06
248.433	168.06
248.666	179.06
248.899	180.06
249.133	198.06
249.366	208.06
249.599	194.06
249.832	178.06
250.066	183.06
250.299	186.06
250.532	197.06
250.765	209.06
250.998	216.06
251.231	221.06
251.465	219.06
251.698	219.06
251.931	213.06
252.164	197.06
252.397	188.06
252.63	203.06
252.863	218.06
253.096	205.06
253.329	235.06
253.562	218.06
253.795	226.06
254.028	214.06
254.261	219.06
254.494	211.06
254.727	246.06
254.96	274.06
255.193	260.06
255.426	244.06
255.659	235.06
255.892	219.06
256.124	245.06
256.357	233.06
256.59	236.06
256.823	228.06
257.056	210.06
257.289	204.06
257.521	210.06
257.754	216.06
257.987	202.06
258.22	210.06
258.452	214.06
258.685	226.06
258.918	213.06
259.151	194.06
259.383	217.06
259.616	234.06
259.849	228.06
260.081	230.06
260.314	258.06
260.547	262.06
260.779	241.06
261.012	219.06
261.244	218.06
261.477	233.06
261.71	235.06
261.942	219.06
262.175	229.06
262.407	199.06
262.64	228.06
262.872	209.06
263.105	222.06
263.337	202.06
263.57	215.06
263.802	207.06
264.035	204.06
264.267	211.06
264.499	210.06
264.732	209.06
264.964	225.06
265.197	225.06
265.429	223.06
265.661	219.06
265.894	217.06
266.126	207.06
266.358	217.06
266.591	222.06
266.823	218.06
267.055	247.06
267.287	228.06
267.52	233.06
267.752	240.06
267.984	226.06
268.216	246.06
268.448	256.06
268.681	249.06
268.913	248.06
269.145	245.06
269.377	256.06
269.609	259.06
269.841	270.06
270.073	277.06
270.306	282.06
270.538	308.06
270.77	324.06
271.002	289.06
271.234	284.06
271.466	297.06
271.698	316.06
271.93	318.06
272.162	317.06
272.394	306.06
272.626	313.06
272.858	292.06
273.09	282.06
273.322	264.06
273.553	274.06
273.785	279.06
274.017	260.06
274.249	247.06
274.481	260.06
274.713	271.06
274.945	268.06
275.176	273.06
275.408	271.06
275.64	286.06
275.872	273.06
276.104	269.06
276.335	287.06
276.567	262.06
276.799	285.06
277.031	295.06
277.262	298.06
277.494	316.06
277.726	299.06
277.957	295.06
278.189	295.06
278.421	268.06
278.652	277.06
278.884	284.06
279.115	275.06
279.347	273.06
279.579	276.06
279.81	281.06
280.042	279.06
280.273	280.06
280.505	277.06
280.736	258.06
280.968	283.06
281.199	264.06
281.431	289.06
281.662	284.06
281.894	284.06
282.125	268.06
282.356	285.06
282.588	307.06
282.819	308.06
283.051	292.06
283.282	273.06
283.513	278.06
283.745	282.06
283.976	289.06
284.207	293.06
284.439	293.06
284.67	285.06
284.901	277.06
285.132	277.06
285.364	289.06
285.595	289.06
285.826	282.06
286.057	271.06
286.288	300.06
286.52	293.06
286.751	307.06
286.982	295.06
287.213	298.06
287.444	287.06
287.675	298.06
287.906	295.06
288.138	313.06
288.369	307.06
288.6	297.06
288.831	320.06
289.062	286.06
289.293	297.06
289.524	304.06
289.755	311.06
289.986	294.06
290.217	296.06
290.448	309.06
290.679	310.06
290.91	315.06
291.141	306.06
291.371	297.06
291.602	317.06
291.833	307.06
292.064	304.06
292.295	299.06
292.526	292.06
292.757	293.06
292.987	309.06
293.218	308.06
293.449	304.06
293.68	301.06
293.91	288.06
294.141	313.06
294.372	301.06
294.603	307.06
294.833	323.06
295.064	316.06
295.295	321.06
295.525	304.06
295.756	311.06
295.987	327.06
296.217	320.06
296.448	342.06
296.679	307.06
296.909	316.06
297.14	299.06
297.37	316.06
297.601	321.06
297.831	308.06
298.062	305.06
298.292	318.06
298.523	323.06
298.753	311.06
298.984	304.06
299.214	316.06
299.445	323.06
299.675	320.06
299.905	329.06
300.136	320.06
300.366	326.06
300.597	327.06
300.827	325.06
301.057	321.06
301.288	341.06
301.518	334.06
301.748	344.06
301.979	341.06
302.209	338.06
302.439	341.06
302.669	346.06
302.9	346.06
303.13	347.06
303.36	338.06
303.59	331.06
303.82	356.06
304.051	358.06
304.281	353.06
304.511	333.06
304.741	339.06
304.971	349.06
305.201	343.06
305.431	342.06
305.661	350.06
305.891	343.06
306.121	355.06
306.352	342.06
306.582	348.06
306.812	332.06
307.042	354.06
307.272	350.06
307.502	362.06
307.731	339.06
307.961	341.06
308.191	343.06
308.421	355.06
308.651	348.06
308.881	331.06
309.111	339.06
309.341	340.06
309.571	363.06
309.8	369.06
310.03	382.06
310.26	377.06
310.49	361.06
310.72	367.06
310.949	382.06
311.179	389.06
311.409	364.06
311.639	383.06
311.868	382.06
312.098	395.06
312.328	393.06
312.557	382.06
312.787	397.06
313.017	396.06
313.246	360.06
313.476	394.06
313.706	382.06
313.935	384.06
314.165	375.06
314.394	374.06
314.624	408.06
314.853	382.06
315.083	368.06
315.312	390.06
315.542	396.06
315.771	377.06
316.001	360.06
316.23	376.06
316.46	378.06
316.689	381.06
316.919	395.06
317.148	391.06
317.377	392.06
317.607	378.06
317.836	368.06
318.065	407.06
318.295	393.06
318.524	388.06
318.753	372.06
318.983	383.06
319.212	374.06
319.441	374.06
319.67	390.06
319.9	394.06
320.129	402.06
320.358	384.06
320.587	392.06
320.816	377.06
321.046	401.06
321.275	399.06
321.504	402.06
321.733	405.06
321.962	386.06
322.191	413.06
322.42	416.06
322.649	432.06
322.878	440.06
323.108	420.06
323.337	434.06
323.566	465.06
323.795	478.06
324.024	504.06
324.253	542.06
324.482	761.06
324.71	1141.06
324.939	1654.06
325.168	1485.06
325.397	789.06
325.626	550.06
325.855	470.06
326.084	464.06
326.313	465.06
326.542	455.06
326.77	502.06
326.999	548.06
327.228	696.06
327.457	1017.06
327.686	1290.06
327.914	879.06
328.143	594.06
328.372	538.06
328.6	516.06
328.829	507.06
329.058	486.06
329.287	527.06
329.515	520.06
329.744	465.06
329.972	492.06
330.201	500.06
330.43	512.06
330.658	519.06
330.887	552.06
331.115	534.06
331.344	511.06
331.572	493.06
331.801	477.06
332.03	465.06
332.258	477.06
332.486	469.06
332.715	464.06
332.943	476.06
333.172	472.06
333.4	474.06
333.629	489.06
333.857	496.06
334.085	479.06
334.314	508.06
334.542	524.06
334.771	515.06
334.999	519.06
335.227	516.06
335.455	488.06
335.684	465.06
335.912	493.06
336.14	458.06
336.369	463.06
336.597	471.06
336.825	458.06
337.053	471.06
337.281	454.06
337.51	450.06
337.738	473.06
337.966	471.06
338.194	474.06
338.422	456.06
338.65	458.06
338.878	463.06
339.106	450.06
339.334	460.06
339.562	423.06
339.79	457.06
340.018	437.06
340.246	427.06
340.474	460.06
340.702	459.06
340.93	444.06
341.158	432.06
341.386	437.06
341.614	446.06
341.842	441.06
342.07	447.06
342.298	446.06
342.526	432.06
342.754	426.06
342.981	449.06
343.209	444.06
343.437	453.06
343.665	458.06
343.893	449.06
344.12	474.06
344.348	472.06
344.576	471.06
344.804	468.06
345.031	469.06
345.259	460.06
345.487	453.06
345.714	438.06
345.942	436.06
346.17	459.06
346.397	425.06
346.625	430.06
346.853	431.06
347.08	425.06
347.308	439.06
347.535	447.06
347.763	422.06
347.99	436.06
348.218	440.06
348.445	444.06
348.673	440.06
348.9	423.06
349.128	421.06
349.355	419.06
349.583	401.06
349.81	405.06
350.037	410.06
350.265	434.06
350.492	417.06
350.72	423.06
350.947	428.06
351.174	436.06
351.402	446.06
351.629	427.06
351.856	428.06
352.083	435.06
352.311	432.06
352.538	438.06
352.765	434.06
352.992	424.06
353.22	434.06
353.447	417.06
353.674	423.06
353.901	429.06
354.128	450.06
354.355	403.06
354.583	404.06
354.81	422.06
355.037	419.06
355.264	408.06
355.491	404.06
355.718	426.06
355.945	413.06
356.172	397.06
356.399	417.06
356.626	422.06
356.853	419.06
357.08	403.06
357.307	405.06
357.534	420.06
357.761	413.06
357.988	417.06
358.215	422.06
358.441	416.06
358.668	438.06
358.895	416.06
359.122	412.06
359.349	437.06
359.576	422.06
359.802	449.06
360.029	453.06
360.256	468.06
360.483	461.06
360.709	433.06
360.936	424.06
361.163	446.06
361.39	438.06
361.616	438.06
361.843	415.06
362.07	447.06
362.296	429.06
362.523	429.06
362.749	434.06
362.976	424.06
363.203	436.06
363.429	410.06
363.656	435.06
363.882	397.06
364.109	423.06
364.335	425.06
364.562	427.06
364.788	402.06
365.015	417.06
365.241	421.06
365.468	440.06
365.694	438.06
365.92	427.06
366.147	416.06
366.373	419.06
366.599	418.06
366.826	416.06
367.052	401.06
367.278	412.06
367.505	405.06
367.731	426.06
367.957	421.06
368.184	424.06
368.41	426.06
368.636	436.06
368.862	453.06
369.089	456.06
369.315	419.06
369.541	443.06
369.767	430.06
369.993	432.06
370.219	418.06
370.445	414.06
370.672	434.06
370.898	423.06
371.124	434.06
371.35	429.06
371.576	443.06
371.802	448.06
372.028	444.06
372.254	440.06
372.48	416.06
372.706	425.06
372.932	433.06
373.158	454.06
373.384	439.06
373.61	438.06
373.835	422.06
374.061	433.06
374.287	450.06
374.513	438.06
374.739	424.06
374.965	444.06
375.191	461.06
375.416	456.06
375.642	444.06
375.868	445.06
376.094	448.06
376.319	426.06
376.545	436.06
376.771	423.06
376.997	429.06
377.222	448.06
377.448	438.06
377.674	435.06
377.899	417.06
378.125	438.06
378.35	406.06
378.576	430.06
378.802	438.06
379.027	424.06
379.253	440.06
379.478	426.06
379.704	431.06
379.929	436.06
380.155	437.06
380.38	436.06
380.606	426.06
380.831	437.06
381.057	445.06
381.282	440.06
381.507	427.06
381.733	429.06
381.958	456.06
382.184	470.06
382.409	452.06
382.634	438.06
382.86	433.06
383.085	449.06
383.31	476.06
383.535	459.06
383.761	473.06
383.986	466.06
384.211	480.06
384.436	482.06
384.662	469.06
384.887	486.06
385.112	473.06
385.337	483.06
385.562	485.06
385.787	490.06
386.013	496.06
386.238	510.06
386.463	521.06
386.688	515.06
386.913	488.06
387.138	490.06
387.363	490.06
387.588	491.06
387.813	498.06
388.038	491.06
388.263	491.06
388.488	476.06
388.713	485.06
388.938	491.06
389.163	474.06
389.387	483.06
389.612	488.06
389.837	480.06
390.062	477.06
390.287	488.06
390.512	483.06
390.736	492.06
390.961	501.06
391.186	514.06
391.411	500.06
391.636	507.06
391.86	507.06
392.085	501.06
392.31	499.06
392.534	500.06
392.759	498.06
392.984	503.06
393.208	480.06
393.433	512.06
393.658	506.06
393.882	493.06
394.107	504.06
394.331	500.06
394.556	497.06
394.78	485.06
395.005	521.06
395.229	504.06
395.454	500.06
395.678	525.06
395.903	540.06
396.127	544.06
396.352	544.06
396.576	538.06
396.801	499.06
397.025	513.06
397.249	514.06
397.474	508.06
397.698	505.06
397.922	539.06
398.147	555.06
398.371	562.06
398.595	565.06
398.82	568.06
399.044	581.06
399.268	613.06
399.492	641.06
399.717	695.06
399.941	685.06
400.165	716.06
400.389	724.06
400.613	661.06
400.837	621.06
401.062	596.06
401.286	591.06
401.51	575.06
401.734	575.06
401.958	567.06
402.182	582.06
402.406	578.06
402.63	583.06
402.854	605.06
403.078	631.06
403.302	600.06
403.526	584.06
403.75	605.06
403.974	579.06
404.198	585.06
404.422	624.06
404.645	636.06
404.869	602.06
405.093	616.06
405.317	654.06
405.541	698.06
405.765	664.06
405.988	625.06
406.212	648.06
406.436	634.06
406.66	647.06
406.883	654.06
407.107	685.06
407.331	699.06
407.555	796.06
407.778	792.06
408.002	694.06
408.226	692.06
408.449	659.06
408.673	656.06
408.896	673.06
409.12	718.06
409.344	681.06
409.567	605.06
409.791	633.06
410.014	598.06
410.238	592.06
410.461	611.06
410.685	625.06
410.908	616.06
411.132	632.06
411.355	680.06
411.578	666.06
411.802	630.06
412.025	584.06
412.249	596.06
412.472	626.06
412.695	664.06
412.919	636.06
413.142	636.06
413.365	596.06
413.589	587.06
413.812	582.06
414.035	542.06
414.258	556.06
414.482	563.06
414.705	577.06
414.928	568.06
415.151	568.06
415.374	569.06
415.597	567.06
415.821	554.06
416.044	564.06
416.267	592.06
416.49	550.06
416.713	555.06
416.936	552.06
417.159	581.06
417.382	557.06
417.605	556.06
417.828	588.06
418.051	603.06
418.274	573.06
418.497	588.06
418.72	587.06
418.943	575.06
419.166	610.06
419.389	602.06
419.611	622.06
419.834	589.06
420.057	604.06
420.28	599.06
420.503	576.06
420.726	588.06
420.948	590.06
421.171	650.06
421.394	691.06
421.617	600.06
421.839	596.06
422.062	595.06
422.285	583.06
422.507	662.06
422.73	716.06
422.953	723.06
423.175	620.06
423.398	603.06
423.621	631.06
423.843	633.06
424.066	609.06
424.288	625.06
424.511	640.06
424.733	721.06
424.956	755.06
425.178	752.06
425.401	737.06
425.623	772.06
425.846	653.06
426.068	624.06
426.291	625.06
426.513	616.06
426.735	646.06
426.958	669.06
427.18	768.06
427.402	862.06
427.625	963.06
427.847	825.06
428.069	717.06
428.292	659.06
428.514	582.06
428.736	576.06
428.958	576.06
429.181	585.06
429.403	548.06
429.625	582.06
429.847	604.06
430.069	677.06
430.292	692.06
430.514	596.06
430.736	589.06
430.958	568.06
431.18	566.06
431.402	553.06
431.624	552.06
431.846	532.06
432.068	558.06
432.29	532.06
432.512	546.06
432.734	561.06
432.956	548.06
433.178	562.06
433.4	560.06
433.622	551.06
433.844	554.06
434.066	553.06
434.287	541.06
434.509	566.06
434.731	602.06
434.953	584.06
435.175	570.06
435.397	628.06
435.618	624.06
435.84	642.06
436.062	707.06
436.284	823.06
436.505	676.06
436.727	617.06
436.949	576.06
437.17	573.06
437.392	562.06
437.614	571.06
437.835	588.06
438.057	688.06
438.278	784.06
438.5	817.06
438.721	875.06
438.943	836.06
439.165	652.06
439.386	630.06
439.608	625.06
439.829	625.06
440.05	647.06
440.272	664.06
440.493	639.06
440.715	583.06
440.936	600.06
441.158	581.06
441.379	581.06
441.6	591.06
441.822	633.06
442.043	636.06
442.264	760.06
442.486	800.06
442.707	674.06
442.928	646.06
443.149	646.06
443.371	673.06
443.592	703.06
443.813	763.06
444.034	861.06
444.255	740.06
444.476	650.06
444.698	655.06
444.919	654.06
445.14	772.06
445.361	695.06
445.582	684.06
445.803	706.06
446.024	785.06
446.245	816.06
446.466	758.06
446.687	655.06
446.908	604.06
447.129	602.06
447.35	580.06
447.571	552.06
447.792	555.06
448.013	566.06
448.234	580.06
448.455	633.06
448.675	737.06
448.896	859.06
449.117	730.06
449.338	678.06
449.559	775.06
449.779	883.06
450	731.06
450.221	588.06
450.442	567.06
450.662	540.06
450.883	540.06
451.104	548.06
451.324	527.06
451.545	522.06
451.766	531.06
451.986	522.06
452.207	502.06
452.428	521.06
452.648	482.06
452.869	515.06
453.089	509.06
453.31	518.06
453.53	520.06
453.751	517.06
453.971	515.06
454.192	528.06
454.412	532.06
454.633	473.06
454.853	508.06
455.073	508.06
455.294	517.06
455.514	577.06
455.734	597.06
455.955	500.06
456.175	481.06
456.395	487.06
456.616	482.06
456.836	468.06
457.056	492.06
457.276	462.06
457.497	470.06
457.717	498.06
457.937	484.06
458.157	493.06
458.377	506.06
458.598	495.06
458.818	560.06
459.038	621.06
459.258	650.06
459.478	576.06
459.698	549.06
459.918	547.06
460.138	540.06
460.358	567.06
460.578	576.06
460.798	562.06
461.018	585.06
461.238	597.06
461.458	573.06
461.678	559.06
461.898	564.06
462.118	586.06
462.338	609.06
462.558	618.06
462.777	614.06
462.997	645.06
463.217	661.06
463.437	652.06
463.657	654.06
463.876	612.06
464.096	628.06
464.316	610.06
464.536	630.06
464.755	627.06
464.975	635.06
465.195	620.06
465.414	647.06
465.634	594.06
465.854	586.06
466.073	559.06
466.293	554.06
466.512	525.06
466.732	529.06
466.951	542.06
467.171	530.06
467.391	518.06
467.61	536.06
467.829	500.06
468.049	542.06
468.268	531.06
468.488	514.06
468.707	509.06
468.927	520.06
469.146	485.06
469.365	530.06
469.585	532.06
469.804	526.06
470.023	548.06
470.243	542.06
470.462	524.06
470.681	543.06
470.901	528.06
471.12	544.06
471.339	546.06
471.558	549.06
471.777	543.06
471.997	531.06
472.216	521.06
472.435	548.06
472.654	538.06
472.873	534.06
473.092	538.06
473.311	536.06
473.53	540.06
473.749	532.06
473.968	552.06
474.187	658.06
474.406	674.06
474.625	586.06
474.844	522.06
475.063	519.06
475.282	532.06
475.501	542.06
475.72	546.06
475.939	548.06
476.158	538.06
476.377	549.06
476.596	555.06
476.814	525.06
477.033	565.06
477.252	557.06
477.471	575.06
477.69	584.06
477.908	575.06
478.127	587.06
478.346	593.06
478.564	600.06
478.783	603.06
479.002	614.06
479.22	628.06
479.439	636.06
479.658	642.06
479.876	642.06
480.095	669.06
480.313	677.06
480.532	668.06
480.751	674.06
480.969	657.06
481.188	680.06
481.406	692.06
481.624	656.06
481.843	628.06
482.061	641.06
482.28	615.06
482.498	634.06
482.717	605.06
482.935	629.06
483.153	636.06
483.372	620.06
483.59	626.06
483.808	634.06
484.027	604.06
484.245	633.06
484.463	639.06
484.681	671.06
484.9	642.06
485.118	641.06
485.336	633.06
485.554	654.06
485.772	629.06
485.99	616.06
486.209	649.06
486.427	645.06
486.645	657.06
486.863	663.06
487.081	686.06
487.299	668.06
487.517	685.06
487.735	672.06
487.953	668.06
488.171	682.06
488.389	684.06
488.607	665.06
488.825	656.06
489.043	682.06
489.261	681.06
489.479	703.06
489.696	663.06
489.914	696.06
490.132	696.06
490.35	725.06
490.568	722.06
490.786	707.06
491.003	731.06
491.221	736.06
491.439	802.06
491.657	744.06
491.874	761.06
492.092	760.06
492.31	740.06
492.527	787.06
492.745	762.06
492.963	770.06
493.18	792.06
493.398	794.06
493.615	793.06
493.833	782.06
494.05	792.06
494.268	792.06
494.485	789.06
494.703	770.06
494.92	780.06
495.138	796.06
495.355	766.06
495.573	785.06
495.79	796.06
496.008	818.06
496.225	790.06
496.442	782.06
496.66	813.06
496.877	824.06
497.094	806.06
497.312	810.06
497.529	821.06
497.746	840.06
497.963	848.06
498.181	869.06
498.398	893.06
498.615	900.06
498.832	913.06
499.049	928.06
499.267	1000.06
499.484	1060.06
499.701	1072.06
499.918	1115.06
500.135	1187.06
500.352	1277.06
500.569	1275.06
500.786	1280.06
501.003	1279.06
501.22	1194.06
501.437	1148.06
501.654	1079.06
