Data from 1974.PennyLincolnUp.Lamp.En5.5.200Scan.071719.P1.Changed Mount._HRD10591_15-51-33-855.txt Node
Date: Thu Jul 18 15:51:33 EDT 2019
User: cochatt
Spectrometer: HR+D1059
Trigger mode: 1
Integration Time (sec): 1.000000E-1
Scans to average: 1
Electric dark correction enabled: true
Nonlinearity correction enabled: false
Boxcar width: 0
XAxis mode: Wavelengths
Number of Pixels in Spectrum: 2048
>>>>>Begin Spectral Data<<<<<
223.165	-26.31
223.4	-26.31
223.635	-26.31
223.869	-11.31
224.104	-17.31
224.338	-12.31
224.573	-20.31
224.808	-12.31
225.042	-0.31
225.277	-6.31
225.511	-12.31
225.746	13.69
225.98	-5.31
226.215	17.69
226.449	19.69
226.683	14.69
226.918	22.69
227.152	35.69
227.387	17.69
227.621	24.69
227.856	35.69
228.09	41.69
228.324	40.69
228.559	35.69
228.793	63.69
229.027	95.69
229.262	106.69
229.496	101.69
229.73	123.69
229.964	131.69
230.199	115.69
230.433	109.69
230.667	99.69
230.901	115.69
231.136	117.69
231.37	114.69
231.604	117.69
231.838	129.69
232.072	118.69
232.306	111.69
232.541	120.69
232.775	133.69
233.009	127.69
233.243	115.69
233.477	123.69
233.711	115.69
233.945	114.69
234.179	120.69
234.413	110.69
234.647	116.69
234.881	113.69
235.115	121.69
235.349	115.69
235.583	119.69
235.817	118.69
236.051	133.69
236.285	126.69
236.519	118.69
236.753	120.69
236.987	129.69
237.221	177.69
237.455	223.69
237.689	172.69
237.922	129.69
238.156	126.69
238.39	117.69
238.624	130.69
238.858	130.69
239.091	107.69
239.325	109.69
239.559	115.69
239.793	124.69
240.027	142.69
240.26	150.69
240.494	143.69
240.728	139.69
240.961	151.69
241.195	142.69
241.429	143.69
241.662	141.69
241.896	141.69
242.13	135.69
242.363	148.69
242.597	137.69
242.83	138.69
243.064	164.69
243.298	146.69
243.531	134.69
243.765	139.69
243.998	141.69
244.232	151.69
244.465	152.69
244.699	151.69
244.932	136.69
245.166	155.69
245.399	147.69
245.633	143.69
245.866	145.69
246.099	148.69
246.333	143.69
246.566	149.69
246.8	170.69
247.033	165.69
247.266	171.69
247.5	164.69
247.733	171.69
247.966	169.69
248.2	192.69
248.433	179.69
248.666	181.69
248.899	201.69
249.133	190.69
249.366	198.69
249.599	194.69
249.832	180.69
250.066	187.69
250.299	182.69
250.532	193.69
250.765	213.69
250.998	219.69
251.231	222.69
251.465	207.69
251.698	198.69
251.931	203.69
252.164	199.69
252.397	214.69
252.63	204.69
252.863	181.69
253.096	202.69
253.329	203.69
253.562	215.69
253.795	208.69
254.028	220.69
254.261	220.69
254.494	196.69
254.727	234.69
254.96	277.69
255.193	248.69
255.426	235.69
255.659	233.69
255.892	226.69
256.124	236.69
256.357	212.69
256.59	240.69
256.823	206.69
257.056	207.69
257.289	197.69
257.521	193.69
257.754	205.69
257.987	213.69
258.22	220.69
258.452	201.69
258.685	217.69
258.918	206.69
259.151	203.69
259.383	227.69
259.616	237.69
259.849	209.69
260.081	221.69
260.314	238.69
260.547	242.69
260.779	241.69
261.012	214.69
261.244	222.69
261.477	230.69
261.71	215.69
261.942	233.69
262.175	217.69
262.407	206.69
262.64	221.69
262.872	225.69
263.105	223.69
263.337	210.69
263.57	225.69
263.802	207.69
264.035	209.69
264.267	210.69
264.499	220.69
264.732	215.69
264.964	220.69
265.197	213.69
265.429	214.69
265.661	212.69
265.894	227.69
266.126	220.69
266.358	200.69
266.591	220.69
266.823	222.69
267.055	218.69
267.287	239.69
267.52	226.69
267.752	233.69
267.984	228.69
268.216	231.69
268.448	226.69
268.681	243.69
268.913	242.69
269.145	258.69
269.377	257.69
269.609	254.69
269.841	264.69
270.073	260.69
270.306	281.69
270.538	301.69
270.77	301.69
271.002	300.69
271.234	290.69
271.466	280.69
271.698	286.69
271.93	323.69
272.162	297.69
272.394	309.69
272.626	291.69
272.858	295.69
273.09	269.69
273.322	269.69
273.553	283.69
273.785	270.69
274.017	271.69
274.249	251.69
274.481	266.69
274.713	260.69
274.945	268.69
275.176	266.69
275.408	270.69
275.64	269.69
275.872	262.69
276.104	262.69
276.335	259.69
276.567	267.69
276.799	274.69
277.031	313.69
277.262	308.69
277.494	321.69
277.726	297.69
277.957	276.69
278.189	275.69
278.421	277.69
278.652	271.69
278.884	275.69
279.115	267.69
279.347	260.69
279.579	269.69
279.81	280.69
280.042	271.69
280.273	267.69
280.505	280.69
280.736	282.69
280.968	270.69
281.199	262.69
281.431	269.69
281.662	277.69
281.894	280.69
282.125	245.69
282.356	284.69
282.588	311.69
282.819	289.69
283.051	287.69
283.282	285.69
283.513	280.69
283.745	289.69
283.976	295.69
284.207	296.69
284.439	291.69
284.67	282.69
284.901	259.69
285.132	264.69
285.364	263.69
285.595	259.69
285.826	302.69
286.057	292.69
286.288	293.69
286.52	281.69
286.751	294.69
286.982	307.69
287.213	277.69
287.444	281.69
287.675	279.69
287.906	299.69
288.138	320.69
288.369	313.69
288.6	305.69
288.831	299.69
289.062	324.69
289.293	302.69
289.524	308.69
289.755	289.69
289.986	289.69
290.217	294.69
290.448	281.69
290.679	283.69
290.91	309.69
291.141	292.69
291.371	295.69
291.602	285.69
291.833	306.69
292.064	309.69
292.295	295.69
292.526	316.69
292.757	291.69
292.987	307.69
293.218	289.69
293.449	308.69
293.68	314.69
293.91	307.69
294.141	289.69
294.372	291.69
294.603	299.69
294.833	298.69
295.064	294.69
295.295	283.69
295.525	309.69
295.756	309.69
295.987	309.69
296.217	309.69
296.448	343.69
296.679	306.69
296.909	307.69
297.14	295.69
297.37	312.69
297.601	318.69
297.831	294.69
298.062	313.69
298.292	311.69
298.523	305.69
298.753	329.69
298.984	295.69
299.214	315.69
299.445	309.69
299.675	318.69
299.905	317.69
300.136	313.69
300.366	296.69
300.597	325.69
300.827	325.69
301.057	331.69
301.288	314.69
301.518	319.69
301.748	319.69
301.979	330.69
302.209	315.69
302.439	325.69
302.669	321.69
302.9	350.69
303.13	307.69
303.36	329.69
303.59	341.69
303.82	333.69
304.051	335.69
304.281	335.69
304.511	324.69
304.741	332.69
304.971	326.69
305.201	332.69
305.431	344.69
305.661	338.69
305.891	333.69
306.121	315.69
306.352	330.69
306.582	323.69
306.812	326.69
307.042	316.69
307.272	320.69
307.502	321.69
307.731	341.69
307.961	334.69
308.191	315.69
308.421	339.69
308.651	318.69
308.881	335.69
309.111	344.69
309.341	345.69
309.571	348.69
309.8	340.69
310.03	362.69
310.26	353.69
310.49	345.69
310.72	386.69
310.949	379.69
311.179	402.69
311.409	367.69
311.639	356.69
311.868	358.69
312.098	372.69
312.328	361.69
312.557	371.69
312.787	383.69
313.017	377.69
313.246	373.69
313.476	352.69
313.706	360.69
313.935	369.69
314.165	379.69
314.394	372.69
314.624	391.69
314.853	376.69
315.083	387.69
315.312	381.69
315.542	366.69
315.771	366.69
316.001	359.69
316.23	388.69
316.46	358.69
316.689	380.69
316.919	382.69
317.148	358.69
317.377	368.69
317.607	377.69
317.836	386.69
318.065	376.69
318.295	377.69
318.524	369.69
318.753	357.69
318.983	370.69
319.212	350.69
319.441	379.69
319.67	374.69
319.9	358.69
320.129	397.69
320.358	391.69
320.587	382.69
320.816	392.69
321.046	407.69
321.275	409.69
321.504	388.69
321.733	376.69
321.962	393.69
322.191	389.69
322.42	404.69
322.649	409.69
322.878	411.69
323.108	414.69
323.337	429.69
323.566	441.69
323.795	460.69
324.024	506.69
324.253	539.69
324.482	712.69
324.71	1113.69
324.939	1664.69
325.168	1429.69
325.397	746.69
325.626	523.69
325.855	469.69
326.084	433.69
326.313	428.69
326.542	443.69
326.77	482.69
326.999	537.69
327.228	681.69
327.457	993.69
327.686	1238.69
327.914	822.69
328.143	566.69
328.372	521.69
328.6	491.69
328.829	489.69
329.058	494.69
329.287	496.69
329.515	491.69
329.744	473.69
329.972	447.69
330.201	483.69
330.43	519.69
330.658	509.69
330.887	527.69
331.115	501.69
331.344	458.69
331.572	479.69
331.801	472.69
332.03	456.69
332.258	459.69
332.486	453.69
332.715	460.69
332.943	433.69
333.172	456.69
333.4	470.69
333.629	480.69
333.857	461.69
334.085	489.69
334.314	493.69
334.542	487.69
334.771	514.69
334.999	474.69
335.227	483.69
335.455	459.69
335.684	455.69
335.912	463.69
336.14	470.69
336.369	474.69
336.597	441.69
336.825	448.69
337.053	457.69
337.281	458.69
337.51	445.69
337.738	441.69
337.966	443.69
338.194	441.69
338.422	437.69
338.65	426.69
338.878	429.69
339.106	431.69
339.334	441.69
339.562	417.69
339.79	411.69
340.018	397.69
340.246	413.69
340.474	439.69
340.702	432.69
340.93	432.69
341.158	433.69
341.386	430.69
341.614	417.69
341.842	435.69
342.07	423.69
342.298	415.69
342.526	439.69
342.754	411.69
342.981	427.69
343.209	431.69
343.437	409.69
343.665	440.69
343.893	450.69
344.12	476.69
344.348	450.69
344.576	459.69
344.804	455.69
345.031	435.69
345.259	433.69
345.487	427.69
345.714	423.69
345.942	422.69
346.17	410.69
346.397	411.69
346.625	413.69
346.853	424.69
347.08	414.69
347.308	396.69
347.535	418.69
347.763	451.69
347.99	399.69
348.218	406.69
348.445	407.69
348.673	431.69
348.9	425.69
349.128	403.69
349.355	406.69
349.583	425.69
349.81	404.69
350.037	386.69
350.265	408.69
350.492	412.69
350.72	408.69
350.947	403.69
351.174	418.69
351.402	418.69
351.629	423.69
351.856	422.69
352.083	412.69
352.311	437.69
352.538	429.69
352.765	443.69
352.992	413.69
353.22	417.69
353.447	420.69
353.674	421.69
353.901	397.69
354.128	411.69
354.355	395.69
354.583	403.69
354.81	389.69
355.037	428.69
355.264	394.69
355.491	404.69
355.718	400.69
355.945	406.69
356.172	404.69
356.399	411.69
356.626	399.69
356.853	401.69
357.08	379.69
357.307	418.69
357.534	391.69
357.761	410.69
357.988	405.69
358.215	405.69
358.441	404.69
358.668	406.69
358.895	412.69
359.122	420.69
359.349	409.69
359.576	400.69
359.802	421.69
360.029	459.69
360.256	452.69
360.483	442.69
360.709	415.69
360.936	413.69
361.163	411.69
361.39	432.69
361.616	427.69
361.843	399.69
362.07	410.69
362.296	412.69
362.523	433.69
362.749	408.69
362.976	397.69
363.203	437.69
363.429	422.69
363.656	414.69
363.882	398.69
364.109	395.69
364.335	405.69
364.562	415.69
364.788	413.69
365.015	411.69
365.241	435.69
365.468	409.69
365.694	409.69
365.92	411.69
366.147	415.69
366.373	416.69
366.599	415.69
366.826	401.69
367.052	409.69
367.278	403.69
367.505	407.69
367.731	422.69
367.957	390.69
368.184	404.69
368.41	421.69
368.636	430.69
368.862	414.69
369.089	408.69
369.315	413.69
369.541	417.69
369.767	404.69
369.993	427.69
370.219	408.69
370.445	422.69
370.672	387.69
370.898	420.69
371.124	399.69
371.35	412.69
371.576	433.69
371.802	426.69
372.028	424.69
372.254	406.69
372.48	419.69
372.706	428.69
372.932	426.69
373.158	427.69
373.384	437.69
373.61	428.69
373.835	427.69
374.061	417.69
374.287	427.69
374.513	428.69
374.739	421.69
374.965	438.69
375.191	427.69
375.416	459.69
375.642	421.69
375.868	430.69
376.094	440.69
376.319	426.69
376.545	419.69
376.771	421.69
376.997	424.69
377.222	436.69
377.448	407.69
377.674	412.69
377.899	417.69
378.125	425.69
378.35	424.69
378.576	411.69
378.802	417.69
379.027	426.69
379.253	435.69
379.478	411.69
379.704	409.69
379.929	422.69
380.155	429.69
380.38	427.69
380.606	435.69
380.831	427.69
381.057	425.69
381.282	430.69
381.507	429.69
381.733	419.69
381.958	452.69
382.184	450.69
382.409	436.69
382.634	438.69
382.86	437.69
383.085	430.69
383.31	423.69
383.535	435.69
383.761	447.69
383.986	455.69
384.211	429.69
384.436	455.69
384.662	457.69
384.887	457.69
385.112	460.69
385.337	499.69
385.562	457.69
385.787	458.69
386.013	478.69
386.238	484.69
386.463	473.69
386.688	482.69
386.913	473.69
387.138	479.69
387.363	462.69
387.588	472.69
387.813	476.69
388.038	491.69
388.263	478.69
388.488	480.69
388.713	481.69
388.938	474.69
389.163	488.69
389.387	479.69
389.612	471.69
389.837	470.69
390.062	490.69
390.287	465.69
390.512	455.69
390.736	459.69
390.961	475.69
391.186	474.69
391.411	481.69
391.636	499.69
391.86	488.69
392.085	497.69
392.31	497.69
392.534	507.69
392.759	495.69
392.984	481.69
393.208	485.69
393.433	497.69
393.658	480.69
393.882	466.69
394.107	485.69
394.331	500.69
394.556	468.69
394.78	480.69
395.005	490.69
395.229	500.69
395.454	494.69
395.678	510.69
395.903	494.69
396.127	526.69
396.352	550.69
396.576	513.69
396.801	502.69
397.025	504.69
397.249	510.69
397.474	490.69
397.698	502.69
397.922	513.69
398.147	531.69
398.371	530.69
398.595	549.69
398.82	557.69
399.044	557.69
399.268	583.69
399.492	621.69
399.717	665.69
399.941	690.69
400.165	707.69
400.389	678.69
400.613	619.69
400.837	599.69
401.062	567.69
401.286	580.69
401.51	551.69
401.734	557.69
401.958	568.69
402.182	567.69
402.406	556.69
402.63	563.69
402.854	590.69
403.078	551.69
403.302	571.69
403.526	599.69
403.75	593.69
403.974	592.69
404.198	587.69
404.422	597.69
404.645	589.69
404.869	597.69
405.093	631.69
405.317	659.69
405.541	682.69
405.765	641.69
405.988	619.69
406.212	599.69
406.436	600.69
406.66	608.69
406.883	613.69
407.107	658.69
407.331	680.69
407.555	761.69
407.778	754.69
408.002	690.69
408.226	643.69
408.449	649.69
408.673	625.69
408.896	669.69
409.12	693.69
409.344	653.69
409.567	599.69
409.791	605.69
410.014	570.69
410.238	570.69
410.461	590.69
410.685	571.69
410.908	600.69
411.132	653.69
411.355	664.69
411.578	633.69
411.802	599.69
412.025	571.69
412.249	589.69
412.472	605.69
412.695	629.69
412.919	617.69
413.142	600.69
413.365	581.69
413.589	575.69
413.812	556.69
414.035	561.69
414.258	559.69
414.482	558.69
414.705	542.69
414.928	555.69
415.151	578.69
415.374	561.69
415.597	526.69
415.821	539.69
416.044	521.69
416.267	532.69
416.49	548.69
416.713	551.69
416.936	539.69
417.159	543.69
417.382	560.69
417.605	550.69
417.828	563.69
418.051	570.69
418.274	564.69
418.497	561.69
418.72	535.69
418.943	533.69
419.166	574.69
419.389	597.69
419.611	594.69
419.834	585.69
420.057	579.69
420.28	572.69
420.503	565.69
420.726	561.69
420.948	577.69
421.171	611.69
421.394	655.69
421.617	589.69
421.839	563.69
422.062	574.69
422.285	576.69
422.507	634.69
422.73	713.69
422.953	690.69
423.175	611.69
423.398	604.69
423.621	604.69
423.843	617.69
424.066	614.69
424.288	612.69
424.511	629.69
424.733	648.69
424.956	764.69
425.178	728.69
425.401	704.69
425.623	731.69
425.846	647.69
426.068	607.69
426.291	576.69
426.513	589.69
426.735	598.69
426.958	651.69
427.18	719.69
427.402	834.69
427.625	925.69
427.847	765.69
428.069	691.69
428.292	627.69
428.514	590.69
428.736	576.69
428.958	562.69
429.181	559.69
429.403	536.69
429.625	539.69
429.847	590.69
430.069	654.69
430.292	669.69
430.514	563.69
430.736	558.69
430.958	539.69
431.18	527.69
431.402	529.69
431.624	539.69
431.846	518.69
432.068	519.69
432.29	535.69
432.512	526.69
432.734	543.69
432.956	527.69
433.178	534.69
433.4	541.69
433.622	549.69
433.844	521.69
434.066	532.69
434.287	524.69
434.509	524.69
434.731	539.69
434.953	545.69
435.175	565.69
435.397	613.69
435.618	584.69
435.84	647.69
436.062	721.69
436.284	793.69
436.505	647.69
436.727	608.69
436.949	582.69
437.17	561.69
437.392	567.69
437.614	549.69
437.835	576.69
438.057	657.69
438.278	766.69
438.5	761.69
438.721	849.69
438.943	813.69
439.165	656.69
439.386	610.69
439.608	599.69
439.829	600.69
440.05	606.69
440.272	627.69
440.493	623.69
440.715	602.69
440.936	587.69
441.158	549.69
441.379	553.69
441.6	577.69
441.822	605.69
442.043	619.69
442.264	719.69
442.486	757.69
442.707	627.69
442.928	618.69
443.149	617.69
443.371	605.69
443.592	671.69
443.813	783.69
444.034	858.69
444.255	701.69
444.476	641.69
444.698	621.69
444.919	615.69
445.14	731.69
445.361	672.69
445.582	664.69
445.803	671.69
446.024	756.69
446.245	757.69
446.466	729.69
446.687	605.69
446.908	588.69
447.129	566.69
447.35	552.69
447.571	563.69
447.792	539.69
448.013	547.69
448.234	545.69
448.455	605.69
448.675	716.69
448.896	819.69
449.117	709.69
449.338	653.69
449.559	753.69
449.779	885.69
450	696.69
450.221	614.69
450.442	559.69
450.662	521.69
450.883	529.69
451.104	515.69
451.324	520.69
451.545	513.69
451.766	528.69
451.986	486.69
452.207	484.69
452.428	471.69
452.648	493.69
452.869	481.69
453.089	525.69
453.31	499.69
453.53	473.69
453.751	466.69
453.971	494.69
454.192	492.69
454.412	470.69
454.633	497.69
454.853	482.69
455.073	486.69
455.294	502.69
455.514	562.69
455.734	570.69
455.955	490.69
456.175	462.69
456.395	466.69
456.616	446.69
456.836	477.69
457.056	446.69
457.276	462.69
457.497	485.69
457.717	466.69
457.937	475.69
458.157	479.69
458.377	478.69
458.598	502.69
458.818	546.69
459.038	604.69
459.258	631.69
459.478	547.69
459.698	519.69
459.918	541.69
460.138	546.69
460.358	533.69
460.578	537.69
460.798	549.69
461.018	559.69
461.238	546.69
461.458	558.69
461.678	546.69
461.898	546.69
462.118	570.69
462.338	561.69
462.558	569.69
462.777	602.69
462.997	611.69
463.217	634.69
463.437	636.69
463.657	629.69
463.876	606.69
464.096	622.69
464.316	608.69
464.536	619.69
464.755	595.69
464.975	589.69
465.195	577.69
465.414	649.69
465.634	602.69
465.854	537.69
466.073	519.69
466.293	521.69
466.512	503.69
466.732	526.69
466.951	499.69
467.171	501.69
467.391	514.69
467.61	526.69
467.829	527.69
468.049	523.69
468.268	503.69
468.488	487.69
468.707	518.69
468.927	508.69
469.146	502.69
469.365	520.69
469.585	492.69
469.804	507.69
470.023	510.69
470.243	528.69
470.462	521.69
470.681	525.69
470.901	509.69
471.12	515.69
471.339	546.69
471.558	535.69
471.777	521.69
471.997	506.69
472.216	527.69
472.435	533.69
472.654	525.69
472.873	504.69
473.092	518.69
473.311	497.69
473.53	517.69
473.749	503.69
473.968	563.69
474.187	644.69
474.406	652.69
474.625	566.69
474.844	519.69
475.063	513.69
475.282	523.69
475.501	528.69
475.72	532.69
475.939	557.69
476.158	546.69
476.377	515.69
476.596	516.69
476.814	547.69
477.033	556.69
477.252	528.69
477.471	545.69
477.69	544.69
477.908	556.69
478.127	571.69
478.346	566.69
478.564	556.69
478.783	591.69
479.002	599.69
479.22	593.69
479.439	601.69
479.658	628.69
479.876	613.69
480.095	635.69
480.313	648.69
480.532	652.69
480.751	635.69
480.969	654.69
481.188	646.69
481.406	669.69
481.624	643.69
481.843	639.69
482.061	610.69
482.28	615.69
482.498	611.69
482.717	589.69
482.935	607.69
483.153	599.69
483.372	593.69
483.59	565.69
483.808	589.69
484.027	585.69
484.245	614.69
484.463	606.69
484.681	623.69
484.9	620.69
485.118	591.69
485.336	635.69
485.554	633.69
485.772	635.69
485.99	605.69
486.209	627.69
486.427	640.69
486.645	645.69
486.863	641.69
487.081	631.69
487.299	634.69
487.517	622.69
487.735	619.69
487.953	615.69
488.171	642.69
488.389	670.69
488.607	638.69
488.825	635.69
489.043	626.69
489.261	661.69
489.479	666.69
489.696	657.69
489.914	675.69
490.132	650.69
490.35	660.69
490.568	677.69
490.786	682.69
491.003	709.69
491.221	719.69
491.439	714.69
491.657	717.69
491.874	713.69
492.092	745.69
492.31	744.69
492.527	729.69
492.745	737.69
492.963	758.69
493.18	769.69
493.398	773.69
493.615	787.69
493.833	753.69
494.05	767.69
494.268	767.69
494.485	759.69
494.703	729.69
494.92	739.69
495.138	753.69
495.355	750.69
495.573	755.69
495.79	765.69
496.008	751.69
496.225	745.69
496.442	788.69
496.66	781.69
496.877	783.69
497.094	786.69
497.312	795.69
497.529	794.69
497.746	813.69
497.963	797.69
498.181	805.69
498.398	859.69
498.615	855.69
498.832	902.69
499.049	903.69
499.267	926.69
499.484	995.69
499.701	1034.69
499.918	1075.69
500.135	1150.69
500.352	1204.69
500.569	1231.69
500.786	1221.69
501.003	1219.69
501.22	1123.69
501.437	1083.69
501.654	1066.69
