Data from 1974.PennyLincolnUp.Lamp.En5.5.200Scan.071719.P1.Changed Mount._HRD10591_15-54-15-857.txt Node
Date: Thu Jul 18 15:54:15 EDT 2019
User: cochatt
Spectrometer: HR+D1059
Trigger mode: 1
Integration Time (sec): 1.000000E-1
Scans to average: 1
Electric dark correction enabled: true
Nonlinearity correction enabled: false
Boxcar width: 0
XAxis mode: Wavelengths
Number of Pixels in Spectrum: 2048
>>>>>Begin Spectral Data<<<<<
223.165	-12.56
223.4	-12.56
223.635	-12.56
223.869	-4.56
224.104	0.44
224.338	-8.56
224.573	-9.56
224.808	-15.56
225.042	-18.56
225.277	-11.56
225.511	-13.56
225.746	0.44
225.98	2.44
226.215	15.44
226.449	9.44
226.683	11.44
226.918	30.44
227.152	24.44
227.387	44.44
227.621	38.44
227.856	52.44
228.09	44.44
228.324	48.44
228.559	46.44
228.793	70.44
229.027	94.44
229.262	106.44
229.496	118.44
229.73	134.44
229.964	153.44
230.199	142.44
230.433	105.44
230.667	112.44
230.901	121.44
231.136	110.44
231.37	125.44
231.604	118.44
231.838	131.44
232.072	121.44
232.306	116.44
232.541	119.44
232.775	127.44
233.009	115.44
233.243	125.44
233.477	116.44
233.711	128.44
233.945	122.44
234.179	140.44
234.413	113.44
234.647	142.44
234.881	128.44
235.115	117.44
235.349	125.44
235.583	141.44
235.817	130.44
236.051	144.44
236.285	136.44
236.519	128.44
236.753	142.44
236.987	170.44
237.221	187.44
237.455	239.44
237.689	206.44
237.922	145.44
238.156	147.44
238.39	150.44
238.624	132.44
238.858	128.44
239.091	141.44
239.325	142.44
239.559	139.44
239.793	146.44
240.027	144.44
240.26	147.44
240.494	160.44
240.728	170.44
240.961	177.44
241.195	165.44
241.429	159.44
241.662	147.44
241.896	160.44
242.13	142.44
242.363	141.44
242.597	151.44
242.83	139.44
243.064	146.44
243.298	136.44
243.531	134.44
243.765	140.44
243.998	135.44
244.232	162.44
244.465	165.44
244.699	150.44
244.932	164.44
245.166	163.44
245.399	159.44
245.633	166.44
245.866	177.44
246.099	155.44
246.333	169.44
246.566	153.44
246.8	166.44
247.033	159.44
247.266	166.44
247.5	179.44
247.733	191.44
247.966	175.44
248.2	193.44
248.433	177.44
248.666	180.44
248.899	198.44
249.133	213.44
249.366	235.44
249.599	216.44
249.832	204.44
250.066	190.44
250.299	186.44
250.532	205.44
250.765	217.44
250.998	236.44
251.231	239.44
251.465	239.44
251.698	227.44
251.931	221.44
252.164	224.44
252.397	208.44
252.63	220.44
252.863	236.44
253.096	214.44
253.329	248.44
253.562	236.44
253.795	221.44
254.028	239.44
254.261	237.44
254.494	248.44
254.727	264.44
254.96	293.44
255.193	288.44
255.426	247.44
255.659	257.44
255.892	259.44
256.124	261.44
256.357	261.44
256.59	236.44
256.823	232.44
257.056	220.44
257.289	227.44
257.521	234.44
257.754	216.44
257.987	221.44
258.22	249.44
258.452	230.44
258.685	219.44
258.918	218.44
259.151	211.44
259.383	236.44
259.616	234.44
259.849	243.44
260.081	251.44
260.314	255.44
260.547	272.44
260.779	269.44
261.012	241.44
261.244	246.44
261.477	234.44
261.71	223.44
261.942	223.44
262.175	240.44
262.407	254.44
262.64	229.44
262.872	239.44
263.105	225.44
263.337	217.44
263.57	227.44
263.802	250.44
264.035	221.44
264.267	238.44
264.499	224.44
264.732	238.44
264.964	241.44
265.197	247.44
265.429	233.44
265.661	237.44
265.894	240.44
266.126	252.44
266.358	246.44
266.591	230.44
266.823	234.44
267.055	233.44
267.287	249.44
267.52	246.44
267.752	252.44
267.984	237.44
268.216	237.44
268.448	242.44
268.681	246.44
268.913	256.44
269.145	299.44
269.377	314.44
269.609	300.44
269.841	294.44
270.073	275.44
270.306	312.44
270.538	346.44
270.77	334.44
271.002	320.44
271.234	328.44
271.466	336.44
271.698	338.44
271.93	348.44
272.162	343.44
272.394	338.44
272.626	350.44
272.858	327.44
273.09	289.44
273.322	305.44
273.553	296.44
273.785	280.44
274.017	291.44
274.249	291.44
274.481	296.44
274.713	317.44
274.945	290.44
275.176	276.44
275.408	290.44
275.64	294.44
275.872	295.44
276.104	302.44
276.335	299.44
276.567	288.44
276.799	299.44
277.031	333.44
277.262	324.44
277.494	350.44
277.726	324.44
277.957	306.44
278.189	320.44
278.421	300.44
278.652	304.44
278.884	276.44
279.115	303.44
279.347	304.44
279.579	291.44
279.81	296.44
280.042	293.44
280.273	302.44
280.505	295.44
280.736	300.44
280.968	313.44
281.199	292.44
281.431	288.44
281.662	279.44
281.894	294.44
282.125	289.44
282.356	314.44
282.588	320.44
282.819	324.44
283.051	308.44
283.282	289.44
283.513	309.44
283.745	294.44
283.976	323.44
284.207	329.44
284.439	322.44
284.67	315.44
284.901	316.44
285.132	314.44
285.364	296.44
285.595	310.44
285.826	314.44
286.057	316.44
286.288	316.44
286.52	324.44
286.751	302.44
286.982	321.44
287.213	292.44
287.444	287.44
287.675	312.44
287.906	316.44
288.138	310.44
288.369	335.44
288.6	335.44
288.831	325.44
289.062	337.44
289.293	318.44
289.524	334.44
289.755	310.44
289.986	310.44
290.217	311.44
290.448	328.44
290.679	318.44
290.91	318.44
291.141	320.44
291.371	310.44
291.602	321.44
291.833	299.44
292.064	324.44
292.295	341.44
292.526	337.44
292.757	328.44
292.987	322.44
293.218	323.44
293.449	333.44
293.68	334.44
293.91	334.44
294.141	332.44
294.372	317.44
294.603	334.44
294.833	331.44
295.064	340.44
295.295	331.44
295.525	329.44
295.756	345.44
295.987	348.44
296.217	364.44
296.448	353.44
296.679	330.44
296.909	325.44
297.14	336.44
297.37	344.44
297.601	348.44
297.831	336.44
298.062	341.44
298.292	348.44
298.523	349.44
298.753	349.44
298.984	351.44
299.214	361.44
299.445	346.44
299.675	346.44
299.905	368.44
300.136	357.44
300.366	359.44
300.597	352.44
300.827	350.44
301.057	350.44
301.288	379.44
301.518	367.44
301.748	368.44
301.979	373.44
302.209	378.44
302.439	359.44
302.669	354.44
302.9	356.44
303.13	344.44
303.36	349.44
303.59	360.44
303.82	369.44
304.051	376.44
304.281	369.44
304.511	361.44
304.741	364.44
304.971	367.44
305.201	365.44
305.431	370.44
305.661	355.44
305.891	362.44
306.121	370.44
306.352	371.44
306.582	402.44
306.812	380.44
307.042	377.44
307.272	378.44
307.502	376.44
307.731	377.44
307.961	376.44
308.191	367.44
308.421	356.44
308.651	372.44
308.881	374.44
309.111	372.44
309.341	391.44
309.571	398.44
309.8	390.44
310.03	374.44
310.26	400.44
310.49	400.44
310.72	393.44
310.949	403.44
311.179	430.44
311.409	417.44
311.639	409.44
311.868	402.44
312.098	402.44
312.328	402.44
312.557	428.44
312.787	396.44
313.017	418.44
313.246	406.44
313.476	420.44
313.706	399.44
313.935	412.44
314.165	418.44
314.394	433.44
314.624	432.44
314.853	427.44
315.083	421.44
315.312	411.44
315.542	410.44
315.771	416.44
316.001	398.44
316.23	424.44
316.46	404.44
316.689	413.44
316.919	396.44
317.148	431.44
317.377	416.44
317.607	387.44
317.836	407.44
318.065	417.44
318.295	415.44
318.524	440.44
318.753	411.44
318.983	397.44
319.212	408.44
319.441	414.44
319.67	416.44
319.9	433.44
320.129	421.44
320.358	417.44
320.587	438.44
320.816	429.44
321.046	420.44
321.275	429.44
321.504	412.44
321.733	428.44
321.962	440.44
322.191	426.44
322.42	470.44
322.649	484.44
322.878	460.44
323.108	470.44
323.337	493.44
323.566	494.44
323.795	521.44
324.024	568.44
324.253	638.44
324.482	884.44
324.71	1354.44
324.939	2049.44
325.168	1765.44
325.397	888.44
325.626	615.44
325.855	559.44
326.084	516.44
326.313	537.44
326.542	518.44
326.77	566.44
326.999	609.44
327.228	823.44
327.457	1236.44
327.686	1535.44
327.914	1053.44
328.143	687.44
328.372	634.44
328.6	611.44
328.829	582.44
329.058	591.44
329.287	592.44
329.515	565.44
329.744	527.44
329.972	522.44
330.201	542.44
330.43	595.44
330.658	587.44
330.887	630.44
331.115	609.44
331.344	540.44
331.572	537.44
331.801	526.44
332.03	505.44
332.258	508.44
332.486	516.44
332.715	520.44
332.943	484.44
333.172	495.44
333.4	520.44
333.629	518.44
333.857	547.44
334.085	547.44
334.314	575.44
334.542	582.44
334.771	584.44
334.999	551.44
335.227	546.44
335.455	513.44
335.684	486.44
335.912	481.44
336.14	472.44
336.369	505.44
336.597	514.44
336.825	503.44
337.053	491.44
337.281	493.44
337.51	479.44
337.738	477.44
337.966	486.44
338.194	471.44
338.422	476.44
338.65	479.44
338.878	476.44
339.106	480.44
339.334	471.44
339.562	471.44
339.79	493.44
340.018	466.44
340.246	464.44
340.474	467.44
340.702	494.44
340.93	494.44
341.158	466.44
341.386	451.44
341.614	482.44
341.842	469.44
342.07	463.44
342.298	468.44
342.526	462.44
342.754	474.44
342.981	458.44
343.209	470.44
343.437	469.44
343.665	479.44
343.893	469.44
344.12	503.44
344.348	504.44
344.576	512.44
344.804	496.44
345.031	489.44
345.259	487.44
345.487	494.44
345.714	485.44
345.942	469.44
346.17	445.44
346.397	448.44
346.625	462.44
346.853	452.44
347.08	440.44
347.308	462.44
347.535	479.44
347.763	448.44
347.99	468.44
348.218	477.44
348.445	478.44
348.673	469.44
348.9	457.44
349.128	458.44
349.355	465.44
349.583	454.44
349.81	441.44
350.037	448.44
350.265	421.44
350.492	442.44
350.72	436.44
350.947	441.44
351.174	466.44
351.402	462.44
351.629	457.44
351.856	455.44
352.083	470.44
352.311	468.44
352.538	476.44
352.765	464.44
352.992	458.44
353.22	455.44
353.447	469.44
353.674	456.44
353.901	448.44
354.128	427.44
354.355	449.44
354.583	442.44
354.81	454.44
355.037	450.44
355.264	425.44
355.491	436.44
355.718	427.44
355.945	430.44
356.172	437.44
356.399	433.44
356.626	446.44
356.853	436.44
357.08	420.44
357.307	433.44
357.534	414.44
357.761	418.44
357.988	446.44
358.215	434.44
358.441	420.44
358.668	425.44
358.895	446.44
359.122	443.44
359.349	448.44
359.576	456.44
359.802	467.44
360.029	466.44
360.256	519.44
360.483	510.44
360.709	476.44
360.936	463.44
361.163	466.44
361.39	495.44
361.616	471.44
361.843	468.44
362.07	460.44
362.296	475.44
362.523	443.44
362.749	462.44
362.976	470.44
363.203	441.44
363.429	448.44
363.656	429.44
363.882	461.44
364.109	451.44
364.335	455.44
364.562	438.44
364.788	439.44
365.015	456.44
365.241	443.44
365.468	445.44
365.694	443.44
365.92	448.44
366.147	433.44
366.373	438.44
366.599	448.44
366.826	444.44
367.052	458.44
367.278	441.44
367.505	436.44
367.731	427.44
367.957	448.44
368.184	452.44
368.41	447.44
368.636	469.44
368.862	457.44
369.089	460.44
369.315	461.44
369.541	451.44
369.767	444.44
369.993	434.44
370.219	450.44
370.445	436.44
370.672	460.44
370.898	458.44
371.124	448.44
371.35	467.44
371.576	437.44
371.802	437.44
372.028	460.44
372.254	480.44
372.48	446.44
372.706	457.44
372.932	475.44
373.158	471.44
373.384	465.44
373.61	468.44
373.835	452.44
374.061	444.44
374.287	477.44
374.513	476.44
374.739	461.44
374.965	473.44
375.191	473.44
375.416	462.44
375.642	472.44
375.868	464.44
376.094	461.44
376.319	481.44
376.545	477.44
376.771	453.44
376.997	450.44
377.222	449.44
377.448	451.44
377.674	441.44
377.899	445.44
378.125	454.44
378.35	466.44
378.576	444.44
378.802	437.44
379.027	459.44
379.253	477.44
379.478	468.44
379.704	440.44
379.929	472.44
380.155	444.44
380.38	473.44
380.606	430.44
380.831	457.44
381.057	462.44
381.282	458.44
381.507	449.44
381.733	469.44
381.958	473.44
382.184	453.44
382.409	462.44
382.634	446.44
382.86	473.44
383.085	474.44
383.31	481.44
383.535	482.44
383.761	480.44
383.986	488.44
384.211	488.44
384.436	505.44
384.662	497.44
384.887	496.44
385.112	488.44
385.337	487.44
385.562	505.44
385.787	512.44
386.013	519.44
386.238	519.44
386.463	522.44
386.688	506.44
386.913	511.44
387.138	512.44
387.363	536.44
387.588	510.44
387.813	506.44
388.038	502.44
388.263	495.44
388.488	503.44
388.713	520.44
388.938	503.44
389.163	519.44
389.387	513.44
389.612	518.44
389.837	495.44
390.062	520.44
390.287	506.44
390.512	526.44
390.736	488.44
390.961	498.44
391.186	502.44
391.411	498.44
391.636	508.44
391.86	534.44
392.085	534.44
392.31	533.44
392.534	524.44
392.759	571.44
392.984	519.44
393.208	511.44
393.433	524.44
393.658	526.44
393.882	521.44
394.107	501.44
394.331	528.44
394.556	516.44
394.78	539.44
395.005	506.44
395.229	524.44
395.454	540.44
395.678	540.44
395.903	553.44
396.127	572.44
396.352	576.44
396.576	544.44
396.801	552.44
397.025	555.44
397.249	564.44
397.474	573.44
397.698	530.44
397.922	568.44
398.147	588.44
398.371	584.44
398.595	576.44
398.82	570.44
399.044	620.44
399.268	647.44
399.492	685.44
399.717	697.44
399.941	770.44
400.165	766.44
400.389	757.44
400.613	660.44
400.837	662.44
401.062	603.44
401.286	637.44
401.51	622.44
401.734	583.44
401.958	607.44
402.182	602.44
402.406	613.44
402.63	616.44
402.854	607.44
403.078	633.44
403.302	630.44
403.526	648.44
403.75	659.44
403.974	632.44
404.198	635.44
404.422	648.44
404.645	631.44
404.869	672.44
405.093	676.44
405.317	704.44
405.541	754.44
405.765	691.44
405.988	628.44
406.212	662.44
406.436	680.44
406.66	685.44
406.883	676.44
407.107	709.44
407.331	750.44
407.555	815.44
407.778	814.44
408.002	735.44
408.226	702.44
408.449	707.44
408.673	672.44
408.896	706.44
409.12	740.44
409.344	706.44
409.567	659.44
409.791	639.44
410.014	643.44
410.238	616.44
410.461	632.44
410.685	639.44
410.908	624.44
411.132	662.44
411.355	712.44
411.578	684.44
411.802	629.44
412.025	620.44
412.249	628.44
412.472	642.44
412.695	697.44
412.919	651.44
413.142	636.44
413.365	614.44
413.589	613.44
413.812	596.44
414.035	588.44
414.258	591.44
414.482	566.44
414.705	588.44
414.928	600.44
415.151	578.44
415.374	599.44
415.597	591.44
415.821	586.44
416.044	601.44
416.267	619.44
416.49	610.44
416.713	591.44
416.936	588.44
417.159	584.44
417.382	616.44
417.605	593.44
417.828	623.44
418.051	601.44
418.274	629.44
418.497	581.44
418.72	573.44
418.943	594.44
419.166	628.44
419.389	654.44
419.611	672.44
419.834	640.44
420.057	630.44
420.28	642.44
420.503	641.44
420.726	622.44
420.948	633.44
421.171	652.44
421.394	693.44
421.617	634.44
421.839	623.44
422.062	629.44
422.285	618.44
422.507	694.44
422.73	778.44
422.953	746.44
423.175	668.44
423.398	654.44
423.621	659.44
423.843	653.44
424.066	666.44
424.288	649.44
424.511	681.44
424.733	731.44
424.956	833.44
425.178	794.44
425.401	775.44
425.623	780.44
425.846	689.44
426.068	656.44
426.291	612.44
426.513	648.44
426.735	651.44
426.958	703.44
427.18	775.44
427.402	900.44
427.625	990.44
427.847	888.44
428.069	758.44
428.292	695.44
428.514	646.44
428.736	631.44
428.958	629.44
429.181	600.44
429.403	606.44
429.625	606.44
429.847	621.44
430.069	733.44
430.292	732.44
430.514	610.44
430.736	592.44
430.958	591.44
431.18	584.44
431.402	568.44
431.624	575.44
431.846	590.44
432.068	570.44
432.29	597.44
432.512	581.44
432.734	607.44
432.956	588.44
433.178	604.44
433.4	612.44
433.622	599.44
433.844	576.44
434.066	570.44
434.287	554.44
434.509	577.44
434.731	630.44
434.953	602.44
435.175	620.44
435.397	664.44
435.618	640.44
435.84	711.44
436.062	787.44
436.284	854.44
436.505	726.44
436.727	674.44
436.949	637.44
437.17	619.44
437.392	609.44
437.614	620.44
437.835	648.44
438.057	774.44
438.278	839.44
438.5	856.44
438.721	940.44
438.943	897.44
439.165	726.44
439.386	644.44
439.608	645.44
439.829	654.44
440.05	672.44
440.272	725.44
440.493	685.44
440.715	633.44
440.936	629.44
441.158	606.44
441.379	613.44
441.6	624.44
441.822	661.44
442.043	696.44
442.264	811.44
442.486	846.44
442.707	734.44
442.928	682.44
443.149	686.44
443.371	699.44
443.592	726.44
443.813	813.44
444.034	922.44
444.255	774.44
444.476	708.44
444.698	653.44
444.919	702.44
445.14	810.44
445.361	716.44
445.582	699.44
445.803	768.44
446.024	899.44
446.245	878.44
446.466	794.44
446.687	676.44
446.908	656.44
447.129	626.44
447.35	595.44
447.571	592.44
447.792	602.44
448.013	608.44
448.234	621.44
448.455	666.44
448.675	790.44
448.896	940.44
449.117	780.44
449.338	734.44
449.559	838.44
449.779	965.44
450	742.44
450.221	623.44
450.442	604.44
450.662	567.44
450.883	575.44
451.104	575.44
451.324	577.44
451.545	583.44
451.766	559.44
451.986	538.44
452.207	542.44
452.428	526.44
452.648	538.44
452.869	552.44
453.089	542.44
453.31	560.44
453.53	545.44
453.751	538.44
453.971	528.44
454.192	574.44
454.412	556.44
454.633	567.44
454.853	505.44
455.073	506.44
455.294	566.44
455.514	635.44
455.734	621.44
455.955	519.44
456.175	512.44
456.395	500.44
456.616	497.44
456.836	525.44
457.056	504.44
457.276	503.44
457.497	501.44
457.717	511.44
457.937	520.44
458.157	529.44
458.377	548.44
458.598	543.44
458.818	605.44
459.038	682.44
459.258	719.44
459.478	619.44
459.698	602.44
459.918	576.44
460.138	554.44
460.358	607.44
460.578	588.44
460.798	596.44
461.018	604.44
461.238	584.44
461.458	605.44
461.678	612.44
461.898	602.44
462.118	584.44
462.338	614.44
462.558	616.44
462.777	621.44
462.997	672.44
463.217	681.44
463.437	686.44
463.657	673.44
463.876	638.44
464.096	673.44
464.316	662.44
464.536	630.44
464.755	640.44
464.975	655.44
465.195	665.44
465.414	704.44
465.634	676.44
465.854	610.44
466.073	575.44
466.293	561.44
466.512	572.44
466.732	556.44
466.951	554.44
467.171	562.44
467.391	566.44
467.61	545.44
467.829	570.44
468.049	580.44
468.268	565.44
468.488	536.44
468.707	575.44
468.927	558.44
469.146	550.44
469.365	549.44
469.585	551.44
469.804	565.44
470.023	575.44
470.243	569.44
470.462	553.44
470.681	577.44
470.901	572.44
471.12	574.44
471.339	568.44
471.558	574.44
471.777	554.44
471.997	570.44
472.216	569.44
472.435	587.44
472.654	582.44
472.873	552.44
473.092	564.44
473.311	546.44
473.53	562.44
473.749	569.44
473.968	609.44
474.187	742.44
474.406	738.44
474.625	610.44
474.844	576.44
475.063	571.44
475.282	558.44
475.501	582.44
475.72	576.44
475.939	567.44
476.158	572.44
476.377	596.44
476.596	579.44
476.814	583.44
477.033	574.44
477.252	590.44
477.471	613.44
477.69	609.44
477.908	633.44
478.127	616.44
478.346	616.44
478.564	605.44
478.783	619.44
479.002	658.44
479.22	664.44
479.439	671.44
479.658	656.44
479.876	677.44
480.095	662.44
480.313	717.44
480.532	705.44
480.751	685.44
480.969	716.44
481.188	721.44
481.406	768.44
481.624	708.44
481.843	679.44
482.061	658.44
482.28	665.44
482.498	638.44
482.717	668.44
482.935	647.44
483.153	635.44
483.372	648.44
483.59	664.44
483.808	625.44
484.027	663.44
484.245	670.44
484.463	702.44
484.681	676.44
484.9	662.44
485.118	656.44
485.336	667.44
485.554	673.44
485.772	676.44
485.99	662.44
486.209	670.44
486.427	663.44
486.645	685.44
486.863	726.44
487.081	708.44
487.299	720.44
487.517	700.44
487.735	722.44
487.953	695.44
488.171	707.44
488.389	721.44
488.607	711.44
488.825	669.44
489.043	698.44
489.261	715.44
489.479	718.44
489.696	722.44
489.914	741.44
490.132	749.44
490.35	723.44
490.568	749.44
490.786	761.44
491.003	787.44
491.221	770.44
491.439	801.44
491.657	810.44
491.874	820.44
492.092	798.44
492.31	815.44
492.527	815.44
492.745	812.44
492.963	812.44
493.18	807.44
493.398	861.44
493.615	855.44
493.833	860.44
494.05	841.44
494.268	842.44
494.485	820.44
494.703	818.44
494.92	832.44
495.138	844.44
495.355	839.44
495.573	864.44
495.79	831.44
496.008	870.44
496.225	824.44
496.442	844.44
496.66	853.44
496.877	845.44
497.094	857.44
497.312	837.44
497.529	884.44
497.746	878.44
497.963	881.44
498.181	918.44
498.398	937.44
498.615	931.44
498.832	980.44
499.049	1008.44
499.267	1008.44
499.484	1080.44
499.701	1138.44
499.918	1174.44
500.135	1236.44
500.352	1306.44
500.569	1344.44
500.786	1345.44
501.003	1333.44
501.22	1280.44
501.437	1190.44
501.654	1152.44
