Data from 1974.PennyLincolnUp.Lamp.En5.5.200Scan.071719.P1.Changed Mount._HRD10591_15-53-01-856.txt Node
Date: Thu Jul 18 15:53:01 EDT 2019
User: cochatt
Spectrometer: HR+D1059
Trigger mode: 1
Integration Time (sec): 1.000000E-1
Scans to average: 1
Electric dark correction enabled: true
Nonlinearity correction enabled: false
Boxcar width: 0
XAxis mode: Wavelengths
Number of Pixels in Spectrum: 2048
>>>>>Begin Spectral Data<<<<<
223.165	-23.31
223.4	-23.31
223.635	-23.31
223.869	-9.31
224.104	-13.31
224.338	-8.31
224.573	-12.31
224.808	1.69
225.042	-15.31
225.277	-9.31
225.511	-0.31
225.746	-10.31
225.98	9.69
226.215	-2.31
226.449	13.69
226.683	24.69
226.918	19.69
227.152	34.69
227.387	36.69
227.621	26.69
227.856	53.69
228.09	52.69
228.324	47.69
228.559	62.69
228.793	73.69
229.027	111.69
229.262	124.69
229.496	119.69
229.73	132.69
229.964	150.69
230.199	130.69
230.433	117.69
230.667	116.69
230.901	121.69
231.136	126.69
231.37	120.69
231.604	121.69
231.838	125.69
232.072	111.69
232.306	127.69
232.541	117.69
232.775	123.69
233.009	108.69
233.243	128.69
233.477	126.69
233.711	127.69
233.945	136.69
234.179	131.69
234.413	139.69
234.647	137.69
234.881	129.69
235.115	123.69
235.349	133.69
235.583	130.69
235.817	127.69
236.051	131.69
236.285	125.69
236.519	120.69
236.753	155.69
236.987	147.69
237.221	189.69
237.455	227.69
237.689	192.69
237.922	150.69
238.156	146.69
238.39	136.69
238.624	144.69
238.858	141.69
239.091	132.69
239.325	135.69
239.559	127.69
239.793	143.69
240.027	147.69
240.26	150.69
240.494	171.69
240.728	165.69
240.961	172.69
241.195	158.69
241.429	153.69
241.662	143.69
241.896	142.69
242.13	150.69
242.363	139.69
242.597	143.69
242.83	140.69
243.064	152.69
243.298	146.69
243.531	151.69
243.765	159.69
243.998	151.69
244.232	168.69
244.465	148.69
244.699	168.69
244.932	168.69
245.166	165.69
245.399	164.69
245.633	166.69
245.866	168.69
246.099	155.69
246.333	164.69
246.566	181.69
246.8	167.69
247.033	173.69
247.266	176.69
247.5	182.69
247.733	184.69
247.966	195.69
248.2	184.69
248.433	179.69
248.666	201.69
248.899	185.69
249.133	212.69
249.366	225.69
249.599	228.69
249.832	206.69
250.066	207.69
250.299	199.69
250.532	217.69
250.765	223.69
250.998	241.69
251.231	240.69
251.465	236.69
251.698	228.69
251.931	216.69
252.164	217.69
252.397	214.69
252.63	220.69
252.863	231.69
253.096	236.69
253.329	255.69
253.562	240.69
253.795	244.69
254.028	236.69
254.261	232.69
254.494	240.69
254.727	266.69
254.96	301.69
255.193	279.69
255.426	262.69
255.659	260.69
255.892	271.69
256.124	232.69
256.357	234.69
256.59	234.69
256.823	236.69
257.056	236.69
257.289	225.69
257.521	218.69
257.754	238.69
257.987	233.69
258.22	228.69
258.452	227.69
258.685	232.69
258.918	231.69
259.151	237.69
259.383	250.69
259.616	240.69
259.849	253.69
260.081	249.69
260.314	270.69
260.547	303.69
260.779	278.69
261.012	245.69
261.244	265.69
261.477	241.69
261.71	253.69
261.942	244.69
262.175	271.69
262.407	240.69
262.64	248.69
262.872	231.69
263.105	251.69
263.337	245.69
263.57	239.69
263.802	241.69
264.035	245.69
264.267	240.69
264.499	239.69
264.732	228.69
264.964	228.69
265.197	247.69
265.429	248.69
265.661	231.69
265.894	245.69
266.126	251.69
266.358	236.69
266.591	235.69
266.823	250.69
267.055	241.69
267.287	267.69
267.52	255.69
267.752	248.69
267.984	265.69
268.216	256.69
268.448	285.69
268.681	261.69
268.913	250.69
269.145	274.69
269.377	314.69
269.609	326.69
269.841	306.69
270.073	302.69
270.306	318.69
270.538	336.69
270.77	342.69
271.002	325.69
271.234	347.69
271.466	337.69
271.698	319.69
271.93	335.69
272.162	347.69
272.394	340.69
272.626	318.69
272.858	325.69
273.09	299.69
273.322	323.69
273.553	282.69
273.785	282.69
274.017	289.69
274.249	289.69
274.481	266.69
274.713	300.69
274.945	310.69
275.176	296.69
275.408	308.69
275.64	302.69
275.872	298.69
276.104	288.69
276.335	310.69
276.567	303.69
276.799	320.69
277.031	333.69
277.262	353.69
277.494	349.69
277.726	329.69
277.957	344.69
278.189	314.69
278.421	303.69
278.652	311.69
278.884	295.69
279.115	296.69
279.347	319.69
279.579	317.69
279.81	310.69
280.042	291.69
280.273	299.69
280.505	286.69
280.736	294.69
280.968	292.69
281.199	301.69
281.431	294.69
281.662	304.69
281.894	303.69
282.125	320.69
282.356	326.69
282.588	338.69
282.819	339.69
283.051	318.69
283.282	301.69
283.513	303.69
283.745	313.69
283.976	331.69
284.207	326.69
284.439	315.69
284.67	316.69
284.901	323.69
285.132	328.69
285.364	310.69
285.595	311.69
285.826	326.69
286.057	316.69
286.288	296.69
286.52	320.69
286.751	323.69
286.982	333.69
287.213	307.69
287.444	320.69
287.675	324.69
287.906	333.69
288.138	343.69
288.369	343.69
288.6	341.69
288.831	343.69
289.062	326.69
289.293	332.69
289.524	331.69
289.755	317.69
289.986	328.69
290.217	333.69
290.448	321.69
290.679	318.69
290.91	344.69
291.141	340.69
291.371	329.69
291.602	327.69
291.833	332.69
292.064	329.69
292.295	339.69
292.526	317.69
292.757	346.69
292.987	333.69
293.218	323.69
293.449	320.69
293.68	315.69
293.91	341.69
294.141	349.69
294.372	323.69
294.603	341.69
294.833	339.69
295.064	315.69
295.295	337.69
295.525	332.69
295.756	332.69
295.987	351.69
296.217	365.69
296.448	374.69
296.679	347.69
296.909	338.69
297.14	336.69
297.37	351.69
297.601	339.69
297.831	351.69
298.062	362.69
298.292	348.69
298.523	354.69
298.753	339.69
298.984	336.69
299.214	357.69
299.445	332.69
299.675	364.69
299.905	334.69
300.136	340.69
300.366	345.69
300.597	369.69
300.827	354.69
301.057	392.69
301.288	382.69
301.518	390.69
301.748	372.69
301.979	393.69
302.209	375.69
302.439	363.69
302.669	356.69
302.9	365.69
303.13	366.69
303.36	382.69
303.59	364.69
303.82	374.69
304.051	379.69
304.281	359.69
304.511	369.69
304.741	378.69
304.971	385.69
305.201	387.69
305.431	368.69
305.661	356.69
305.891	382.69
306.121	347.69
306.352	396.69
306.582	371.69
306.812	371.69
307.042	375.69
307.272	369.69
307.502	375.69
307.731	379.69
307.961	378.69
308.191	358.69
308.421	369.69
308.651	365.69
308.881	381.69
309.111	387.69
309.341	378.69
309.571	393.69
309.8	394.69
310.03	404.69
310.26	415.69
310.49	395.69
310.72	419.69
310.949	455.69
311.179	444.69
311.409	435.69
311.639	414.69
311.868	413.69
312.098	413.69
312.328	426.69
312.557	424.69
312.787	437.69
313.017	456.69
313.246	432.69
313.476	413.69
313.706	428.69
313.935	427.69
314.165	442.69
314.394	429.69
314.624	425.69
314.853	429.69
315.083	416.69
315.312	421.69
315.542	429.69
315.771	428.69
316.001	414.69
316.23	432.69
316.46	433.69
316.689	427.69
316.919	407.69
317.148	429.69
317.377	436.69
317.607	425.69
317.836	427.69
318.065	415.69
318.295	421.69
318.524	427.69
318.753	453.69
318.983	424.69
319.212	422.69
319.441	409.69
319.67	412.69
319.9	428.69
320.129	405.69
320.358	418.69
320.587	432.69
320.816	451.69
321.046	437.69
321.275	460.69
321.504	430.69
321.733	452.69
321.962	471.69
322.191	452.69
322.42	442.69
322.649	470.69
322.878	479.69
323.108	456.69
323.337	501.69
323.566	519.69
323.795	538.69
324.024	579.69
324.253	658.69
324.482	896.69
324.71	1368.69
324.939	1997.69
325.168	1759.69
325.397	935.69
325.626	650.69
325.855	581.69
326.084	529.69
326.313	523.69
326.542	509.69
326.77	570.69
326.999	618.69
327.228	843.69
327.457	1233.69
327.686	1533.69
327.914	1070.69
328.143	701.69
328.372	641.69
328.6	599.69
328.829	585.69
329.058	585.69
329.287	602.69
329.515	584.69
329.744	523.69
329.972	541.69
330.201	575.69
330.43	588.69
330.658	604.69
330.887	614.69
331.115	602.69
331.344	540.69
331.572	523.69
331.801	541.69
332.03	543.69
332.258	528.69
332.486	509.69
332.715	489.69
332.943	527.69
333.172	529.69
333.4	508.69
333.629	529.69
333.857	550.69
334.085	587.69
334.314	569.69
334.542	572.69
334.771	583.69
334.999	563.69
335.227	534.69
335.455	548.69
335.684	520.69
335.912	518.69
336.14	509.69
336.369	527.69
336.597	504.69
336.825	519.69
337.053	517.69
337.281	495.69
337.51	505.69
337.738	509.69
337.966	517.69
338.194	516.69
338.422	509.69
338.65	503.69
338.878	484.69
339.106	485.69
339.334	497.69
339.562	488.69
339.79	503.69
340.018	507.69
340.246	489.69
340.474	478.69
340.702	493.69
340.93	509.69
341.158	482.69
341.386	493.69
341.614	485.69
341.842	493.69
342.07	485.69
342.298	497.69
342.526	469.69
342.754	494.69
342.981	476.69
343.209	463.69
343.437	479.69
343.665	494.69
343.893	501.69
344.12	495.69
344.348	509.69
344.576	473.69
344.804	487.69
345.031	504.69
345.259	507.69
345.487	491.69
345.714	481.69
345.942	478.69
346.17	464.69
346.397	475.69
346.625	489.69
346.853	462.69
347.08	461.69
347.308	469.69
347.535	488.69
347.763	488.69
347.99	472.69
348.218	472.69
348.445	484.69
348.673	493.69
348.9	468.69
349.128	480.69
349.355	458.69
349.583	474.69
349.81	451.69
350.037	457.69
350.265	463.69
350.492	468.69
350.72	459.69
350.947	439.69
351.174	480.69
351.402	468.69
351.629	483.69
351.856	445.69
352.083	466.69
352.311	471.69
352.538	470.69
352.765	494.69
352.992	479.69
353.22	473.69
353.447	462.69
353.674	442.69
353.901	445.69
354.128	461.69
354.355	453.69
354.583	453.69
354.81	445.69
355.037	454.69
355.264	462.69
355.491	442.69
355.718	457.69
355.945	444.69
356.172	451.69
356.399	448.69
356.626	439.69
356.853	429.69
357.08	445.69
357.307	446.69
357.534	441.69
357.761	443.69
357.988	454.69
358.215	454.69
358.441	452.69
358.668	440.69
358.895	447.69
359.122	481.69
359.349	465.69
359.576	485.69
359.802	483.69
360.029	499.69
360.256	533.69
360.483	534.69
360.709	472.69
360.936	464.69
361.163	486.69
361.39	469.69
361.616	485.69
361.843	495.69
362.07	482.69
362.296	474.69
362.523	451.69
362.749	480.69
362.976	459.69
363.203	463.69
363.429	459.69
363.656	456.69
363.882	469.69
364.109	453.69
364.335	469.69
364.562	474.69
364.788	465.69
365.015	455.69
365.241	450.69
365.468	465.69
365.694	460.69
365.92	460.69
366.147	452.69
366.373	454.69
366.599	464.69
366.826	468.69
367.052	441.69
367.278	447.69
367.505	463.69
367.731	481.69
367.957	448.69
368.184	446.69
368.41	459.69
368.636	468.69
368.862	464.69
369.089	493.69
369.315	477.69
369.541	451.69
369.767	472.69
369.993	464.69
370.219	471.69
370.445	449.69
370.672	452.69
370.898	469.69
371.124	460.69
371.35	456.69
371.576	475.69
371.802	469.69
372.028	488.69
372.254	464.69
372.48	463.69
372.706	490.69
372.932	468.69
373.158	472.69
373.384	477.69
373.61	460.69
373.835	480.69
374.061	463.69
374.287	469.69
374.513	455.69
374.739	479.69
374.965	477.69
375.191	492.69
375.416	484.69
375.642	481.69
375.868	471.69
376.094	480.69
376.319	477.69
376.545	444.69
376.771	457.69
376.997	483.69
377.222	460.69
377.448	460.69
377.674	483.69
377.899	473.69
378.125	460.69
378.35	459.69
378.576	459.69
378.802	474.69
379.027	464.69
379.253	478.69
379.478	476.69
379.704	472.69
379.929	458.69
380.155	461.69
380.38	459.69
380.606	479.69
380.831	480.69
381.057	477.69
381.282	454.69
381.507	469.69
381.733	478.69
381.958	470.69
382.184	465.69
382.409	478.69
382.634	490.69
382.86	473.69
383.085	492.69
383.31	495.69
383.535	492.69
383.761	483.69
383.986	506.69
384.211	520.69
384.436	517.69
384.662	485.69
384.887	509.69
385.112	523.69
385.337	506.69
385.562	545.69
385.787	526.69
386.013	531.69
386.238	530.69
386.463	524.69
386.688	511.69
386.913	515.69
387.138	528.69
387.363	526.69
387.588	536.69
387.813	509.69
388.038	497.69
388.263	540.69
388.488	521.69
388.713	514.69
388.938	521.69
389.163	547.69
389.387	537.69
389.612	506.69
389.837	531.69
390.062	523.69
390.287	507.69
390.512	540.69
390.736	522.69
390.961	521.69
391.186	545.69
391.411	539.69
391.636	535.69
391.86	556.69
392.085	560.69
392.31	540.69
392.534	532.69
392.759	521.69
392.984	558.69
393.208	545.69
393.433	523.69
393.658	525.69
393.882	530.69
394.107	535.69
394.331	541.69
394.556	540.69
394.78	530.69
395.005	521.69
395.229	539.69
395.454	571.69
395.678	550.69
395.903	567.69
396.127	570.69
396.352	576.69
396.576	540.69
396.801	565.69
397.025	547.69
397.249	564.69
397.474	560.69
397.698	589.69
397.922	594.69
398.147	587.69
398.371	596.69
398.595	604.69
398.82	592.69
399.044	599.69
399.268	663.69
399.492	724.69
399.717	770.69
399.941	791.69
400.165	786.69
400.389	778.69
400.613	706.69
400.837	667.69
401.062	652.69
401.286	616.69
401.51	612.69
401.734	598.69
401.958	595.69
402.182	626.69
402.406	637.69
402.63	649.69
402.854	643.69
403.078	639.69
403.302	654.69
403.526	660.69
403.75	670.69
403.974	673.69
404.198	666.69
404.422	667.69
404.645	661.69
404.869	653.69
405.093	687.69
405.317	735.69
405.541	749.69
405.765	728.69
405.988	669.69
406.212	675.69
406.436	695.69
406.66	711.69
406.883	710.69
407.107	703.69
407.331	757.69
407.555	819.69
407.778	832.69
408.002	808.69
408.226	738.69
408.449	700.69
408.673	712.69
408.896	748.69
409.12	803.69
409.344	735.69
409.567	675.69
409.791	667.69
410.014	655.69
410.238	636.69
410.461	648.69
410.685	641.69
410.908	654.69
411.132	695.69
411.355	733.69
411.578	725.69
411.802	666.69
412.025	632.69
412.249	636.69
412.472	671.69
412.695	717.69
412.919	709.69
413.142	659.69
413.365	647.69
413.589	637.69
413.812	614.69
414.035	627.69
414.258	611.69
414.482	634.69
414.705	632.69
414.928	607.69
415.151	598.69
415.374	615.69
415.597	602.69
415.821	598.69
416.044	617.69
416.267	619.69
416.49	596.69
416.713	588.69
416.936	614.69
417.159	596.69
417.382	621.69
417.605	634.69
417.828	631.69
418.051	634.69
418.274	643.69
418.497	592.69
418.72	606.69
418.943	611.69
419.166	639.69
419.389	694.69
419.611	689.69
419.834	660.69
420.057	691.69
420.28	654.69
420.503	656.69
420.726	609.69
420.948	648.69
421.171	678.69
421.394	741.69
421.617	662.69
421.839	652.69
422.062	626.69
422.285	658.69
422.507	699.69
422.73	807.69
422.953	783.69
423.175	705.69
423.398	647.69
423.621	679.69
423.843	658.69
424.066	691.69
424.288	697.69
424.511	694.69
424.733	758.69
424.956	826.69
425.178	817.69
425.401	813.69
425.623	829.69
425.846	713.69
426.068	673.69
426.291	682.69
426.513	677.69
426.735	666.69
426.958	716.69
427.18	800.69
427.402	939.69
427.625	1011.69
427.847	881.69
428.069	785.69
428.292	715.69
428.514	664.69
428.736	641.69
428.958	647.69
429.181	617.69
429.403	618.69
429.625	638.69
429.847	655.69
430.069	741.69
430.292	722.69
430.514	640.69
430.736	638.69
430.958	608.69
431.18	616.69
431.402	610.69
431.624	592.69
431.846	616.69
432.068	574.69
432.29	584.69
432.512	590.69
432.734	601.69
432.956	588.69
433.178	598.69
433.4	612.69
433.622	609.69
433.844	607.69
434.066	583.69
434.287	602.69
434.509	596.69
434.731	616.69
434.953	625.69
435.175	630.69
435.397	668.69
435.618	684.69
435.84	686.69
436.062	834.69
436.284	880.69
436.505	731.69
436.727	663.69
436.949	645.69
437.17	635.69
437.392	612.69
437.614	621.69
437.835	603.69
438.057	748.69
438.278	878.69
438.5	854.69
438.721	963.69
438.943	898.69
439.165	732.69
439.386	672.69
439.608	677.69
439.829	680.69
440.05	671.69
440.272	728.69
440.493	696.69
440.715	675.69
440.936	655.69
441.158	618.69
441.379	640.69
441.6	634.69
441.822	651.69
442.043	710.69
442.264	807.69
442.486	843.69
442.707	719.69
442.928	671.69
443.149	688.69
443.371	708.69
443.592	747.69
443.813	883.69
444.034	941.69
444.255	803.69
444.476	702.69
444.698	699.69
444.919	694.69
445.14	776.69
445.361	751.69
445.582	723.69
445.803	760.69
446.024	866.69
446.245	883.69
446.466	823.69
446.687	725.69
446.908	681.69
447.129	642.69
447.35	646.69
447.571	618.69
447.792	628.69
448.013	612.69
448.234	643.69
448.455	700.69
448.675	804.69
448.896	931.69
449.117	773.69
449.338	733.69
449.559	842.69
449.779	977.69
450	786.69
450.221	647.69
450.442	607.69
450.662	613.69
450.883	607.69
451.104	606.69
451.324	588.69
451.545	566.69
451.766	551.69
451.986	562.69
452.207	550.69
452.428	536.69
452.648	545.69
452.869	541.69
453.089	558.69
453.31	565.69
453.53	541.69
453.751	557.69
453.971	543.69
454.192	554.69
454.412	540.69
454.633	552.69
454.853	552.69
455.073	523.69
455.294	550.69
455.514	634.69
455.734	611.69
455.955	557.69
456.175	549.69
456.395	510.69
456.616	540.69
456.836	524.69
457.056	525.69
457.276	523.69
457.497	521.69
457.717	529.69
457.937	540.69
458.157	533.69
458.377	533.69
458.598	580.69
458.818	604.69
459.038	674.69
459.258	695.69
459.478	637.69
459.698	613.69
459.918	618.69
460.138	580.69
460.358	618.69
460.578	607.69
460.798	627.69
461.018	639.69
461.238	629.69
461.458	617.69
461.678	615.69
461.898	608.69
462.118	602.69
462.338	618.69
462.558	639.69
462.777	671.69
462.997	693.69
463.217	719.69
463.437	695.69
463.657	667.69
463.876	654.69
464.096	665.69
464.316	660.69
464.536	650.69
464.755	669.69
464.975	672.69
465.195	688.69
465.414	743.69
465.634	658.69
465.854	641.69
466.073	613.69
466.293	600.69
466.512	582.69
466.732	572.69
466.951	571.69
467.171	572.69
467.391	579.69
467.61	573.69
467.829	587.69
468.049	614.69
468.268	563.69
468.488	557.69
468.707	559.69
468.927	541.69
469.146	532.69
469.365	577.69
469.585	541.69
469.804	564.69
470.023	583.69
470.243	585.69
470.462	606.69
470.681	607.69
470.901	619.69
471.12	582.69
471.339	584.69
471.558	576.69
471.777	570.69
471.997	556.69
472.216	577.69
472.435	614.69
472.654	581.69
472.873	568.69
473.092	573.69
473.311	567.69
473.53	557.69
473.749	587.69
473.968	617.69
474.187	715.69
474.406	771.69
474.625	639.69
474.844	613.69
475.063	563.69
475.282	594.69
475.501	588.69
475.72	573.69
475.939	581.69
476.158	593.69
476.377	583.69
476.596	584.69
476.814	611.69
477.033	593.69
477.252	616.69
477.471	620.69
477.69	616.69
477.908	635.69
478.127	633.69
478.346	633.69
478.564	650.69
478.783	659.69
479.002	665.69
479.22	671.69
479.439	687.69
479.658	708.69
479.876	697.69
480.095	701.69
480.313	748.69
480.532	729.69
480.751	717.69
480.969	734.69
481.188	750.69
481.406	771.69
481.624	735.69
481.843	691.69
482.061	675.69
482.28	658.69
482.498	707.69
482.717	668.69
482.935	687.69
483.153	695.69
483.372	675.69
483.59	663.69
483.808	662.69
484.027	665.69
484.245	679.69
484.463	667.69
484.681	680.69
484.9	707.69
485.118	692.69
485.336	673.69
485.554	697.69
485.772	701.69
485.99	704.69
486.209	696.69
486.427	686.69
486.645	718.69
486.863	704.69
487.081	720.69
487.299	718.69
487.517	733.69
487.735	710.69
487.953	721.69
488.171	732.69
488.389	741.69
488.607	720.69
488.825	742.69
489.043	715.69
489.261	735.69
489.479	739.69
489.696	726.69
489.914	743.69
490.132	748.69
490.35	775.69
490.568	784.69
490.786	758.69
491.003	769.69
491.221	785.69
491.439	812.69
491.657	830.69
491.874	806.69
492.092	845.69
492.31	824.69
492.527	803.69
492.745	833.69
492.963	845.69
493.18	869.69
493.398	860.69
493.615	874.69
493.833	866.69
494.05	841.69
494.268	869.69
494.485	895.69
494.703	861.69
494.92	867.69
495.138	865.69
495.355	863.69
495.573	869.69
495.79	865.69
496.008	876.69
496.225	864.69
496.442	867.69
496.66	874.69
496.877	844.69
497.094	889.69
497.312	883.69
497.529	860.69
497.746	897.69
497.963	911.69
498.181	915.69
498.398	936.69
498.615	967.69
498.832	989.69
499.049	1047.69
499.267	1071.69
499.484	1097.69
499.701	1157.69
499.918	1219.69
500.135	1298.69
500.352	1367.69
500.569	1360.69
500.786	1386.69
501.003	1351.69
501.22	1292.69
501.437	1234.69
