Data from 1974.PennyLincolnUp.Lamp.En5.5.200Scan.071719.P1.Changed Mount._HRD10591_15-51-15-855.txt Node
Date: Thu Jul 18 15:51:15 EDT 2019
User: cochatt
Spectrometer: HR+D1059
Trigger mode: 1
Integration Time (sec): 1.000000E-1
Scans to average: 1
Electric dark correction enabled: true
Nonlinearity correction enabled: false
Boxcar width: 0
XAxis mode: Wavelengths
Number of Pixels in Spectrum: 2048
>>>>>Begin Spectral Data<<<<<
223.165	-7.81
223.4	-7.81
223.635	-7.81
223.869	-26.81
224.104	-19.81
224.338	-26.81
224.573	-26.81
224.808	-13.81
225.042	4.19
225.277	-4.81
225.511	-6.81
225.746	-9.81
225.98	9.19
226.215	28.19
226.449	20.19
226.683	16.19
226.918	26.19
227.152	39.19
227.387	29.19
227.621	28.19
227.856	46.19
228.09	40.19
228.324	43.19
228.559	49.19
228.793	65.19
229.027	97.19
229.262	89.19
229.496	106.19
229.73	125.19
229.964	149.19
230.199	110.19
230.433	94.19
230.667	110.19
230.901	118.19
231.136	97.19
231.37	112.19
231.604	90.19
231.838	119.19
232.072	120.19
232.306	112.19
232.541	122.19
232.775	104.19
233.009	123.19
233.243	109.19
233.477	122.19
233.711	126.19
233.945	117.19
234.179	108.19
234.413	114.19
234.647	103.19
234.881	116.19
235.115	117.19
235.349	104.19
235.583	98.19
235.817	113.19
236.051	120.19
236.285	121.19
236.519	121.19
236.753	122.19
236.987	136.19
237.221	177.19
237.455	206.19
237.689	157.19
237.922	141.19
238.156	134.19
238.39	122.19
238.624	119.19
238.858	132.19
239.091	136.19
239.325	119.19
239.559	124.19
239.793	147.19
240.027	145.19
240.26	141.19
240.494	146.19
240.728	131.19
240.961	153.19
241.195	133.19
241.429	129.19
241.662	134.19
241.896	124.19
242.13	139.19
242.363	127.19
242.597	131.19
242.83	133.19
243.064	131.19
243.298	139.19
243.531	141.19
243.765	140.19
243.998	142.19
244.232	130.19
244.465	151.19
244.699	155.19
244.932	143.19
245.166	137.19
245.399	138.19
245.633	152.19
245.866	146.19
246.099	158.19
246.333	153.19
246.566	137.19
246.8	148.19
247.033	158.19
247.266	161.19
247.5	141.19
247.733	152.19
247.966	185.19
248.2	176.19
248.433	180.19
248.666	164.19
248.899	175.19
249.133	187.19
249.366	186.19
249.599	181.19
249.832	176.19
250.066	173.19
250.299	168.19
250.532	185.19
250.765	193.19
250.998	206.19
251.231	204.19
251.465	210.19
251.698	210.19
251.931	208.19
252.164	178.19
252.397	182.19
252.63	193.19
252.863	177.19
253.096	201.19
253.329	212.19
253.562	184.19
253.795	199.19
254.028	197.19
254.261	191.19
254.494	210.19
254.727	238.19
254.96	257.19
255.193	244.19
255.426	232.19
255.659	205.19
255.892	204.19
256.124	202.19
256.357	217.19
256.59	206.19
256.823	207.19
257.056	180.19
257.289	193.19
257.521	190.19
257.754	187.19
257.987	190.19
258.22	204.19
258.452	212.19
258.685	195.19
258.918	197.19
259.151	181.19
259.383	212.19
259.616	211.19
259.849	211.19
260.081	220.19
260.314	231.19
260.547	233.19
260.779	222.19
261.012	226.19
261.244	200.19
261.477	192.19
261.71	213.19
261.942	198.19
262.175	216.19
262.407	197.19
262.64	200.19
262.872	184.19
263.105	205.19
263.337	192.19
263.57	202.19
263.802	203.19
264.035	218.19
264.267	212.19
264.499	197.19
264.732	214.19
264.964	216.19
265.197	217.19
265.429	207.19
265.661	198.19
265.894	201.19
266.126	219.19
266.358	211.19
266.591	209.19
266.823	220.19
267.055	241.19
267.287	224.19
267.52	233.19
267.752	212.19
267.984	219.19
268.216	228.19
268.448	220.19
268.681	208.19
268.913	213.19
269.145	249.19
269.377	238.19
269.609	260.19
269.841	234.19
270.073	244.19
270.306	261.19
270.538	285.19
270.77	292.19
271.002	268.19
271.234	271.19
271.466	262.19
271.698	286.19
271.93	273.19
272.162	276.19
272.394	284.19
272.626	272.19
272.858	267.19
273.09	254.19
273.322	249.19
273.553	240.19
273.785	261.19
274.017	238.19
274.249	232.19
274.481	255.19
274.713	254.19
274.945	237.19
275.176	264.19
275.408	260.19
275.64	236.19
275.872	252.19
276.104	248.19
276.335	248.19
276.567	248.19
276.799	251.19
277.031	271.19
277.262	289.19
277.494	288.19
277.726	290.19
277.957	265.19
278.189	270.19
278.421	247.19
278.652	254.19
278.884	249.19
279.115	262.19
279.347	258.19
279.579	244.19
279.81	249.19
280.042	266.19
280.273	267.19
280.505	256.19
280.736	258.19
280.968	245.19
281.199	251.19
281.431	243.19
281.662	248.19
281.894	260.19
282.125	256.19
282.356	261.19
282.588	290.19
282.819	260.19
283.051	268.19
283.282	262.19
283.513	240.19
283.745	261.19
283.976	262.19
284.207	248.19
284.439	262.19
284.67	282.19
284.901	283.19
285.132	289.19
285.364	270.19
285.595	256.19
285.826	280.19
286.057	270.19
286.288	267.19
286.52	273.19
286.751	288.19
286.982	277.19
287.213	269.19
287.444	256.19
287.675	292.19
287.906	279.19
288.138	295.19
288.369	274.19
288.6	300.19
288.831	273.19
289.062	284.19
289.293	281.19
289.524	273.19
289.755	284.19
289.986	282.19
290.217	269.19
290.448	295.19
290.679	278.19
290.91	284.19
291.141	285.19
291.371	269.19
291.602	286.19
291.833	289.19
292.064	264.19
292.295	290.19
292.526	284.19
292.757	294.19
292.987	282.19
293.218	292.19
293.449	297.19
293.68	295.19
293.91	294.19
294.141	282.19
294.372	285.19
294.603	281.19
294.833	273.19
295.064	284.19
295.295	294.19
295.525	290.19
295.756	290.19
295.987	299.19
296.217	306.19
296.448	282.19
296.679	297.19
296.909	291.19
297.14	305.19
297.37	311.19
297.601	299.19
297.831	291.19
298.062	301.19
298.292	308.19
298.523	300.19
298.753	313.19
298.984	287.19
299.214	299.19
299.445	308.19
299.675	306.19
299.905	315.19
300.136	290.19
300.366	311.19
300.597	310.19
300.827	297.19
301.057	329.19
301.288	308.19
301.518	308.19
301.748	322.19
301.979	300.19
302.209	324.19
302.439	328.19
302.669	317.19
302.9	306.19
303.13	310.19
303.36	321.19
303.59	305.19
303.82	321.19
304.051	336.19
304.281	315.19
304.511	310.19
304.741	315.19
304.971	313.19
305.201	320.19
305.431	323.19
305.661	320.19
305.891	315.19
306.121	317.19
306.352	329.19
306.582	333.19
306.812	316.19
307.042	305.19
307.272	306.19
307.502	325.19
307.731	327.19
307.961	309.19
308.191	310.19
308.421	310.19
308.651	325.19
308.881	320.19
309.111	325.19
309.341	318.19
309.571	326.19
309.8	321.19
310.03	334.19
310.26	330.19
310.49	338.19
310.72	353.19
310.949	361.19
311.179	340.19
311.409	343.19
311.639	347.19
311.868	344.19
312.098	329.19
312.328	357.19
312.557	356.19
312.787	357.19
313.017	350.19
313.246	341.19
313.476	356.19
313.706	338.19
313.935	337.19
314.165	354.19
314.394	376.19
314.624	351.19
314.853	360.19
315.083	337.19
315.312	368.19
315.542	368.19
315.771	355.19
316.001	324.19
316.23	339.19
316.46	342.19
316.689	354.19
316.919	352.19
317.148	356.19
317.377	356.19
317.607	358.19
317.836	341.19
318.065	346.19
318.295	356.19
318.524	344.19
318.753	350.19
318.983	355.19
319.212	355.19
319.441	357.19
319.67	346.19
319.9	367.19
320.129	346.19
320.358	351.19
320.587	344.19
320.816	362.19
321.046	352.19
321.275	369.19
321.504	374.19
321.733	353.19
321.962	363.19
322.191	374.19
322.42	376.19
322.649	388.19
322.878	396.19
323.108	388.19
323.337	385.19
323.566	405.19
323.795	426.19
324.024	440.19
324.253	508.19
324.482	637.19
324.71	995.19
324.939	1444.19
325.168	1297.19
325.397	635.19
325.626	491.19
325.855	439.19
326.084	421.19
326.313	429.19
326.542	436.19
326.77	443.19
326.999	478.19
327.228	608.19
327.457	894.19
327.686	1102.19
327.914	765.19
328.143	536.19
328.372	489.19
328.6	449.19
328.829	438.19
329.058	442.19
329.287	457.19
329.515	453.19
329.744	427.19
329.972	419.19
330.201	429.19
330.43	455.19
330.658	456.19
330.887	493.19
331.115	485.19
331.344	453.19
331.572	409.19
331.801	428.19
332.03	427.19
332.258	424.19
332.486	412.19
332.715	419.19
332.943	418.19
333.172	403.19
333.4	408.19
333.629	435.19
333.857	457.19
334.085	451.19
334.314	457.19
334.542	460.19
334.771	474.19
334.999	458.19
335.227	445.19
335.455	431.19
335.684	458.19
335.912	435.19
336.14	431.19
336.369	422.19
336.597	414.19
336.825	442.19
337.053	416.19
337.281	416.19
337.51	423.19
337.738	418.19
337.966	420.19
338.194	415.19
338.422	419.19
338.65	402.19
338.878	424.19
339.106	410.19
339.334	418.19
339.562	402.19
339.79	401.19
340.018	393.19
340.246	398.19
340.474	417.19
340.702	409.19
340.93	411.19
341.158	406.19
341.386	415.19
341.614	429.19
341.842	399.19
342.07	399.19
342.298	409.19
342.526	406.19
342.754	393.19
342.981	396.19
343.209	417.19
343.437	402.19
343.665	417.19
343.893	423.19
344.12	429.19
344.348	430.19
344.576	441.19
344.804	422.19
345.031	408.19
345.259	416.19
345.487	398.19
345.714	394.19
345.942	419.19
346.17	397.19
346.397	386.19
346.625	397.19
346.853	378.19
347.08	384.19
347.308	392.19
347.535	406.19
347.763	414.19
347.99	378.19
348.218	394.19
348.445	392.19
348.673	405.19
348.9	397.19
349.128	391.19
349.355	377.19
349.583	384.19
349.81	392.19
350.037	382.19
350.265	398.19
350.492	380.19
350.72	378.19
350.947	389.19
351.174	396.19
351.402	406.19
351.629	395.19
351.856	397.19
352.083	410.19
352.311	409.19
352.538	404.19
352.765	404.19
352.992	402.19
353.22	395.19
353.447	396.19
353.674	409.19
353.901	414.19
354.128	392.19
354.355	391.19
354.583	361.19
354.81	355.19
355.037	395.19
355.264	375.19
355.491	357.19
355.718	368.19
355.945	369.19
356.172	368.19
356.399	384.19
356.626	378.19
356.853	382.19
357.08	380.19
357.307	371.19
357.534	382.19
357.761	396.19
357.988	382.19
358.215	404.19
358.441	377.19
358.668	398.19
358.895	397.19
359.122	386.19
359.349	387.19
359.576	421.19
359.802	411.19
360.029	422.19
360.256	402.19
360.483	421.19
360.709	402.19
360.936	387.19
361.163	389.19
361.39	403.19
361.616	400.19
361.843	392.19
362.07	398.19
362.296	389.19
362.523	397.19
362.749	412.19
362.976	379.19
363.203	378.19
363.429	370.19
363.656	381.19
363.882	388.19
364.109	402.19
364.335	421.19
364.562	400.19
364.788	390.19
365.015	380.19
365.241	387.19
365.468	384.19
365.694	394.19
365.92	397.19
366.147	396.19
366.373	378.19
366.599	404.19
366.826	375.19
367.052	382.19
367.278	381.19
367.505	394.19
367.731	387.19
367.957	388.19
368.184	409.19
368.41	398.19
368.636	399.19
368.862	389.19
369.089	379.19
369.315	411.19
369.541	427.19
369.767	400.19
369.993	389.19
370.219	399.19
370.445	398.19
370.672	378.19
370.898	383.19
371.124	385.19
371.35	428.19
371.576	399.19
371.802	393.19
372.028	406.19
372.254	407.19
372.48	390.19
372.706	407.19
372.932	404.19
373.158	410.19
373.384	421.19
373.61	406.19
373.835	427.19
374.061	424.19
374.287	413.19
374.513	406.19
374.739	429.19
374.965	413.19
375.191	418.19
375.416	420.19
375.642	424.19
375.868	429.19
376.094	412.19
376.319	413.19
376.545	398.19
376.771	401.19
376.997	406.19
377.222	403.19
377.448	422.19
377.674	405.19
377.899	424.19
378.125	402.19
378.35	408.19
378.576	397.19
378.802	418.19
379.027	404.19
379.253	406.19
379.478	417.19
379.704	390.19
379.929	392.19
380.155	400.19
380.38	393.19
380.606	420.19
380.831	403.19
381.057	416.19
381.282	419.19
381.507	402.19
381.733	419.19
381.958	425.19
382.184	423.19
382.409	414.19
382.634	432.19
382.86	447.19
383.085	467.19
383.31	441.19
383.535	424.19
383.761	416.19
383.986	448.19
384.211	460.19
384.436	439.19
384.662	470.19
384.887	452.19
385.112	453.19
385.337	442.19
385.562	446.19
385.787	441.19
386.013	467.19
386.238	472.19
386.463	476.19
386.688	476.19
386.913	470.19
387.138	456.19
387.363	448.19
387.588	457.19
387.813	454.19
388.038	470.19
388.263	466.19
388.488	461.19
388.713	461.19
388.938	457.19
389.163	446.19
389.387	471.19
389.612	444.19
389.837	446.19
390.062	443.19
390.287	436.19
390.512	432.19
390.736	450.19
390.961	456.19
391.186	463.19
391.411	466.19
391.636	465.19
391.86	477.19
392.085	479.19
392.31	471.19
392.534	485.19
392.759	476.19
392.984	469.19
393.208	485.19
393.433	477.19
393.658	485.19
393.882	454.19
394.107	450.19
394.331	453.19
394.556	458.19
394.78	460.19
395.005	464.19
395.229	479.19
395.454	492.19
395.678	480.19
395.903	490.19
396.127	512.19
396.352	493.19
396.576	484.19
396.801	479.19
397.025	492.19
397.249	507.19
397.474	493.19
397.698	481.19
397.922	484.19
398.147	512.19
398.371	524.19
398.595	514.19
398.82	521.19
399.044	546.19
399.268	552.19
399.492	600.19
399.717	646.19
399.941	661.19
400.165	660.19
400.389	654.19
400.613	580.19
400.837	578.19
401.062	530.19
401.286	554.19
401.51	554.19
401.734	522.19
401.958	550.19
402.182	557.19
402.406	553.19
402.63	525.19
402.854	526.19
403.078	543.19
403.302	551.19
403.526	557.19
403.75	555.19
403.974	561.19
404.198	546.19
404.422	564.19
404.645	547.19
404.869	561.19
405.093	554.19
405.317	602.19
405.541	658.19
405.765	595.19
405.988	579.19
406.212	590.19
406.436	570.19
406.66	611.19
406.883	579.19
407.107	616.19
407.331	660.19
407.555	730.19
407.778	710.19
408.002	658.19
408.226	627.19
408.449	610.19
408.673	634.19
408.896	624.19
409.12	655.19
409.344	642.19
409.567	589.19
409.791	550.19
410.014	557.19
410.238	554.19
410.461	534.19
410.685	553.19
410.908	569.19
411.132	601.19
411.355	635.19
411.578	619.19
411.802	567.19
412.025	554.19
412.249	544.19
412.472	579.19
412.695	608.19
412.919	601.19
413.142	562.19
413.365	542.19
413.589	550.19
413.812	522.19
414.035	520.19
414.258	522.19
414.482	530.19
414.705	533.19
414.928	540.19
415.151	510.19
415.374	545.19
415.597	538.19
415.821	516.19
416.044	520.19
416.267	541.19
416.49	532.19
416.713	509.19
416.936	519.19
417.159	522.19
417.382	525.19
417.605	563.19
417.828	532.19
418.051	556.19
418.274	531.19
418.497	517.19
418.72	525.19
418.943	541.19
419.166	526.19
419.389	580.19
419.611	566.19
419.834	564.19
420.057	556.19
420.28	550.19
420.503	536.19
420.726	530.19
420.948	546.19
421.171	580.19
421.394	631.19
421.617	544.19
421.839	522.19
422.062	556.19
422.285	553.19
422.507	605.19
422.73	682.19
422.953	665.19
423.175	574.19
423.398	569.19
423.621	568.19
423.843	573.19
424.066	569.19
424.288	593.19
424.511	584.19
424.733	652.19
424.956	710.19
425.178	663.19
425.401	690.19
425.623	682.19
425.846	608.19
426.068	557.19
426.291	557.19
426.513	571.19
426.735	569.19
426.958	583.19
427.18	681.19
427.402	807.19
427.625	862.19
427.847	703.19
428.069	626.19
428.292	579.19
428.514	536.19
428.736	525.19
428.958	552.19
429.181	530.19
429.403	505.19
429.625	531.19
429.847	557.19
430.069	614.19
430.292	628.19
430.514	533.19
430.736	520.19
430.958	528.19
431.18	504.19
431.402	505.19
431.624	515.19
431.846	513.19
432.068	497.19
432.29	497.19
432.512	503.19
432.734	521.19
432.956	515.19
433.178	527.19
433.4	517.19
433.622	496.19
433.844	512.19
434.066	490.19
434.287	504.19
434.509	511.19
434.731	541.19
434.953	544.19
435.175	558.19
435.397	571.19
435.618	566.19
435.84	603.19
436.062	651.19
436.284	731.19
436.505	651.19
436.727	590.19
436.949	523.19
437.17	526.19
437.392	517.19
437.614	539.19
437.835	568.19
438.057	626.19
438.278	721.19
438.5	716.19
438.721	792.19
438.943	779.19
439.165	625.19
439.386	552.19
439.608	572.19
439.829	562.19
440.05	589.19
440.272	609.19
440.493	581.19
440.715	564.19
440.936	524.19
441.158	525.19
441.379	541.19
441.6	548.19
441.822	535.19
442.043	588.19
442.264	677.19
442.486	708.19
442.707	617.19
442.928	600.19
443.149	616.19
443.371	601.19
443.592	632.19
443.813	720.19
444.034	789.19
444.255	679.19
444.476	598.19
444.698	586.19
444.919	596.19
445.14	712.19
445.361	634.19
445.582	621.19
445.803	645.19
446.024	764.19
446.245	732.19
446.466	692.19
446.687	619.19
446.908	573.19
447.129	536.19
447.35	538.19
447.571	510.19
447.792	499.19
448.013	511.19
448.234	547.19
448.455	590.19
448.675	678.19
448.896	766.19
449.117	663.19
449.338	620.19
449.559	740.19
449.779	837.19
450	664.19
450.221	557.19
450.442	530.19
450.662	502.19
450.883	514.19
451.104	486.19
451.324	495.19
451.545	488.19
451.766	471.19
451.986	467.19
452.207	440.19
452.428	454.19
452.648	468.19
452.869	486.19
453.089	462.19
453.31	485.19
453.53	468.19
453.751	458.19
453.971	461.19
454.192	477.19
454.412	469.19
454.633	448.19
454.853	458.19
455.073	457.19
455.294	492.19
455.514	549.19
455.734	520.19
455.955	465.19
456.175	475.19
456.395	449.19
456.616	436.19
456.836	452.19
457.056	430.19
457.276	453.19
457.497	443.19
457.717	438.19
457.937	439.19
458.157	448.19
458.377	491.19
458.598	482.19
458.818	509.19
459.038	568.19
459.258	595.19
459.478	538.19
459.698	490.19
459.918	501.19
460.138	517.19
460.358	513.19
460.578	525.19
460.798	522.19
461.018	550.19
461.238	532.19
461.458	509.19
461.678	530.19
461.898	534.19
462.118	525.19
462.338	559.19
462.558	547.19
462.777	588.19
462.997	561.19
463.217	609.19
463.437	609.19
463.657	597.19
463.876	565.19
464.096	601.19
464.316	546.19
464.536	564.19
464.755	572.19
464.975	545.19
465.195	553.19
465.414	582.19
465.634	551.19
465.854	529.19
466.073	517.19
466.293	516.19
466.512	488.19
466.732	497.19
466.951	494.19
467.171	485.19
467.391	483.19
467.61	490.19
467.829	503.19
468.049	485.19
468.268	489.19
468.488	498.19
468.707	452.19
468.927	458.19
469.146	480.19
469.365	475.19
469.585	470.19
469.804	481.19
470.023	521.19
470.243	500.19
470.462	512.19
470.681	496.19
470.901	526.19
471.12	502.19
471.339	499.19
471.558	492.19
471.777	501.19
471.997	470.19
472.216	507.19
472.435	494.19
472.654	497.19
472.873	481.19
473.092	487.19
473.311	485.19
473.53	505.19
473.749	481.19
473.968	511.19
474.187	625.19
474.406	628.19
474.625	513.19
474.844	521.19
475.063	486.19
475.282	489.19
475.501	492.19
475.72	501.19
475.939	510.19
476.158	497.19
476.377	486.19
476.596	508.19
476.814	528.19
477.033	532.19
477.252	498.19
477.471	525.19
477.69	530.19
477.908	550.19
478.127	558.19
478.346	561.19
478.564	556.19
478.783	552.19
479.002	588.19
479.22	575.19
479.439	584.19
479.658	573.19
479.876	589.19
480.095	597.19
480.313	621.19
480.532	636.19
480.751	616.19
480.969	604.19
481.188	622.19
481.406	633.19
481.624	615.19
481.843	593.19
482.061	565.19
482.28	585.19
482.498	569.19
482.717	569.19
482.935	566.19
483.153	599.19
483.372	588.19
483.59	566.19
483.808	586.19
484.027	585.19
484.245	583.19
484.463	579.19
484.681	589.19
484.9	597.19
485.118	600.19
485.336	597.19
485.554	600.19
485.772	610.19
485.99	604.19
486.209	595.19
486.427	603.19
486.645	590.19
486.863	653.19
487.081	620.19
487.299	628.19
487.517	643.19
487.735	602.19
487.953	612.19
488.171	622.19
488.389	592.19
488.607	638.19
488.825	620.19
489.043	626.19
489.261	636.19
489.479	632.19
489.696	641.19
489.914	619.19
490.132	644.19
490.35	646.19
490.568	654.19
490.786	652.19
491.003	668.19
491.221	677.19
491.439	680.19
491.657	694.19
491.874	736.19
492.092	706.19
492.31	727.19
492.527	704.19
492.745	734.19
492.963	712.19
493.18	729.19
493.398	713.19
493.615	759.19
493.833	717.19
494.05	706.19
494.268	727.19
494.485	727.19
494.703	706.19
494.92	737.19
495.138	725.19
495.355	742.19
495.573	721.19
495.79	731.19
496.008	736.19
496.225	730.19
496.442	723.19
496.66	754.19
496.877	745.19
497.094	768.19
497.312	728.19
497.529	764.19
497.746	791.19
497.963	802.19
498.181	808.19
498.398	826.19
498.615	841.19
498.832	850.19
499.049	883.19
499.267	911.19
499.484	939.19
499.701	975.19
499.918	1060.19
500.135	1106.19
500.352	1155.19
500.569	1187.19
500.786	1197.19
501.003	1154.19
501.22	1150.19
501.437	1065.19
501.654	995.19
