Data from 1974.PennyLincolnUp.Lamp.En5.5.200Scan.071719.P1.Changed Mount._HRD10591_15-53-25-857.txt Node
Date: Thu Jul 18 15:53:25 EDT 2019
User: cochatt
Spectrometer: HR+D1059
Trigger mode: 1
Integration Time (sec): 1.000000E-1
Scans to average: 1
Electric dark correction enabled: true
Nonlinearity correction enabled: false
Boxcar width: 0
XAxis mode: Wavelengths
Number of Pixels in Spectrum: 2048
>>>>>Begin Spectral Data<<<<<
223.165	-5.44
223.4	-5.44
223.635	-5.44
223.869	-15.44
224.104	-21.44
224.338	-17.44
224.573	1.56
224.808	-15.44
225.042	-28.44
225.277	6.56
225.511	12.56
225.746	1.56
225.98	5.56
226.215	7.56
226.449	14.56
226.683	5.56
226.918	18.56
227.152	29.56
227.387	29.56
227.621	29.56
227.856	36.56
228.09	49.56
228.324	65.56
228.559	42.56
228.793	75.56
229.027	91.56
229.262	98.56
229.496	132.56
229.73	138.56
229.964	157.56
230.199	125.56
230.433	115.56
230.667	101.56
230.901	125.56
231.136	111.56
231.37	122.56
231.604	122.56
231.838	97.56
232.072	119.56
232.306	117.56
232.541	109.56
232.775	119.56
233.009	113.56
233.243	123.56
233.477	136.56
233.711	119.56
233.945	150.56
234.179	119.56
234.413	122.56
234.647	107.56
234.881	111.56
235.115	113.56
235.349	137.56
235.583	117.56
235.817	128.56
236.051	117.56
236.285	134.56
236.519	134.56
236.753	140.56
236.987	156.56
237.221	184.56
237.455	250.56
237.689	189.56
237.922	169.56
238.156	142.56
238.39	144.56
238.624	137.56
238.858	121.56
239.091	136.56
239.325	139.56
239.559	130.56
239.793	139.56
240.027	135.56
240.26	159.56
240.494	163.56
240.728	164.56
240.961	155.56
241.195	147.56
241.429	162.56
241.662	151.56
241.896	150.56
242.13	150.56
242.363	147.56
242.597	140.56
242.83	135.56
243.064	148.56
243.298	157.56
243.531	158.56
243.765	174.56
243.998	167.56
244.232	153.56
244.465	167.56
244.699	157.56
244.932	154.56
245.166	157.56
245.399	153.56
245.633	167.56
245.866	167.56
246.099	155.56
246.333	155.56
246.566	158.56
246.8	167.56
247.033	183.56
247.266	181.56
247.5	183.56
247.733	183.56
247.966	186.56
248.2	185.56
248.433	187.56
248.666	190.56
248.899	210.56
249.133	205.56
249.366	221.56
249.599	205.56
249.832	201.56
250.066	215.56
250.299	197.56
250.532	193.56
250.765	219.56
250.998	256.56
251.231	239.56
251.465	229.56
251.698	233.56
251.931	222.56
252.164	211.56
252.397	219.56
252.63	230.56
252.863	227.56
253.096	229.56
253.329	247.56
253.562	245.56
253.795	232.56
254.028	219.56
254.261	233.56
254.494	242.56
254.727	273.56
254.96	303.56
255.193	291.56
255.426	270.56
255.659	277.56
255.892	253.56
256.124	244.56
256.357	244.56
256.59	246.56
256.823	256.56
257.056	240.56
257.289	233.56
257.521	224.56
257.754	226.56
257.987	213.56
258.22	221.56
258.452	231.56
258.685	217.56
258.918	226.56
259.151	225.56
259.383	238.56
259.616	236.56
259.849	228.56
260.081	262.56
260.314	271.56
260.547	271.56
260.779	254.56
261.012	257.56
261.244	246.56
261.477	229.56
261.71	220.56
261.942	242.56
262.175	249.56
262.407	227.56
262.64	235.56
262.872	209.56
263.105	224.56
263.337	230.56
263.57	237.56
263.802	226.56
264.035	224.56
264.267	245.56
264.499	245.56
264.732	240.56
264.964	248.56
265.197	251.56
265.429	235.56
265.661	230.56
265.894	236.56
266.126	239.56
266.358	244.56
266.591	224.56
266.823	233.56
267.055	247.56
267.287	243.56
267.52	235.56
267.752	244.56
267.984	248.56
268.216	243.56
268.448	250.56
268.681	244.56
268.913	261.56
269.145	293.56
269.377	292.56
269.609	296.56
269.841	293.56
270.073	305.56
270.306	309.56
270.538	340.56
270.77	343.56
271.002	333.56
271.234	310.56
271.466	330.56
271.698	309.56
271.93	351.56
272.162	348.56
272.394	347.56
272.626	318.56
272.858	303.56
273.09	303.56
273.322	283.56
273.553	296.56
273.785	288.56
274.017	287.56
274.249	287.56
274.481	292.56
274.713	287.56
274.945	309.56
275.176	294.56
275.408	300.56
275.64	302.56
275.872	274.56
276.104	280.56
276.335	283.56
276.567	300.56
276.799	320.56
277.031	334.56
277.262	351.56
277.494	341.56
277.726	310.56
277.957	330.56
278.189	308.56
278.421	306.56
278.652	284.56
278.884	309.56
279.115	293.56
279.347	302.56
279.579	328.56
279.81	308.56
280.042	300.56
280.273	289.56
280.505	290.56
280.736	290.56
280.968	295.56
281.199	323.56
281.431	297.56
281.662	315.56
281.894	315.56
282.125	298.56
282.356	309.56
282.588	331.56
282.819	350.56
283.051	318.56
283.282	307.56
283.513	307.56
283.745	305.56
283.976	295.56
284.207	320.56
284.439	315.56
284.67	319.56
284.901	333.56
285.132	307.56
285.364	315.56
285.595	312.56
285.826	309.56
286.057	327.56
286.288	313.56
286.52	326.56
286.751	313.56
286.982	309.56
287.213	313.56
287.444	316.56
287.675	326.56
287.906	318.56
288.138	337.56
288.369	341.56
288.6	339.56
288.831	325.56
289.062	330.56
289.293	335.56
289.524	330.56
289.755	325.56
289.986	323.56
290.217	325.56
290.448	330.56
290.679	320.56
290.91	305.56
291.141	324.56
291.371	316.56
291.602	329.56
291.833	329.56
292.064	335.56
292.295	331.56
292.526	316.56
292.757	335.56
292.987	315.56
293.218	325.56
293.449	330.56
293.68	328.56
293.91	314.56
294.141	334.56
294.372	333.56
294.603	343.56
294.833	323.56
295.064	324.56
295.295	321.56
295.525	340.56
295.756	337.56
295.987	337.56
296.217	351.56
296.448	370.56
296.679	345.56
296.909	333.56
297.14	342.56
297.37	329.56
297.601	335.56
297.831	330.56
298.062	334.56
298.292	354.56
298.523	364.56
298.753	332.56
298.984	344.56
299.214	360.56
299.445	379.56
299.675	358.56
299.905	336.56
300.136	344.56
300.366	360.56
300.597	365.56
300.827	361.56
301.057	361.56
301.288	361.56
301.518	358.56
301.748	383.56
301.979	362.56
302.209	361.56
302.439	366.56
302.669	374.56
302.9	364.56
303.13	358.56
303.36	381.56
303.59	370.56
303.82	372.56
304.051	388.56
304.281	375.56
304.511	361.56
304.741	367.56
304.971	373.56
305.201	351.56
305.431	375.56
305.661	361.56
305.891	358.56
306.121	375.56
306.352	362.56
306.582	373.56
306.812	373.56
307.042	367.56
307.272	355.56
307.502	381.56
307.731	381.56
307.961	369.56
308.191	377.56
308.421	397.56
308.651	376.56
308.881	361.56
309.111	377.56
309.341	373.56
309.571	369.56
309.8	386.56
310.03	391.56
310.26	391.56
310.49	404.56
310.72	411.56
310.949	397.56
311.179	433.56
311.409	414.56
311.639	405.56
311.868	420.56
312.098	416.56
312.328	413.56
312.557	431.56
312.787	441.56
313.017	443.56
313.246	415.56
313.476	395.56
313.706	419.56
313.935	410.56
314.165	417.56
314.394	445.56
314.624	427.56
314.853	425.56
315.083	423.56
315.312	410.56
315.542	408.56
315.771	413.56
316.001	413.56
316.23	399.56
316.46	414.56
316.689	417.56
316.919	406.56
317.148	434.56
317.377	428.56
317.607	424.56
317.836	405.56
318.065	419.56
318.295	428.56
318.524	435.56
318.753	410.56
318.983	410.56
319.212	419.56
319.441	415.56
319.67	393.56
319.9	400.56
320.129	416.56
320.358	421.56
320.587	408.56
320.816	394.56
321.046	431.56
321.275	430.56
321.504	430.56
321.733	432.56
321.962	437.56
322.191	437.56
322.42	455.56
322.649	450.56
322.878	455.56
323.108	482.56
323.337	498.56
323.566	501.56
323.795	537.56
324.024	579.56
324.253	682.56
324.482	895.56
324.71	1333.56
324.939	1998.56
325.168	1731.56
325.397	899.56
325.626	650.56
325.855	552.56
326.084	514.56
326.313	503.56
326.542	504.56
326.77	565.56
326.999	637.56
327.228	821.56
327.457	1223.56
327.686	1510.56
327.914	1051.56
328.143	689.56
328.372	611.56
328.6	563.56
328.829	574.56
329.058	582.56
329.287	599.56
329.515	553.56
329.744	558.56
329.972	531.56
330.201	550.56
330.43	562.56
330.658	602.56
330.887	620.56
331.115	603.56
331.344	547.56
331.572	504.56
331.801	526.56
332.03	502.56
332.258	508.56
332.486	513.56
332.715	491.56
332.943	509.56
333.172	506.56
333.4	491.56
333.629	522.56
333.857	546.56
334.085	542.56
334.314	539.56
334.542	591.56
334.771	604.56
334.999	557.56
335.227	546.56
335.455	503.56
335.684	511.56
335.912	497.56
336.14	517.56
336.369	512.56
336.597	510.56
336.825	498.56
337.053	513.56
337.281	494.56
337.51	499.56
337.738	488.56
337.966	509.56
338.194	510.56
338.422	490.56
338.65	478.56
338.878	486.56
339.106	510.56
339.334	477.56
339.562	482.56
339.79	501.56
340.018	479.56
340.246	491.56
340.474	498.56
340.702	471.56
340.93	478.56
341.158	477.56
341.386	485.56
341.614	483.56
341.842	471.56
342.07	474.56
342.298	478.56
342.526	460.56
342.754	453.56
342.981	463.56
343.209	482.56
343.437	480.56
343.665	469.56
343.893	502.56
344.12	531.56
344.348	508.56
344.576	493.56
344.804	507.56
345.031	493.56
345.259	487.56
345.487	494.56
345.714	466.56
345.942	470.56
346.17	475.56
346.397	480.56
346.625	477.56
346.853	459.56
347.08	452.56
347.308	485.56
347.535	465.56
347.763	477.56
347.99	455.56
348.218	475.56
348.445	467.56
348.673	477.56
348.9	463.56
349.128	459.56
349.355	449.56
349.583	468.56
349.81	457.56
350.037	449.56
350.265	439.56
350.492	465.56
350.72	446.56
350.947	445.56
351.174	468.56
351.402	480.56
351.629	471.56
351.856	485.56
352.083	454.56
352.311	461.56
352.538	494.56
352.765	475.56
352.992	470.56
353.22	465.56
353.447	445.56
353.674	443.56
353.901	430.56
354.128	460.56
354.355	430.56
354.583	435.56
354.81	455.56
355.037	433.56
355.264	452.56
355.491	441.56
355.718	442.56
355.945	450.56
356.172	432.56
356.399	448.56
356.626	439.56
356.853	444.56
357.08	451.56
357.307	430.56
357.534	446.56
357.761	443.56
357.988	452.56
358.215	454.56
358.441	465.56
358.668	436.56
358.895	460.56
359.122	466.56
359.349	456.56
359.576	466.56
359.802	464.56
360.029	481.56
360.256	491.56
360.483	501.56
360.709	496.56
360.936	471.56
361.163	467.56
361.39	466.56
361.616	473.56
361.843	461.56
362.07	469.56
362.296	455.56
362.523	468.56
362.749	455.56
362.976	469.56
363.203	469.56
363.429	437.56
363.656	463.56
363.882	451.56
364.109	431.56
364.335	448.56
364.562	449.56
364.788	457.56
365.015	443.56
365.241	466.56
365.468	462.56
365.694	467.56
365.92	467.56
366.147	453.56
366.373	493.56
366.599	461.56
366.826	439.56
367.052	454.56
367.278	442.56
367.505	453.56
367.731	473.56
367.957	449.56
368.184	418.56
368.41	485.56
368.636	469.56
368.862	464.56
369.089	464.56
369.315	453.56
369.541	453.56
369.767	454.56
369.993	465.56
370.219	444.56
370.445	486.56
370.672	477.56
370.898	450.56
371.124	455.56
371.35	474.56
371.576	464.56
371.802	454.56
372.028	453.56
372.254	459.56
372.48	462.56
372.706	463.56
372.932	490.56
373.158	476.56
373.384	478.56
373.61	453.56
373.835	463.56
374.061	473.56
374.287	471.56
374.513	466.56
374.739	474.56
374.965	486.56
375.191	470.56
375.416	486.56
375.642	475.56
375.868	466.56
376.094	469.56
376.319	461.56
376.545	478.56
376.771	470.56
376.997	459.56
377.222	448.56
377.448	468.56
377.674	484.56
377.899	460.56
378.125	468.56
378.35	474.56
378.576	458.56
378.802	436.56
379.027	452.56
379.253	473.56
379.478	447.56
379.704	462.56
379.929	496.56
380.155	465.56
380.38	480.56
380.606	465.56
380.831	469.56
381.057	487.56
381.282	469.56
381.507	469.56
381.733	467.56
381.958	464.56
382.184	471.56
382.409	481.56
382.634	478.56
382.86	467.56
383.085	489.56
383.31	467.56
383.535	499.56
383.761	505.56
383.986	506.56
384.211	483.56
384.436	490.56
384.662	520.56
384.887	504.56
385.112	510.56
385.337	514.56
385.562	509.56
385.787	509.56
386.013	508.56
386.238	541.56
386.463	547.56
386.688	512.56
386.913	530.56
387.138	518.56
387.363	520.56
387.588	540.56
387.813	536.56
388.038	511.56
388.263	525.56
388.488	510.56
388.713	512.56
388.938	538.56
389.163	538.56
389.387	521.56
389.612	513.56
389.837	513.56
390.062	519.56
390.287	518.56
390.512	519.56
390.736	518.56
390.961	524.56
391.186	513.56
391.411	551.56
391.636	531.56
391.86	540.56
392.085	565.56
392.31	542.56
392.534	549.56
392.759	534.56
392.984	534.56
393.208	531.56
393.433	534.56
393.658	517.56
393.882	537.56
394.107	526.56
394.331	522.56
394.556	542.56
394.78	532.56
395.005	550.56
395.229	546.56
395.454	558.56
395.678	571.56
395.903	585.56
396.127	582.56
396.352	561.56
396.576	569.56
396.801	561.56
397.025	545.56
397.249	531.56
397.474	578.56
397.698	563.56
397.922	598.56
398.147	577.56
398.371	579.56
398.595	598.56
398.82	609.56
399.044	619.56
399.268	637.56
399.492	700.56
399.717	739.56
399.941	759.56
400.165	768.56
400.389	777.56
400.613	697.56
400.837	664.56
401.062	656.56
401.286	619.56
401.51	629.56
401.734	619.56
401.958	633.56
402.182	634.56
402.406	630.56
402.63	627.56
402.854	609.56
403.078	622.56
403.302	632.56
403.526	666.56
403.75	671.56
403.974	647.56
404.198	623.56
404.422	649.56
404.645	625.56
404.869	662.56
405.093	684.56
405.317	731.56
405.541	779.56
405.765	690.56
405.988	662.56
406.212	689.56
406.436	693.56
406.66	698.56
406.883	695.56
407.107	728.56
407.331	769.56
407.555	833.56
407.778	843.56
408.002	778.56
408.226	724.56
408.449	710.56
408.673	700.56
408.896	738.56
409.12	764.56
409.344	739.56
409.567	665.56
409.791	667.56
410.014	644.56
410.238	641.56
410.461	667.56
410.685	665.56
410.908	647.56
411.132	664.56
411.355	717.56
411.578	709.56
411.802	666.56
412.025	652.56
412.249	635.56
412.472	649.56
412.695	693.56
412.919	705.56
413.142	645.56
413.365	638.56
413.589	636.56
413.812	611.56
414.035	620.56
414.258	610.56
414.482	581.56
414.705	591.56
414.928	612.56
415.151	590.56
415.374	595.56
415.597	595.56
415.821	591.56
416.044	617.56
416.267	612.56
416.49	607.56
416.713	590.56
416.936	578.56
417.159	605.56
417.382	613.56
417.605	611.56
417.828	598.56
418.051	628.56
418.274	621.56
418.497	598.56
418.72	605.56
418.943	600.56
419.166	628.56
419.389	651.56
419.611	645.56
419.834	625.56
420.057	642.56
420.28	657.56
420.503	613.56
420.726	609.56
420.948	659.56
421.171	671.56
421.394	724.56
421.617	643.56
421.839	647.56
422.062	604.56
422.285	655.56
422.507	712.56
422.73	791.56
422.953	748.56
423.175	684.56
423.398	639.56
423.621	667.56
423.843	702.56
424.066	680.56
424.288	690.56
424.511	701.56
424.733	736.56
424.956	865.56
425.178	797.56
425.401	800.56
425.623	823.56
425.846	687.56
426.068	673.56
426.291	655.56
426.513	670.56
426.735	659.56
426.958	697.56
427.18	799.56
427.402	919.56
427.625	1024.56
427.847	881.56
428.069	769.56
428.292	722.56
428.514	653.56
428.736	651.56
428.958	612.56
429.181	638.56
429.403	617.56
429.625	630.56
429.847	656.56
430.069	747.56
430.292	729.56
430.514	619.56
430.736	589.56
430.958	637.56
431.18	590.56
431.402	617.56
431.624	599.56
431.846	583.56
432.068	598.56
432.29	590.56
432.512	592.56
432.734	597.56
432.956	590.56
433.178	590.56
433.4	577.56
433.622	597.56
433.844	611.56
434.066	578.56
434.287	603.56
434.509	612.56
434.731	603.56
434.953	598.56
435.175	634.56
435.397	643.56
435.618	663.56
435.84	701.56
436.062	782.56
436.284	854.56
436.505	738.56
436.727	675.56
436.949	639.56
437.17	614.56
437.392	596.56
437.614	593.56
437.835	635.56
438.057	727.56
438.278	850.56
438.5	870.56
438.721	934.56
438.943	931.56
439.165	736.56
439.386	673.56
439.608	665.56
439.829	676.56
440.05	670.56
440.272	723.56
440.493	692.56
440.715	668.56
440.936	621.56
441.158	623.56
441.379	626.56
441.6	625.56
441.822	654.56
442.043	705.56
442.264	810.56
442.486	814.56
442.707	725.56
442.928	691.56
443.149	691.56
443.371	708.56
443.592	749.56
443.813	856.56
444.034	950.56
444.255	775.56
444.476	722.56
444.698	695.56
444.919	677.56
445.14	792.56
445.361	748.56
445.582	693.56
445.803	780.56
446.024	856.56
446.245	899.56
446.466	811.56
446.687	700.56
446.908	673.56
447.129	623.56
447.35	620.56
447.571	621.56
447.792	610.56
448.013	586.56
448.234	610.56
448.455	670.56
448.675	795.56
448.896	885.56
449.117	773.56
449.338	739.56
449.559	835.56
449.779	941.56
450	783.56
450.221	653.56
450.442	633.56
450.662	604.56
450.883	599.56
451.104	588.56
451.324	574.56
451.545	574.56
451.766	568.56
451.986	556.56
452.207	553.56
452.428	528.56
452.648	539.56
452.869	533.56
453.089	527.56
453.31	555.56
453.53	574.56
453.751	525.56
453.971	526.56
454.192	568.56
454.412	553.56
454.633	535.56
454.853	521.56
455.073	539.56
455.294	568.56
455.514	639.56
455.734	635.56
455.955	557.56
456.175	505.56
456.395	522.56
456.616	523.56
456.836	499.56
457.056	479.56
457.276	507.56
457.497	521.56
457.717	505.56
457.937	515.56
458.157	519.56
458.377	547.56
458.598	554.56
458.818	617.56
459.038	671.56
459.258	707.56
459.478	637.56
459.698	603.56
459.918	612.56
460.138	585.56
460.358	587.56
460.578	605.56
460.798	617.56
461.018	617.56
461.238	616.56
461.458	594.56
461.678	598.56
461.898	618.56
462.118	617.56
462.338	635.56
462.558	633.56
462.777	659.56
462.997	666.56
463.217	702.56
463.437	699.56
463.657	684.56
463.876	650.56
464.096	636.56
464.316	631.56
464.536	670.56
464.755	674.56
464.975	661.56
465.195	665.56
465.414	720.56
465.634	665.56
465.854	622.56
466.073	591.56
466.293	582.56
466.512	584.56
466.732	571.56
466.951	571.56
467.171	585.56
467.391	558.56
467.61	592.56
467.829	577.56
468.049	547.56
468.268	561.56
468.488	561.56
468.707	543.56
468.927	550.56
469.146	545.56
469.365	535.56
469.585	556.56
469.804	574.56
470.023	558.56
470.243	529.56
470.462	581.56
470.681	590.56
470.901	607.56
471.12	573.56
471.339	573.56
471.558	564.56
471.777	569.56
471.997	550.56
472.216	578.56
472.435	581.56
472.654	565.56
472.873	544.56
473.092	535.56
473.311	563.56
473.53	583.56
473.749	570.56
473.968	616.56
474.187	725.56
474.406	756.56
474.625	634.56
474.844	589.56
475.063	552.56
475.282	560.56
475.501	575.56
475.72	575.56
475.939	571.56
476.158	573.56
476.377	600.56
476.596	591.56
476.814	614.56
477.033	591.56
477.252	593.56
477.471	621.56
477.69	589.56
477.908	623.56
478.127	616.56
478.346	623.56
478.564	630.56
478.783	660.56
479.002	664.56
479.22	638.56
479.439	653.56
479.658	689.56
479.876	692.56
480.095	686.56
480.313	712.56
480.532	708.56
480.751	717.56
480.969	704.56
481.188	773.56
481.406	776.56
481.624	703.56
481.843	693.56
482.061	691.56
482.28	675.56
482.498	681.56
482.717	666.56
482.935	680.56
483.153	664.56
483.372	663.56
483.59	673.56
483.808	664.56
484.027	656.56
484.245	642.56
484.463	651.56
484.681	681.56
484.9	656.56
485.118	691.56
485.336	678.56
485.554	672.56
485.772	702.56
485.99	696.56
486.209	710.56
486.427	704.56
486.645	692.56
486.863	742.56
487.081	717.56
487.299	699.56
487.517	713.56
487.735	700.56
487.953	709.56
488.171	724.56
488.389	695.56
488.607	701.56
488.825	722.56
489.043	731.56
489.261	698.56
489.479	720.56
489.696	729.56
489.914	742.56
490.132	747.56
490.35	750.56
490.568	762.56
490.786	739.56
491.003	781.56
491.221	827.56
491.439	809.56
491.657	803.56
491.874	842.56
492.092	838.56
492.31	832.56
492.527	861.56
492.745	822.56
492.963	833.56
493.18	849.56
493.398	857.56
493.615	860.56
493.833	867.56
494.05	845.56
494.268	870.56
494.485	874.56
494.703	844.56
494.92	833.56
495.138	855.56
495.355	862.56
495.573	853.56
495.79	863.56
496.008	849.56
496.225	837.56
496.442	849.56
496.66	845.56
496.877	875.56
497.094	871.56
497.312	871.56
497.529	875.56
497.746	890.56
497.963	927.56
498.181	967.56
498.398	973.56
498.615	980.56
498.832	1013.56
499.049	1014.56
499.267	1053.56
499.484	1095.56
499.701	1127.56
499.918	1203.56
500.135	1249.56
500.352	1325.56
500.569	1349.56
500.786	1377.56
501.003	1342.56
501.22	1279.56
501.437	1239.56
501.654	1202.56
