Data from 1974.PennyLincolnUp.Lamp.En5.5.200Scan.071719.P1.Changed Mount._HRD10591_15-53-39-857.txt Node
Date: Thu Jul 18 15:53:39 EDT 2019
User: cochatt
Spectrometer: HR+D1059
Trigger mode: 1
Integration Time (sec): 1.000000E-1
Scans to average: 1
Electric dark correction enabled: true
Nonlinearity correction enabled: false
Boxcar width: 0
XAxis mode: Wavelengths
Number of Pixels in Spectrum: 2048
>>>>>Begin Spectral Data<<<<<
223.165	-8.81
223.4	-8.81
223.635	-8.81
223.869	-9.81
224.104	-12.81
224.338	2.19
224.573	-25.81
224.808	-18.81
225.042	-8.81
225.277	-22.81
225.511	13.19
225.746	7.19
225.98	4.19
226.215	13.19
226.449	8.19
226.683	17.19
226.918	18.19
227.152	24.19
227.387	32.19
227.621	33.19
227.856	36.19
228.09	43.19
228.324	41.19
228.559	45.19
228.793	49.19
229.027	103.19
229.262	115.19
229.496	116.19
229.73	141.19
229.964	154.19
230.199	122.19
230.433	107.19
230.667	118.19
230.901	100.19
231.136	128.19
231.37	118.19
231.604	94.19
231.838	112.19
232.072	106.19
232.306	111.19
232.541	112.19
232.775	118.19
233.009	111.19
233.243	112.19
233.477	119.19
233.711	112.19
233.945	115.19
234.179	109.19
234.413	123.19
234.647	119.19
234.881	117.19
235.115	111.19
235.349	103.19
235.583	128.19
235.817	122.19
236.051	122.19
236.285	128.19
236.519	119.19
236.753	126.19
236.987	146.19
237.221	183.19
237.455	246.19
237.689	192.19
237.922	154.19
238.156	134.19
238.39	151.19
238.624	127.19
238.858	115.19
239.091	102.19
239.325	123.19
239.559	136.19
239.793	125.19
240.027	146.19
240.26	158.19
240.494	161.19
240.728	159.19
240.961	158.19
241.195	140.19
241.429	137.19
241.662	137.19
241.896	130.19
242.13	148.19
242.363	134.19
242.597	144.19
242.83	147.19
243.064	138.19
243.298	142.19
243.531	145.19
243.765	140.19
243.998	135.19
244.232	146.19
244.465	153.19
244.699	155.19
244.932	161.19
245.166	154.19
245.399	146.19
245.633	155.19
245.866	155.19
246.099	134.19
246.333	150.19
246.566	158.19
246.8	134.19
247.033	157.19
247.266	171.19
247.5	164.19
247.733	163.19
247.966	175.19
248.2	175.19
248.433	177.19
248.666	183.19
248.899	187.19
249.133	221.19
249.366	208.19
249.599	204.19
249.832	191.19
250.066	176.19
250.299	189.19
250.532	210.19
250.765	204.19
250.998	230.19
251.231	235.19
251.465	213.19
251.698	199.19
251.931	215.19
252.164	200.19
252.397	202.19
252.63	202.19
252.863	226.19
253.096	224.19
253.329	223.19
253.562	228.19
253.795	238.19
254.028	215.19
254.261	227.19
254.494	221.19
254.727	240.19
254.96	274.19
255.193	283.19
255.426	252.19
255.659	239.19
255.892	257.19
256.124	272.19
256.357	238.19
256.59	247.19
256.823	212.19
257.056	194.19
257.289	226.19
257.521	213.19
257.754	215.19
257.987	210.19
258.22	211.19
258.452	213.19
258.685	216.19
258.918	212.19
259.151	222.19
259.383	226.19
259.616	246.19
259.849	228.19
260.081	244.19
260.314	252.19
260.547	265.19
260.779	276.19
261.012	238.19
261.244	228.19
261.477	241.19
261.71	236.19
261.942	226.19
262.175	242.19
262.407	226.19
262.64	233.19
262.872	220.19
263.105	221.19
263.337	236.19
263.57	214.19
263.802	212.19
264.035	218.19
264.267	223.19
264.499	242.19
264.732	245.19
264.964	226.19
265.197	212.19
265.429	223.19
265.661	224.19
265.894	232.19
266.126	226.19
266.358	218.19
266.591	233.19
266.823	233.19
267.055	258.19
267.287	234.19
267.52	249.19
267.752	230.19
267.984	238.19
268.216	247.19
268.448	246.19
268.681	241.19
268.913	254.19
269.145	272.19
269.377	304.19
269.609	288.19
269.841	292.19
270.073	282.19
270.306	302.19
270.538	326.19
270.77	314.19
271.002	323.19
271.234	307.19
271.466	309.19
271.698	312.19
271.93	332.19
272.162	321.19
272.394	331.19
272.626	312.19
272.858	291.19
273.09	294.19
273.322	282.19
273.553	283.19
273.785	274.19
274.017	279.19
274.249	284.19
274.481	285.19
274.713	262.19
274.945	287.19
275.176	299.19
275.408	278.19
275.64	249.19
275.872	269.19
276.104	282.19
276.335	279.19
276.567	280.19
276.799	296.19
277.031	313.19
277.262	320.19
277.494	331.19
277.726	314.19
277.957	298.19
278.189	297.19
278.421	275.19
278.652	278.19
278.884	297.19
279.115	284.19
279.347	295.19
279.579	293.19
279.81	274.19
280.042	290.19
280.273	288.19
280.505	279.19
280.736	292.19
280.968	294.19
281.199	287.19
281.431	308.19
281.662	291.19
281.894	285.19
282.125	284.19
282.356	288.19
282.588	309.19
282.819	306.19
283.051	293.19
283.282	311.19
283.513	289.19
283.745	302.19
283.976	284.19
284.207	302.19
284.439	297.19
284.67	290.19
284.901	293.19
285.132	302.19
285.364	301.19
285.595	326.19
285.826	328.19
286.057	312.19
286.288	298.19
286.52	304.19
286.751	306.19
286.982	310.19
287.213	306.19
287.444	300.19
287.675	289.19
287.906	313.19
288.138	320.19
288.369	339.19
288.6	341.19
288.831	305.19
289.062	297.19
289.293	306.19
289.524	311.19
289.755	324.19
289.986	310.19
290.217	306.19
290.448	308.19
290.679	315.19
290.91	299.19
291.141	295.19
291.371	319.19
291.602	310.19
291.833	314.19
292.064	337.19
292.295	311.19
292.526	310.19
292.757	304.19
292.987	310.19
293.218	322.19
293.449	322.19
293.68	311.19
293.91	326.19
294.141	308.19
294.372	311.19
294.603	317.19
294.833	326.19
295.064	328.19
295.295	330.19
295.525	311.19
295.756	319.19
295.987	329.19
296.217	342.19
296.448	340.19
296.679	323.19
296.909	339.19
297.14	314.19
297.37	335.19
297.601	354.19
297.831	343.19
298.062	340.19
298.292	322.19
298.523	333.19
298.753	339.19
298.984	314.19
299.214	334.19
299.445	331.19
299.675	328.19
299.905	338.19
300.136	330.19
300.366	355.19
300.597	334.19
300.827	349.19
301.057	348.19
301.288	356.19
301.518	345.19
301.748	343.19
301.979	373.19
302.209	348.19
302.439	362.19
302.669	341.19
302.9	337.19
303.13	350.19
303.36	367.19
303.59	362.19
303.82	367.19
304.051	360.19
304.281	362.19
304.511	354.19
304.741	346.19
304.971	349.19
305.201	348.19
305.431	344.19
305.661	358.19
305.891	368.19
306.121	361.19
306.352	361.19
306.582	352.19
306.812	352.19
307.042	350.19
307.272	344.19
307.502	361.19
307.731	375.19
307.961	368.19
308.191	363.19
308.421	359.19
308.651	368.19
308.881	372.19
309.111	367.19
309.341	375.19
309.571	377.19
309.8	367.19
310.03	362.19
310.26	381.19
310.49	376.19
310.72	388.19
310.949	411.19
311.179	380.19
311.409	378.19
311.639	392.19
311.868	408.19
312.098	398.19
312.328	388.19
312.557	410.19
312.787	428.19
313.017	403.19
313.246	409.19
313.476	407.19
313.706	404.19
313.935	412.19
314.165	418.19
314.394	419.19
314.624	412.19
314.853	418.19
315.083	400.19
315.312	396.19
315.542	382.19
315.771	384.19
316.001	394.19
316.23	394.19
316.46	407.19
316.689	396.19
316.919	417.19
317.148	425.19
317.377	410.19
317.607	402.19
317.836	386.19
318.065	391.19
318.295	406.19
318.524	400.19
318.753	407.19
318.983	397.19
319.212	408.19
319.441	396.19
319.67	427.19
319.9	403.19
320.129	411.19
320.358	400.19
320.587	397.19
320.816	415.19
321.046	424.19
321.275	414.19
321.504	391.19
321.733	428.19
321.962	436.19
322.191	436.19
322.42	438.19
322.649	443.19
322.878	446.19
323.108	442.19
323.337	468.19
323.566	509.19
323.795	518.19
324.024	552.19
324.253	628.19
324.482	843.19
324.71	1281.19
324.939	1885.19
325.168	1679.19
325.397	847.19
325.626	619.19
325.855	537.19
326.084	519.19
326.313	510.19
326.542	483.19
326.77	516.19
326.999	598.19
327.228	794.19
327.457	1207.19
327.686	1486.19
327.914	981.19
328.143	674.19
328.372	599.19
328.6	543.19
328.829	555.19
329.058	522.19
329.287	565.19
329.515	522.19
329.744	528.19
329.972	519.19
330.201	522.19
330.43	556.19
330.658	570.19
330.887	606.19
331.115	570.19
331.344	531.19
331.572	510.19
331.801	518.19
332.03	492.19
332.258	496.19
332.486	487.19
332.715	486.19
332.943	491.19
333.172	505.19
333.4	495.19
333.629	510.19
333.857	510.19
334.085	515.19
334.314	559.19
334.542	554.19
334.771	564.19
334.999	519.19
335.227	504.19
335.455	516.19
335.684	519.19
335.912	496.19
336.14	472.19
336.369	492.19
336.597	494.19
336.825	479.19
337.053	468.19
337.281	476.19
337.51	467.19
337.738	467.19
337.966	466.19
338.194	482.19
338.422	492.19
338.65	490.19
338.878	485.19
339.106	464.19
339.334	475.19
339.562	455.19
339.79	452.19
340.018	467.19
340.246	465.19
340.474	466.19
340.702	449.19
340.93	474.19
341.158	430.19
341.386	483.19
341.614	467.19
341.842	478.19
342.07	464.19
342.298	481.19
342.526	455.19
342.754	451.19
342.981	451.19
343.209	452.19
343.437	461.19
343.665	461.19
343.893	480.19
344.12	490.19
344.348	500.19
344.576	471.19
344.804	487.19
345.031	486.19
345.259	499.19
345.487	488.19
345.714	472.19
345.942	470.19
346.17	462.19
346.397	432.19
346.625	447.19
346.853	461.19
347.08	448.19
347.308	452.19
347.535	447.19
347.763	458.19
347.99	454.19
348.218	435.19
348.445	450.19
348.673	456.19
348.9	452.19
349.128	458.19
349.355	458.19
349.583	431.19
349.81	442.19
350.037	442.19
350.265	431.19
350.492	430.19
350.72	451.19
350.947	456.19
351.174	435.19
351.402	451.19
351.629	460.19
351.856	447.19
352.083	451.19
352.311	464.19
352.538	449.19
352.765	463.19
352.992	450.19
353.22	424.19
353.447	457.19
353.674	445.19
353.901	423.19
354.128	448.19
354.355	412.19
354.583	406.19
354.81	405.19
355.037	424.19
355.264	437.19
355.491	410.19
355.718	439.19
355.945	399.19
356.172	431.19
356.399	420.19
356.626	456.19
356.853	441.19
357.08	431.19
357.307	435.19
357.534	425.19
357.761	410.19
357.988	434.19
358.215	428.19
358.441	421.19
358.668	423.19
358.895	437.19
359.122	419.19
359.349	429.19
359.576	450.19
359.802	452.19
360.029	482.19
360.256	485.19
360.483	495.19
360.709	481.19
360.936	439.19
361.163	445.19
361.39	447.19
361.616	467.19
361.843	425.19
362.07	455.19
362.296	458.19
362.523	449.19
362.749	446.19
362.976	421.19
363.203	469.19
363.429	431.19
363.656	451.19
363.882	434.19
364.109	448.19
364.335	434.19
364.562	426.19
364.788	434.19
365.015	413.19
365.241	427.19
365.468	440.19
365.694	422.19
365.92	411.19
366.147	446.19
366.373	447.19
366.599	447.19
366.826	443.19
367.052	431.19
367.278	426.19
367.505	442.19
367.731	420.19
367.957	443.19
368.184	440.19
368.41	456.19
368.636	447.19
368.862	461.19
369.089	438.19
369.315	450.19
369.541	444.19
369.767	444.19
369.993	456.19
370.219	425.19
370.445	447.19
370.672	442.19
370.898	446.19
371.124	446.19
371.35	457.19
371.576	440.19
371.802	448.19
372.028	451.19
372.254	440.19
372.48	453.19
372.706	471.19
372.932	439.19
373.158	465.19
373.384	460.19
373.61	463.19
373.835	462.19
374.061	452.19
374.287	462.19
374.513	472.19
374.739	458.19
374.965	476.19
375.191	447.19
375.416	471.19
375.642	462.19
375.868	492.19
376.094	450.19
376.319	453.19
376.545	458.19
376.771	438.19
376.997	447.19
377.222	437.19
377.448	446.19
377.674	460.19
377.899	451.19
378.125	449.19
378.35	452.19
378.576	441.19
378.802	436.19
379.027	447.19
379.253	435.19
379.478	434.19
379.704	440.19
379.929	459.19
380.155	434.19
380.38	438.19
380.606	437.19
380.831	457.19
381.057	457.19
381.282	455.19
381.507	457.19
381.733	442.19
381.958	419.19
382.184	448.19
382.409	457.19
382.634	458.19
382.86	453.19
383.085	462.19
383.31	459.19
383.535	497.19
383.761	476.19
383.986	471.19
384.211	467.19
384.436	480.19
384.662	479.19
384.887	488.19
385.112	475.19
385.337	497.19
385.562	459.19
385.787	506.19
386.013	518.19
386.238	498.19
386.463	514.19
386.688	500.19
386.913	505.19
387.138	496.19
387.363	501.19
387.588	504.19
387.813	507.19
388.038	494.19
388.263	476.19
388.488	492.19
388.713	514.19
388.938	490.19
389.163	500.19
389.387	510.19
389.612	504.19
389.837	509.19
390.062	509.19
390.287	498.19
390.512	486.19
390.736	517.19
390.961	498.19
391.186	508.19
391.411	519.19
391.636	502.19
391.86	524.19
392.085	532.19
392.31	540.19
392.534	530.19
392.759	532.19
392.984	532.19
393.208	505.19
393.433	524.19
393.658	526.19
393.882	532.19
394.107	503.19
394.331	517.19
394.556	521.19
394.78	520.19
395.005	523.19
395.229	526.19
395.454	527.19
395.678	508.19
395.903	536.19
396.127	563.19
396.352	564.19
396.576	541.19
396.801	522.19
397.025	514.19
397.249	540.19
397.474	512.19
397.698	569.19
397.922	547.19
398.147	582.19
398.371	567.19
398.595	584.19
398.82	572.19
399.044	624.19
399.268	607.19
399.492	678.19
399.717	723.19
399.941	732.19
400.165	736.19
400.389	739.19
400.613	669.19
400.837	630.19
401.062	628.19
401.286	619.19
401.51	586.19
401.734	590.19
401.958	582.19
402.182	583.19
402.406	608.19
402.63	597.19
402.854	586.19
403.078	621.19
403.302	619.19
403.526	612.19
403.75	607.19
403.974	626.19
404.198	604.19
404.422	616.19
404.645	642.19
404.869	623.19
405.093	676.19
405.317	688.19
405.541	722.19
405.765	671.19
405.988	637.19
406.212	641.19
406.436	649.19
406.66	700.19
406.883	659.19
407.107	663.19
407.331	728.19
407.555	795.19
407.778	818.19
408.002	731.19
408.226	697.19
408.449	684.19
408.673	690.19
408.896	705.19
409.12	740.19
409.344	714.19
409.567	646.19
409.791	611.19
410.014	622.19
410.238	596.19
410.461	610.19
410.685	614.19
410.908	632.19
411.132	676.19
411.355	690.19
411.578	680.19
411.802	617.19
412.025	616.19
412.249	663.19
412.472	659.19
412.695	688.19
412.919	663.19
413.142	632.19
413.365	606.19
413.589	590.19
413.812	599.19
414.035	582.19
414.258	586.19
414.482	590.19
414.705	591.19
414.928	560.19
415.151	595.19
415.374	568.19
415.597	567.19
415.821	593.19
416.044	590.19
416.267	583.19
416.49	571.19
416.713	593.19
416.936	571.19
417.159	583.19
417.382	574.19
417.605	579.19
417.828	593.19
418.051	589.19
418.274	598.19
418.497	579.19
418.72	604.19
418.943	602.19
419.166	627.19
419.389	647.19
419.611	645.19
419.834	624.19
420.057	619.19
420.28	622.19
420.503	624.19
420.726	599.19
420.948	635.19
421.171	646.19
421.394	698.19
421.617	617.19
421.839	599.19
422.062	623.19
422.285	635.19
422.507	700.19
422.73	753.19
422.953	742.19
423.175	686.19
423.398	622.19
423.621	609.19
423.843	639.19
424.066	669.19
424.288	681.19
424.511	654.19
424.733	720.19
424.956	786.19
425.178	764.19
425.401	759.19
425.623	794.19
425.846	672.19
426.068	618.19
426.291	624.19
426.513	634.19
426.735	654.19
426.958	682.19
427.18	759.19
427.402	898.19
427.625	976.19
427.847	824.19
428.069	744.19
428.292	659.19
428.514	628.19
428.736	596.19
428.958	604.19
429.181	586.19
429.403	578.19
429.625	590.19
429.847	601.19
430.069	700.19
430.292	679.19
430.514	617.19
430.736	589.19
430.958	562.19
431.18	570.19
431.402	598.19
431.624	561.19
431.846	546.19
432.068	549.19
432.29	558.19
432.512	558.19
432.734	584.19
432.956	567.19
433.178	580.19
433.4	554.19
433.622	562.19
433.844	572.19
434.066	569.19
434.287	566.19
434.509	588.19
434.731	584.19
434.953	588.19
435.175	607.19
435.397	633.19
435.618	617.19
435.84	686.19
436.062	786.19
436.284	832.19
436.505	714.19
436.727	629.19
436.949	597.19
437.17	578.19
437.392	592.19
437.614	628.19
437.835	629.19
438.057	739.19
438.278	807.19
438.5	811.19
438.721	925.19
438.943	892.19
439.165	694.19
439.386	617.19
439.608	644.19
439.829	619.19
440.05	667.19
440.272	724.19
440.493	684.19
440.715	616.19
440.936	618.19
441.158	620.19
441.379	598.19
441.6	626.19
441.822	638.19
442.043	674.19
442.264	767.19
442.486	816.19
442.707	685.19
442.928	637.19
443.149	654.19
443.371	678.19
443.592	723.19
443.813	814.19
444.034	886.19
444.255	735.19
444.476	705.19
444.698	661.19
444.919	652.19
445.14	736.19
445.361	698.19
445.582	700.19
445.803	744.19
446.024	843.19
446.245	839.19
446.466	777.19
446.687	678.19
446.908	648.19
447.129	622.19
447.35	597.19
447.571	587.19
447.792	556.19
448.013	569.19
448.234	601.19
448.455	635.19
448.675	762.19
448.896	894.19
449.117	754.19
449.338	706.19
449.559	824.19
449.779	926.19
450	750.19
450.221	640.19
450.442	567.19
450.662	560.19
450.883	577.19
451.104	592.19
451.324	568.19
451.545	523.19
451.766	531.19
451.986	524.19
452.207	522.19
452.428	511.19
452.648	524.19
452.869	529.19
453.089	538.19
453.31	552.19
453.53	536.19
453.751	484.19
453.971	514.19
454.192	518.19
454.412	515.19
454.633	518.19
454.853	513.19
455.073	502.19
455.294	552.19
455.514	629.19
455.734	581.19
455.955	511.19
456.175	519.19
456.395	491.19
456.616	504.19
456.836	481.19
457.056	476.19
457.276	474.19
457.497	489.19
457.717	514.19
457.937	530.19
458.157	524.19
458.377	515.19
458.598	528.19
458.818	554.19
459.038	652.19
459.258	667.19
459.478	607.19
459.698	570.19
459.918	566.19
460.138	564.19
460.358	599.19
460.578	584.19
460.798	607.19
461.018	616.19
461.238	570.19
461.458	564.19
461.678	555.19
461.898	596.19
462.118	600.19
462.338	614.19
462.558	603.19
462.777	658.19
462.997	664.19
463.217	667.19
463.437	674.19
463.657	652.19
463.876	635.19
464.096	605.19
464.316	620.19
464.536	658.19
464.755	663.19
464.975	645.19
465.195	641.19
465.414	688.19
465.634	625.19
465.854	603.19
466.073	550.19
466.293	554.19
466.512	543.19
466.732	547.19
466.951	550.19
467.171	552.19
467.391	535.19
467.61	531.19
467.829	524.19
468.049	541.19
468.268	538.19
468.488	560.19
468.707	532.19
468.927	531.19
469.146	522.19
469.365	528.19
469.585	520.19
469.804	558.19
470.023	550.19
470.243	568.19
470.462	585.19
470.681	546.19
470.901	570.19
471.12	548.19
471.339	550.19
471.558	560.19
471.777	553.19
471.997	542.19
472.216	548.19
472.435	548.19
472.654	537.19
472.873	519.19
473.092	524.19
473.311	546.19
473.53	544.19
473.749	549.19
473.968	611.19
474.187	667.19
474.406	696.19
474.625	607.19
474.844	584.19
475.063	558.19
475.282	555.19
475.501	550.19
475.72	570.19
475.939	556.19
476.158	556.19
476.377	570.19
476.596	551.19
476.814	597.19
477.033	570.19
477.252	583.19
477.471	592.19
477.69	571.19
477.908	585.19
478.127	585.19
478.346	608.19
478.564	629.19
478.783	620.19
479.002	629.19
479.22	640.19
479.439	664.19
479.658	652.19
479.876	677.19
480.095	662.19
480.313	712.19
480.532	667.19
480.751	702.19
480.969	676.19
481.188	706.19
481.406	737.19
481.624	674.19
481.843	647.19
482.061	656.19
482.28	664.19
482.498	638.19
482.717	619.19
482.935	636.19
483.153	630.19
483.372	660.19
483.59	634.19
483.808	658.19
484.027	659.19
484.245	637.19
484.463	653.19
484.681	652.19
484.9	664.19
485.118	671.19
485.336	644.19
485.554	670.19
485.772	651.19
485.99	677.19
486.209	665.19
486.427	654.19
486.645	687.19
486.863	708.19
487.081	692.19
487.299	678.19
487.517	698.19
487.735	689.19
487.953	693.19
488.171	681.19
488.389	681.19
488.607	693.19
488.825	698.19
489.043	715.19
489.261	715.19
489.479	693.19
489.696	709.19
489.914	714.19
490.132	735.19
490.35	719.19
490.568	743.19
490.786	742.19
491.003	754.19
491.221	754.19
491.439	769.19
491.657	771.19
491.874	778.19
492.092	805.19
492.31	789.19
492.527	771.19
492.745	804.19
492.963	787.19
493.18	803.19
493.398	812.19
493.615	824.19
493.833	826.19
494.05	810.19
494.268	826.19
494.485	802.19
494.703	811.19
494.92	812.19
495.138	802.19
495.355	790.19
495.573	835.19
495.79	837.19
496.008	815.19
496.225	805.19
496.442	808.19
496.66	820.19
496.877	823.19
497.094	842.19
497.312	846.19
497.529	851.19
497.746	876.19
497.963	851.19
498.181	906.19
498.398	896.19
498.615	933.19
498.832	976.19
499.049	978.19
499.267	1003.19
499.484	1046.19
499.701	1095.19
499.918	1137.19
500.135	1229.19
500.352	1306.19
500.569	1288.19
500.786	1322.19
501.003	1267.19
501.22	1215.19
501.437	1169.19
501.654	1131.19
