Data from 1974.PennyLincolnUp.Lamp.En5.5.200Scan.071719.P1.Changed Mount._HRD10591_15-51-34-856.txt Node
Date: Thu Jul 18 15:51:34 EDT 2019
User: cochatt
Spectrometer: HR+D1059
Trigger mode: 1
Integration Time (sec): 1.000000E-1
Scans to average: 1
Electric dark correction enabled: true
Nonlinearity correction enabled: false
Boxcar width: 0
XAxis mode: Wavelengths
Number of Pixels in Spectrum: 2048
>>>>>Begin Spectral Data<<<<<
223.165	-26.62
223.4	-26.62
223.635	-26.62
223.869	-24.62
224.104	-24.62
224.338	-10.62
224.573	-8.62
224.808	-26.62
225.042	-5.62
225.277	-1.62
225.511	-17.62
225.746	6.38
225.98	5.38
226.215	18.38
226.449	16.38
226.683	29.38
226.918	27.38
227.152	43.38
227.387	37.38
227.621	39.38
227.856	50.38
228.09	35.38
228.324	40.38
228.559	54.38
228.793	76.38
229.027	110.38
229.262	99.38
229.496	107.38
229.73	122.38
229.964	129.38
230.199	119.38
230.433	96.38
230.667	125.38
230.901	114.38
231.136	102.38
231.37	122.38
231.604	111.38
231.838	122.38
232.072	109.38
232.306	117.38
232.541	117.38
232.775	111.38
233.009	112.38
233.243	100.38
233.477	129.38
233.711	128.38
233.945	114.38
234.179	115.38
234.413	111.38
234.647	112.38
234.881	121.38
235.115	108.38
235.349	129.38
235.583	117.38
235.817	98.38
236.051	127.38
236.285	131.38
236.519	123.38
236.753	117.38
236.987	133.38
237.221	175.38
237.455	203.38
237.689	156.38
237.922	133.38
238.156	134.38
238.39	139.38
238.624	117.38
238.858	121.38
239.091	122.38
239.325	133.38
239.559	128.38
239.793	120.38
240.027	131.38
240.26	121.38
240.494	152.38
240.728	151.38
240.961	142.38
241.195	142.38
241.429	144.38
241.662	141.38
241.896	132.38
242.13	146.38
242.363	126.38
242.597	128.38
242.83	143.38
243.064	140.38
243.298	157.38
243.531	141.38
243.765	149.38
243.998	142.38
244.232	136.38
244.465	141.38
244.699	142.38
244.932	150.38
245.166	165.38
245.399	142.38
245.633	155.38
245.866	143.38
246.099	149.38
246.333	155.38
246.566	159.38
246.8	149.38
247.033	162.38
247.266	156.38
247.5	166.38
247.733	175.38
247.966	186.38
248.2	159.38
248.433	178.38
248.666	186.38
248.899	168.38
249.133	183.38
249.366	195.38
249.599	187.38
249.832	188.38
250.066	198.38
250.299	188.38
250.532	187.38
250.765	201.38
250.998	214.38
251.231	220.38
251.465	190.38
251.698	198.38
251.931	200.38
252.164	194.38
252.397	199.38
252.63	206.38
252.863	207.38
253.096	201.38
253.329	229.38
253.562	227.38
253.795	215.38
254.028	208.38
254.261	220.38
254.494	221.38
254.727	257.38
254.96	249.38
255.193	270.38
255.426	247.38
255.659	235.38
255.892	228.38
256.124	228.38
256.357	228.38
256.59	228.38
256.823	215.38
257.056	207.38
257.289	223.38
257.521	201.38
257.754	210.38
257.987	207.38
258.22	210.38
258.452	209.38
258.685	216.38
258.918	197.38
259.151	203.38
259.383	209.38
259.616	212.38
259.849	212.38
260.081	235.38
260.314	244.38
260.547	249.38
260.779	231.38
261.012	227.38
261.244	223.38
261.477	228.38
261.71	224.38
261.942	204.38
262.175	238.38
262.407	230.38
262.64	230.38
262.872	226.38
263.105	216.38
263.337	211.38
263.57	208.38
263.802	195.38
264.035	217.38
264.267	211.38
264.499	225.38
264.732	216.38
264.964	219.38
265.197	215.38
265.429	230.38
265.661	212.38
265.894	211.38
266.126	221.38
266.358	218.38
266.591	222.38
266.823	215.38
267.055	220.38
267.287	216.38
267.52	217.38
267.752	220.38
267.984	229.38
268.216	232.38
268.448	234.38
268.681	237.38
268.913	241.38
269.145	273.38
269.377	277.38
269.609	250.38
269.841	245.38
270.073	257.38
270.306	272.38
270.538	307.38
270.77	315.38
271.002	281.38
271.234	270.38
271.466	307.38
271.698	297.38
271.93	295.38
272.162	290.38
272.394	294.38
272.626	291.38
272.858	261.38
273.09	276.38
273.322	296.38
273.553	247.38
273.785	263.38
274.017	261.38
274.249	270.38
274.481	268.38
274.713	272.38
274.945	276.38
275.176	246.38
275.408	274.38
275.64	266.38
275.872	266.38
276.104	285.38
276.335	263.38
276.567	264.38
276.799	269.38
277.031	294.38
277.262	298.38
277.494	296.38
277.726	293.38
277.957	279.38
278.189	290.38
278.421	285.38
278.652	286.38
278.884	275.38
279.115	269.38
279.347	273.38
279.579	262.38
279.81	271.38
280.042	266.38
280.273	259.38
280.505	276.38
280.736	271.38
280.968	276.38
281.199	258.38
281.431	272.38
281.662	256.38
281.894	274.38
282.125	268.38
282.356	276.38
282.588	310.38
282.819	293.38
283.051	280.38
283.282	271.38
283.513	270.38
283.745	273.38
283.976	285.38
284.207	289.38
284.439	282.38
284.67	312.38
284.901	307.38
285.132	288.38
285.364	281.38
285.595	250.38
285.826	289.38
286.057	280.38
286.288	291.38
286.52	296.38
286.751	282.38
286.982	276.38
287.213	281.38
287.444	297.38
287.675	281.38
287.906	309.38
288.138	303.38
288.369	309.38
288.6	289.38
288.831	310.38
289.062	302.38
289.293	311.38
289.524	291.38
289.755	283.38
289.986	271.38
290.217	297.38
290.448	292.38
290.679	321.38
290.91	308.38
291.141	290.38
291.371	289.38
291.602	305.38
291.833	311.38
292.064	291.38
292.295	288.38
292.526	297.38
292.757	291.38
292.987	295.38
293.218	284.38
293.449	299.38
293.68	293.38
293.91	277.38
294.141	282.38
294.372	291.38
294.603	313.38
294.833	290.38
295.064	297.38
295.295	291.38
295.525	302.38
295.756	307.38
295.987	313.38
296.217	318.38
296.448	343.38
296.679	309.38
296.909	291.38
297.14	316.38
297.37	290.38
297.601	319.38
297.831	318.38
298.062	300.38
298.292	310.38
298.523	298.38
298.753	317.38
298.984	302.38
299.214	317.38
299.445	315.38
299.675	334.38
299.905	331.38
300.136	311.38
300.366	321.38
300.597	328.38
300.827	338.38
301.057	319.38
301.288	322.38
301.518	317.38
301.748	317.38
301.979	328.38
302.209	341.38
302.439	326.38
302.669	343.38
302.9	301.38
303.13	333.38
303.36	329.38
303.59	331.38
303.82	349.38
304.051	336.38
304.281	320.38
304.511	349.38
304.741	326.38
304.971	331.38
305.201	324.38
305.431	332.38
305.661	333.38
305.891	329.38
306.121	331.38
306.352	322.38
306.582	341.38
306.812	344.38
307.042	340.38
307.272	317.38
307.502	337.38
307.731	342.38
307.961	350.38
308.191	347.38
308.421	347.38
308.651	353.38
308.881	342.38
309.111	355.38
309.341	327.38
309.571	358.38
309.8	361.38
310.03	356.38
310.26	357.38
310.49	377.38
310.72	381.38
310.949	378.38
311.179	384.38
311.409	361.38
311.639	353.38
311.868	363.38
312.098	361.38
312.328	353.38
312.557	364.38
312.787	416.38
313.017	374.38
313.246	379.38
313.476	356.38
313.706	363.38
313.935	379.38
314.165	398.38
314.394	381.38
314.624	390.38
314.853	378.38
315.083	364.38
315.312	369.38
315.542	355.38
315.771	370.38
316.001	393.38
316.23	368.38
316.46	358.38
316.689	361.38
316.919	369.38
317.148	393.38
317.377	373.38
317.607	374.38
317.836	387.38
318.065	358.38
318.295	391.38
318.524	381.38
318.753	362.38
318.983	369.38
319.212	364.38
319.441	369.38
319.67	376.38
319.9	390.38
320.129	365.38
320.358	374.38
320.587	383.38
320.816	395.38
321.046	381.38
321.275	394.38
321.504	380.38
321.733	392.38
321.962	381.38
322.191	403.38
322.42	405.38
322.649	407.38
322.878	410.38
323.108	418.38
323.337	433.38
323.566	439.38
323.795	462.38
324.024	477.38
324.253	556.38
324.482	721.38
324.71	1054.38
324.939	1613.38
325.168	1399.38
325.397	728.38
325.626	543.38
325.855	467.38
326.084	442.38
326.313	446.38
326.542	448.38
326.77	467.38
326.999	536.38
327.228	678.38
327.457	993.38
327.686	1211.38
327.914	851.38
328.143	588.38
328.372	513.38
328.6	488.38
328.829	497.38
329.058	487.38
329.287	506.38
329.515	463.38
329.744	483.38
329.972	456.38
330.201	464.38
330.43	510.38
330.658	513.38
330.887	536.38
331.115	505.38
331.344	483.38
331.572	471.38
331.801	444.38
332.03	465.38
332.258	459.38
332.486	453.38
332.715	459.38
332.943	456.38
333.172	424.38
333.4	452.38
333.629	483.38
333.857	469.38
334.085	478.38
334.314	484.38
334.542	512.38
334.771	516.38
334.999	477.38
335.227	472.38
335.455	468.38
335.684	456.38
335.912	462.38
336.14	457.38
336.369	450.38
336.597	457.38
336.825	485.38
337.053	459.38
337.281	449.38
337.51	430.38
337.738	449.38
337.966	443.38
338.194	446.38
338.422	447.38
338.65	442.38
338.878	449.38
339.106	438.38
339.334	435.38
339.562	440.38
339.79	438.38
340.018	416.38
340.246	417.38
340.474	433.38
340.702	432.38
340.93	438.38
341.158	423.38
341.386	444.38
341.614	417.38
341.842	427.38
342.07	439.38
342.298	413.38
342.526	422.38
342.754	421.38
342.981	427.38
343.209	434.38
343.437	434.38
343.665	436.38
343.893	447.38
344.12	468.38
344.348	441.38
344.576	461.38
344.804	445.38
345.031	421.38
345.259	436.38
345.487	450.38
345.714	454.38
345.942	414.38
346.17	417.38
346.397	423.38
346.625	422.38
346.853	409.38
347.08	426.38
347.308	428.38
347.535	399.38
347.763	429.38
347.99	431.38
348.218	413.38
348.445	418.38
348.673	423.38
348.9	419.38
349.128	418.38
349.355	413.38
349.583	398.38
349.81	394.38
350.037	411.38
350.265	391.38
350.492	411.38
350.72	404.38
350.947	406.38
351.174	444.38
351.402	410.38
351.629	423.38
351.856	421.38
352.083	417.38
352.311	404.38
352.538	436.38
352.765	428.38
352.992	417.38
353.22	414.38
353.447	411.38
353.674	404.38
353.901	412.38
354.128	395.38
354.355	421.38
354.583	396.38
354.81	390.38
355.037	417.38
355.264	411.38
355.491	397.38
355.718	395.38
355.945	397.38
356.172	376.38
356.399	398.38
356.626	393.38
356.853	414.38
357.08	412.38
357.307	423.38
357.534	400.38
357.761	399.38
357.988	397.38
358.215	404.38
358.441	412.38
358.668	413.38
358.895	397.38
359.122	413.38
359.349	410.38
359.576	419.38
359.802	428.38
360.029	419.38
360.256	457.38
360.483	453.38
360.709	420.38
360.936	419.38
361.163	423.38
361.39	418.38
361.616	403.38
361.843	410.38
362.07	404.38
362.296	425.38
362.523	421.38
362.749	411.38
362.976	446.38
363.203	433.38
363.429	394.38
363.656	394.38
363.882	407.38
364.109	420.38
364.335	396.38
364.562	388.38
364.788	408.38
365.015	440.38
365.241	413.38
365.468	424.38
365.694	433.38
365.92	415.38
366.147	431.38
366.373	407.38
366.599	413.38
366.826	402.38
367.052	411.38
367.278	417.38
367.505	414.38
367.731	414.38
367.957	397.38
368.184	404.38
368.41	426.38
368.636	455.38
368.862	418.38
369.089	390.38
369.315	427.38
369.541	421.38
369.767	414.38
369.993	411.38
370.219	407.38
370.445	410.38
370.672	401.38
370.898	423.38
371.124	417.38
371.35	420.38
371.576	405.38
371.802	430.38
372.028	426.38
372.254	439.38
372.48	412.38
372.706	437.38
372.932	451.38
373.158	460.38
373.384	434.38
373.61	418.38
373.835	424.38
374.061	438.38
374.287	416.38
374.513	413.38
374.739	439.38
374.965	455.38
375.191	443.38
375.416	441.38
375.642	437.38
375.868	442.38
376.094	423.38
376.319	405.38
376.545	418.38
376.771	429.38
376.997	444.38
377.222	422.38
377.448	417.38
377.674	409.38
377.899	426.38
378.125	441.38
378.35	417.38
378.576	434.38
378.802	413.38
379.027	427.38
379.253	433.38
379.478	419.38
379.704	434.38
379.929	425.38
380.155	420.38
380.38	425.38
380.606	440.38
380.831	419.38
381.057	425.38
381.282	437.38
381.507	444.38
381.733	435.38
381.958	419.38
382.184	447.38
382.409	413.38
382.634	427.38
382.86	429.38
383.085	427.38
383.31	435.38
383.535	430.38
383.761	456.38
383.986	456.38
384.211	443.38
384.436	472.38
384.662	469.38
384.887	452.38
385.112	471.38
385.337	445.38
385.562	467.38
385.787	456.38
386.013	477.38
386.238	458.38
386.463	487.38
386.688	451.38
386.913	474.38
387.138	486.38
387.363	471.38
387.588	494.38
387.813	466.38
388.038	460.38
388.263	467.38
388.488	495.38
388.713	498.38
388.938	507.38
389.163	473.38
389.387	476.38
389.612	483.38
389.837	483.38
390.062	473.38
390.287	473.38
390.512	469.38
390.736	486.38
390.961	468.38
391.186	487.38
391.411	498.38
391.636	497.38
391.86	470.38
392.085	507.38
392.31	499.38
392.534	485.38
392.759	500.38
392.984	498.38
393.208	513.38
393.433	476.38
393.658	503.38
393.882	482.38
394.107	474.38
394.331	499.38
394.556	481.38
394.78	472.38
395.005	479.38
395.229	475.38
395.454	532.38
395.678	512.38
395.903	518.38
396.127	525.38
396.352	528.38
396.576	503.38
396.801	506.38
397.025	506.38
397.249	516.38
397.474	508.38
397.698	534.38
397.922	524.38
398.147	541.38
398.371	545.38
398.595	533.38
398.82	534.38
399.044	564.38
399.268	571.38
399.492	649.38
399.717	632.38
399.941	717.38
400.165	705.38
400.389	697.38
400.613	631.38
400.837	593.38
401.062	553.38
401.286	586.38
401.51	566.38
401.734	554.38
401.958	558.38
402.182	557.38
402.406	552.38
402.63	546.38
402.854	563.38
403.078	562.38
403.302	577.38
403.526	581.38
403.75	597.38
403.974	571.38
404.198	565.38
404.422	597.38
404.645	597.38
404.869	605.38
405.093	622.38
405.317	661.38
405.541	695.38
405.765	641.38
405.988	599.38
406.212	618.38
406.436	622.38
406.66	633.38
406.883	625.38
407.107	646.38
407.331	689.38
407.555	761.38
407.778	760.38
408.002	671.38
408.226	639.38
408.449	622.38
408.673	617.38
408.896	666.38
409.12	684.38
409.344	662.38
409.567	605.38
409.791	590.38
410.014	584.38
410.238	598.38
410.461	577.38
410.685	587.38
410.908	596.38
411.132	606.38
411.355	668.38
411.578	631.38
411.802	591.38
412.025	577.38
412.249	575.38
412.472	604.38
412.695	636.38
412.919	639.38
413.142	606.38
413.365	567.38
413.589	540.38
413.812	540.38
414.035	550.38
414.258	547.38
414.482	551.38
414.705	565.38
414.928	562.38
415.151	550.38
415.374	568.38
415.597	534.38
415.821	549.38
416.044	565.38
416.267	548.38
416.49	571.38
416.713	535.38
416.936	552.38
417.159	535.38
417.382	539.38
417.605	552.38
417.828	573.38
418.051	567.38
418.274	581.38
418.497	551.38
418.72	568.38
418.943	547.38
419.166	577.38
419.389	609.38
419.611	595.38
419.834	582.38
420.057	564.38
420.28	578.38
420.503	581.38
420.726	578.38
420.948	589.38
421.171	604.38
421.394	646.38
421.617	606.38
421.839	561.38
422.062	585.38
422.285	584.38
422.507	629.38
422.73	709.38
422.953	680.38
423.175	635.38
423.398	597.38
423.621	603.38
423.843	614.38
424.066	603.38
424.288	605.38
424.511	621.38
424.733	660.38
424.956	729.38
425.178	697.38
425.401	724.38
425.623	722.38
425.846	658.38
426.068	613.38
426.291	578.38
426.513	575.38
426.735	587.38
426.958	623.38
427.18	717.38
427.402	838.38
427.625	927.38
427.847	812.38
428.069	668.38
428.292	628.38
428.514	576.38
428.736	552.38
428.958	577.38
429.181	545.38
429.403	550.38
429.625	552.38
429.847	596.38
430.069	653.38
430.292	655.38
430.514	578.38
430.736	569.38
430.958	523.38
431.18	536.38
431.402	514.38
431.624	519.38
431.846	558.38
432.068	509.38
432.29	530.38
432.512	533.38
432.734	526.38
432.956	540.38
433.178	559.38
433.4	542.38
433.622	548.38
433.844	553.38
434.066	518.38
434.287	533.38
434.509	547.38
434.731	557.38
434.953	581.38
435.175	571.38
435.397	604.38
435.618	603.38
435.84	636.38
436.062	712.38
436.284	790.38
436.505	677.38
436.727	591.38
436.949	575.38
437.17	571.38
437.392	547.38
437.614	548.38
437.835	587.38
438.057	661.38
438.278	766.38
438.5	785.38
438.721	850.38
438.943	796.38
439.165	665.38
439.386	580.38
439.608	601.38
439.829	586.38
440.05	610.38
440.272	643.38
440.493	615.38
440.715	561.38
440.936	558.38
441.158	583.38
441.379	546.38
441.6	567.38
441.822	601.38
442.043	626.38
442.264	705.38
442.486	765.38
442.707	645.38
442.928	602.38
443.149	630.38
443.371	628.38
443.592	690.38
443.813	757.38
444.034	848.38
444.255	682.38
444.476	641.38
444.698	633.38
444.919	618.38
445.14	754.38
445.361	680.38
445.582	666.38
445.803	711.38
446.024	781.38
446.245	787.38
446.466	727.38
446.687	634.38
446.908	583.38
447.129	576.38
447.35	571.38
447.571	548.38
447.792	532.38
448.013	554.38
448.234	554.38
448.455	615.38
448.675	719.38
448.896	836.38
449.117	697.38
449.338	665.38
449.559	791.38
449.779	877.38
450	687.38
450.221	596.38
450.442	533.38
450.662	522.38
450.883	517.38
451.104	537.38
451.324	506.38
451.545	531.38
451.766	498.38
451.986	474.38
452.207	490.38
452.428	489.38
452.648	485.38
452.869	472.38
453.089	489.38
453.31	515.38
453.53	501.38
453.751	498.38
453.971	484.38
454.192	503.38
454.412	494.38
454.633	479.38
454.853	472.38
455.073	461.38
455.294	501.38
455.514	571.38
455.734	543.38
455.955	484.38
456.175	471.38
456.395	452.38
456.616	466.38
456.836	468.38
457.056	484.38
457.276	461.38
457.497	443.38
457.717	463.38
457.937	477.38
458.157	491.38
458.377	473.38
458.598	484.38
458.818	510.38
459.038	597.38
459.258	626.38
459.478	557.38
459.698	557.38
459.918	531.38
460.138	534.38
460.358	527.38
460.578	548.38
460.798	550.38
461.018	550.38
461.238	559.38
461.458	561.38
461.678	551.38
461.898	569.38
462.118	566.38
462.338	582.38
462.558	572.38
462.777	579.38
462.997	618.38
463.217	618.38
463.437	629.38
463.657	597.38
463.876	591.38
464.096	604.38
464.316	595.38
464.536	612.38
464.755	595.38
464.975	594.38
465.195	591.38
465.414	630.38
465.634	599.38
465.854	571.38
466.073	548.38
466.293	531.38
466.512	490.38
466.732	516.38
466.951	489.38
467.171	492.38
467.391	538.38
467.61	521.38
467.829	535.38
468.049	522.38
468.268	512.38
468.488	511.38
468.707	509.38
468.927	485.38
469.146	480.38
469.365	522.38
469.585	475.38
469.804	505.38
470.023	522.38
470.243	514.38
470.462	530.38
470.681	523.38
470.901	524.38
471.12	521.38
471.339	527.38
471.558	519.38
471.777	494.38
471.997	484.38
472.216	530.38
472.435	538.38
472.654	528.38
472.873	503.38
473.092	492.38
473.311	499.38
473.53	502.38
473.749	534.38
473.968	572.38
474.187	636.38
474.406	646.38
474.625	549.38
474.844	538.38
475.063	525.38
475.282	510.38
475.501	543.38
475.72	534.38
475.939	538.38
476.158	539.38
476.377	528.38
476.596	526.38
476.814	537.38
477.033	546.38
477.252	552.38
477.471	547.38
477.69	535.38
477.908	562.38
478.127	581.38
478.346	569.38
478.564	590.38
478.783	591.38
479.002	580.38
479.22	598.38
479.439	617.38
479.658	620.38
479.876	636.38
480.095	623.38
480.313	650.38
480.532	643.38
480.751	623.38
480.969	633.38
481.188	677.38
481.406	680.38
481.624	622.38
481.843	617.38
482.061	597.38
482.28	604.38
482.498	623.38
482.717	604.38
482.935	591.38
483.153	597.38
483.372	597.38
483.59	623.38
483.808	593.38
484.027	634.38
484.245	588.38
484.463	598.38
484.681	612.38
484.9	595.38
485.118	610.38
485.336	619.38
485.554	628.38
485.772	617.38
485.99	631.38
486.209	632.38
486.427	631.38
486.645	609.38
486.863	656.38
487.081	674.38
487.299	661.38
487.517	640.38
487.735	631.38
487.953	663.38
488.171	662.38
488.389	639.38
488.607	672.38
488.825	630.38
489.043	630.38
489.261	655.38
489.479	676.38
489.696	666.38
489.914	654.38
490.132	680.38
490.35	692.38
490.568	697.38
490.786	689.38
491.003	700.38
491.221	725.38
491.439	703.38
491.657	728.38
491.874	752.38
492.092	730.38
492.31	754.38
492.527	716.38
492.745	750.38
492.963	756.38
493.18	753.38
493.398	771.38
493.615	761.38
493.833	753.38
494.05	773.38
494.268	751.38
494.485	760.38
494.703	750.38
494.92	758.38
495.138	779.38
495.355	789.38
495.573	745.38
495.79	768.38
496.008	732.38
496.225	773.38
496.442	769.38
496.66	766.38
496.877	779.38
497.094	786.38
497.312	814.38
497.529	797.38
497.746	798.38
497.963	821.38
498.181	825.38
498.398	881.38
498.615	875.38
498.832	881.38
499.049	921.38
499.267	959.38
499.484	1014.38
499.701	1056.38
499.918	1100.38
500.135	1149.38
500.352	1221.38
500.569	1242.38
500.786	1248.38
501.003	1215.38
501.22	1174.38
501.437	1112.38
501.654	1045.38
