Data from 1974.PennyLincolnUp.Lamp.En5.5.200Scan.071719.P1.Changed Mount._HRD10591_15-52-58-858.txt Node
Date: Thu Jul 18 15:52:58 EDT 2019
User: cochatt
Spectrometer: HR+D1059
Trigger mode: 1
Integration Time (sec): 1.000000E-1
Scans to average: 1
Electric dark correction enabled: true
Nonlinearity correction enabled: false
Boxcar width: 0
XAxis mode: Wavelengths
Number of Pixels in Spectrum: 2048
>>>>>Begin Spectral Data<<<<<
223.165	-15.62
223.4	-15.62
223.635	-15.62
223.869	-13.62
224.104	-25.62
224.338	-20.62
224.573	-14.62
224.808	-11.62
225.042	-24.62
225.277	-8.62
225.511	14.38
225.746	15.38
225.98	4.38
226.215	29.38
226.449	12.38
226.683	18.38
226.918	11.38
227.152	29.38
227.387	35.38
227.621	35.38
227.856	33.38
228.09	27.38
228.324	53.38
228.559	52.38
228.793	60.38
229.027	88.38
229.262	114.38
229.496	122.38
229.73	130.38
229.964	157.38
230.199	140.38
230.433	113.38
230.667	125.38
230.901	116.38
231.136	105.38
231.37	114.38
231.604	121.38
231.838	126.38
232.072	113.38
232.306	103.38
232.541	115.38
232.775	123.38
233.009	118.38
233.243	119.38
233.477	120.38
233.711	128.38
233.945	119.38
234.179	119.38
234.413	121.38
234.647	127.38
234.881	116.38
235.115	115.38
235.349	124.38
235.583	131.38
235.817	120.38
236.051	117.38
236.285	125.38
236.519	129.38
236.753	134.38
236.987	141.38
237.221	181.38
237.455	235.38
237.689	193.38
237.922	152.38
238.156	129.38
238.39	132.38
238.624	139.38
238.858	121.38
239.091	125.38
239.325	136.38
239.559	148.38
239.793	143.38
240.027	137.38
240.26	121.38
240.494	146.38
240.728	167.38
240.961	141.38
241.195	159.38
241.429	143.38
241.662	139.38
241.896	144.38
242.13	135.38
242.363	148.38
242.597	147.38
242.83	139.38
243.064	134.38
243.298	156.38
243.531	135.38
243.765	157.38
243.998	148.38
244.232	141.38
244.465	151.38
244.699	153.38
244.932	154.38
245.166	157.38
245.399	134.38
245.633	150.38
245.866	169.38
246.099	151.38
246.333	159.38
246.566	170.38
246.8	165.38
247.033	152.38
247.266	155.38
247.5	164.38
247.733	180.38
247.966	184.38
248.2	187.38
248.433	176.38
248.666	179.38
248.899	203.38
249.133	206.38
249.366	217.38
249.599	205.38
249.832	189.38
250.066	192.38
250.299	187.38
250.532	219.38
250.765	203.38
250.998	239.38
251.231	238.38
251.465	230.38
251.698	210.38
251.931	210.38
252.164	212.38
252.397	210.38
252.63	216.38
252.863	218.38
253.096	226.38
253.329	245.38
253.562	239.38
253.795	239.38
254.028	234.38
254.261	216.38
254.494	235.38
254.727	260.38
254.96	276.38
255.193	259.38
255.426	268.38
255.659	247.38
255.892	243.38
256.124	225.38
256.357	241.38
256.59	235.38
256.823	233.38
257.056	219.38
257.289	216.38
257.521	223.38
257.754	223.38
257.987	228.38
258.22	229.38
258.452	235.38
258.685	219.38
258.918	209.38
259.151	225.38
259.383	244.38
259.616	227.38
259.849	249.38
260.081	247.38
260.314	251.38
260.547	273.38
260.779	258.38
261.012	253.38
261.244	243.38
261.477	247.38
261.71	246.38
261.942	239.38
262.175	233.38
262.407	247.38
262.64	236.38
262.872	239.38
263.105	225.38
263.337	243.38
263.57	234.38
263.802	221.38
264.035	241.38
264.267	228.38
264.499	246.38
264.732	230.38
264.964	226.38
265.197	229.38
265.429	218.38
265.661	236.38
265.894	232.38
266.126	232.38
266.358	234.38
266.591	246.38
266.823	237.38
267.055	235.38
267.287	256.38
267.52	242.38
267.752	229.38
267.984	235.38
268.216	245.38
268.448	249.38
268.681	255.38
268.913	272.38
269.145	262.38
269.377	319.38
269.609	287.38
269.841	290.38
270.073	305.38
270.306	307.38
270.538	337.38
270.77	347.38
271.002	312.38
271.234	293.38
271.466	309.38
271.698	311.38
271.93	338.38
272.162	322.38
272.394	328.38
272.626	300.38
272.858	307.38
273.09	295.38
273.322	285.38
273.553	291.38
273.785	281.38
274.017	292.38
274.249	298.38
274.481	290.38
274.713	284.38
274.945	297.38
275.176	282.38
275.408	290.38
275.64	289.38
275.872	278.38
276.104	277.38
276.335	294.38
276.567	296.38
276.799	319.38
277.031	327.38
277.262	326.38
277.494	328.38
277.726	314.38
277.957	315.38
278.189	314.38
278.421	283.38
278.652	289.38
278.884	305.38
279.115	294.38
279.347	288.38
279.579	282.38
279.81	285.38
280.042	285.38
280.273	297.38
280.505	289.38
280.736	297.38
280.968	291.38
281.199	277.38
281.431	300.38
281.662	292.38
281.894	287.38
282.125	298.38
282.356	308.38
282.588	324.38
282.819	336.38
283.051	317.38
283.282	299.38
283.513	311.38
283.745	288.38
283.976	305.38
284.207	288.38
284.439	292.38
284.67	298.38
284.901	314.38
285.132	312.38
285.364	291.38
285.595	306.38
285.826	321.38
286.057	303.38
286.288	314.38
286.52	318.38
286.751	314.38
286.982	307.38
287.213	305.38
287.444	300.38
287.675	311.38
287.906	310.38
288.138	332.38
288.369	338.38
288.6	327.38
288.831	319.38
289.062	320.38
289.293	315.38
289.524	316.38
289.755	315.38
289.986	334.38
290.217	324.38
290.448	341.38
290.679	310.38
290.91	327.38
291.141	330.38
291.371	316.38
291.602	310.38
291.833	301.38
292.064	309.38
292.295	322.38
292.526	303.38
292.757	332.38
292.987	320.38
293.218	329.38
293.449	314.38
293.68	334.38
293.91	325.38
294.141	331.38
294.372	305.38
294.603	325.38
294.833	319.38
295.064	323.38
295.295	319.38
295.525	339.38
295.756	355.38
295.987	359.38
296.217	332.38
296.448	347.38
296.679	336.38
296.909	310.38
297.14	329.38
297.37	331.38
297.601	316.38
297.831	328.38
298.062	340.38
298.292	333.38
298.523	346.38
298.753	321.38
298.984	345.38
299.214	348.38
299.445	349.38
299.675	348.38
299.905	347.38
300.136	331.38
300.366	340.38
300.597	353.38
300.827	350.38
301.057	356.38
301.288	360.38
301.518	356.38
301.748	351.38
301.979	358.38
302.209	357.38
302.439	359.38
302.669	372.38
302.9	341.38
303.13	369.38
303.36	353.38
303.59	361.38
303.82	357.38
304.051	379.38
304.281	357.38
304.511	356.38
304.741	362.38
304.971	344.38
305.201	367.38
305.431	341.38
305.661	375.38
305.891	369.38
306.121	357.38
306.352	367.38
306.582	345.38
306.812	352.38
307.042	367.38
307.272	361.38
307.502	345.38
307.731	369.38
307.961	353.38
308.191	369.38
308.421	363.38
308.651	359.38
308.881	371.38
309.111	365.38
309.341	386.38
309.571	378.38
309.8	384.38
310.03	401.38
310.26	389.38
310.49	400.38
310.72	391.38
310.949	405.38
311.179	408.38
311.409	400.38
311.639	409.38
311.868	395.38
312.098	400.38
312.328	422.38
312.557	425.38
312.787	445.38
313.017	424.38
313.246	422.38
313.476	407.38
313.706	405.38
313.935	417.38
314.165	411.38
314.394	411.38
314.624	406.38
314.853	418.38
315.083	412.38
315.312	404.38
315.542	421.38
315.771	395.38
316.001	401.38
316.23	395.38
316.46	404.38
316.689	400.38
316.919	411.38
317.148	405.38
317.377	408.38
317.607	415.38
317.836	407.38
318.065	408.38
318.295	397.38
318.524	421.38
318.753	403.38
318.983	407.38
319.212	415.38
319.441	425.38
319.67	438.38
319.9	403.38
320.129	412.38
320.358	439.38
320.587	411.38
320.816	419.38
321.046	408.38
321.275	437.38
321.504	424.38
321.733	445.38
321.962	442.38
322.191	439.38
322.42	455.38
322.649	459.38
322.878	482.38
323.108	476.38
323.337	487.38
323.566	508.38
323.795	522.38
324.024	544.38
324.253	619.38
324.482	882.38
324.71	1315.38
324.939	1947.38
325.168	1691.38
325.397	882.38
325.626	598.38
325.855	537.38
326.084	499.38
326.313	511.38
326.542	497.38
326.77	545.38
326.999	612.38
327.228	796.38
327.457	1207.38
327.686	1471.38
327.914	971.38
328.143	664.38
328.372	600.38
328.6	585.38
328.829	582.38
329.058	556.38
329.287	575.38
329.515	544.38
329.744	548.38
329.972	512.38
330.201	530.38
330.43	545.38
330.658	577.38
330.887	603.38
331.115	587.38
331.344	533.38
331.572	514.38
331.801	523.38
332.03	529.38
332.258	517.38
332.486	482.38
332.715	469.38
332.943	509.38
333.172	492.38
333.4	480.38
333.629	512.38
333.857	525.38
334.085	534.38
334.314	554.38
334.542	549.38
334.771	576.38
334.999	520.38
335.227	516.38
335.455	516.38
335.684	499.38
335.912	488.38
336.14	478.38
336.369	487.38
336.597	499.38
336.825	492.38
337.053	495.38
337.281	487.38
337.51	480.38
337.738	477.38
337.966	501.38
338.194	482.38
338.422	482.38
338.65	481.38
338.878	461.38
339.106	448.38
339.334	480.38
339.562	474.38
339.79	489.38
340.018	484.38
340.246	459.38
340.474	469.38
340.702	483.38
340.93	469.38
341.158	450.38
341.386	451.38
341.614	470.38
341.842	468.38
342.07	466.38
342.298	453.38
342.526	446.38
342.754	452.38
342.981	466.38
343.209	459.38
343.437	478.38
343.665	474.38
343.893	490.38
344.12	529.38
344.348	500.38
344.576	484.38
344.804	469.38
345.031	490.38
345.259	515.38
345.487	477.38
345.714	489.38
345.942	455.38
346.17	461.38
346.397	466.38
346.625	444.38
346.853	447.38
347.08	448.38
347.308	449.38
347.535	454.38
347.763	457.38
347.99	464.38
348.218	463.38
348.445	461.38
348.673	452.38
348.9	445.38
349.128	447.38
349.355	435.38
349.583	441.38
349.81	433.38
350.037	444.38
350.265	454.38
350.492	451.38
350.72	450.38
350.947	439.38
351.174	439.38
351.402	467.38
351.629	485.38
351.856	474.38
352.083	475.38
352.311	478.38
352.538	461.38
352.765	456.38
352.992	453.38
353.22	451.38
353.447	444.38
353.674	443.38
353.901	449.38
354.128	431.38
354.355	419.38
354.583	422.38
354.81	446.38
355.037	441.38
355.264	425.38
355.491	450.38
355.718	426.38
355.945	439.38
356.172	414.38
356.399	412.38
356.626	412.38
356.853	417.38
357.08	455.38
357.307	448.38
357.534	438.38
357.761	412.38
357.988	424.38
358.215	415.38
358.441	452.38
358.668	433.38
358.895	426.38
359.122	449.38
359.349	459.38
359.576	449.38
359.802	453.38
360.029	486.38
360.256	518.38
360.483	496.38
360.709	447.38
360.936	462.38
361.163	449.38
361.39	475.38
361.616	468.38
361.843	454.38
362.07	461.38
362.296	436.38
362.523	459.38
362.749	449.38
362.976	452.38
363.203	445.38
363.429	439.38
363.656	456.38
363.882	442.38
364.109	471.38
364.335	463.38
364.562	451.38
364.788	470.38
365.015	460.38
365.241	450.38
365.468	452.38
365.694	456.38
365.92	457.38
366.147	445.38
366.373	449.38
366.599	455.38
366.826	439.38
367.052	427.38
367.278	438.38
367.505	433.38
367.731	427.38
367.957	448.38
368.184	453.38
368.41	460.38
368.636	461.38
368.862	457.38
369.089	450.38
369.315	438.38
369.541	449.38
369.767	462.38
369.993	461.38
370.219	447.38
370.445	438.38
370.672	443.38
370.898	445.38
371.124	460.38
371.35	455.38
371.576	451.38
371.802	469.38
372.028	441.38
372.254	452.38
372.48	449.38
372.706	442.38
372.932	467.38
373.158	455.38
373.384	451.38
373.61	477.38
373.835	452.38
374.061	455.38
374.287	474.38
374.513	469.38
374.739	457.38
374.965	474.38
375.191	483.38
375.416	474.38
375.642	459.38
375.868	444.38
376.094	449.38
376.319	458.38
376.545	460.38
376.771	454.38
376.997	477.38
377.222	459.38
377.448	466.38
377.674	461.38
377.899	456.38
378.125	445.38
378.35	449.38
378.576	447.38
378.802	450.38
379.027	460.38
379.253	442.38
379.478	428.38
379.704	463.38
379.929	457.38
380.155	453.38
380.38	459.38
380.606	459.38
380.831	473.38
381.057	475.38
381.282	478.38
381.507	455.38
381.733	449.38
381.958	475.38
382.184	477.38
382.409	469.38
382.634	459.38
382.86	461.38
383.085	464.38
383.31	466.38
383.535	481.38
383.761	487.38
383.986	474.38
384.211	492.38
384.436	474.38
384.662	497.38
384.887	513.38
385.112	498.38
385.337	511.38
385.562	500.38
385.787	522.38
386.013	531.38
386.238	502.38
386.463	499.38
386.688	513.38
386.913	498.38
387.138	535.38
387.363	514.38
387.588	503.38
387.813	501.38
388.038	510.38
388.263	499.38
388.488	511.38
388.713	536.38
388.938	509.38
389.163	519.38
389.387	512.38
389.612	511.38
389.837	521.38
390.062	539.38
390.287	500.38
390.512	519.38
390.736	525.38
390.961	519.38
391.186	514.38
391.411	528.38
391.636	519.38
391.86	532.38
392.085	525.38
392.31	530.38
392.534	514.38
392.759	518.38
392.984	532.38
393.208	518.38
393.433	521.38
393.658	543.38
393.882	503.38
394.107	503.38
394.331	522.38
394.556	555.38
394.78	531.38
395.005	512.38
395.229	510.38
395.454	524.38
395.678	531.38
395.903	563.38
396.127	563.38
396.352	566.38
396.576	536.38
396.801	541.38
397.025	544.38
397.249	535.38
397.474	536.38
397.698	561.38
397.922	593.38
398.147	585.38
398.371	593.38
398.595	610.38
398.82	582.38
399.044	619.38
399.268	633.38
399.492	686.38
399.717	717.38
399.941	751.38
400.165	742.38
400.389	765.38
400.613	677.38
400.837	643.38
401.062	632.38
401.286	627.38
401.51	596.38
401.734	587.38
401.958	596.38
402.182	624.38
402.406	615.38
402.63	609.38
402.854	641.38
403.078	630.38
403.302	603.38
403.526	627.38
403.75	648.38
403.974	616.38
404.198	635.38
404.422	629.38
404.645	644.38
404.869	639.38
405.093	693.38
405.317	733.38
405.541	730.38
405.765	664.38
405.988	650.38
406.212	679.38
406.436	663.38
406.66	702.38
406.883	669.38
407.107	709.38
407.331	759.38
407.555	799.38
407.778	834.38
408.002	741.38
408.226	724.38
408.449	684.38
408.673	698.38
408.896	699.38
409.12	740.38
409.344	687.38
409.567	647.38
409.791	650.38
410.014	639.38
410.238	611.38
410.461	633.38
410.685	615.38
410.908	642.38
411.132	674.38
411.355	692.38
411.578	667.38
411.802	643.38
412.025	615.38
412.249	618.38
412.472	649.38
412.695	688.38
412.919	678.38
413.142	639.38
413.365	644.38
413.589	630.38
413.812	600.38
414.035	591.38
414.258	597.38
414.482	579.38
414.705	600.38
414.928	595.38
415.151	593.38
415.374	595.38
415.597	585.38
415.821	554.38
416.044	577.38
416.267	596.38
416.49	589.38
416.713	609.38
416.936	603.38
417.159	597.38
417.382	585.38
417.605	599.38
417.828	602.38
418.051	619.38
418.274	616.38
418.497	600.38
418.72	590.38
418.943	596.38
419.166	624.38
419.389	667.38
419.611	645.38
419.834	659.38
420.057	633.38
420.28	627.38
420.503	624.38
420.726	615.38
420.948	631.38
421.171	663.38
421.394	684.38
421.617	619.38
421.839	609.38
422.062	656.38
422.285	633.38
422.507	705.38
422.73	760.38
422.953	737.38
423.175	675.38
423.398	628.38
423.621	655.38
423.843	672.38
424.066	668.38
424.288	651.38
424.511	680.38
424.733	744.38
424.956	804.38
425.178	788.38
425.401	771.38
425.623	803.38
425.846	715.38
426.068	650.38
426.291	652.38
426.513	650.38
426.735	647.38
426.958	696.38
427.18	744.38
427.402	907.38
427.625	1000.38
427.847	839.38
428.069	740.38
428.292	679.38
428.514	641.38
428.736	609.38
428.958	619.38
429.181	597.38
429.403	596.38
429.625	620.38
429.847	645.38
430.069	667.38
430.292	720.38
430.514	624.38
430.736	600.38
430.958	586.38
431.18	570.38
431.402	586.38
431.624	568.38
431.846	550.38
432.068	574.38
432.29	565.38
432.512	560.38
432.734	573.38
432.956	566.38
433.178	578.38
433.4	568.38
433.622	575.38
433.844	561.38
434.066	569.38
434.287	580.38
434.509	572.38
434.731	589.38
434.953	596.38
435.175	634.38
435.397	637.38
435.618	640.38
435.84	682.38
436.062	782.38
436.284	853.38
436.505	714.38
436.727	667.38
436.949	611.38
437.17	607.38
437.392	593.38
437.614	599.38
437.835	646.38
438.057	735.38
438.278	846.38
438.5	839.38
438.721	920.38
438.943	872.38
439.165	700.38
439.386	675.38
439.608	661.38
439.829	647.38
440.05	674.38
440.272	696.38
440.493	671.38
440.715	627.38
440.936	634.38
441.158	614.38
441.379	631.38
441.6	619.38
441.822	645.38
442.043	680.38
442.264	775.38
442.486	835.38
442.707	698.38
442.928	676.38
443.149	671.38
443.371	710.38
443.592	727.38
443.813	851.38
444.034	902.38
444.255	763.38
444.476	694.38
444.698	671.38
444.919	682.38
445.14	789.38
445.361	730.38
445.582	701.38
445.803	745.38
446.024	864.38
446.245	864.38
446.466	780.38
446.687	678.38
446.908	646.38
447.129	610.38
447.35	605.38
447.571	589.38
447.792	575.38
448.013	598.38
448.234	625.38
448.455	675.38
448.675	790.38
448.896	932.38
449.117	783.38
449.338	709.38
449.559	868.38
449.779	956.38
450	772.38
450.221	631.38
450.442	570.38
450.662	578.38
450.883	591.38
451.104	587.38
451.324	581.38
451.545	556.38
451.766	535.38
451.986	538.38
452.207	536.38
452.428	533.38
452.648	528.38
452.869	516.38
453.089	551.38
453.31	563.38
453.53	539.38
453.751	544.38
453.971	538.38
454.192	548.38
454.412	523.38
454.633	501.38
454.853	531.38
455.073	533.38
455.294	570.38
455.514	607.38
455.734	616.38
455.955	531.38
456.175	493.38
456.395	517.38
456.616	510.38
456.836	502.38
457.056	514.38
457.276	491.38
457.497	511.38
457.717	520.38
457.937	531.38
458.157	536.38
458.377	512.38
458.598	529.38
458.818	598.38
459.038	657.38
459.258	679.38
459.478	601.38
459.698	567.38
459.918	556.38
460.138	579.38
460.358	596.38
460.578	590.38
460.798	623.38
461.018	600.38
461.238	576.38
461.458	584.38
461.678	588.38
461.898	633.38
462.118	583.38
462.338	606.38
462.558	631.38
462.777	631.38
462.997	664.38
463.217	664.38
463.437	681.38
463.657	656.38
463.876	641.38
464.096	650.38
464.316	657.38
464.536	636.38
464.755	662.38
464.975	647.38
465.195	659.38
465.414	679.38
465.634	646.38
465.854	596.38
466.073	580.38
466.293	573.38
466.512	556.38
466.732	570.38
466.951	549.38
467.171	537.38
467.391	571.38
467.61	574.38
467.829	572.38
468.049	565.38
468.268	570.38
468.488	543.38
468.707	545.38
468.927	544.38
469.146	554.38
469.365	526.38
469.585	529.38
469.804	559.38
470.023	574.38
470.243	580.38
470.462	573.38
470.681	560.38
470.901	568.38
471.12	582.38
471.339	542.38
471.558	574.38
471.777	577.38
471.997	563.38
472.216	556.38
472.435	579.38
472.654	568.38
472.873	563.38
473.092	561.38
473.311	534.38
473.53	563.38
473.749	556.38
473.968	584.38
474.187	680.38
474.406	696.38
474.625	589.38
474.844	579.38
475.063	579.38
475.282	557.38
475.501	564.38
475.72	583.38
475.939	573.38
476.158	580.38
476.377	569.38
476.596	567.38
476.814	583.38
477.033	594.38
477.252	591.38
477.471	601.38
477.69	598.38
477.908	608.38
478.127	608.38
478.346	607.38
478.564	637.38
478.783	618.38
479.002	635.38
479.22	637.38
479.439	655.38
479.658	661.38
479.876	687.38
480.095	666.38
480.313	716.38
480.532	687.38
480.751	683.38
480.969	687.38
481.188	748.38
481.406	748.38
481.624	707.38
481.843	685.38
482.061	661.38
482.28	672.38
482.498	650.38
482.717	644.38
482.935	673.38
483.153	659.38
483.372	639.38
483.59	675.38
483.808	660.38
484.027	642.38
484.245	657.38
484.463	657.38
484.681	690.38
484.9	665.38
485.118	673.38
485.336	673.38
485.554	661.38
485.772	659.38
485.99	689.38
486.209	652.38
486.427	695.38
486.645	697.38
486.863	683.38
487.081	718.38
487.299	704.38
487.517	691.38
487.735	708.38
487.953	679.38
488.171	678.38
488.389	704.38
488.607	728.38
488.825	716.38
489.043	695.38
489.261	717.38
489.479	717.38
489.696	741.38
489.914	713.38
490.132	743.38
490.35	739.38
490.568	733.38
490.786	743.38
491.003	737.38
491.221	735.38
491.439	796.38
491.657	791.38
491.874	797.38
492.092	813.38
492.31	826.38
492.527	797.38
492.745	804.38
492.963	821.38
493.18	820.38
493.398	829.38
493.615	860.38
493.833	807.38
494.05	850.38
494.268	826.38
494.485	859.38
494.703	823.38
494.92	821.38
495.138	813.38
495.355	827.38
495.573	817.38
495.79	829.38
496.008	849.38
496.225	837.38
496.442	835.38
496.66	833.38
496.877	858.38
497.094	865.38
497.312	871.38
497.529	871.38
497.746	863.38
497.963	864.38
498.181	909.38
498.398	928.38
498.615	955.38
498.832	976.38
499.049	993.38
499.267	1046.38
499.484	1091.38
499.701	1146.38
499.918	1199.38
500.135	1242.38
500.352	1308.38
500.569	1337.38
500.786	1348.38
501.003	1327.38
501.22	1271.38
501.437	1179.38
