Data from 1974.PennyLincolnUp.Lamp.En5.5.200Scan.071719.P1.Changed Mount._HRD10591_15-52-52-856.txt Node
Date: Thu Jul 18 15:52:52 EDT 2019
User: cochatt
Spectrometer: HR+D1059
Trigger mode: 1
Integration Time (sec): 1.000000E-1
Scans to average: 1
Electric dark correction enabled: true
Nonlinearity correction enabled: false
Boxcar width: 0
XAxis mode: Wavelengths
Number of Pixels in Spectrum: 2048
>>>>>Begin Spectral Data<<<<<
223.165	-22.88
223.4	-22.88
223.635	-22.88
223.869	-8.88
224.104	-22.88
224.338	-11.88
224.573	-10.88
224.808	-9.88
225.042	-18.88
225.277	7.12
225.511	-1.88
225.746	2.12
225.98	6.12
226.215	13.12
226.449	23.12
226.683	11.12
226.918	14.12
227.152	31.12
227.387	38.12
227.621	45.12
227.856	44.12
228.09	48.12
228.324	44.12
228.559	48.12
228.793	72.12
229.027	104.12
229.262	100.12
229.496	101.12
229.73	135.12
229.964	151.12
230.199	133.12
230.433	124.12
230.667	124.12
230.901	116.12
231.136	118.12
231.37	145.12
231.604	120.12
231.838	110.12
232.072	133.12
232.306	115.12
232.541	134.12
232.775	109.12
233.009	117.12
233.243	119.12
233.477	128.12
233.711	139.12
233.945	112.12
234.179	120.12
234.413	128.12
234.647	128.12
234.881	122.12
235.115	107.12
235.349	123.12
235.583	129.12
235.817	140.12
236.051	131.12
236.285	127.12
236.519	121.12
236.753	132.12
236.987	143.12
237.221	197.12
237.455	233.12
237.689	193.12
237.922	152.12
238.156	139.12
238.39	140.12
238.624	146.12
238.858	129.12
239.091	125.12
239.325	145.12
239.559	153.12
239.793	137.12
240.027	147.12
240.26	151.12
240.494	153.12
240.728	155.12
240.961	161.12
241.195	152.12
241.429	155.12
241.662	168.12
241.896	153.12
242.13	141.12
242.363	153.12
242.597	159.12
242.83	149.12
243.064	144.12
243.298	151.12
243.531	139.12
243.765	163.12
243.998	155.12
244.232	159.12
244.465	140.12
244.699	168.12
244.932	169.12
245.166	170.12
245.399	159.12
245.633	157.12
245.866	148.12
246.099	165.12
246.333	180.12
246.566	167.12
246.8	167.12
247.033	176.12
247.266	169.12
247.5	194.12
247.733	168.12
247.966	174.12
248.2	196.12
248.433	169.12
248.666	187.12
248.899	203.12
249.133	214.12
249.366	225.12
249.599	207.12
249.832	197.12
250.066	193.12
250.299	192.12
250.532	213.12
250.765	222.12
250.998	235.12
251.231	240.12
251.465	220.12
251.698	217.12
251.931	213.12
252.164	196.12
252.397	206.12
252.63	219.12
252.863	220.12
253.096	236.12
253.329	256.12
253.562	249.12
253.795	230.12
254.028	232.12
254.261	243.12
254.494	223.12
254.727	274.12
254.96	285.12
255.193	293.12
255.426	266.12
255.659	235.12
255.892	235.12
256.124	265.12
256.357	256.12
256.59	248.12
256.823	228.12
257.056	239.12
257.289	250.12
257.521	248.12
257.754	229.12
257.987	220.12
258.22	226.12
258.452	215.12
258.685	234.12
258.918	221.12
259.151	230.12
259.383	248.12
259.616	249.12
259.849	255.12
260.081	256.12
260.314	281.12
260.547	268.12
260.779	273.12
261.012	254.12
261.244	227.12
261.477	247.12
261.71	237.12
261.942	255.12
262.175	263.12
262.407	244.12
262.64	234.12
262.872	233.12
263.105	251.12
263.337	222.12
263.57	237.12
263.802	247.12
264.035	240.12
264.267	221.12
264.499	245.12
264.732	247.12
264.964	241.12
265.197	239.12
265.429	239.12
265.661	240.12
265.894	239.12
266.126	261.12
266.358	237.12
266.591	238.12
266.823	251.12
267.055	232.12
267.287	239.12
267.52	252.12
267.752	253.12
267.984	235.12
268.216	258.12
268.448	231.12
268.681	255.12
268.913	269.12
269.145	288.12
269.377	303.12
269.609	292.12
269.841	281.12
270.073	286.12
270.306	301.12
270.538	324.12
270.77	332.12
271.002	320.12
271.234	321.12
271.466	323.12
271.698	321.12
271.93	331.12
272.162	343.12
272.394	344.12
272.626	329.12
272.858	319.12
273.09	295.12
273.322	303.12
273.553	303.12
273.785	290.12
274.017	298.12
274.249	304.12
274.481	308.12
274.713	319.12
274.945	311.12
275.176	269.12
275.408	285.12
275.64	287.12
275.872	285.12
276.104	283.12
276.335	294.12
276.567	274.12
276.799	311.12
277.031	326.12
277.262	327.12
277.494	325.12
277.726	338.12
277.957	318.12
278.189	303.12
278.421	300.12
278.652	293.12
278.884	318.12
279.115	285.12
279.347	313.12
279.579	293.12
279.81	273.12
280.042	301.12
280.273	284.12
280.505	292.12
280.736	279.12
280.968	286.12
281.199	313.12
281.431	296.12
281.662	301.12
281.894	295.12
282.125	293.12
282.356	315.12
282.588	315.12
282.819	323.12
283.051	295.12
283.282	299.12
283.513	310.12
283.745	304.12
283.976	315.12
284.207	309.12
284.439	313.12
284.67	316.12
284.901	325.12
285.132	315.12
285.364	305.12
285.595	309.12
285.826	322.12
286.057	309.12
286.288	310.12
286.52	309.12
286.751	319.12
286.982	317.12
287.213	314.12
287.444	321.12
287.675	330.12
287.906	336.12
288.138	357.12
288.369	322.12
288.6	342.12
288.831	335.12
289.062	330.12
289.293	345.12
289.524	319.12
289.755	324.12
289.986	334.12
290.217	327.12
290.448	339.12
290.679	329.12
290.91	337.12
291.141	341.12
291.371	338.12
291.602	308.12
291.833	328.12
292.064	320.12
292.295	327.12
292.526	317.12
292.757	331.12
292.987	327.12
293.218	328.12
293.449	325.12
293.68	332.12
293.91	355.12
294.141	331.12
294.372	333.12
294.603	327.12
294.833	344.12
295.064	331.12
295.295	340.12
295.525	337.12
295.756	327.12
295.987	329.12
296.217	333.12
296.448	369.12
296.679	349.12
296.909	343.12
297.14	344.12
297.37	343.12
297.601	338.12
297.831	353.12
298.062	322.12
298.292	337.12
298.523	338.12
298.753	358.12
298.984	342.12
299.214	347.12
299.445	367.12
299.675	343.12
299.905	345.12
300.136	361.12
300.366	347.12
300.597	343.12
300.827	359.12
301.057	352.12
301.288	356.12
301.518	351.12
301.748	359.12
301.979	368.12
302.209	375.12
302.439	373.12
302.669	348.12
302.9	381.12
303.13	373.12
303.36	378.12
303.59	383.12
303.82	364.12
304.051	363.12
304.281	373.12
304.511	359.12
304.741	367.12
304.971	363.12
305.201	364.12
305.431	377.12
305.661	360.12
305.891	377.12
306.121	382.12
306.352	371.12
306.582	365.12
306.812	369.12
307.042	367.12
307.272	379.12
307.502	353.12
307.731	365.12
307.961	364.12
308.191	380.12
308.421	383.12
308.651	389.12
308.881	391.12
309.111	365.12
309.341	380.12
309.571	398.12
309.8	401.12
310.03	387.12
310.26	416.12
310.49	398.12
310.72	403.12
310.949	398.12
311.179	419.12
311.409	413.12
311.639	404.12
311.868	400.12
312.098	411.12
312.328	385.12
312.557	447.12
312.787	451.12
313.017	421.12
313.246	406.12
313.476	385.12
313.706	411.12
313.935	393.12
314.165	431.12
314.394	443.12
314.624	440.12
314.853	418.12
315.083	424.12
315.312	422.12
315.542	425.12
315.771	412.12
316.001	421.12
316.23	421.12
316.46	411.12
316.689	403.12
316.919	406.12
317.148	406.12
317.377	424.12
317.607	427.12
317.836	409.12
318.065	428.12
318.295	407.12
318.524	423.12
318.753	417.12
318.983	419.12
319.212	419.12
319.441	413.12
319.67	439.12
319.9	438.12
320.129	417.12
320.358	431.12
320.587	408.12
320.816	412.12
321.046	441.12
321.275	455.12
321.504	440.12
321.733	439.12
321.962	430.12
322.191	441.12
322.42	478.12
322.649	465.12
322.878	453.12
323.108	459.12
323.337	502.12
323.566	487.12
323.795	525.12
324.024	565.12
324.253	648.12
324.482	822.12
324.71	1284.12
324.939	1918.12
325.168	1687.12
325.397	865.12
325.626	613.12
325.855	555.12
326.084	533.12
326.313	520.12
326.542	533.12
326.77	558.12
326.999	640.12
327.228	815.12
327.457	1147.12
327.686	1475.12
327.914	1023.12
328.143	697.12
328.372	606.12
328.6	574.12
328.829	529.12
329.058	565.12
329.287	584.12
329.515	549.12
329.744	528.12
329.972	518.12
330.201	559.12
330.43	572.12
330.658	594.12
330.887	613.12
331.115	606.12
331.344	554.12
331.572	529.12
331.801	534.12
332.03	521.12
332.258	494.12
332.486	495.12
332.715	497.12
332.943	518.12
333.172	511.12
333.4	529.12
333.629	554.12
333.857	538.12
334.085	539.12
334.314	580.12
334.542	563.12
334.771	586.12
334.999	562.12
335.227	532.12
335.455	534.12
335.684	520.12
335.912	500.12
336.14	498.12
336.369	511.12
336.597	494.12
336.825	505.12
337.053	494.12
337.281	487.12
337.51	503.12
337.738	504.12
337.966	507.12
338.194	483.12
338.422	486.12
338.65	508.12
338.878	478.12
339.106	477.12
339.334	480.12
339.562	496.12
339.79	483.12
340.018	464.12
340.246	480.12
340.474	511.12
340.702	474.12
340.93	494.12
341.158	477.12
341.386	471.12
341.614	483.12
341.842	474.12
342.07	462.12
342.298	471.12
342.526	472.12
342.754	467.12
342.981	460.12
343.209	467.12
343.437	481.12
343.665	475.12
343.893	510.12
344.12	500.12
344.348	493.12
344.576	480.12
344.804	505.12
345.031	489.12
345.259	504.12
345.487	491.12
345.714	470.12
345.942	481.12
346.17	481.12
346.397	459.12
346.625	459.12
346.853	453.12
347.08	459.12
347.308	472.12
347.535	485.12
347.763	451.12
347.99	455.12
348.218	465.12
348.445	467.12
348.673	460.12
348.9	456.12
349.128	450.12
349.355	445.12
349.583	469.12
349.81	453.12
350.037	445.12
350.265	446.12
350.492	434.12
350.72	448.12
350.947	478.12
351.174	471.12
351.402	462.12
351.629	468.12
351.856	481.12
352.083	477.12
352.311	478.12
352.538	487.12
352.765	468.12
352.992	461.12
353.22	456.12
353.447	461.12
353.674	460.12
353.901	458.12
354.128	453.12
354.355	435.12
354.583	475.12
354.81	444.12
355.037	439.12
355.264	440.12
355.491	442.12
355.718	457.12
355.945	439.12
356.172	432.12
356.399	445.12
356.626	440.12
356.853	447.12
357.08	433.12
357.307	429.12
357.534	429.12
357.761	451.12
357.988	432.12
358.215	446.12
358.441	449.12
358.668	439.12
358.895	444.12
359.122	464.12
359.349	471.12
359.576	463.12
359.802	488.12
360.029	519.12
360.256	511.12
360.483	507.12
360.709	482.12
360.936	465.12
361.163	483.12
361.39	485.12
361.616	458.12
361.843	450.12
362.07	451.12
362.296	486.12
362.523	472.12
362.749	467.12
362.976	468.12
363.203	477.12
363.429	451.12
363.656	462.12
363.882	451.12
364.109	448.12
364.335	467.12
364.562	445.12
364.788	437.12
365.015	459.12
365.241	432.12
365.468	463.12
365.694	479.12
365.92	459.12
366.147	453.12
366.373	447.12
366.599	460.12
366.826	460.12
367.052	441.12
367.278	452.12
367.505	473.12
367.731	478.12
367.957	460.12
368.184	464.12
368.41	470.12
368.636	456.12
368.862	478.12
369.089	452.12
369.315	463.12
369.541	449.12
369.767	424.12
369.993	452.12
370.219	475.12
370.445	473.12
370.672	457.12
370.898	452.12
371.124	452.12
371.35	470.12
371.576	462.12
371.802	458.12
372.028	480.12
372.254	456.12
372.48	459.12
372.706	463.12
372.932	480.12
373.158	469.12
373.384	473.12
373.61	451.12
373.835	485.12
374.061	464.12
374.287	458.12
374.513	489.12
374.739	473.12
374.965	483.12
375.191	479.12
375.416	470.12
375.642	477.12
375.868	473.12
376.094	476.12
376.319	476.12
376.545	461.12
376.771	481.12
376.997	465.12
377.222	457.12
377.448	478.12
377.674	463.12
377.899	467.12
378.125	488.12
378.35	465.12
378.576	471.12
378.802	453.12
379.027	457.12
379.253	480.12
379.478	448.12
379.704	456.12
379.929	475.12
380.155	449.12
380.38	460.12
380.606	494.12
380.831	479.12
381.057	480.12
381.282	456.12
381.507	469.12
381.733	486.12
381.958	482.12
382.184	460.12
382.409	473.12
382.634	495.12
382.86	464.12
383.085	471.12
383.31	486.12
383.535	493.12
383.761	494.12
383.986	484.12
384.211	479.12
384.436	513.12
384.662	512.12
384.887	493.12
385.112	498.12
385.337	511.12
385.562	514.12
385.787	539.12
386.013	538.12
386.238	513.12
386.463	541.12
386.688	510.12
386.913	530.12
387.138	520.12
387.363	537.12
387.588	528.12
387.813	520.12
388.038	508.12
388.263	525.12
388.488	509.12
388.713	534.12
388.938	506.12
389.163	526.12
389.387	522.12
389.612	511.12
389.837	524.12
390.062	532.12
390.287	516.12
390.512	513.12
390.736	518.12
390.961	507.12
391.186	506.12
391.411	556.12
391.636	544.12
391.86	552.12
392.085	548.12
392.31	529.12
392.534	556.12
392.759	538.12
392.984	537.12
393.208	516.12
393.433	534.12
393.658	545.12
393.882	518.12
394.107	519.12
394.331	536.12
394.556	539.12
394.78	512.12
395.005	539.12
395.229	552.12
395.454	554.12
395.678	560.12
395.903	559.12
396.127	589.12
396.352	574.12
396.576	562.12
396.801	538.12
397.025	540.12
397.249	552.12
397.474	578.12
397.698	585.12
397.922	575.12
398.147	589.12
398.371	604.12
398.595	593.12
398.82	592.12
399.044	621.12
399.268	651.12
399.492	709.12
399.717	747.12
399.941	765.12
400.165	775.12
400.389	752.12
400.613	699.12
400.837	667.12
401.062	666.12
401.286	612.12
401.51	594.12
401.734	627.12
401.958	604.12
402.182	627.12
402.406	619.12
402.63	624.12
402.854	624.12
403.078	624.12
403.302	643.12
403.526	624.12
403.75	655.12
403.974	646.12
404.198	675.12
404.422	656.12
404.645	674.12
404.869	655.12
405.093	700.12
405.317	717.12
405.541	755.12
405.765	719.12
405.988	667.12
406.212	679.12
406.436	671.12
406.66	693.12
406.883	696.12
407.107	720.12
407.331	766.12
407.555	816.12
407.778	836.12
408.002	788.12
408.226	720.12
408.449	701.12
408.673	686.12
408.896	711.12
409.12	774.12
409.344	732.12
409.567	679.12
409.791	647.12
410.014	656.12
410.238	639.12
410.461	637.12
410.685	656.12
410.908	671.12
411.132	684.12
411.355	730.12
411.578	675.12
411.802	654.12
412.025	643.12
412.249	635.12
412.472	670.12
412.695	691.12
412.919	714.12
413.142	666.12
413.365	634.12
413.589	613.12
413.812	600.12
414.035	604.12
414.258	600.12
414.482	608.12
414.705	614.12
414.928	595.12
415.151	597.12
415.374	588.12
415.597	602.12
415.821	594.12
416.044	587.12
416.267	590.12
416.49	617.12
416.713	607.12
416.936	595.12
417.159	631.12
417.382	619.12
417.605	593.12
417.828	603.12
418.051	635.12
418.274	603.12
418.497	603.12
418.72	636.12
418.943	597.12
419.166	629.12
419.389	648.12
419.611	672.12
419.834	638.12
420.057	642.12
420.28	653.12
420.503	645.12
420.726	651.12
420.948	639.12
421.171	680.12
421.394	714.12
421.617	649.12
421.839	639.12
422.062	631.12
422.285	631.12
422.507	719.12
422.73	762.12
422.953	761.12
423.175	701.12
423.398	640.12
423.621	645.12
423.843	661.12
424.066	674.12
424.288	672.12
424.511	687.12
424.733	752.12
424.956	842.12
425.178	773.12
425.401	797.12
425.623	814.12
425.846	694.12
426.068	665.12
426.291	683.12
426.513	652.12
426.735	669.12
426.958	702.12
427.18	756.12
427.402	906.12
427.625	985.12
427.847	871.12
428.069	759.12
428.292	693.12
428.514	647.12
428.736	616.12
428.958	643.12
429.181	603.12
429.403	612.12
429.625	637.12
429.847	653.12
430.069	720.12
430.292	742.12
430.514	638.12
430.736	624.12
430.958	608.12
431.18	601.12
431.402	585.12
431.624	589.12
431.846	612.12
432.068	572.12
432.29	548.12
432.512	601.12
432.734	598.12
432.956	589.12
433.178	608.12
433.4	591.12
433.622	597.12
433.844	584.12
434.066	572.12
434.287	577.12
434.509	590.12
434.731	608.12
434.953	613.12
435.175	622.12
435.397	695.12
435.618	629.12
435.84	705.12
436.062	788.12
436.284	892.12
436.505	739.12
436.727	685.12
436.949	633.12
437.17	619.12
437.392	599.12
437.614	623.12
437.835	655.12
438.057	726.12
438.278	852.12
438.5	837.12
438.721	925.12
438.943	896.12
439.165	729.12
439.386	677.12
439.608	673.12
439.829	662.12
440.05	665.12
440.272	705.12
440.493	695.12
440.715	682.12
440.936	643.12
441.158	608.12
441.379	595.12
441.6	631.12
441.822	656.12
442.043	711.12
442.264	771.12
442.486	853.12
442.707	735.12
442.928	679.12
443.149	700.12
443.371	687.12
443.592	735.12
443.813	847.12
444.034	911.12
444.255	759.12
444.476	705.12
444.698	687.12
444.919	691.12
445.14	783.12
445.361	767.12
445.582	716.12
445.803	765.12
446.024	881.12
446.245	894.12
446.466	815.12
446.687	693.12
446.908	675.12
447.129	611.12
447.35	637.12
447.571	610.12
447.792	590.12
448.013	615.12
448.234	618.12
448.455	664.12
448.675	775.12
448.896	915.12
449.117	783.12
449.338	723.12
449.559	851.12
449.779	961.12
450	751.12
450.221	656.12
450.442	609.12
450.662	591.12
450.883	588.12
451.104	608.12
451.324	586.12
451.545	560.12
451.766	569.12
451.986	547.12
452.207	545.12
452.428	557.12
452.648	537.12
452.869	526.12
453.089	552.12
453.31	572.12
453.53	566.12
453.751	519.12
453.971	556.12
454.192	555.12
454.412	528.12
454.633	538.12
454.853	535.12
455.073	532.12
455.294	551.12
455.514	630.12
455.734	632.12
455.955	536.12
456.175	529.12
456.395	519.12
456.616	512.12
456.836	495.12
457.056	490.12
457.276	512.12
457.497	535.12
457.717	523.12
457.937	517.12
458.157	502.12
458.377	548.12
458.598	545.12
458.818	610.12
459.038	669.12
459.258	695.12
459.478	644.12
459.698	597.12
459.918	594.12
460.138	597.12
460.358	604.12
460.578	605.12
460.798	611.12
461.018	616.12
461.238	579.12
461.458	616.12
461.678	602.12
461.898	605.12
462.118	634.12
462.338	639.12
462.558	653.12
462.777	643.12
462.997	708.12
463.217	691.12
463.437	726.12
463.657	678.12
463.876	683.12
464.096	640.12
464.316	671.12
464.536	642.12
464.755	643.12
464.975	668.12
465.195	659.12
465.414	677.12
465.634	649.12
465.854	609.12
466.073	609.12
466.293	589.12
466.512	567.12
466.732	588.12
466.951	579.12
467.171	572.12
467.391	579.12
467.61	601.12
467.829	568.12
468.049	567.12
468.268	563.12
468.488	565.12
468.707	544.12
468.927	539.12
469.146	518.12
469.365	563.12
469.585	546.12
469.804	559.12
470.023	580.12
470.243	585.12
470.462	587.12
470.681	568.12
470.901	573.12
471.12	604.12
471.339	575.12
471.558	569.12
471.777	561.12
471.997	563.12
472.216	565.12
472.435	621.12
472.654	579.12
472.873	577.12
473.092	563.12
473.311	539.12
473.53	559.12
473.749	588.12
473.968	618.12
474.187	707.12
474.406	734.12
474.625	639.12
474.844	582.12
475.063	618.12
475.282	580.12
475.501	577.12
475.72	571.12
475.939	571.12
476.158	572.12
476.377	588.12
476.596	596.12
476.814	614.12
477.033	598.12
477.252	619.12
477.471	591.12
477.69	616.12
477.908	618.12
478.127	632.12
478.346	615.12
478.564	625.12
478.783	649.12
479.002	641.12
479.22	661.12
479.439	675.12
479.658	694.12
479.876	695.12
480.095	688.12
480.313	729.12
480.532	715.12
480.751	714.12
480.969	745.12
481.188	745.12
481.406	775.12
481.624	720.12
481.843	685.12
482.061	694.12
482.28	668.12
482.498	679.12
482.717	674.12
482.935	663.12
483.153	661.12
483.372	668.12
483.59	648.12
483.808	643.12
484.027	650.12
484.245	641.12
484.463	667.12
484.681	695.12
484.9	679.12
485.118	696.12
485.336	666.12
485.554	693.12
485.772	684.12
485.99	698.12
486.209	707.12
486.427	686.12
486.645	711.12
486.863	704.12
487.081	727.12
487.299	719.12
487.517	704.12
487.735	736.12
487.953	713.12
488.171	720.12
488.389	715.12
488.607	716.12
488.825	724.12
489.043	707.12
489.261	730.12
489.479	716.12
489.696	751.12
489.914	721.12
490.132	739.12
490.35	744.12
490.568	751.12
490.786	797.12
491.003	770.12
491.221	796.12
491.439	814.12
491.657	784.12
491.874	783.12
492.092	817.12
492.31	814.12
492.527	841.12
492.745	823.12
492.963	821.12
493.18	819.12
493.398	816.12
493.615	849.12
493.833	841.12
494.05	865.12
494.268	842.12
494.485	858.12
494.703	855.12
494.92	828.12
495.138	844.12
495.355	829.12
495.573	880.12
495.79	835.12
496.008	861.12
496.225	878.12
496.442	873.12
496.66	864.12
496.877	828.12
497.094	851.12
497.312	901.12
497.529	894.12
497.746	876.12
497.963	910.12
498.181	934.12
498.398	948.12
498.615	956.12
498.832	982.12
499.049	1018.12
499.267	1048.12
499.484	1112.12
499.701	1126.12
499.918	1206.12
500.135	1276.12
500.352	1354.12
500.569	1372.12
500.786	1389.12
501.003	1353.12
501.22	1301.12
501.437	1221.12
501.654	1191.12
