Data from 1974.PennyLincolnUp.Lamp.En5.5.200Scan.071719.P1.Changed Mount._HRD10591_15-53-59-857.txt Node
Date: Thu Jul 18 15:53:59 EDT 2019
User: cochatt
Spectrometer: HR+D1059
Trigger mode: 1
Integration Time (sec): 1.000000E-1
Scans to average: 1
Electric dark correction enabled: true
Nonlinearity correction enabled: false
Boxcar width: 0
XAxis mode: Wavelengths
Number of Pixels in Spectrum: 2048
>>>>>Begin Spectral Data<<<<<
223.165	-6.81
223.4	-6.81
223.635	-6.81
223.869	-18.81
224.104	-10.81
224.338	-15.81
224.573	-14.81
224.808	-16.81
225.042	0.19
225.277	-11.81
225.511	-0.81
225.746	-4.81
225.98	6.19
226.215	8.19
226.449	11.19
226.683	22.19
226.918	15.19
227.152	38.19
227.387	40.19
227.621	39.19
227.856	38.19
228.09	45.19
228.324	68.19
228.559	62.19
228.793	63.19
229.027	112.19
229.262	103.19
229.496	110.19
229.73	132.19
229.964	148.19
230.199	133.19
230.433	111.19
230.667	111.19
230.901	123.19
231.136	115.19
231.37	112.19
231.604	129.19
231.838	121.19
232.072	115.19
232.306	128.19
232.541	135.19
232.775	120.19
233.009	143.19
233.243	128.19
233.477	132.19
233.711	121.19
233.945	122.19
234.179	119.19
234.413	111.19
234.647	123.19
234.881	118.19
235.115	116.19
235.349	141.19
235.583	128.19
235.817	123.19
236.051	129.19
236.285	133.19
236.519	130.19
236.753	137.19
236.987	152.19
237.221	175.19
237.455	220.19
237.689	186.19
237.922	143.19
238.156	150.19
238.39	145.19
238.624	145.19
238.858	148.19
239.091	152.19
239.325	148.19
239.559	127.19
239.793	147.19
240.027	145.19
240.26	159.19
240.494	170.19
240.728	158.19
240.961	158.19
241.195	167.19
241.429	145.19
241.662	153.19
241.896	153.19
242.13	131.19
242.363	135.19
242.597	156.19
242.83	137.19
243.064	141.19
243.298	145.19
243.531	145.19
243.765	144.19
243.998	151.19
244.232	151.19
244.465	152.19
244.699	138.19
244.932	149.19
245.166	167.19
245.399	149.19
245.633	144.19
245.866	155.19
246.099	153.19
246.333	166.19
246.566	163.19
246.8	164.19
247.033	156.19
247.266	165.19
247.5	179.19
247.733	179.19
247.966	201.19
248.2	189.19
248.433	167.19
248.666	174.19
248.899	214.19
249.133	222.19
249.366	197.19
249.599	208.19
249.832	196.19
250.066	192.19
250.299	181.19
250.532	199.19
250.765	204.19
250.998	216.19
251.231	244.19
251.465	225.19
251.698	240.19
251.931	215.19
252.164	191.19
252.397	209.19
252.63	216.19
252.863	224.19
253.096	236.19
253.329	238.19
253.562	228.19
253.795	228.19
254.028	220.19
254.261	208.19
254.494	231.19
254.727	257.19
254.96	280.19
255.193	279.19
255.426	257.19
255.659	259.19
255.892	239.19
256.124	241.19
256.357	249.19
256.59	243.19
256.823	213.19
257.056	228.19
257.289	222.19
257.521	226.19
257.754	230.19
257.987	208.19
258.22	219.19
258.452	214.19
258.685	207.19
258.918	233.19
259.151	219.19
259.383	227.19
259.616	232.19
259.849	235.19
260.081	241.19
260.314	265.19
260.547	263.19
260.779	263.19
261.012	247.19
261.244	251.19
261.477	240.19
261.71	236.19
261.942	235.19
262.175	239.19
262.407	247.19
262.64	223.19
262.872	221.19
263.105	248.19
263.337	215.19
263.57	230.19
263.802	219.19
264.035	245.19
264.267	223.19
264.499	237.19
264.732	246.19
264.964	217.19
265.197	237.19
265.429	229.19
265.661	234.19
265.894	247.19
266.126	230.19
266.358	222.19
266.591	238.19
266.823	235.19
267.055	267.19
267.287	264.19
267.52	249.19
267.752	232.19
267.984	244.19
268.216	252.19
268.448	237.19
268.681	224.19
268.913	251.19
269.145	279.19
269.377	285.19
269.609	292.19
269.841	312.19
270.073	288.19
270.306	308.19
270.538	335.19
270.77	325.19
271.002	321.19
271.234	311.19
271.466	332.19
271.698	336.19
271.93	324.19
272.162	319.19
272.394	327.19
272.626	336.19
272.858	291.19
273.09	292.19
273.322	282.19
273.553	272.19
273.785	287.19
274.017	293.19
274.249	281.19
274.481	295.19
274.713	252.19
274.945	289.19
275.176	290.19
275.408	295.19
275.64	295.19
275.872	289.19
276.104	271.19
276.335	284.19
276.567	279.19
276.799	287.19
277.031	322.19
277.262	346.19
277.494	325.19
277.726	318.19
277.957	305.19
278.189	300.19
278.421	289.19
278.652	288.19
278.884	297.19
279.115	283.19
279.347	304.19
279.579	285.19
279.81	283.19
280.042	294.19
280.273	301.19
280.505	292.19
280.736	301.19
280.968	297.19
281.199	286.19
281.431	287.19
281.662	307.19
281.894	307.19
282.125	294.19
282.356	315.19
282.588	326.19
282.819	335.19
283.051	300.19
283.282	290.19
283.513	296.19
283.745	307.19
283.976	311.19
284.207	308.19
284.439	318.19
284.67	309.19
284.901	297.19
285.132	316.19
285.364	309.19
285.595	313.19
285.826	312.19
286.057	304.19
286.288	319.19
286.52	324.19
286.751	323.19
286.982	300.19
287.213	307.19
287.444	301.19
287.675	321.19
287.906	307.19
288.138	325.19
288.369	334.19
288.6	342.19
288.831	323.19
289.062	333.19
289.293	320.19
289.524	320.19
289.755	327.19
289.986	311.19
290.217	328.19
290.448	310.19
290.679	297.19
290.91	335.19
291.141	334.19
291.371	300.19
291.602	321.19
291.833	335.19
292.064	317.19
292.295	335.19
292.526	333.19
292.757	318.19
292.987	318.19
293.218	331.19
293.449	333.19
293.68	319.19
293.91	325.19
294.141	333.19
294.372	318.19
294.603	314.19
294.833	313.19
295.064	327.19
295.295	313.19
295.525	335.19
295.756	344.19
295.987	341.19
296.217	345.19
296.448	340.19
296.679	339.19
296.909	316.19
297.14	330.19
297.37	333.19
297.601	339.19
297.831	334.19
298.062	341.19
298.292	332.19
298.523	332.19
298.753	334.19
298.984	341.19
299.214	341.19
299.445	342.19
299.675	349.19
299.905	338.19
300.136	351.19
300.366	332.19
300.597	356.19
300.827	325.19
301.057	341.19
301.288	353.19
301.518	348.19
301.748	366.19
301.979	356.19
302.209	364.19
302.439	371.19
302.669	343.19
302.9	346.19
303.13	349.19
303.36	377.19
303.59	357.19
303.82	362.19
304.051	361.19
304.281	374.19
304.511	360.19
304.741	347.19
304.971	351.19
305.201	343.19
305.431	351.19
305.661	375.19
305.891	360.19
306.121	341.19
306.352	373.19
306.582	365.19
306.812	361.19
307.042	365.19
307.272	350.19
307.502	362.19
307.731	357.19
307.961	358.19
308.191	361.19
308.421	362.19
308.651	365.19
308.881	365.19
309.111	368.19
309.341	384.19
309.571	391.19
309.8	390.19
310.03	406.19
310.26	383.19
310.49	383.19
310.72	387.19
310.949	399.19
311.179	418.19
311.409	405.19
311.639	392.19
311.868	393.19
312.098	401.19
312.328	401.19
312.557	423.19
312.787	435.19
313.017	426.19
313.246	420.19
313.476	407.19
313.706	398.19
313.935	415.19
314.165	405.19
314.394	425.19
314.624	413.19
314.853	406.19
315.083	417.19
315.312	400.19
315.542	385.19
315.771	398.19
316.001	395.19
316.23	387.19
316.46	419.19
316.689	407.19
316.919	387.19
317.148	407.19
317.377	417.19
317.607	396.19
317.836	415.19
318.065	403.19
318.295	396.19
318.524	389.19
318.753	408.19
318.983	399.19
319.212	395.19
319.441	415.19
319.67	419.19
319.9	416.19
320.129	412.19
320.358	418.19
320.587	415.19
320.816	435.19
321.046	416.19
321.275	421.19
321.504	407.19
321.733	419.19
321.962	430.19
322.191	428.19
322.42	454.19
322.649	452.19
322.878	462.19
323.108	464.19
323.337	500.19
323.566	503.19
323.795	519.19
324.024	549.19
324.253	624.19
324.482	849.19
324.71	1283.19
324.939	1919.19
325.168	1711.19
325.397	875.19
325.626	621.19
325.855	536.19
326.084	505.19
326.313	496.19
326.542	525.19
326.77	535.19
326.999	611.19
327.228	813.19
327.457	1211.19
327.686	1459.19
327.914	998.19
328.143	688.19
328.372	584.19
328.6	588.19
328.829	549.19
329.058	553.19
329.287	589.19
329.515	544.19
329.744	503.19
329.972	499.19
330.201	519.19
330.43	559.19
330.658	585.19
330.887	589.19
331.115	579.19
331.344	525.19
331.572	532.19
331.801	524.19
332.03	521.19
332.258	498.19
332.486	509.19
332.715	516.19
332.943	488.19
333.172	511.19
333.4	523.19
333.629	501.19
333.857	533.19
334.085	534.19
334.314	548.19
334.542	569.19
334.771	577.19
334.999	550.19
335.227	505.19
335.455	483.19
335.684	499.19
335.912	486.19
336.14	514.19
336.369	509.19
336.597	486.19
336.825	495.19
337.053	481.19
337.281	490.19
337.51	481.19
337.738	482.19
337.966	481.19
338.194	466.19
338.422	493.19
338.65	476.19
338.878	482.19
339.106	471.19
339.334	486.19
339.562	464.19
339.79	484.19
340.018	484.19
340.246	460.19
340.474	476.19
340.702	472.19
340.93	467.19
341.158	474.19
341.386	482.19
341.614	456.19
341.842	461.19
342.07	459.19
342.298	454.19
342.526	451.19
342.754	477.19
342.981	458.19
343.209	484.19
343.437	466.19
343.665	471.19
343.893	486.19
344.12	491.19
344.348	507.19
344.576	493.19
344.804	471.19
345.031	485.19
345.259	481.19
345.487	469.19
345.714	474.19
345.942	453.19
346.17	449.19
346.397	448.19
346.625	452.19
346.853	445.19
347.08	447.19
347.308	453.19
347.535	452.19
347.763	446.19
347.99	471.19
348.218	455.19
348.445	464.19
348.673	451.19
348.9	472.19
349.128	461.19
349.355	432.19
349.583	441.19
349.81	445.19
350.037	436.19
350.265	451.19
350.492	446.19
350.72	438.19
350.947	450.19
351.174	469.19
351.402	447.19
351.629	468.19
351.856	456.19
352.083	460.19
352.311	468.19
352.538	474.19
352.765	452.19
352.992	451.19
353.22	451.19
353.447	449.19
353.674	451.19
353.901	451.19
354.128	432.19
354.355	432.19
354.583	440.19
354.81	451.19
355.037	428.19
355.264	430.19
355.491	440.19
355.718	423.19
355.945	447.19
356.172	454.19
356.399	421.19
356.626	444.19
356.853	422.19
357.08	418.19
357.307	423.19
357.534	426.19
357.761	416.19
357.988	420.19
358.215	428.19
358.441	424.19
358.668	441.19
358.895	417.19
359.122	443.19
359.349	451.19
359.576	453.19
359.802	471.19
360.029	472.19
360.256	496.19
360.483	495.19
360.709	461.19
360.936	471.19
361.163	457.19
361.39	465.19
361.616	458.19
361.843	432.19
362.07	442.19
362.296	458.19
362.523	453.19
362.749	463.19
362.976	454.19
363.203	449.19
363.429	439.19
363.656	436.19
363.882	436.19
364.109	436.19
364.335	444.19
364.562	456.19
364.788	453.19
365.015	422.19
365.241	435.19
365.468	444.19
365.694	446.19
365.92	448.19
366.147	433.19
366.373	437.19
366.599	439.19
366.826	419.19
367.052	440.19
367.278	437.19
367.505	453.19
367.731	455.19
367.957	445.19
368.184	443.19
368.41	448.19
368.636	454.19
368.862	455.19
369.089	447.19
369.315	446.19
369.541	457.19
369.767	475.19
369.993	440.19
370.219	457.19
370.445	463.19
370.672	422.19
370.898	438.19
371.124	457.19
371.35	469.19
371.576	462.19
371.802	457.19
372.028	475.19
372.254	444.19
372.48	456.19
372.706	445.19
372.932	470.19
373.158	448.19
373.384	451.19
373.61	456.19
373.835	432.19
374.061	467.19
374.287	465.19
374.513	461.19
374.739	452.19
374.965	473.19
375.191	468.19
375.416	456.19
375.642	458.19
375.868	454.19
376.094	481.19
376.319	477.19
376.545	452.19
376.771	454.19
376.997	453.19
377.222	419.19
377.448	466.19
377.674	457.19
377.899	445.19
378.125	459.19
378.35	458.19
378.576	431.19
378.802	463.19
379.027	469.19
379.253	450.19
379.478	453.19
379.704	458.19
379.929	470.19
380.155	447.19
380.38	455.19
380.606	463.19
380.831	459.19
381.057	461.19
381.282	477.19
381.507	475.19
381.733	464.19
381.958	467.19
382.184	441.19
382.409	458.19
382.634	477.19
382.86	465.19
383.085	489.19
383.31	491.19
383.535	491.19
383.761	484.19
383.986	471.19
384.211	482.19
384.436	484.19
384.662	494.19
384.887	496.19
385.112	483.19
385.337	509.19
385.562	499.19
385.787	504.19
386.013	523.19
386.238	521.19
386.463	507.19
386.688	515.19
386.913	524.19
387.138	503.19
387.363	515.19
387.588	505.19
387.813	506.19
388.038	499.19
388.263	500.19
388.488	520.19
388.713	508.19
388.938	507.19
389.163	517.19
389.387	521.19
389.612	513.19
389.837	493.19
390.062	501.19
390.287	500.19
390.512	505.19
390.736	494.19
390.961	512.19
391.186	499.19
391.411	539.19
391.636	540.19
391.86	518.19
392.085	545.19
392.31	528.19
392.534	524.19
392.759	533.19
392.984	539.19
393.208	517.19
393.433	513.19
393.658	505.19
393.882	530.19
394.107	508.19
394.331	532.19
394.556	521.19
394.78	523.19
395.005	517.19
395.229	508.19
395.454	529.19
395.678	538.19
395.903	524.19
396.127	566.19
396.352	587.19
396.576	545.19
396.801	525.19
397.025	536.19
397.249	530.19
397.474	559.19
397.698	539.19
397.922	555.19
398.147	564.19
398.371	575.19
398.595	573.19
398.82	587.19
399.044	587.19
399.268	612.19
399.492	686.19
399.717	732.19
399.941	745.19
400.165	786.19
400.389	761.19
400.613	691.19
400.837	643.19
401.062	643.19
401.286	594.19
401.51	603.19
401.734	593.19
401.958	603.19
402.182	607.19
402.406	621.19
402.63	619.19
402.854	607.19
403.078	613.19
403.302	641.19
403.526	627.19
403.75	633.19
403.974	617.19
404.198	602.19
404.422	639.19
404.645	625.19
404.869	630.19
405.093	681.19
405.317	711.19
405.541	711.19
405.765	693.19
405.988	647.19
406.212	667.19
406.436	667.19
406.66	677.19
406.883	668.19
407.107	684.19
407.331	756.19
407.555	827.19
407.778	831.19
408.002	776.19
408.226	718.19
408.449	677.19
408.673	671.19
408.896	706.19
409.12	731.19
409.344	699.19
409.567	677.19
409.791	646.19
410.014	649.19
410.238	638.19
410.461	641.19
410.685	623.19
410.908	643.19
411.132	646.19
411.355	719.19
411.578	678.19
411.802	633.19
412.025	612.19
412.249	643.19
412.472	676.19
412.695	716.19
412.919	665.19
413.142	628.19
413.365	610.19
413.589	608.19
413.812	593.19
414.035	593.19
414.258	595.19
414.482	594.19
414.705	612.19
414.928	578.19
415.151	608.19
415.374	581.19
415.597	583.19
415.821	588.19
416.044	578.19
416.267	605.19
416.49	583.19
416.713	587.19
416.936	588.19
417.159	579.19
417.382	602.19
417.605	603.19
417.828	624.19
418.051	622.19
418.274	607.19
418.497	592.19
418.72	569.19
418.943	602.19
419.166	604.19
419.389	644.19
419.611	625.19
419.834	621.19
420.057	629.19
420.28	638.19
420.503	620.19
420.726	622.19
420.948	640.19
421.171	681.19
421.394	695.19
421.617	633.19
421.839	618.19
422.062	593.19
422.285	616.19
422.507	681.19
422.73	775.19
422.953	733.19
423.175	651.19
423.398	641.19
423.621	653.19
423.843	653.19
424.066	655.19
424.288	663.19
424.511	679.19
424.733	711.19
424.956	785.19
425.178	763.19
425.401	764.19
425.623	796.19
425.846	685.19
426.068	652.19
426.291	649.19
426.513	648.19
426.735	655.19
426.958	703.19
427.18	783.19
427.402	886.19
427.625	987.19
427.847	829.19
428.069	744.19
428.292	681.19
428.514	629.19
428.736	627.19
428.958	601.19
429.181	591.19
429.403	603.19
429.625	585.19
429.847	623.19
430.069	707.19
430.292	716.19
430.514	629.19
430.736	595.19
430.958	606.19
431.18	590.19
431.402	589.19
431.624	561.19
431.846	555.19
432.068	568.19
432.29	573.19
432.512	576.19
432.734	577.19
432.956	570.19
433.178	606.19
433.4	578.19
433.622	560.19
433.844	570.19
434.066	563.19
434.287	582.19
434.509	592.19
434.731	588.19
434.953	619.19
435.175	631.19
435.397	659.19
435.618	635.19
435.84	691.19
436.062	763.19
436.284	807.19
436.505	706.19
436.727	649.19
436.949	620.19
437.17	634.19
437.392	598.19
437.614	586.19
437.835	638.19
438.057	740.19
438.278	823.19
438.5	802.19
438.721	899.19
438.943	875.19
439.165	726.19
439.386	662.19
439.608	649.19
439.829	619.19
440.05	648.19
440.272	721.19
440.493	704.19
440.715	645.19
440.936	599.19
441.158	612.19
441.379	619.19
441.6	621.19
441.822	637.19
442.043	693.19
442.264	754.19
442.486	823.19
442.707	700.19
442.928	664.19
443.149	662.19
443.371	681.19
443.592	725.19
443.813	824.19
444.034	898.19
444.255	775.19
444.476	679.19
444.698	657.19
444.919	704.19
445.14	784.19
445.361	719.19
445.582	720.19
445.803	783.19
446.024	835.19
446.245	864.19
446.466	783.19
446.687	697.19
446.908	638.19
447.129	611.19
447.35	605.19
447.571	586.19
447.792	598.19
448.013	584.19
448.234	618.19
448.455	624.19
448.675	765.19
448.896	859.19
449.117	756.19
449.338	709.19
449.559	825.19
449.779	937.19
450	773.19
450.221	646.19
450.442	593.19
450.662	573.19
450.883	569.19
451.104	578.19
451.324	567.19
451.545	549.19
451.766	544.19
451.986	547.19
452.207	548.19
452.428	543.19
452.648	516.19
452.869	546.19
453.089	533.19
453.31	538.19
453.53	547.19
453.751	539.19
453.971	523.19
454.192	535.19
454.412	544.19
454.633	521.19
454.853	519.19
455.073	522.19
455.294	559.19
455.514	615.19
455.734	623.19
455.955	539.19
456.175	518.19
456.395	512.19
456.616	504.19
456.836	496.19
457.056	486.19
457.276	492.19
457.497	509.19
457.717	511.19
457.937	536.19
458.157	528.19
458.377	539.19
458.598	552.19
458.818	579.19
459.038	672.19
459.258	667.19
459.478	586.19
459.698	557.19
459.918	559.19
460.138	564.19
460.358	603.19
460.578	581.19
460.798	632.19
461.018	606.19
461.238	589.19
461.458	611.19
461.678	572.19
461.898	592.19
462.118	591.19
462.338	632.19
462.558	639.19
462.777	625.19
462.997	649.19
463.217	673.19
463.437	683.19
463.657	648.19
463.876	612.19
464.096	643.19
464.316	653.19
464.536	661.19
464.755	646.19
464.975	633.19
465.195	671.19
465.414	707.19
465.634	639.19
465.854	617.19
466.073	576.19
466.293	585.19
466.512	558.19
466.732	532.19
466.951	542.19
467.171	560.19
467.391	544.19
467.61	566.19
467.829	566.19
468.049	557.19
468.268	549.19
468.488	549.19
468.707	529.19
468.927	542.19
469.146	519.19
469.365	556.19
469.585	529.19
469.804	565.19
470.023	574.19
470.243	555.19
470.462	562.19
470.681	558.19
470.901	588.19
471.12	555.19
471.339	567.19
471.558	561.19
471.777	555.19
471.997	541.19
472.216	572.19
472.435	599.19
472.654	574.19
472.873	559.19
473.092	557.19
473.311	552.19
473.53	560.19
473.749	578.19
473.968	596.19
474.187	701.19
474.406	717.19
474.625	625.19
474.844	587.19
475.063	533.19
475.282	560.19
475.501	556.19
475.72	565.19
475.939	547.19
476.158	592.19
476.377	588.19
476.596	559.19
476.814	575.19
477.033	575.19
477.252	593.19
477.471	589.19
477.69	614.19
477.908	619.19
478.127	601.19
478.346	627.19
478.564	615.19
478.783	623.19
479.002	654.19
479.22	647.19
479.439	672.19
479.658	681.19
479.876	677.19
480.095	657.19
480.313	708.19
480.532	728.19
480.751	676.19
480.969	687.19
481.188	721.19
481.406	761.19
481.624	705.19
481.843	652.19
482.061	663.19
482.28	665.19
482.498	652.19
482.717	676.19
482.935	625.19
483.153	643.19
483.372	651.19
483.59	646.19
483.808	657.19
484.027	638.19
484.245	644.19
484.463	641.19
484.681	681.19
484.9	669.19
485.118	655.19
485.336	658.19
485.554	667.19
485.772	671.19
485.99	687.19
486.209	659.19
486.427	677.19
486.645	657.19
486.863	727.19
487.081	696.19
487.299	690.19
487.517	695.19
487.735	700.19
487.953	695.19
488.171	702.19
488.389	693.19
488.607	695.19
488.825	707.19
489.043	695.19
489.261	702.19
489.479	690.19
489.696	693.19
489.914	718.19
490.132	707.19
490.35	722.19
490.568	741.19
490.786	732.19
491.003	752.19
491.221	739.19
491.439	780.19
491.657	760.19
491.874	806.19
492.092	795.19
492.31	808.19
492.527	813.19
492.745	789.19
492.963	795.19
493.18	817.19
493.398	815.19
493.615	814.19
493.833	847.19
494.05	816.19
494.268	839.19
494.485	823.19
494.703	822.19
494.92	813.19
495.138	807.19
495.355	835.19
495.573	850.19
495.79	828.19
496.008	812.19
496.225	828.19
496.442	825.19
496.66	828.19
496.877	837.19
497.094	822.19
497.312	839.19
497.529	860.19
497.746	869.19
497.963	891.19
498.181	901.19
498.398	917.19
498.615	939.19
498.832	965.19
499.049	1001.19
499.267	1016.19
499.484	1072.19
499.701	1114.19
499.918	1196.19
500.135	1220.19
500.352	1292.19
500.569	1329.19
500.786	1331.19
501.003	1308.19
501.22	1261.19
501.437	1190.19
501.654	1137.19
