Data from 1974.PennyLincolnUp.Lamp.En5.5.200Scan.071719.P1.Changed Mount._HRD10591_15-51-53-857.txt Node
Date: Thu Jul 18 15:51:53 EDT 2019
User: cochatt
Spectrometer: HR+D1059
Trigger mode: 1
Integration Time (sec): 1.000000E-1
Scans to average: 1
Electric dark correction enabled: true
Nonlinearity correction enabled: false
Boxcar width: 0
XAxis mode: Wavelengths
Number of Pixels in Spectrum: 2048
>>>>>Begin Spectral Data<<<<<
223.165	-14.44
223.4	-14.44
223.635	-14.44
223.869	-2.44
224.104	-14.44
224.338	-27.44
224.573	-24.44
224.808	-20.44
225.042	-7.44
225.277	0.56
225.511	-8.44
225.746	7.56
225.98	8.56
226.215	17.56
226.449	5.56
226.683	10.56
226.918	28.56
227.152	40.56
227.387	42.56
227.621	40.56
227.856	56.56
228.09	37.56
228.324	42.56
228.559	63.56
228.793	74.56
229.027	92.56
229.262	109.56
229.496	92.56
229.73	109.56
229.964	150.56
230.199	127.56
230.433	120.56
230.667	105.56
230.901	115.56
231.136	123.56
231.37	104.56
231.604	121.56
231.838	109.56
232.072	115.56
232.306	106.56
232.541	103.56
232.775	122.56
233.009	112.56
233.243	129.56
233.477	122.56
233.711	118.56
233.945	123.56
234.179	126.56
234.413	115.56
234.647	111.56
234.881	135.56
235.115	129.56
235.349	123.56
235.583	139.56
235.817	117.56
236.051	124.56
236.285	122.56
236.519	126.56
236.753	123.56
236.987	129.56
237.221	160.56
237.455	237.56
237.689	192.56
237.922	145.56
238.156	124.56
238.39	133.56
238.624	143.56
238.858	131.56
239.091	136.56
239.325	142.56
239.559	131.56
239.793	131.56
240.027	146.56
240.26	138.56
240.494	169.56
240.728	155.56
240.961	159.56
241.195	134.56
241.429	140.56
241.662	138.56
241.896	135.56
242.13	152.56
242.363	146.56
242.597	146.56
242.83	140.56
243.064	145.56
243.298	136.56
243.531	143.56
243.765	149.56
243.998	135.56
244.232	161.56
244.465	146.56
244.699	147.56
244.932	163.56
245.166	148.56
245.399	152.56
245.633	144.56
245.866	151.56
246.099	156.56
246.333	151.56
246.566	159.56
246.8	160.56
247.033	160.56
247.266	165.56
247.5	157.56
247.733	165.56
247.966	158.56
248.2	180.56
248.433	188.56
248.666	177.56
248.899	191.56
249.133	208.56
249.366	199.56
249.599	202.56
249.832	167.56
250.066	197.56
250.299	179.56
250.532	190.56
250.765	209.56
250.998	230.56
251.231	230.56
251.465	220.56
251.698	213.56
251.931	205.56
252.164	205.56
252.397	215.56
252.63	208.56
252.863	203.56
253.096	213.56
253.329	221.56
253.562	223.56
253.795	238.56
254.028	220.56
254.261	222.56
254.494	212.56
254.727	250.56
254.96	283.56
255.193	268.56
255.426	239.56
255.659	225.56
255.892	233.56
256.124	234.56
256.357	229.56
256.59	217.56
256.823	222.56
257.056	220.56
257.289	203.56
257.521	209.56
257.754	206.56
257.987	216.56
258.22	233.56
258.452	204.56
258.685	206.56
258.918	218.56
259.151	217.56
259.383	212.56
259.616	235.56
259.849	232.56
260.081	229.56
260.314	268.56
260.547	257.56
260.779	261.56
261.012	259.56
261.244	220.56
261.477	228.56
261.71	248.56
261.942	230.56
262.175	239.56
262.407	234.56
262.64	233.56
262.872	233.56
263.105	217.56
263.337	237.56
263.57	230.56
263.802	226.56
264.035	197.56
264.267	211.56
264.499	216.56
264.732	234.56
264.964	220.56
265.197	227.56
265.429	248.56
265.661	214.56
265.894	221.56
266.126	214.56
266.358	217.56
266.591	221.56
266.823	232.56
267.055	234.56
267.287	244.56
267.52	214.56
267.752	227.56
267.984	230.56
268.216	236.56
268.448	237.56
268.681	243.56
268.913	254.56
269.145	273.56
269.377	285.56
269.609	288.56
269.841	295.56
270.073	287.56
270.306	291.56
270.538	317.56
270.77	303.56
271.002	307.56
271.234	304.56
271.466	317.56
271.698	321.56
271.93	331.56
272.162	301.56
272.394	311.56
272.626	286.56
272.858	281.56
273.09	285.56
273.322	266.56
273.553	271.56
273.785	268.56
274.017	274.56
274.249	263.56
274.481	272.56
274.713	283.56
274.945	281.56
275.176	263.56
275.408	276.56
275.64	271.56
275.872	268.56
276.104	274.56
276.335	264.56
276.567	277.56
276.799	281.56
277.031	295.56
277.262	315.56
277.494	297.56
277.726	318.56
277.957	287.56
278.189	294.56
278.421	279.56
278.652	278.56
278.884	297.56
279.115	303.56
279.347	295.56
279.579	281.56
279.81	277.56
280.042	289.56
280.273	284.56
280.505	267.56
280.736	272.56
280.968	282.56
281.199	291.56
281.431	279.56
281.662	267.56
281.894	279.56
282.125	273.56
282.356	291.56
282.588	316.56
282.819	297.56
283.051	272.56
283.282	296.56
283.513	291.56
283.745	295.56
283.976	281.56
284.207	308.56
284.439	302.56
284.67	291.56
284.901	301.56
285.132	293.56
285.364	291.56
285.595	295.56
285.826	284.56
286.057	295.56
286.288	278.56
286.52	290.56
286.751	286.56
286.982	317.56
287.213	275.56
287.444	301.56
287.675	308.56
287.906	296.56
288.138	300.56
288.369	335.56
288.6	301.56
288.831	302.56
289.062	334.56
289.293	294.56
289.524	317.56
289.755	315.56
289.986	323.56
290.217	308.56
290.448	314.56
290.679	323.56
290.91	309.56
291.141	310.56
291.371	308.56
291.602	320.56
291.833	311.56
292.064	324.56
292.295	302.56
292.526	313.56
292.757	295.56
292.987	298.56
293.218	311.56
293.449	311.56
293.68	297.56
293.91	318.56
294.141	319.56
294.372	310.56
294.603	303.56
294.833	321.56
295.064	315.56
295.295	323.56
295.525	309.56
295.756	315.56
295.987	320.56
296.217	328.56
296.448	324.56
296.679	333.56
296.909	315.56
297.14	311.56
297.37	326.56
297.601	328.56
297.831	327.56
298.062	323.56
298.292	308.56
298.523	323.56
298.753	333.56
298.984	341.56
299.214	331.56
299.445	332.56
299.675	331.56
299.905	340.56
300.136	329.56
300.366	335.56
300.597	329.56
300.827	332.56
301.057	343.56
301.288	349.56
301.518	350.56
301.748	345.56
301.979	346.56
302.209	346.56
302.439	343.56
302.669	347.56
302.9	348.56
303.13	331.56
303.36	352.56
303.59	360.56
303.82	355.56
304.051	367.56
304.281	342.56
304.511	357.56
304.741	358.56
304.971	322.56
305.201	332.56
305.431	358.56
305.661	345.56
305.891	348.56
306.121	347.56
306.352	348.56
306.582	346.56
306.812	355.56
307.042	355.56
307.272	341.56
307.502	339.56
307.731	335.56
307.961	350.56
308.191	345.56
308.421	340.56
308.651	352.56
308.881	350.56
309.111	353.56
309.341	348.56
309.571	375.56
309.8	369.56
310.03	367.56
310.26	379.56
310.49	384.56
310.72	386.56
310.949	395.56
311.179	390.56
311.409	373.56
311.639	387.56
311.868	369.56
312.098	387.56
312.328	373.56
312.557	389.56
312.787	395.56
313.017	407.56
313.246	361.56
313.476	404.56
313.706	380.56
313.935	366.56
314.165	385.56
314.394	395.56
314.624	401.56
314.853	409.56
315.083	391.56
315.312	404.56
315.542	389.56
315.771	389.56
316.001	384.56
316.23	368.56
316.46	387.56
316.689	389.56
316.919	391.56
317.148	411.56
317.377	383.56
317.607	412.56
317.836	399.56
318.065	384.56
318.295	393.56
318.524	394.56
318.753	391.56
318.983	387.56
319.212	381.56
319.441	387.56
319.67	397.56
319.9	408.56
320.129	387.56
320.358	391.56
320.587	374.56
320.816	383.56
321.046	408.56
321.275	395.56
321.504	423.56
321.733	416.56
321.962	411.56
322.191	381.56
322.42	418.56
322.649	427.56
322.878	433.56
323.108	453.56
323.337	453.56
323.566	446.56
323.795	495.56
324.024	500.56
324.253	576.56
324.482	760.56
324.71	1169.56
324.939	1671.56
325.168	1512.56
325.397	794.56
325.626	542.56
325.855	511.56
326.084	472.56
326.313	475.56
326.542	491.56
326.77	526.56
326.999	566.56
327.228	727.56
327.457	1050.56
327.686	1312.56
327.914	891.56
328.143	619.56
328.372	537.56
328.6	537.56
328.829	523.56
329.058	543.56
329.287	521.56
329.515	503.56
329.744	455.56
329.972	473.56
330.201	495.56
330.43	536.56
330.658	535.56
330.887	553.56
331.115	559.56
331.344	506.56
331.572	485.56
331.801	483.56
332.03	468.56
332.258	471.56
332.486	476.56
332.715	468.56
332.943	466.56
333.172	484.56
333.4	464.56
333.629	464.56
333.857	500.56
334.085	494.56
334.314	525.56
334.542	538.56
334.771	558.56
334.999	516.56
335.227	492.56
335.455	462.56
335.684	475.56
335.912	455.56
336.14	477.56
336.369	477.56
336.597	472.56
336.825	487.56
337.053	477.56
337.281	463.56
337.51	443.56
337.738	486.56
337.966	472.56
338.194	454.56
338.422	464.56
338.65	448.56
338.878	445.56
339.106	452.56
339.334	467.56
339.562	456.56
339.79	432.56
340.018	452.56
340.246	455.56
340.474	458.56
340.702	456.56
340.93	470.56
341.158	456.56
341.386	438.56
341.614	469.56
341.842	441.56
342.07	455.56
342.298	459.56
342.526	447.56
342.754	433.56
342.981	437.56
343.209	438.56
343.437	442.56
343.665	474.56
343.893	458.56
344.12	449.56
344.348	480.56
344.576	479.56
344.804	475.56
345.031	462.56
345.259	452.56
345.487	438.56
345.714	454.56
345.942	441.56
346.17	422.56
346.397	440.56
346.625	429.56
346.853	453.56
347.08	427.56
347.308	417.56
347.535	429.56
347.763	449.56
347.99	445.56
348.218	423.56
348.445	433.56
348.673	429.56
348.9	428.56
349.128	409.56
349.355	425.56
349.583	407.56
349.81	422.56
350.037	422.56
350.265	417.56
350.492	432.56
350.72	430.56
350.947	423.56
351.174	445.56
351.402	436.56
351.629	437.56
351.856	441.56
352.083	449.56
352.311	449.56
352.538	439.56
352.765	427.56
352.992	441.56
353.22	422.56
353.447	426.56
353.674	410.56
353.901	407.56
354.128	407.56
354.355	415.56
354.583	402.56
354.81	398.56
355.037	380.56
355.264	422.56
355.491	405.56
355.718	439.56
355.945	435.56
356.172	399.56
356.399	403.56
356.626	406.56
356.853	405.56
357.08	409.56
357.307	418.56
357.534	420.56
357.761	432.56
357.988	420.56
358.215	414.56
358.441	419.56
358.668	421.56
358.895	426.56
359.122	431.56
359.349	421.56
359.576	442.56
359.802	455.56
360.029	471.56
360.256	473.56
360.483	462.56
360.709	437.56
360.936	468.56
361.163	436.56
361.39	421.56
361.616	424.56
361.843	428.56
362.07	416.56
362.296	433.56
362.523	414.56
362.749	451.56
362.976	451.56
363.203	420.56
363.429	410.56
363.656	439.56
363.882	417.56
364.109	425.56
364.335	429.56
364.562	431.56
364.788	415.56
365.015	440.56
365.241	428.56
365.468	432.56
365.694	419.56
365.92	430.56
366.147	413.56
366.373	419.56
366.599	439.56
366.826	422.56
367.052	429.56
367.278	420.56
367.505	437.56
367.731	419.56
367.957	423.56
368.184	413.56
368.41	435.56
368.636	416.56
368.862	439.56
369.089	429.56
369.315	435.56
369.541	431.56
369.767	416.56
369.993	443.56
370.219	432.56
370.445	435.56
370.672	421.56
370.898	432.56
371.124	441.56
371.35	455.56
371.576	433.56
371.802	437.56
372.028	449.56
372.254	435.56
372.48	452.56
372.706	429.56
372.932	435.56
373.158	462.56
373.384	455.56
373.61	454.56
373.835	462.56
374.061	441.56
374.287	459.56
374.513	453.56
374.739	464.56
374.965	455.56
375.191	442.56
375.416	445.56
375.642	431.56
375.868	438.56
376.094	413.56
376.319	418.56
376.545	433.56
376.771	454.56
376.997	426.56
377.222	430.56
377.448	437.56
377.674	434.56
377.899	431.56
378.125	435.56
378.35	425.56
378.576	429.56
378.802	435.56
379.027	426.56
379.253	447.56
379.478	436.56
379.704	437.56
379.929	441.56
380.155	445.56
380.38	449.56
380.606	440.56
380.831	449.56
381.057	466.56
381.282	431.56
381.507	432.56
381.733	458.56
381.958	453.56
382.184	453.56
382.409	459.56
382.634	440.56
382.86	459.56
383.085	451.56
383.31	477.56
383.535	457.56
383.761	480.56
383.986	471.56
384.211	480.56
384.436	476.56
384.662	493.56
384.887	470.56
385.112	475.56
385.337	491.56
385.562	471.56
385.787	491.56
386.013	491.56
386.238	492.56
386.463	501.56
386.688	487.56
386.913	479.56
387.138	479.56
387.363	477.56
387.588	478.56
387.813	495.56
388.038	488.56
388.263	492.56
388.488	496.56
388.713	499.56
388.938	519.56
389.163	493.56
389.387	494.56
389.612	495.56
389.837	496.56
390.062	486.56
390.287	490.56
390.512	473.56
390.736	495.56
390.961	493.56
391.186	506.56
391.411	493.56
391.636	524.56
391.86	499.56
392.085	529.56
392.31	527.56
392.534	511.56
392.759	512.56
392.984	506.56
393.208	521.56
393.433	495.56
393.658	490.56
393.882	503.56
394.107	486.56
394.331	520.56
394.556	518.56
394.78	496.56
395.005	478.56
395.229	507.56
395.454	500.56
395.678	515.56
395.903	527.56
396.127	520.56
396.352	533.56
396.576	512.56
396.801	524.56
397.025	530.56
397.249	513.56
397.474	525.56
397.698	545.56
397.922	535.56
398.147	557.56
398.371	585.56
398.595	558.56
398.82	574.56
399.044	597.56
399.268	620.56
399.492	655.56
399.717	706.56
399.941	701.56
400.165	716.56
400.389	706.56
400.613	637.56
400.837	587.56
401.062	622.56
401.286	592.56
401.51	579.56
401.734	575.56
401.958	589.56
402.182	587.56
402.406	590.56
402.63	584.56
402.854	593.56
403.078	572.56
403.302	600.56
403.526	599.56
403.75	615.56
403.974	598.56
404.198	566.56
404.422	618.56
404.645	616.56
404.869	635.56
405.093	659.56
405.317	672.56
405.541	697.56
405.765	669.56
405.988	640.56
406.212	640.56
406.436	629.56
406.66	662.56
406.883	658.56
407.107	661.56
407.331	703.56
407.555	780.56
407.778	787.56
408.002	721.56
408.226	651.56
408.449	653.56
408.673	665.56
408.896	672.56
409.12	716.56
409.344	671.56
409.567	648.56
409.791	634.56
410.014	601.56
410.238	609.56
410.461	602.56
410.685	595.56
410.908	616.56
411.132	636.56
411.355	696.56
411.578	651.56
411.802	627.56
412.025	628.56
412.249	623.56
412.472	621.56
412.695	657.56
412.919	643.56
413.142	617.56
413.365	579.56
413.589	574.56
413.812	581.56
414.035	560.56
414.258	590.56
414.482	562.56
414.705	583.56
414.928	583.56
415.151	567.56
415.374	561.56
415.597	572.56
415.821	565.56
416.044	574.56
416.267	577.56
416.49	565.56
416.713	555.56
416.936	564.56
417.159	544.56
417.382	568.56
417.605	563.56
417.828	597.56
418.051	604.56
418.274	588.56
418.497	579.56
418.72	572.56
418.943	548.56
419.166	563.56
419.389	642.56
419.611	622.56
419.834	615.56
420.057	605.56
420.28	600.56
420.503	600.56
420.726	589.56
420.948	611.56
421.171	620.56
421.394	669.56
421.617	619.56
421.839	580.56
422.062	596.56
422.285	607.56
422.507	647.56
422.73	748.56
422.953	703.56
423.175	637.56
423.398	599.56
423.621	608.56
423.843	630.56
424.066	642.56
424.288	667.56
424.511	638.56
424.733	706.56
424.956	767.56
425.178	749.56
425.401	709.56
425.623	750.56
425.846	667.56
426.068	630.56
426.291	617.56
426.513	622.56
426.735	639.56
426.958	654.56
427.18	711.56
427.402	869.56
427.625	911.56
427.847	784.56
428.069	723.56
428.292	646.56
428.514	620.56
428.736	608.56
428.958	574.56
429.181	575.56
429.403	570.56
429.625	570.56
429.847	608.56
430.069	671.56
430.292	670.56
430.514	591.56
430.736	589.56
430.958	568.56
431.18	564.56
431.402	568.56
431.624	543.56
431.846	558.56
432.068	559.56
432.29	564.56
432.512	553.56
432.734	574.56
432.956	528.56
433.178	539.56
433.4	562.56
433.622	569.56
433.844	564.56
434.066	548.56
434.287	547.56
434.509	582.56
434.731	569.56
434.953	575.56
435.175	599.56
435.397	619.56
435.618	616.56
435.84	662.56
436.062	715.56
436.284	813.56
436.505	695.56
436.727	621.56
436.949	583.56
437.17	578.56
437.392	580.56
437.614	553.56
437.835	613.56
438.057	697.56
438.278	794.56
438.5	800.56
438.721	856.56
438.943	835.56
439.165	667.56
439.386	595.56
439.608	609.56
439.829	606.56
440.05	624.56
440.272	658.56
440.493	637.56
440.715	604.56
440.936	605.56
441.158	579.56
441.379	596.56
441.6	605.56
441.822	629.56
442.043	649.56
442.264	719.56
442.486	799.56
442.707	665.56
442.928	650.56
443.149	624.56
443.371	675.56
443.592	698.56
443.813	777.56
444.034	859.56
444.255	730.56
444.476	644.56
444.698	645.56
444.919	643.56
445.14	759.56
445.361	681.56
445.582	683.56
445.803	699.56
446.024	792.56
446.245	839.56
446.466	743.56
446.687	637.56
446.908	616.56
447.129	587.56
447.35	567.56
447.571	566.56
447.792	552.56
448.013	563.56
448.234	564.56
448.455	635.56
448.675	755.56
448.896	830.56
449.117	729.56
449.338	682.56
449.559	805.56
449.779	891.56
450	725.56
450.221	606.56
450.442	552.56
450.662	565.56
450.883	553.56
451.104	561.56
451.324	564.56
451.545	529.56
451.766	519.56
451.986	521.56
452.207	534.56
452.428	523.56
452.648	501.56
452.869	521.56
453.089	532.56
453.31	514.56
453.53	502.56
453.751	496.56
453.971	527.56
454.192	523.56
454.412	502.56
454.633	503.56
454.853	509.56
455.073	517.56
455.294	529.56
455.514	573.56
455.734	587.56
455.955	519.56
456.175	493.56
456.395	489.56
456.616	468.56
456.836	482.56
457.056	491.56
457.276	460.56
457.497	474.56
457.717	477.56
457.937	490.56
458.157	522.56
458.377	497.56
458.598	519.56
458.818	541.56
459.038	613.56
459.258	657.56
459.478	593.56
459.698	565.56
459.918	568.56
460.138	551.56
460.358	579.56
460.578	566.56
460.798	572.56
461.018	565.56
461.238	569.56
461.458	567.56
461.678	576.56
461.898	601.56
462.118	574.56
462.338	583.56
462.558	609.56
462.777	599.56
462.997	643.56
463.217	655.56
463.437	661.56
463.657	621.56
463.876	627.56
464.096	617.56
464.316	620.56
464.536	616.56
464.755	605.56
464.975	628.56
465.195	639.56
465.414	655.56
465.634	593.56
465.854	568.56
466.073	546.56
466.293	549.56
466.512	551.56
466.732	518.56
466.951	526.56
467.171	548.56
467.391	515.56
467.61	531.56
467.829	523.56
468.049	534.56
468.268	507.56
468.488	546.56
468.707	502.56
468.927	537.56
469.146	516.56
469.365	514.56
469.585	522.56
469.804	519.56
470.023	537.56
470.243	535.56
470.462	512.56
470.681	549.56
470.901	551.56
471.12	540.56
471.339	547.56
471.558	524.56
471.777	517.56
471.997	535.56
472.216	527.56
472.435	571.56
472.654	542.56
472.873	527.56
473.092	520.56
473.311	538.56
473.53	533.56
473.749	532.56
473.968	572.56
474.187	664.56
474.406	665.56
474.625	582.56
474.844	555.56
475.063	541.56
475.282	522.56
475.501	519.56
475.72	553.56
475.939	536.56
476.158	548.56
476.377	538.56
476.596	537.56
476.814	555.56
477.033	531.56
477.252	546.56
477.471	559.56
477.69	579.56
477.908	581.56
478.127	582.56
478.346	605.56
478.564	613.56
478.783	592.56
479.002	612.56
479.22	631.56
479.439	627.56
479.658	638.56
479.876	631.56
480.095	653.56
480.313	671.56
480.532	649.56
480.751	669.56
480.969	675.56
481.188	675.56
481.406	698.56
481.624	662.56
481.843	614.56
482.061	603.56
482.28	639.56
482.498	618.56
482.717	622.56
482.935	618.56
483.153	630.56
483.372	618.56
483.59	622.56
483.808	607.56
484.027	622.56
484.245	614.56
484.463	646.56
484.681	645.56
484.9	641.56
485.118	631.56
485.336	623.56
485.554	627.56
485.772	669.56
485.99	660.56
486.209	661.56
486.427	633.56
486.645	660.56
486.863	667.56
487.081	681.56
487.299	653.56
487.517	672.56
487.735	672.56
487.953	663.56
488.171	661.56
488.389	689.56
488.607	665.56
488.825	657.56
489.043	672.56
489.261	681.56
489.479	704.56
489.696	696.56
489.914	659.56
490.132	704.56
490.35	719.56
490.568	721.56
490.786	719.56
491.003	714.56
491.221	774.56
491.439	731.56
491.657	767.56
491.874	778.56
492.092	786.56
492.31	777.56
492.527	775.56
492.745	744.56
492.963	779.56
493.18	758.56
493.398	785.56
493.615	792.56
493.833	808.56
494.05	777.56
494.268	783.56
494.485	780.56
494.703	774.56
494.92	780.56
495.138	779.56
495.355	816.56
495.573	791.56
495.79	794.56
496.008	797.56
496.225	795.56
496.442	816.56
496.66	799.56
496.877	811.56
497.094	829.56
497.312	827.56
497.529	829.56
497.746	855.56
497.963	836.56
498.181	835.56
498.398	872.56
498.615	904.56
498.832	941.56
499.049	931.56
499.267	1000.56
499.484	1042.56
499.701	1077.56
499.918	1115.56
500.135	1184.56
500.352	1268.56
500.569	1277.56
500.786	1317.56
501.003	1247.56
501.22	1197.56
501.437	1141.56
501.654	1100.56
