Data from 1974.PennyLincolnUp.Lamp.En5.5.200Scan.071719.P1.Changed Mount._HRD10591_15-52-59-857.txt Node
Date: Thu Jul 18 15:52:59 EDT 2019
User: cochatt
Spectrometer: HR+D1059
Trigger mode: 1
Integration Time (sec): 1.000000E-1
Scans to average: 1
Electric dark correction enabled: true
Nonlinearity correction enabled: false
Boxcar width: 0
XAxis mode: Wavelengths
Number of Pixels in Spectrum: 2048
>>>>>Begin Spectral Data<<<<<
223.165	-16.75
223.4	-16.75
223.635	-16.75
223.869	-12.75
224.104	-21.75
224.338	-14.75
224.573	-10.75
224.808	-5.75
225.042	-16.75
225.277	-9.75
225.511	-3.75
225.746	8.25
225.98	-5.75
226.215	11.25
226.449	17.25
226.683	20.25
226.918	29.25
227.152	32.25
227.387	36.25
227.621	38.25
227.856	38.25
228.09	41.25
228.324	57.25
228.559	39.25
228.793	81.25
229.027	101.25
229.262	99.25
229.496	106.25
229.73	128.25
229.964	149.25
230.199	131.25
230.433	116.25
230.667	123.25
230.901	122.25
231.136	100.25
231.37	117.25
231.604	119.25
231.838	106.25
232.072	113.25
232.306	125.25
232.541	112.25
232.775	130.25
233.009	119.25
233.243	115.25
233.477	114.25
233.711	121.25
233.945	119.25
234.179	110.25
234.413	113.25
234.647	129.25
234.881	126.25
235.115	126.25
235.349	114.25
235.583	125.25
235.817	133.25
236.051	124.25
236.285	115.25
236.519	125.25
236.753	138.25
236.987	153.25
237.221	179.25
237.455	222.25
237.689	189.25
237.922	151.25
238.156	143.25
238.39	124.25
238.624	116.25
238.858	139.25
239.091	126.25
239.325	125.25
239.559	138.25
239.793	143.25
240.027	134.25
240.26	163.25
240.494	169.25
240.728	146.25
240.961	158.25
241.195	142.25
241.429	155.25
241.662	141.25
241.896	144.25
242.13	141.25
242.363	143.25
242.597	141.25
242.83	151.25
243.064	139.25
243.298	160.25
243.531	158.25
243.765	143.25
243.998	149.25
244.232	147.25
244.465	158.25
244.699	167.25
244.932	159.25
245.166	153.25
245.399	151.25
245.633	169.25
245.866	138.25
246.099	141.25
246.333	149.25
246.566	172.25
246.8	151.25
247.033	168.25
247.266	163.25
247.5	173.25
247.733	174.25
247.966	173.25
248.2	177.25
248.433	199.25
248.666	187.25
248.899	194.25
249.133	191.25
249.366	224.25
249.599	198.25
249.832	177.25
250.066	202.25
250.299	190.25
250.532	199.25
250.765	214.25
250.998	228.25
251.231	261.25
251.465	222.25
251.698	222.25
251.931	213.25
252.164	211.25
252.397	209.25
252.63	206.25
252.863	222.25
253.096	215.25
253.329	235.25
253.562	235.25
253.795	229.25
254.028	232.25
254.261	241.25
254.494	249.25
254.727	274.25
254.96	288.25
255.193	295.25
255.426	263.25
255.659	250.25
255.892	228.25
256.124	241.25
256.357	239.25
256.59	228.25
256.823	207.25
257.056	224.25
257.289	218.25
257.521	238.25
257.754	219.25
257.987	230.25
258.22	234.25
258.452	217.25
258.685	216.25
258.918	237.25
259.151	222.25
259.383	236.25
259.616	237.25
259.849	236.25
260.081	254.25
260.314	252.25
260.547	271.25
260.779	263.25
261.012	238.25
261.244	238.25
261.477	254.25
261.71	252.25
261.942	241.25
262.175	233.25
262.407	252.25
262.64	227.25
262.872	226.25
263.105	230.25
263.337	228.25
263.57	233.25
263.802	221.25
264.035	236.25
264.267	231.25
264.499	232.25
264.732	239.25
264.964	230.25
265.197	221.25
265.429	238.25
265.661	218.25
265.894	212.25
266.126	228.25
266.358	232.25
266.591	237.25
266.823	223.25
267.055	231.25
267.287	260.25
267.52	263.25
267.752	243.25
267.984	243.25
268.216	247.25
268.448	255.25
268.681	269.25
268.913	261.25
269.145	278.25
269.377	291.25
269.609	290.25
269.841	286.25
270.073	293.25
270.306	297.25
270.538	336.25
270.77	339.25
271.002	325.25
271.234	291.25
271.466	306.25
271.698	314.25
271.93	317.25
272.162	309.25
272.394	319.25
272.626	308.25
272.858	298.25
273.09	293.25
273.322	272.25
273.553	287.25
273.785	289.25
274.017	274.25
274.249	282.25
274.481	280.25
274.713	277.25
274.945	284.25
275.176	276.25
275.408	269.25
275.64	293.25
275.872	281.25
276.104	289.25
276.335	294.25
276.567	280.25
276.799	310.25
277.031	311.25
277.262	311.25
277.494	325.25
277.726	329.25
277.957	321.25
278.189	324.25
278.421	296.25
278.652	283.25
278.884	299.25
279.115	297.25
279.347	299.25
279.579	293.25
279.81	291.25
280.042	295.25
280.273	292.25
280.505	274.25
280.736	285.25
280.968	282.25
281.199	288.25
281.431	283.25
281.662	296.25
281.894	298.25
282.125	292.25
282.356	320.25
282.588	325.25
282.819	318.25
283.051	304.25
283.282	291.25
283.513	302.25
283.745	293.25
283.976	307.25
284.207	321.25
284.439	316.25
284.67	307.25
284.901	311.25
285.132	311.25
285.364	309.25
285.595	309.25
285.826	313.25
286.057	318.25
286.288	303.25
286.52	310.25
286.751	301.25
286.982	305.25
287.213	313.25
287.444	295.25
287.675	319.25
287.906	317.25
288.138	322.25
288.369	336.25
288.6	341.25
288.831	325.25
289.062	320.25
289.293	329.25
289.524	323.25
289.755	332.25
289.986	317.25
290.217	305.25
290.448	320.25
290.679	307.25
290.91	307.25
291.141	328.25
291.371	305.25
291.602	333.25
291.833	323.25
292.064	309.25
292.295	333.25
292.526	319.25
292.757	316.25
292.987	297.25
293.218	313.25
293.449	328.25
293.68	321.25
293.91	313.25
294.141	331.25
294.372	307.25
294.603	322.25
294.833	330.25
295.064	340.25
295.295	321.25
295.525	317.25
295.756	314.25
295.987	324.25
296.217	345.25
296.448	362.25
296.679	351.25
296.909	326.25
297.14	319.25
297.37	330.25
297.601	331.25
297.831	318.25
298.062	323.25
298.292	319.25
298.523	347.25
298.753	350.25
298.984	330.25
299.214	355.25
299.445	326.25
299.675	328.25
299.905	340.25
300.136	357.25
300.366	325.25
300.597	358.25
300.827	349.25
301.057	346.25
301.288	329.25
301.518	362.25
301.748	355.25
301.979	346.25
302.209	347.25
302.439	356.25
302.669	366.25
302.9	359.25
303.13	363.25
303.36	351.25
303.59	363.25
303.82	369.25
304.051	358.25
304.281	379.25
304.511	369.25
304.741	354.25
304.971	382.25
305.201	361.25
305.431	349.25
305.661	344.25
305.891	374.25
306.121	357.25
306.352	357.25
306.582	342.25
306.812	365.25
307.042	372.25
307.272	353.25
307.502	362.25
307.731	364.25
307.961	362.25
308.191	360.25
308.421	343.25
308.651	379.25
308.881	383.25
309.111	381.25
309.341	386.25
309.571	399.25
309.8	377.25
310.03	394.25
310.26	374.25
310.49	405.25
310.72	396.25
310.949	419.25
311.179	414.25
311.409	407.25
311.639	402.25
311.868	404.25
312.098	393.25
312.328	415.25
312.557	425.25
312.787	434.25
313.017	405.25
313.246	426.25
313.476	382.25
313.706	399.25
313.935	407.25
314.165	410.25
314.394	417.25
314.624	411.25
314.853	408.25
315.083	396.25
315.312	402.25
315.542	406.25
315.771	410.25
316.001	382.25
316.23	398.25
316.46	393.25
316.689	417.25
316.919	401.25
317.148	413.25
317.377	425.25
317.607	418.25
317.836	417.25
318.065	417.25
318.295	400.25
318.524	402.25
318.753	418.25
318.983	430.25
319.212	396.25
319.441	412.25
319.67	414.25
319.9	421.25
320.129	396.25
320.358	407.25
320.587	410.25
320.816	420.25
321.046	422.25
321.275	425.25
321.504	419.25
321.733	423.25
321.962	428.25
322.191	437.25
322.42	450.25
322.649	457.25
322.878	470.25
323.108	469.25
323.337	490.25
323.566	494.25
323.795	511.25
324.024	538.25
324.253	623.25
324.482	855.25
324.71	1299.25
324.939	1917.25
325.168	1671.25
325.397	859.25
325.626	619.25
325.855	527.25
326.084	467.25
326.313	502.25
326.542	486.25
326.77	546.25
326.999	621.25
327.228	785.25
327.457	1173.25
327.686	1424.25
327.914	979.25
328.143	649.25
328.372	586.25
328.6	565.25
328.829	526.25
329.058	555.25
329.287	602.25
329.515	531.25
329.744	511.25
329.972	504.25
330.201	536.25
330.43	585.25
330.658	578.25
330.887	577.25
331.115	601.25
331.344	529.25
331.572	507.25
331.801	525.25
332.03	496.25
332.258	487.25
332.486	533.25
332.715	485.25
332.943	489.25
333.172	512.25
333.4	525.25
333.629	530.25
333.857	544.25
334.085	543.25
334.314	551.25
334.542	550.25
334.771	598.25
334.999	574.25
335.227	510.25
335.455	510.25
335.684	491.25
335.912	512.25
336.14	485.25
336.369	492.25
336.597	511.25
336.825	523.25
337.053	484.25
337.281	476.25
337.51	481.25
337.738	473.25
337.966	467.25
338.194	483.25
338.422	487.25
338.65	488.25
338.878	492.25
339.106	469.25
339.334	494.25
339.562	486.25
339.79	474.25
340.018	476.25
340.246	461.25
340.474	476.25
340.702	462.25
340.93	466.25
341.158	460.25
341.386	464.25
341.614	449.25
341.842	486.25
342.07	463.25
342.298	466.25
342.526	459.25
342.754	467.25
342.981	474.25
343.209	452.25
343.437	470.25
343.665	491.25
343.893	495.25
344.12	507.25
344.348	486.25
344.576	483.25
344.804	483.25
345.031	466.25
345.259	502.25
345.487	483.25
345.714	487.25
345.942	444.25
346.17	471.25
346.397	449.25
346.625	472.25
346.853	457.25
347.08	468.25
347.308	446.25
347.535	450.25
347.763	488.25
347.99	463.25
348.218	475.25
348.445	477.25
348.673	483.25
348.9	463.25
349.128	458.25
349.355	441.25
349.583	467.25
349.81	435.25
350.037	445.25
350.265	439.25
350.492	453.25
350.72	441.25
350.947	451.25
351.174	443.25
351.402	459.25
351.629	454.25
351.856	454.25
352.083	460.25
352.311	471.25
352.538	468.25
352.765	492.25
352.992	461.25
353.22	433.25
353.447	456.25
353.674	446.25
353.901	432.25
354.128	444.25
354.355	457.25
354.583	444.25
354.81	437.25
355.037	427.25
355.264	434.25
355.491	421.25
355.718	413.25
355.945	435.25
356.172	424.25
356.399	447.25
356.626	431.25
356.853	455.25
357.08	419.25
357.307	421.25
357.534	427.25
357.761	407.25
357.988	429.25
358.215	439.25
358.441	444.25
358.668	459.25
358.895	445.25
359.122	446.25
359.349	427.25
359.576	474.25
359.802	511.25
360.029	479.25
360.256	483.25
360.483	490.25
360.709	457.25
360.936	451.25
361.163	454.25
361.39	456.25
361.616	451.25
361.843	449.25
362.07	462.25
362.296	451.25
362.523	460.25
362.749	451.25
362.976	453.25
363.203	453.25
363.429	451.25
363.656	472.25
363.882	451.25
364.109	465.25
364.335	426.25
364.562	422.25
364.788	459.25
365.015	445.25
365.241	425.25
365.468	454.25
365.694	459.25
365.92	466.25
366.147	460.25
366.373	463.25
366.599	445.25
366.826	458.25
367.052	428.25
367.278	445.25
367.505	441.25
367.731	444.25
367.957	460.25
368.184	468.25
368.41	454.25
368.636	485.25
368.862	484.25
369.089	461.25
369.315	459.25
369.541	450.25
369.767	459.25
369.993	459.25
370.219	439.25
370.445	439.25
370.672	460.25
370.898	457.25
371.124	472.25
371.35	443.25
371.576	451.25
371.802	439.25
372.028	446.25
372.254	463.25
372.48	447.25
372.706	449.25
372.932	446.25
373.158	479.25
373.384	450.25
373.61	466.25
373.835	465.25
374.061	452.25
374.287	457.25
374.513	455.25
374.739	461.25
374.965	461.25
375.191	491.25
375.416	479.25
375.642	455.25
375.868	470.25
376.094	466.25
376.319	446.25
376.545	455.25
376.771	456.25
376.997	452.25
377.222	456.25
377.448	459.25
377.674	453.25
377.899	454.25
378.125	459.25
378.35	443.25
378.576	460.25
378.802	461.25
379.027	449.25
379.253	457.25
379.478	451.25
379.704	439.25
379.929	484.25
380.155	448.25
380.38	478.25
380.606	466.25
380.831	456.25
381.057	458.25
381.282	457.25
381.507	474.25
381.733	461.25
381.958	466.25
382.184	461.25
382.409	468.25
382.634	469.25
382.86	479.25
383.085	452.25
383.31	488.25
383.535	461.25
383.761	473.25
383.986	497.25
384.211	494.25
384.436	486.25
384.662	506.25
384.887	503.25
385.112	517.25
385.337	497.25
385.562	511.25
385.787	482.25
386.013	511.25
386.238	507.25
386.463	532.25
386.688	525.25
386.913	506.25
387.138	506.25
387.363	479.25
387.588	529.25
387.813	512.25
388.038	519.25
388.263	523.25
388.488	539.25
388.713	521.25
388.938	522.25
389.163	525.25
389.387	528.25
389.612	502.25
389.837	508.25
390.062	501.25
390.287	516.25
390.512	506.25
390.736	520.25
390.961	520.25
391.186	512.25
391.411	533.25
391.636	538.25
391.86	515.25
392.085	556.25
392.31	523.25
392.534	528.25
392.759	537.25
392.984	534.25
393.208	529.25
393.433	514.25
393.658	530.25
393.882	517.25
394.107	542.25
394.331	550.25
394.556	533.25
394.78	526.25
395.005	521.25
395.229	534.25
395.454	554.25
395.678	556.25
395.903	578.25
396.127	588.25
396.352	575.25
396.576	571.25
396.801	536.25
397.025	527.25
397.249	535.25
397.474	540.25
397.698	545.25
397.922	567.25
398.147	581.25
398.371	591.25
398.595	579.25
398.82	571.25
399.044	603.25
399.268	647.25
399.492	682.25
399.717	739.25
399.941	758.25
400.165	749.25
400.389	769.25
400.613	697.25
400.837	664.25
401.062	619.25
401.286	615.25
401.51	589.25
401.734	604.25
401.958	621.25
402.182	580.25
402.406	626.25
402.63	615.25
402.854	612.25
403.078	637.25
403.302	618.25
403.526	620.25
403.75	656.25
403.974	619.25
404.198	628.25
404.422	649.25
404.645	664.25
404.869	655.25
405.093	693.25
405.317	721.25
405.541	738.25
405.765	710.25
405.988	667.25
406.212	660.25
406.436	668.25
406.66	671.25
406.883	679.25
407.107	730.25
407.331	727.25
407.555	803.25
407.778	837.25
408.002	742.25
408.226	695.25
408.449	705.25
408.673	712.25
408.896	727.25
409.12	745.25
409.344	710.25
409.567	659.25
409.791	649.25
410.014	642.25
410.238	646.25
410.461	619.25
410.685	643.25
410.908	667.25
411.132	671.25
411.355	685.25
411.578	695.25
411.802	629.25
412.025	620.25
412.249	635.25
412.472	635.25
412.695	700.25
412.919	686.25
413.142	631.25
413.365	639.25
413.589	616.25
413.812	624.25
414.035	596.25
414.258	607.25
414.482	576.25
414.705	605.25
414.928	592.25
415.151	590.25
415.374	601.25
415.597	586.25
415.821	596.25
416.044	588.25
416.267	616.25
416.49	583.25
416.713	592.25
416.936	591.25
417.159	584.25
417.382	608.25
417.605	606.25
417.828	616.25
418.051	619.25
418.274	604.25
418.497	603.25
418.72	612.25
418.943	585.25
419.166	601.25
419.389	666.25
419.611	659.25
419.834	643.25
420.057	647.25
420.28	621.25
420.503	637.25
420.726	633.25
420.948	647.25
421.171	669.25
421.394	704.25
421.617	654.25
421.839	631.25
422.062	608.25
422.285	627.25
422.507	675.25
422.73	762.25
422.953	747.25
423.175	657.25
423.398	645.25
423.621	673.25
423.843	652.25
424.066	673.25
424.288	661.25
424.511	701.25
424.733	723.25
424.956	813.25
425.178	787.25
425.401	786.25
425.623	815.25
425.846	702.25
426.068	666.25
426.291	642.25
426.513	649.25
426.735	644.25
426.958	694.25
427.18	755.25
427.402	895.25
427.625	975.25
427.847	833.25
428.069	726.25
428.292	687.25
428.514	645.25
428.736	627.25
428.958	619.25
429.181	597.25
429.403	582.25
429.625	595.25
429.847	651.25
430.069	701.25
430.292	689.25
430.514	609.25
430.736	590.25
430.958	602.25
431.18	580.25
431.402	575.25
431.624	564.25
431.846	573.25
432.068	575.25
432.29	578.25
432.512	589.25
432.734	580.25
432.956	593.25
433.178	603.25
433.4	586.25
433.622	584.25
433.844	578.25
434.066	564.25
434.287	565.25
434.509	603.25
434.731	611.25
434.953	598.25
435.175	636.25
435.397	664.25
435.618	660.25
435.84	699.25
436.062	745.25
436.284	851.25
436.505	721.25
436.727	648.25
436.949	630.25
437.17	583.25
437.392	611.25
437.614	605.25
437.835	621.25
438.057	727.25
438.278	831.25
438.5	802.25
438.721	945.25
438.943	875.25
439.165	699.25
439.386	660.25
439.608	659.25
439.829	647.25
440.05	663.25
440.272	702.25
440.493	656.25
440.715	617.25
440.936	632.25
441.158	612.25
441.379	603.25
441.6	632.25
441.822	659.25
442.043	697.25
442.264	764.25
442.486	808.25
442.707	715.25
442.928	654.25
443.149	637.25
443.371	700.25
443.592	728.25
443.813	812.25
444.034	892.25
444.255	780.25
444.476	702.25
444.698	659.25
444.919	675.25
445.14	785.25
445.361	723.25
445.582	719.25
445.803	745.25
446.024	857.25
446.245	845.25
446.466	791.25
446.687	670.25
446.908	654.25
447.129	621.25
447.35	601.25
447.571	585.25
447.792	593.25
448.013	591.25
448.234	611.25
448.455	667.25
448.675	761.25
448.896	930.25
449.117	763.25
449.338	744.25
449.559	828.25
449.779	929.25
450	759.25
450.221	634.25
450.442	587.25
450.662	582.25
450.883	578.25
451.104	583.25
451.324	603.25
451.545	555.25
451.766	534.25
451.986	522.25
452.207	530.25
452.428	524.25
452.648	537.25
452.869	519.25
453.089	560.25
453.31	553.25
453.53	541.25
453.751	525.25
453.971	519.25
454.192	539.25
454.412	548.25
454.633	520.25
454.853	521.25
455.073	517.25
455.294	553.25
455.514	635.25
455.734	590.25
455.955	533.25
456.175	513.25
456.395	492.25
456.616	503.25
456.836	519.25
457.056	526.25
457.276	505.25
457.497	516.25
457.717	517.25
457.937	494.25
458.157	530.25
458.377	537.25
458.598	544.25
458.818	599.25
459.038	667.25
459.258	685.25
459.478	617.25
459.698	594.25
459.918	580.25
460.138	585.25
460.358	607.25
460.578	601.25
460.798	598.25
461.018	615.25
461.238	592.25
461.458	609.25
461.678	597.25
461.898	610.25
462.118	606.25
462.338	634.25
462.558	625.25
462.777	625.25
462.997	675.25
463.217	699.25
463.437	694.25
463.657	675.25
463.876	653.25
464.096	633.25
464.316	627.25
464.536	630.25
464.755	658.25
464.975	658.25
465.195	677.25
465.414	685.25
465.634	647.25
465.854	605.25
466.073	583.25
466.293	571.25
466.512	575.25
466.732	556.25
466.951	576.25
467.171	547.25
467.391	552.25
467.61	564.25
467.829	559.25
468.049	567.25
468.268	561.25
468.488	553.25
468.707	526.25
468.927	536.25
469.146	545.25
469.365	539.25
469.585	548.25
469.804	554.25
470.023	556.25
470.243	567.25
470.462	577.25
470.681	584.25
470.901	603.25
471.12	562.25
471.339	558.25
471.558	557.25
471.777	573.25
471.997	568.25
472.216	557.25
472.435	576.25
472.654	544.25
472.873	548.25
473.092	549.25
473.311	542.25
473.53	558.25
473.749	536.25
473.968	596.25
474.187	679.25
474.406	714.25
474.625	592.25
474.844	565.25
475.063	558.25
475.282	545.25
475.501	553.25
475.72	582.25
475.939	575.25
476.158	565.25
476.377	565.25
476.596	585.25
476.814	595.25
477.033	584.25
477.252	595.25
477.471	581.25
477.69	585.25
477.908	628.25
478.127	617.25
478.346	602.25
478.564	627.25
478.783	619.25
479.002	648.25
479.22	648.25
479.439	655.25
479.658	658.25
479.876	686.25
480.095	678.25
480.313	720.25
480.532	723.25
480.751	692.25
480.969	692.25
481.188	724.25
481.406	734.25
481.624	708.25
481.843	681.25
482.061	681.25
482.28	658.25
482.498	636.25
482.717	663.25
482.935	675.25
483.153	659.25
483.372	647.25
483.59	654.25
483.808	626.25
484.027	655.25
484.245	664.25
484.463	634.25
484.681	665.25
484.9	684.25
485.118	687.25
485.336	694.25
485.554	667.25
485.772	686.25
485.99	672.25
486.209	666.25
486.427	696.25
486.645	677.25
486.863	686.25
487.081	696.25
487.299	701.25
487.517	681.25
487.735	683.25
487.953	705.25
488.171	702.25
488.389	693.25
488.607	708.25
488.825	705.25
489.043	708.25
489.261	736.25
489.479	707.25
489.696	720.25
489.914	726.25
490.132	750.25
490.35	733.25
490.568	738.25
490.786	763.25
491.003	757.25
491.221	775.25
491.439	802.25
491.657	789.25
491.874	794.25
492.092	815.25
492.31	805.25
492.527	811.25
492.745	815.25
492.963	820.25
493.18	817.25
493.398	836.25
493.615	833.25
493.833	819.25
494.05	822.25
494.268	838.25
494.485	837.25
494.703	821.25
494.92	837.25
495.138	806.25
495.355	857.25
495.573	833.25
495.79	825.25
496.008	813.25
496.225	835.25
496.442	853.25
496.66	839.25
496.877	842.25
497.094	866.25
497.312	854.25
497.529	891.25
497.746	892.25
497.963	878.25
498.181	917.25
498.398	916.25
498.615	943.25
498.832	982.25
499.049	997.25
499.267	1043.25
499.484	1093.25
499.701	1118.25
499.918	1172.25
500.135	1229.25
500.352	1324.25
500.569	1336.25
500.786	1343.25
501.003	1326.25
501.22	1287.25
501.437	1219.25
501.654	1148.25
