Data from 1974.PennyLincolnUp.Lamp.En5.5.200Scan.071719.P1.Changed Mount._HRD10591_15-53-06-858.txt Node
Date: Thu Jul 18 15:53:06 EDT 2019
User: cochatt
Spectrometer: HR+D1059
Trigger mode: 1
Integration Time (sec): 1.000000E-1
Scans to average: 1
Electric dark correction enabled: true
Nonlinearity correction enabled: false
Boxcar width: 0
XAxis mode: Wavelengths
Number of Pixels in Spectrum: 2048
>>>>>Begin Spectral Data<<<<<
223.165	-22.69
223.4	-22.69
223.635	-22.69
223.869	-19.69
224.104	-23.69
224.338	-17.69
224.573	-14.69
224.808	-13.69
225.042	4.31
225.277	-10.69
225.511	-9.69
225.746	8.31
225.98	6.31
226.215	10.31
226.449	24.31
226.683	12.31
226.918	26.31
227.152	40.31
227.387	31.31
227.621	32.31
227.856	47.31
228.09	42.31
228.324	48.31
228.559	54.31
228.793	65.31
229.027	89.31
229.262	112.31
229.496	102.31
229.73	127.31
229.964	144.31
230.199	120.31
230.433	123.31
230.667	119.31
230.901	118.31
231.136	132.31
231.37	124.31
231.604	101.31
231.838	124.31
232.072	116.31
232.306	132.31
232.541	124.31
232.775	102.31
233.009	129.31
233.243	128.31
233.477	118.31
233.711	122.31
233.945	116.31
234.179	116.31
234.413	126.31
234.647	115.31
234.881	116.31
235.115	127.31
235.349	123.31
235.583	118.31
235.817	121.31
236.051	130.31
236.285	140.31
236.519	128.31
236.753	124.31
236.987	138.31
237.221	185.31
237.455	245.31
237.689	195.31
237.922	144.31
238.156	136.31
238.39	128.31
238.624	133.31
238.858	128.31
239.091	136.31
239.325	136.31
239.559	135.31
239.793	135.31
240.027	148.31
240.26	153.31
240.494	179.31
240.728	161.31
240.961	156.31
241.195	140.31
241.429	141.31
241.662	150.31
241.896	162.31
242.13	139.31
242.363	148.31
242.597	153.31
242.83	136.31
243.064	152.31
243.298	163.31
243.531	155.31
243.765	156.31
243.998	146.31
244.232	154.31
244.465	162.31
244.699	152.31
244.932	156.31
245.166	165.31
245.399	162.31
245.633	163.31
245.866	136.31
246.099	174.31
246.333	173.31
246.566	169.31
246.8	145.31
247.033	165.31
247.266	180.31
247.5	182.31
247.733	186.31
247.966	180.31
248.2	186.31
248.433	176.31
248.666	200.31
248.899	200.31
249.133	200.31
249.366	220.31
249.599	211.31
249.832	203.31
250.066	178.31
250.299	178.31
250.532	208.31
250.765	221.31
250.998	249.31
251.231	255.31
251.465	245.31
251.698	214.31
251.931	210.31
252.164	219.31
252.397	208.31
252.63	212.31
252.863	208.31
253.096	223.31
253.329	238.31
253.562	252.31
253.795	233.31
254.028	234.31
254.261	223.31
254.494	253.31
254.727	267.31
254.96	294.31
255.193	265.31
255.426	254.31
255.659	230.31
255.892	241.31
256.124	256.31
256.357	236.31
256.59	249.31
256.823	221.31
257.056	241.31
257.289	217.31
257.521	225.31
257.754	225.31
257.987	233.31
258.22	221.31
258.452	199.31
258.685	228.31
258.918	219.31
259.151	227.31
259.383	239.31
259.616	231.31
259.849	264.31
260.081	239.31
260.314	278.31
260.547	286.31
260.779	264.31
261.012	264.31
261.244	238.31
261.477	252.31
261.71	254.31
261.942	249.31
262.175	270.31
262.407	248.31
262.64	222.31
262.872	232.31
263.105	237.31
263.337	244.31
263.57	226.31
263.802	214.31
264.035	244.31
264.267	231.31
264.499	233.31
264.732	239.31
264.964	232.31
265.197	226.31
265.429	229.31
265.661	238.31
265.894	243.31
266.126	258.31
266.358	236.31
266.591	223.31
266.823	226.31
267.055	238.31
267.287	248.31
267.52	254.31
267.752	240.31
267.984	257.31
268.216	263.31
268.448	247.31
268.681	271.31
268.913	285.31
269.145	268.31
269.377	315.31
269.609	276.31
269.841	279.31
270.073	304.31
270.306	329.31
270.538	316.31
270.77	332.31
271.002	319.31
271.234	336.31
271.466	325.31
271.698	299.31
271.93	328.31
272.162	334.31
272.394	339.31
272.626	332.31
272.858	293.31
273.09	296.31
273.322	284.31
273.553	293.31
273.785	299.31
274.017	271.31
274.249	288.31
274.481	288.31
274.713	297.31
274.945	269.31
275.176	289.31
275.408	284.31
275.64	290.31
275.872	292.31
276.104	318.31
276.335	295.31
276.567	299.31
276.799	301.31
277.031	327.31
277.262	337.31
277.494	337.31
277.726	326.31
277.957	324.31
278.189	310.31
278.421	279.31
278.652	318.31
278.884	310.31
279.115	306.31
279.347	301.31
279.579	299.31
279.81	299.31
280.042	303.31
280.273	297.31
280.505	282.31
280.736	273.31
280.968	304.31
281.199	304.31
281.431	292.31
281.662	291.31
281.894	302.31
282.125	286.31
282.356	304.31
282.588	328.31
282.819	327.31
283.051	293.31
283.282	297.31
283.513	326.31
283.745	298.31
283.976	323.31
284.207	324.31
284.439	315.31
284.67	340.31
284.901	323.31
285.132	317.31
285.364	312.31
285.595	307.31
285.826	304.31
286.057	311.31
286.288	300.31
286.52	307.31
286.751	307.31
286.982	332.31
287.213	304.31
287.444	310.31
287.675	316.31
287.906	337.31
288.138	337.31
288.369	340.31
288.6	336.31
288.831	337.31
289.062	324.31
289.293	330.31
289.524	322.31
289.755	328.31
289.986	316.31
290.217	320.31
290.448	307.31
290.679	320.31
290.91	311.31
291.141	323.31
291.371	327.31
291.602	329.31
291.833	324.31
292.064	320.31
292.295	325.31
292.526	311.31
292.757	319.31
292.987	318.31
293.218	333.31
293.449	327.31
293.68	351.31
293.91	324.31
294.141	318.31
294.372	324.31
294.603	341.31
294.833	318.31
295.064	349.31
295.295	341.31
295.525	344.31
295.756	333.31
295.987	349.31
296.217	348.31
296.448	353.31
296.679	322.31
296.909	338.31
297.14	338.31
297.37	330.31
297.601	331.31
297.831	345.31
298.062	336.31
298.292	341.31
298.523	326.31
298.753	345.31
298.984	334.31
299.214	347.31
299.445	340.31
299.675	335.31
299.905	359.31
300.136	329.31
300.366	344.31
300.597	331.31
300.827	363.31
301.057	361.31
301.288	363.31
301.518	346.31
301.748	366.31
301.979	353.31
302.209	371.31
302.439	374.31
302.669	390.31
302.9	369.31
303.13	369.31
303.36	362.31
303.59	353.31
303.82	361.31
304.051	375.31
304.281	373.31
304.511	379.31
304.741	363.31
304.971	357.31
305.201	377.31
305.431	356.31
305.661	372.31
305.891	382.31
306.121	391.31
306.352	359.31
306.582	370.31
306.812	376.31
307.042	361.31
307.272	369.31
307.502	370.31
307.731	383.31
307.961	368.31
308.191	364.31
308.421	375.31
308.651	378.31
308.881	378.31
309.111	381.31
309.341	359.31
309.571	365.31
309.8	374.31
310.03	384.31
310.26	397.31
310.49	405.31
310.72	385.31
310.949	397.31
311.179	417.31
311.409	428.31
311.639	413.31
311.868	395.31
312.098	411.31
312.328	422.31
312.557	438.31
312.787	425.31
313.017	421.31
313.246	424.31
313.476	412.31
313.706	427.31
313.935	407.31
314.165	412.31
314.394	424.31
314.624	446.31
314.853	426.31
315.083	430.31
315.312	412.31
315.542	420.31
315.771	423.31
316.001	408.31
316.23	410.31
316.46	404.31
316.689	393.31
316.919	402.31
317.148	419.31
317.377	402.31
317.607	413.31
317.836	413.31
318.065	421.31
318.295	416.31
318.524	409.31
318.753	400.31
318.983	401.31
319.212	405.31
319.441	405.31
319.67	398.31
319.9	423.31
320.129	396.31
320.358	445.31
320.587	447.31
320.816	440.31
321.046	437.31
321.275	418.31
321.504	420.31
321.733	424.31
321.962	437.31
322.191	440.31
322.42	455.31
322.649	457.31
322.878	440.31
323.108	452.31
323.337	474.31
323.566	490.31
323.795	499.31
324.024	564.31
324.253	653.31
324.482	896.31
324.71	1309.31
324.939	1894.31
325.168	1702.31
325.397	851.31
325.626	605.31
325.855	562.31
326.084	513.31
326.313	509.31
326.542	510.31
326.77	552.31
326.999	628.31
327.228	822.31
327.457	1197.31
327.686	1502.31
327.914	998.31
328.143	700.31
328.372	614.31
328.6	577.31
328.829	572.31
329.058	570.31
329.287	567.31
329.515	547.31
329.744	508.31
329.972	526.31
330.201	550.31
330.43	574.31
330.658	596.31
330.887	616.31
331.115	594.31
331.344	552.31
331.572	536.31
331.801	513.31
332.03	531.31
332.258	518.31
332.486	496.31
332.715	514.31
332.943	496.31
333.172	512.31
333.4	521.31
333.629	502.31
333.857	537.31
334.085	538.31
334.314	572.31
334.542	587.31
334.771	580.31
334.999	549.31
335.227	514.31
335.455	520.31
335.684	527.31
335.912	520.31
336.14	510.31
336.369	498.31
336.597	509.31
336.825	493.31
337.053	493.31
337.281	464.31
337.51	476.31
337.738	509.31
337.966	476.31
338.194	495.31
338.422	476.31
338.65	480.31
338.878	454.31
339.106	471.31
339.334	481.31
339.562	474.31
339.79	487.31
340.018	468.31
340.246	471.31
340.474	483.31
340.702	452.31
340.93	484.31
341.158	487.31
341.386	475.31
341.614	493.31
341.842	475.31
342.07	482.31
342.298	457.31
342.526	471.31
342.754	460.31
342.981	470.31
343.209	466.31
343.437	496.31
343.665	491.31
343.893	502.31
344.12	494.31
344.348	492.31
344.576	512.31
344.804	492.31
345.031	498.31
345.259	509.31
345.487	480.31
345.714	456.31
345.942	468.31
346.17	459.31
346.397	452.31
346.625	457.31
346.853	474.31
347.08	464.31
347.308	488.31
347.535	460.31
347.763	462.31
347.99	465.31
348.218	459.31
348.445	486.31
348.673	472.31
348.9	464.31
349.128	477.31
349.355	433.31
349.583	456.31
349.81	441.31
350.037	456.31
350.265	432.31
350.492	467.31
350.72	424.31
350.947	434.31
351.174	442.31
351.402	469.31
351.629	458.31
351.856	454.31
352.083	457.31
352.311	468.31
352.538	444.31
352.765	447.31
352.992	461.31
353.22	445.31
353.447	463.31
353.674	478.31
353.901	444.31
354.128	438.31
354.355	446.31
354.583	430.31
354.81	418.31
355.037	436.31
355.264	425.31
355.491	450.31
355.718	437.31
355.945	476.31
356.172	446.31
356.399	439.31
356.626	434.31
356.853	430.31
357.08	456.31
357.307	436.31
357.534	441.31
357.761	439.31
357.988	420.31
358.215	436.31
358.441	442.31
358.668	441.31
358.895	447.31
359.122	451.31
359.349	477.31
359.576	454.31
359.802	459.31
360.029	485.31
360.256	496.31
360.483	518.31
360.709	468.31
360.936	489.31
361.163	475.31
361.39	474.31
361.616	486.31
361.843	466.31
362.07	460.31
362.296	475.31
362.523	451.31
362.749	459.31
362.976	451.31
363.203	441.31
363.429	465.31
363.656	449.31
363.882	453.31
364.109	456.31
364.335	444.31
364.562	448.31
364.788	448.31
365.015	452.31
365.241	441.31
365.468	466.31
365.694	446.31
365.92	464.31
366.147	465.31
366.373	470.31
366.599	458.31
366.826	434.31
367.052	441.31
367.278	441.31
367.505	462.31
367.731	455.31
367.957	470.31
368.184	445.31
368.41	456.31
368.636	463.31
368.862	478.31
369.089	439.31
369.315	477.31
369.541	447.31
369.767	468.31
369.993	466.31
370.219	448.31
370.445	450.31
370.672	468.31
370.898	444.31
371.124	450.31
371.35	445.31
371.576	460.31
371.802	454.31
372.028	443.31
372.254	466.31
372.48	470.31
372.706	459.31
372.932	475.31
373.158	466.31
373.384	476.31
373.61	472.31
373.835	477.31
374.061	468.31
374.287	472.31
374.513	448.31
374.739	490.31
374.965	490.31
375.191	461.31
375.416	470.31
375.642	484.31
375.868	485.31
376.094	446.31
376.319	465.31
376.545	479.31
376.771	457.31
376.997	475.31
377.222	434.31
377.448	435.31
377.674	443.31
377.899	465.31
378.125	448.31
378.35	462.31
378.576	458.31
378.802	465.31
379.027	489.31
379.253	451.31
379.478	461.31
379.704	464.31
379.929	473.31
380.155	454.31
380.38	466.31
380.606	482.31
380.831	453.31
381.057	473.31
381.282	462.31
381.507	459.31
381.733	457.31
381.958	466.31
382.184	475.31
382.409	478.31
382.634	481.31
382.86	476.31
383.085	489.31
383.31	503.31
383.535	497.31
383.761	492.31
383.986	493.31
384.211	515.31
384.436	496.31
384.662	489.31
384.887	514.31
385.112	509.31
385.337	510.31
385.562	500.31
385.787	536.31
386.013	501.31
386.238	516.31
386.463	536.31
386.688	516.31
386.913	500.31
387.138	525.31
387.363	518.31
387.588	517.31
387.813	499.31
388.038	506.31
388.263	502.31
388.488	522.31
388.713	531.31
388.938	526.31
389.163	524.31
389.387	523.31
389.612	511.31
389.837	519.31
390.062	532.31
390.287	509.31
390.512	529.31
390.736	504.31
390.961	525.31
391.186	517.31
391.411	537.31
391.636	536.31
391.86	549.31
392.085	532.31
392.31	542.31
392.534	513.31
392.759	520.31
392.984	545.31
393.208	504.31
393.433	529.31
393.658	517.31
393.882	537.31
394.107	534.31
394.331	511.31
394.556	497.31
394.78	520.31
395.005	527.31
395.229	541.31
395.454	527.31
395.678	555.31
395.903	566.31
396.127	581.31
396.352	582.31
396.576	557.31
396.801	538.31
397.025	546.31
397.249	547.31
397.474	547.31
397.698	560.31
397.922	580.31
398.147	588.31
398.371	602.31
398.595	605.31
398.82	600.31
399.044	641.31
399.268	649.31
399.492	697.31
399.717	718.31
399.941	741.31
400.165	756.31
400.389	770.31
400.613	689.31
400.837	653.31
401.062	637.31
401.286	605.31
401.51	610.31
401.734	613.31
401.958	608.31
402.182	640.31
402.406	636.31
402.63	627.31
402.854	633.31
403.078	601.31
403.302	613.31
403.526	638.31
403.75	627.31
403.974	640.31
404.198	622.31
404.422	638.31
404.645	640.31
404.869	665.31
405.093	688.31
405.317	721.31
405.541	766.31
405.765	708.31
405.988	642.31
406.212	655.31
406.436	693.31
406.66	700.31
406.883	667.31
407.107	720.31
407.331	760.31
407.555	827.31
407.778	839.31
408.002	766.31
408.226	715.31
408.449	709.31
408.673	686.31
408.896	714.31
409.12	761.31
409.344	736.31
409.567	683.31
409.791	644.31
410.014	635.31
410.238	622.31
410.461	626.31
410.685	626.31
410.908	653.31
411.132	670.31
411.355	722.31
411.578	693.31
411.802	660.31
412.025	642.31
412.249	642.31
412.472	671.31
412.695	714.31
412.919	685.31
413.142	657.31
413.365	616.31
413.589	618.31
413.812	637.31
414.035	611.31
414.258	616.31
414.482	608.31
414.705	604.31
414.928	606.31
415.151	602.31
415.374	598.31
415.597	616.31
415.821	605.31
416.044	573.31
416.267	616.31
416.49	594.31
416.713	578.31
416.936	591.31
417.159	603.31
417.382	628.31
417.605	620.31
417.828	603.31
418.051	634.31
418.274	647.31
418.497	597.31
418.72	621.31
418.943	598.31
419.166	630.31
419.389	641.31
419.611	645.31
419.834	642.31
420.057	646.31
420.28	650.31
420.503	635.31
420.726	631.31
420.948	634.31
421.171	690.31
421.394	706.31
421.617	642.31
421.839	626.31
422.062	629.31
422.285	655.31
422.507	690.31
422.73	774.31
422.953	741.31
423.175	689.31
423.398	642.31
423.621	657.31
423.843	665.31
424.066	665.31
424.288	673.31
424.511	670.31
424.733	757.31
424.956	818.31
425.178	805.31
425.401	773.31
425.623	793.31
425.846	689.31
426.068	680.31
426.291	644.31
426.513	640.31
426.735	650.31
426.958	712.31
427.18	800.31
427.402	896.31
427.625	1005.31
427.847	882.31
428.069	774.31
428.292	690.31
428.514	666.31
428.736	635.31
428.958	628.31
429.181	591.31
429.403	602.31
429.625	612.31
429.847	667.31
430.069	706.31
430.292	708.31
430.514	629.31
430.736	624.31
430.958	609.31
431.18	598.31
431.402	562.31
431.624	563.31
431.846	592.31
432.068	578.31
432.29	589.31
432.512	580.31
432.734	610.31
432.956	595.31
433.178	600.31
433.4	578.31
433.622	577.31
433.844	571.31
434.066	585.31
434.287	579.31
434.509	603.31
434.731	625.31
434.953	630.31
435.175	643.31
435.397	659.31
435.618	668.31
435.84	704.31
436.062	812.31
436.284	860.31
436.505	712.31
436.727	652.31
436.949	607.31
437.17	628.31
437.392	598.31
437.614	610.31
437.835	626.31
438.057	761.31
438.278	824.31
438.5	854.31
438.721	926.31
438.943	896.31
439.165	730.31
439.386	664.31
439.608	669.31
439.829	634.31
440.05	658.31
440.272	752.31
440.493	678.31
440.715	640.31
440.936	622.31
441.158	617.31
441.379	600.31
441.6	620.31
441.822	660.31
442.043	703.31
442.264	809.31
442.486	827.31
442.707	713.31
442.928	674.31
443.149	669.31
443.371	707.31
443.592	754.31
443.813	843.31
444.034	905.31
444.255	776.31
444.476	712.31
444.698	705.31
444.919	688.31
445.14	778.31
445.361	738.31
445.582	707.31
445.803	781.31
446.024	861.31
446.245	864.31
446.466	809.31
446.687	685.31
446.908	654.31
447.129	626.31
447.35	605.31
447.571	612.31
447.792	599.31
448.013	628.31
448.234	623.31
448.455	680.31
448.675	770.31
448.896	924.31
449.117	786.31
449.338	752.31
449.559	841.31
449.779	956.31
450	781.31
450.221	660.31
450.442	609.31
450.662	576.31
450.883	589.31
451.104	584.31
451.324	589.31
451.545	579.31
451.766	557.31
451.986	546.31
452.207	545.31
452.428	546.31
452.648	527.31
452.869	507.31
453.089	562.31
453.31	567.31
453.53	558.31
453.751	530.31
453.971	544.31
454.192	556.31
454.412	558.31
454.633	529.31
454.853	542.31
455.073	513.31
455.294	560.31
455.514	649.31
455.734	617.31
455.955	542.31
456.175	510.31
456.395	524.31
456.616	499.31
456.836	536.31
457.056	512.31
457.276	492.31
457.497	514.31
457.717	488.31
457.937	498.31
458.157	512.31
458.377	530.31
458.598	542.31
458.818	583.31
459.038	694.31
459.258	711.31
459.478	607.31
459.698	592.31
459.918	578.31
460.138	590.31
460.358	593.31
460.578	622.31
460.798	610.31
461.018	597.31
461.238	584.31
461.458	592.31
461.678	586.31
461.898	610.31
462.118	604.31
462.338	631.31
462.558	636.31
462.777	649.31
462.997	683.31
463.217	683.31
463.437	676.31
463.657	681.31
463.876	664.31
464.096	660.31
464.316	650.31
464.536	651.31
464.755	671.31
464.975	644.31
465.195	655.31
465.414	712.31
465.634	680.31
465.854	627.31
466.073	604.31
466.293	572.31
466.512	561.31
466.732	557.31
466.951	568.31
467.171	540.31
467.391	564.31
467.61	566.31
467.829	573.31
468.049	557.31
468.268	537.31
468.488	558.31
468.707	541.31
468.927	549.31
469.146	557.31
469.365	568.31
469.585	547.31
469.804	562.31
470.023	574.31
470.243	571.31
470.462	569.31
470.681	629.31
470.901	592.31
471.12	569.31
471.339	574.31
471.558	574.31
471.777	566.31
471.997	531.31
472.216	536.31
472.435	584.31
472.654	568.31
472.873	552.31
473.092	554.31
473.311	545.31
473.53	576.31
473.749	572.31
473.968	589.31
474.187	690.31
474.406	706.31
474.625	607.31
474.844	589.31
475.063	563.31
475.282	561.31
475.501	579.31
475.72	594.31
475.939	606.31
476.158	611.31
476.377	582.31
476.596	576.31
476.814	588.31
477.033	565.31
477.252	611.31
477.471	605.31
477.69	611.31
477.908	626.31
478.127	634.31
478.346	620.31
478.564	646.31
478.783	638.31
479.002	640.31
479.22	655.31
479.439	665.31
479.658	670.31
479.876	675.31
480.095	692.31
480.313	713.31
480.532	728.31
480.751	685.31
480.969	715.31
481.188	774.31
481.406	756.31
481.624	690.31
481.843	701.31
482.061	659.31
482.28	654.31
482.498	666.31
482.717	658.31
482.935	700.31
483.153	681.31
483.372	672.31
483.59	663.31
483.808	661.31
484.027	645.31
484.245	653.31
484.463	651.31
484.681	689.31
484.9	710.31
485.118	678.31
485.336	681.31
485.554	686.31
485.772	686.31
485.99	683.31
486.209	664.31
486.427	668.31
486.645	694.31
486.863	681.31
487.081	696.31
487.299	701.31
487.517	686.31
487.735	706.31
487.953	700.31
488.171	700.31
488.389	708.31
488.607	735.31
488.825	706.31
489.043	718.31
489.261	714.31
489.479	707.31
489.696	746.31
489.914	737.31
490.132	733.31
490.35	769.31
490.568	764.31
490.786	740.31
491.003	784.31
491.221	767.31
491.439	794.31
491.657	788.31
491.874	822.31
492.092	839.31
492.31	817.31
492.527	820.31
492.745	841.31
492.963	850.31
493.18	860.31
493.398	849.31
493.615	868.31
493.833	835.31
494.05	848.31
494.268	866.31
494.485	857.31
494.703	852.31
494.92	859.31
495.138	833.31
495.355	849.31
495.573	860.31
495.79	866.31
496.008	891.31
496.225	856.31
496.442	843.31
496.66	873.31
496.877	871.31
497.094	853.31
497.312	863.31
497.529	909.31
497.746	889.31
497.963	930.31
498.181	918.31
498.398	942.31
498.615	961.31
498.832	986.31
499.049	1026.31
499.267	1036.31
499.484	1080.31
499.701	1114.31
499.918	1223.31
500.135	1202.31
500.352	1306.31
500.569	1354.31
500.786	1382.31
501.003	1302.31
501.22	1296.31
501.437	1196.31
501.654	1129.31
