Data from 1974.PennyLincolnUp.Lamp.En5.5.200Scan.071719.P1.Changed Mount._HRD10591_15-53-15-856.txt Node
Date: Thu Jul 18 15:53:15 EDT 2019
User: cochatt
Spectrometer: HR+D1059
Trigger mode: 1
Integration Time (sec): 1.000000E-1
Scans to average: 1
Electric dark correction enabled: true
Nonlinearity correction enabled: false
Boxcar width: 0
XAxis mode: Wavelengths
Number of Pixels in Spectrum: 2048
>>>>>Begin Spectral Data<<<<<
223.165	-8.81
223.4	-8.81
223.635	-8.81
223.869	-7.81
224.104	-18.81
224.338	-30.81
224.573	-1.81
224.808	-17.81
225.042	-9.81
225.277	-10.81
225.511	-6.81
225.746	8.19
225.98	5.19
226.215	7.19
226.449	6.19
226.683	22.19
226.918	27.19
227.152	37.19
227.387	35.19
227.621	24.19
227.856	46.19
228.09	43.19
228.324	59.19
228.559	66.19
228.793	57.19
229.027	92.19
229.262	106.19
229.496	108.19
229.73	121.19
229.964	147.19
230.199	117.19
230.433	127.19
230.667	112.19
230.901	102.19
231.136	106.19
231.37	118.19
231.604	121.19
231.838	108.19
232.072	119.19
232.306	121.19
232.541	98.19
232.775	120.19
233.009	121.19
233.243	111.19
233.477	113.19
233.711	123.19
233.945	131.19
234.179	116.19
234.413	129.19
234.647	138.19
234.881	117.19
235.115	124.19
235.349	130.19
235.583	123.19
235.817	136.19
236.051	135.19
236.285	123.19
236.519	128.19
236.753	147.19
236.987	138.19
237.221	175.19
237.455	231.19
237.689	195.19
237.922	145.19
238.156	141.19
238.39	126.19
238.624	138.19
238.858	142.19
239.091	138.19
239.325	140.19
239.559	138.19
239.793	139.19
240.027	149.19
240.26	142.19
240.494	167.19
240.728	158.19
240.961	152.19
241.195	149.19
241.429	142.19
241.662	153.19
241.896	133.19
242.13	151.19
242.363	138.19
242.597	134.19
242.83	154.19
243.064	139.19
243.298	129.19
243.531	157.19
243.765	147.19
243.998	165.19
244.232	167.19
244.465	149.19
244.699	157.19
244.932	146.19
245.166	156.19
245.399	136.19
245.633	152.19
245.866	159.19
246.099	153.19
246.333	150.19
246.566	161.19
246.8	175.19
247.033	161.19
247.266	177.19
247.5	158.19
247.733	200.19
247.966	178.19
248.2	191.19
248.433	184.19
248.666	179.19
248.899	200.19
249.133	196.19
249.366	206.19
249.599	206.19
249.832	198.19
250.066	189.19
250.299	197.19
250.532	206.19
250.765	224.19
250.998	226.19
251.231	231.19
251.465	222.19
251.698	222.19
251.931	200.19
252.164	205.19
252.397	205.19
252.63	225.19
252.863	221.19
253.096	233.19
253.329	238.19
253.562	257.19
253.795	237.19
254.028	238.19
254.261	222.19
254.494	243.19
254.727	263.19
254.96	277.19
255.193	270.19
255.426	252.19
255.659	246.19
255.892	234.19
256.124	241.19
256.357	237.19
256.59	241.19
256.823	240.19
257.056	200.19
257.289	227.19
257.521	225.19
257.754	216.19
257.987	221.19
258.22	214.19
258.452	214.19
258.685	214.19
258.918	220.19
259.151	234.19
259.383	245.19
259.616	219.19
259.849	241.19
260.081	255.19
260.314	269.19
260.547	260.19
260.779	231.19
261.012	262.19
261.244	239.19
261.477	239.19
261.71	226.19
261.942	238.19
262.175	245.19
262.407	251.19
262.64	217.19
262.872	233.19
263.105	229.19
263.337	248.19
263.57	233.19
263.802	222.19
264.035	225.19
264.267	221.19
264.499	231.19
264.732	233.19
264.964	221.19
265.197	227.19
265.429	220.19
265.661	230.19
265.894	219.19
266.126	226.19
266.358	232.19
266.591	247.19
266.823	245.19
267.055	248.19
267.287	245.19
267.52	228.19
267.752	238.19
267.984	250.19
268.216	265.19
268.448	257.19
268.681	229.19
268.913	262.19
269.145	281.19
269.377	300.19
269.609	287.19
269.841	286.19
270.073	290.19
270.306	317.19
270.538	326.19
270.77	321.19
271.002	316.19
271.234	296.19
271.466	321.19
271.698	342.19
271.93	329.19
272.162	343.19
272.394	339.19
272.626	329.19
272.858	307.19
273.09	289.19
273.322	286.19
273.553	275.19
273.785	275.19
274.017	283.19
274.249	292.19
274.481	273.19
274.713	308.19
274.945	291.19
275.176	282.19
275.408	291.19
275.64	291.19
275.872	270.19
276.104	284.19
276.335	286.19
276.567	289.19
276.799	283.19
277.031	305.19
277.262	323.19
277.494	339.19
277.726	311.19
277.957	296.19
278.189	321.19
278.421	299.19
278.652	307.19
278.884	293.19
279.115	270.19
279.347	286.19
279.579	284.19
279.81	275.19
280.042	291.19
280.273	296.19
280.505	277.19
280.736	313.19
280.968	275.19
281.199	274.19
281.431	292.19
281.662	294.19
281.894	282.19
282.125	301.19
282.356	307.19
282.588	337.19
282.819	318.19
283.051	301.19
283.282	302.19
283.513	292.19
283.745	313.19
283.976	286.19
284.207	295.19
284.439	290.19
284.67	298.19
284.901	294.19
285.132	311.19
285.364	309.19
285.595	298.19
285.826	295.19
286.057	316.19
286.288	305.19
286.52	313.19
286.751	315.19
286.982	300.19
287.213	307.19
287.444	294.19
287.675	315.19
287.906	311.19
288.138	333.19
288.369	326.19
288.6	320.19
288.831	314.19
289.062	323.19
289.293	330.19
289.524	316.19
289.755	298.19
289.986	309.19
290.217	306.19
290.448	318.19
290.679	332.19
290.91	305.19
291.141	307.19
291.371	306.19
291.602	323.19
291.833	321.19
292.064	309.19
292.295	312.19
292.526	308.19
292.757	324.19
292.987	322.19
293.218	312.19
293.449	329.19
293.68	313.19
293.91	315.19
294.141	309.19
294.372	326.19
294.603	322.19
294.833	314.19
295.064	322.19
295.295	321.19
295.525	315.19
295.756	321.19
295.987	323.19
296.217	338.19
296.448	365.19
296.679	346.19
296.909	325.19
297.14	336.19
297.37	324.19
297.601	315.19
297.831	317.19
298.062	321.19
298.292	310.19
298.523	335.19
298.753	349.19
298.984	323.19
299.214	329.19
299.445	363.19
299.675	347.19
299.905	353.19
300.136	346.19
300.366	342.19
300.597	353.19
300.827	342.19
301.057	342.19
301.288	353.19
301.518	356.19
301.748	351.19
301.979	349.19
302.209	355.19
302.439	356.19
302.669	363.19
302.9	347.19
303.13	338.19
303.36	351.19
303.59	363.19
303.82	380.19
304.051	353.19
304.281	355.19
304.511	349.19
304.741	358.19
304.971	362.19
305.201	356.19
305.431	357.19
305.661	358.19
305.891	351.19
306.121	360.19
306.352	369.19
306.582	358.19
306.812	361.19
307.042	341.19
307.272	363.19
307.502	354.19
307.731	358.19
307.961	374.19
308.191	355.19
308.421	359.19
308.651	386.19
308.881	374.19
309.111	374.19
309.341	380.19
309.571	379.19
309.8	389.19
310.03	372.19
310.26	400.19
310.49	395.19
310.72	428.19
310.949	410.19
311.179	400.19
311.409	388.19
311.639	402.19
311.868	395.19
312.098	396.19
312.328	411.19
312.557	403.19
312.787	411.19
313.017	407.19
313.246	398.19
313.476	393.19
313.706	385.19
313.935	394.19
314.165	401.19
314.394	413.19
314.624	430.19
314.853	403.19
315.083	420.19
315.312	398.19
315.542	392.19
315.771	389.19
316.001	387.19
316.23	387.19
316.46	403.19
316.689	412.19
316.919	410.19
317.148	405.19
317.377	398.19
317.607	414.19
317.836	417.19
318.065	396.19
318.295	401.19
318.524	401.19
318.753	386.19
318.983	409.19
319.212	389.19
319.441	410.19
319.67	411.19
319.9	414.19
320.129	411.19
320.358	399.19
320.587	430.19
320.816	415.19
321.046	419.19
321.275	412.19
321.504	417.19
321.733	432.19
321.962	422.19
322.191	426.19
322.42	447.19
322.649	462.19
322.878	448.19
323.108	464.19
323.337	480.19
323.566	489.19
323.795	519.19
324.024	547.19
324.253	616.19
324.482	850.19
324.71	1267.19
324.939	1837.19
325.168	1659.19
325.397	851.19
325.626	611.19
325.855	551.19
326.084	466.19
326.313	509.19
326.542	492.19
326.77	542.19
326.999	603.19
327.228	795.19
327.457	1163.19
327.686	1423.19
327.914	980.19
328.143	655.19
328.372	599.19
328.6	551.19
328.829	563.19
329.058	589.19
329.287	578.19
329.515	537.19
329.744	525.19
329.972	515.19
330.201	527.19
330.43	546.19
330.658	582.19
330.887	600.19
331.115	574.19
331.344	539.19
331.572	512.19
331.801	505.19
332.03	513.19
332.258	487.19
332.486	472.19
332.715	481.19
332.943	468.19
333.172	510.19
333.4	489.19
333.629	509.19
333.857	522.19
334.085	528.19
334.314	567.19
334.542	567.19
334.771	579.19
334.999	536.19
335.227	505.19
335.455	528.19
335.684	498.19
335.912	478.19
336.14	467.19
336.369	473.19
336.597	489.19
336.825	494.19
337.053	492.19
337.281	502.19
337.51	467.19
337.738	481.19
337.966	464.19
338.194	485.19
338.422	478.19
338.65	482.19
338.878	485.19
339.106	473.19
339.334	467.19
339.562	461.19
339.79	459.19
340.018	444.19
340.246	458.19
340.474	487.19
340.702	487.19
340.93	473.19
341.158	481.19
341.386	449.19
341.614	467.19
341.842	484.19
342.07	471.19
342.298	450.19
342.526	457.19
342.754	452.19
342.981	461.19
343.209	456.19
343.437	452.19
343.665	462.19
343.893	478.19
344.12	491.19
344.348	489.19
344.576	473.19
344.804	483.19
345.031	495.19
345.259	493.19
345.487	471.19
345.714	482.19
345.942	466.19
346.17	445.19
346.397	441.19
346.625	438.19
346.853	458.19
347.08	452.19
347.308	453.19
347.535	478.19
347.763	454.19
347.99	446.19
348.218	466.19
348.445	442.19
348.673	455.19
348.9	445.19
349.128	432.19
349.355	440.19
349.583	458.19
349.81	451.19
350.037	428.19
350.265	460.19
350.492	433.19
350.72	435.19
350.947	431.19
351.174	475.19
351.402	457.19
351.629	454.19
351.856	469.19
352.083	438.19
352.311	437.19
352.538	457.19
352.765	489.19
352.992	460.19
353.22	464.19
353.447	439.19
353.674	446.19
353.901	455.19
354.128	445.19
354.355	431.19
354.583	439.19
354.81	442.19
355.037	427.19
355.264	442.19
355.491	420.19
355.718	421.19
355.945	424.19
356.172	427.19
356.399	423.19
356.626	428.19
356.853	422.19
357.08	426.19
357.307	417.19
357.534	429.19
357.761	442.19
357.988	439.19
358.215	412.19
358.441	440.19
358.668	435.19
358.895	442.19
359.122	435.19
359.349	428.19
359.576	442.19
359.802	476.19
360.029	490.19
360.256	499.19
360.483	479.19
360.709	450.19
360.936	457.19
361.163	457.19
361.39	462.19
361.616	451.19
361.843	446.19
362.07	438.19
362.296	434.19
362.523	468.19
362.749	442.19
362.976	453.19
363.203	459.19
363.429	426.19
363.656	438.19
363.882	449.19
364.109	453.19
364.335	421.19
364.562	435.19
364.788	437.19
365.015	453.19
365.241	430.19
365.468	437.19
365.694	439.19
365.92	444.19
366.147	455.19
366.373	449.19
366.599	431.19
366.826	433.19
367.052	444.19
367.278	425.19
367.505	442.19
367.731	446.19
367.957	440.19
368.184	447.19
368.41	453.19
368.636	443.19
368.862	461.19
369.089	443.19
369.315	457.19
369.541	447.19
369.767	450.19
369.993	452.19
370.219	447.19
370.445	461.19
370.672	437.19
370.898	438.19
371.124	456.19
371.35	434.19
371.576	455.19
371.802	456.19
372.028	436.19
372.254	434.19
372.48	441.19
372.706	444.19
372.932	451.19
373.158	475.19
373.384	470.19
373.61	431.19
373.835	452.19
374.061	447.19
374.287	448.19
374.513	478.19
374.739	449.19
374.965	471.19
375.191	480.19
375.416	470.19
375.642	474.19
375.868	467.19
376.094	461.19
376.319	446.19
376.545	463.19
376.771	450.19
376.997	453.19
377.222	451.19
377.448	445.19
377.674	443.19
377.899	448.19
378.125	460.19
378.35	469.19
378.576	449.19
378.802	466.19
379.027	460.19
379.253	456.19
379.478	450.19
379.704	458.19
379.929	443.19
380.155	469.19
380.38	450.19
380.606	442.19
380.831	466.19
381.057	474.19
381.282	449.19
381.507	472.19
381.733	460.19
381.958	453.19
382.184	468.19
382.409	456.19
382.634	480.19
382.86	475.19
383.085	463.19
383.31	461.19
383.535	474.19
383.761	494.19
383.986	483.19
384.211	485.19
384.436	484.19
384.662	470.19
384.887	493.19
385.112	481.19
385.337	502.19
385.562	488.19
385.787	507.19
386.013	526.19
386.238	518.19
386.463	502.19
386.688	484.19
386.913	493.19
387.138	483.19
387.363	499.19
387.588	509.19
387.813	498.19
388.038	511.19
388.263	487.19
388.488	497.19
388.713	499.19
388.938	499.19
389.163	511.19
389.387	497.19
389.612	507.19
389.837	526.19
390.062	484.19
390.287	498.19
390.512	517.19
390.736	511.19
390.961	511.19
391.186	518.19
391.411	505.19
391.636	515.19
391.86	538.19
392.085	536.19
392.31	528.19
392.534	518.19
392.759	540.19
392.984	531.19
393.208	531.19
393.433	522.19
393.658	523.19
393.882	515.19
394.107	498.19
394.331	513.19
394.556	516.19
394.78	516.19
395.005	540.19
395.229	517.19
395.454	531.19
395.678	549.19
395.903	562.19
396.127	582.19
396.352	576.19
396.576	541.19
396.801	533.19
397.025	548.19
397.249	539.19
397.474	550.19
397.698	561.19
397.922	569.19
398.147	575.19
398.371	564.19
398.595	589.19
398.82	569.19
399.044	591.19
399.268	642.19
399.492	680.19
399.717	710.19
399.941	746.19
400.165	760.19
400.389	747.19
400.613	665.19
400.837	635.19
401.062	619.19
401.286	590.19
401.51	592.19
401.734	585.19
401.958	606.19
402.182	601.19
402.406	607.19
402.63	609.19
402.854	609.19
403.078	618.19
403.302	624.19
403.526	637.19
403.75	629.19
403.974	623.19
404.198	641.19
404.422	638.19
404.645	640.19
404.869	637.19
405.093	663.19
405.317	707.19
405.541	735.19
405.765	670.19
405.988	639.19
406.212	636.19
406.436	674.19
406.66	708.19
406.883	668.19
407.107	683.19
407.331	738.19
407.555	789.19
407.778	821.19
408.002	759.19
408.226	689.19
408.449	689.19
408.673	656.19
408.896	689.19
409.12	740.19
409.344	711.19
409.567	658.19
409.791	622.19
410.014	613.19
410.238	606.19
410.461	628.19
410.685	613.19
410.908	646.19
411.132	689.19
411.355	705.19
411.578	675.19
411.802	647.19
412.025	631.19
412.249	635.19
412.472	655.19
412.695	685.19
412.919	647.19
413.142	632.19
413.365	603.19
413.589	588.19
413.812	581.19
414.035	599.19
414.258	569.19
414.482	602.19
414.705	594.19
414.928	573.19
415.151	594.19
415.374	610.19
415.597	584.19
415.821	590.19
416.044	603.19
416.267	591.19
416.49	590.19
416.713	575.19
416.936	591.19
417.159	577.19
417.382	583.19
417.605	582.19
417.828	606.19
418.051	599.19
418.274	608.19
418.497	586.19
418.72	605.19
418.943	593.19
419.166	613.19
419.389	658.19
419.611	656.19
419.834	629.19
420.057	614.19
420.28	631.19
420.503	625.19
420.726	627.19
420.948	614.19
421.171	665.19
421.394	673.19
421.617	616.19
421.839	608.19
422.062	634.19
422.285	613.19
422.507	686.19
422.73	770.19
422.953	712.19
423.175	672.19
423.398	676.19
423.621	642.19
423.843	642.19
424.066	658.19
424.288	624.19
424.511	665.19
424.733	716.19
424.956	793.19
425.178	785.19
425.401	772.19
425.623	789.19
425.846	708.19
426.068	682.19
426.291	653.19
426.513	645.19
426.735	632.19
426.958	689.19
427.18	784.19
427.402	899.19
427.625	993.19
427.847	825.19
428.069	764.19
428.292	688.19
428.514	641.19
428.736	609.19
428.958	631.19
429.181	572.19
429.403	577.19
429.625	602.19
429.847	630.19
430.069	698.19
430.292	686.19
430.514	625.19
430.736	591.19
430.958	590.19
431.18	582.19
431.402	555.19
431.624	573.19
431.846	574.19
432.068	560.19
432.29	588.19
432.512	570.19
432.734	587.19
432.956	573.19
433.178	573.19
433.4	592.19
433.622	589.19
433.844	564.19
434.066	579.19
434.287	539.19
434.509	577.19
434.731	586.19
434.953	607.19
435.175	617.19
435.397	633.19
435.618	651.19
435.84	665.19
436.062	764.19
436.284	838.19
436.505	726.19
436.727	627.19
436.949	620.19
437.17	591.19
437.392	592.19
437.614	618.19
437.835	649.19
438.057	721.19
438.278	829.19
438.5	807.19
438.721	919.19
438.943	878.19
439.165	705.19
439.386	642.19
439.608	632.19
439.829	620.19
440.05	657.19
440.272	699.19
440.493	676.19
440.715	631.19
440.936	612.19
441.158	599.19
441.379	640.19
441.6	616.19
441.822	649.19
442.043	676.19
442.264	770.19
442.486	825.19
442.707	741.19
442.928	661.19
443.149	659.19
443.371	662.19
443.592	730.19
443.813	839.19
444.034	909.19
444.255	745.19
444.476	689.19
444.698	698.19
444.919	675.19
445.14	722.19
445.361	722.19
445.582	684.19
445.803	732.19
446.024	849.19
446.245	838.19
446.466	775.19
446.687	664.19
446.908	635.19
447.129	604.19
447.35	598.19
447.571	591.19
447.792	574.19
448.013	583.19
448.234	615.19
448.455	644.19
448.675	746.19
448.896	890.19
449.117	739.19
449.338	718.19
449.559	830.19
449.779	968.19
450	758.19
450.221	641.19
450.442	601.19
450.662	580.19
450.883	578.19
451.104	578.19
451.324	565.19
451.545	570.19
451.766	565.19
451.986	543.19
452.207	537.19
452.428	516.19
452.648	537.19
452.869	519.19
453.089	537.19
453.31	532.19
453.53	557.19
453.751	506.19
453.971	499.19
454.192	546.19
454.412	531.19
454.633	526.19
454.853	531.19
455.073	543.19
455.294	540.19
455.514	607.19
455.734	591.19
455.955	530.19
456.175	503.19
456.395	498.19
456.616	515.19
456.836	501.19
457.056	490.19
457.276	472.19
457.497	510.19
457.717	494.19
457.937	507.19
458.157	517.19
458.377	508.19
458.598	549.19
458.818	582.19
459.038	693.19
459.258	691.19
459.478	606.19
459.698	571.19
459.918	565.19
460.138	585.19
460.358	578.19
460.578	612.19
460.798	591.19
461.018	610.19
461.238	612.19
461.458	614.19
461.678	595.19
461.898	584.19
462.118	591.19
462.338	604.19
462.558	635.19
462.777	644.19
462.997	673.19
463.217	673.19
463.437	661.19
463.657	637.19
463.876	659.19
464.096	655.19
464.316	651.19
464.536	629.19
464.755	633.19
464.975	627.19
465.195	644.19
465.414	684.19
465.634	625.19
465.854	612.19
466.073	585.19
466.293	567.19
466.512	547.19
466.732	557.19
466.951	552.19
467.171	540.19
467.391	541.19
467.61	571.19
467.829	571.19
468.049	567.19
468.268	565.19
468.488	547.19
468.707	549.19
468.927	529.19
469.146	515.19
469.365	525.19
469.585	542.19
469.804	567.19
470.023	563.19
470.243	550.19
470.462	573.19
470.681	577.19
470.901	568.19
471.12	555.19
471.339	565.19
471.558	566.19
471.777	571.19
471.997	549.19
472.216	572.19
472.435	554.19
472.654	574.19
472.873	563.19
473.092	536.19
473.311	550.19
473.53	578.19
473.749	558.19
473.968	589.19
474.187	699.19
474.406	728.19
474.625	605.19
474.844	583.19
475.063	554.19
475.282	561.19
475.501	558.19
475.72	567.19
475.939	551.19
476.158	555.19
476.377	578.19
476.596	571.19
476.814	581.19
477.033	559.19
477.252	573.19
477.471	600.19
477.69	611.19
477.908	614.19
478.127	642.19
478.346	639.19
478.564	621.19
478.783	636.19
479.002	651.19
479.22	659.19
479.439	674.19
479.658	662.19
479.876	653.19
480.095	670.19
480.313	707.19
480.532	713.19
480.751	704.19
480.969	681.19
481.188	725.19
481.406	751.19
481.624	698.19
481.843	653.19
482.061	666.19
482.28	617.19
482.498	657.19
482.717	652.19
482.935	666.19
483.153	659.19
483.372	655.19
483.59	651.19
483.808	642.19
484.027	650.19
484.245	664.19
484.463	668.19
484.681	667.19
484.9	662.19
485.118	673.19
485.336	670.19
485.554	667.19
485.772	689.19
485.99	677.19
486.209	693.19
486.427	665.19
486.645	661.19
486.863	674.19
487.081	717.19
487.299	687.19
487.517	684.19
487.735	695.19
487.953	705.19
488.171	678.19
488.389	667.19
488.607	698.19
488.825	701.19
489.043	701.19
489.261	701.19
489.479	711.19
489.696	701.19
489.914	729.19
490.132	750.19
490.35	712.19
490.568	742.19
490.786	729.19
491.003	769.19
491.221	775.19
491.439	779.19
491.657	810.19
491.874	790.19
492.092	827.19
492.31	805.19
492.527	812.19
492.745	811.19
492.963	803.19
493.18	844.19
493.398	818.19
493.615	851.19
493.833	840.19
494.05	822.19
494.268	826.19
494.485	812.19
494.703	825.19
494.92	818.19
495.138	807.19
495.355	833.19
495.573	798.19
495.79	839.19
496.008	812.19
496.225	839.19
496.442	859.19
496.66	853.19
496.877	826.19
497.094	860.19
497.312	839.19
497.529	866.19
497.746	865.19
497.963	899.19
498.181	891.19
498.398	924.19
498.615	970.19
498.832	965.19
499.049	994.19
499.267	1043.19
499.484	1077.19
499.701	1110.19
499.918	1142.19
500.135	1237.19
500.352	1311.19
500.569	1357.19
500.786	1291.19
501.003	1322.19
501.22	1251.19
501.437	1187.19
501.654	1121.19
