Data from 1974.PennyLincolnUp.Lamp.En5.5.200Scan.071719.P1.Changed Mount._HRD10591_15-51-44-855.txt Node
Date: Thu Jul 18 15:51:44 EDT 2019
User: cochatt
Spectrometer: HR+D1059
Trigger mode: 1
Integration Time (sec): 1.000000E-1
Scans to average: 1
Electric dark correction enabled: true
Nonlinearity correction enabled: false
Boxcar width: 0
XAxis mode: Wavelengths
Number of Pixels in Spectrum: 2048
>>>>>Begin Spectral Data<<<<<
223.165	-10.62
223.4	-10.62
223.635	-10.62
223.869	-22.62
224.104	-13.62
224.338	-28.62
224.573	-21.62
224.808	3.38
225.042	-1.62
225.277	-1.62
225.511	-1.62
225.746	8.38
225.98	-6.62
226.215	4.38
226.449	28.38
226.683	14.38
226.918	22.38
227.152	27.38
227.387	34.38
227.621	46.38
227.856	41.38
228.09	51.38
228.324	50.38
228.559	45.38
228.793	70.38
229.027	96.38
229.262	112.38
229.496	112.38
229.73	132.38
229.964	140.38
230.199	131.38
230.433	135.38
230.667	104.38
230.901	117.38
231.136	116.38
231.37	113.38
231.604	116.38
231.838	108.38
232.072	105.38
232.306	108.38
232.541	105.38
232.775	122.38
233.009	118.38
233.243	117.38
233.477	104.38
233.711	126.38
233.945	111.38
234.179	116.38
234.413	131.38
234.647	115.38
234.881	108.38
235.115	102.38
235.349	128.38
235.583	126.38
235.817	114.38
236.051	128.38
236.285	129.38
236.519	105.38
236.753	128.38
236.987	135.38
237.221	171.38
237.455	221.38
237.689	176.38
237.922	146.38
238.156	132.38
238.39	141.38
238.624	126.38
238.858	136.38
239.091	129.38
239.325	130.38
239.559	134.38
239.793	124.38
240.027	133.38
240.26	142.38
240.494	174.38
240.728	148.38
240.961	146.38
241.195	160.38
241.429	140.38
241.662	134.38
241.896	138.38
242.13	132.38
242.363	140.38
242.597	137.38
242.83	126.38
243.064	142.38
243.298	144.38
243.531	142.38
243.765	154.38
243.998	155.38
244.232	152.38
244.465	155.38
244.699	154.38
244.932	149.38
245.166	143.38
245.399	137.38
245.633	154.38
245.866	152.38
246.099	156.38
246.333	161.38
246.566	160.38
246.8	168.38
247.033	168.38
247.266	153.38
247.5	169.38
247.733	183.38
247.966	174.38
248.2	170.38
248.433	189.38
248.666	184.38
248.899	179.38
249.133	195.38
249.366	204.38
249.599	193.38
249.832	193.38
250.066	185.38
250.299	194.38
250.532	197.38
250.765	206.38
250.998	224.38
251.231	228.38
251.465	205.38
251.698	214.38
251.931	209.38
252.164	196.38
252.397	202.38
252.63	185.38
252.863	201.38
253.096	218.38
253.329	235.38
253.562	231.38
253.795	222.38
254.028	230.38
254.261	228.38
254.494	221.38
254.727	252.38
254.96	269.38
255.193	261.38
255.426	254.38
255.659	218.38
255.892	232.38
256.124	230.38
256.357	230.38
256.59	223.38
256.823	205.38
257.056	226.38
257.289	216.38
257.521	219.38
257.754	202.38
257.987	206.38
258.22	225.38
258.452	205.38
258.685	216.38
258.918	211.38
259.151	215.38
259.383	223.38
259.616	209.38
259.849	212.38
260.081	242.38
260.314	246.38
260.547	262.38
260.779	253.38
261.012	248.38
261.244	234.38
261.477	220.38
261.71	217.38
261.942	216.38
262.175	241.38
262.407	231.38
262.64	221.38
262.872	228.38
263.105	213.38
263.337	235.38
263.57	201.38
263.802	233.38
264.035	229.38
264.267	221.38
264.499	234.38
264.732	216.38
264.964	229.38
265.197	220.38
265.429	227.38
265.661	228.38
265.894	213.38
266.126	216.38
266.358	234.38
266.591	242.38
266.823	224.38
267.055	236.38
267.287	243.38
267.52	224.38
267.752	229.38
267.984	250.38
268.216	240.38
268.448	225.38
268.681	245.38
268.913	246.38
269.145	273.38
269.377	272.38
269.609	289.38
269.841	263.38
270.073	278.38
270.306	286.38
270.538	301.38
270.77	299.38
271.002	283.38
271.234	291.38
271.466	302.38
271.698	309.38
271.93	322.38
272.162	313.38
272.394	313.38
272.626	309.38
272.858	285.38
273.09	273.38
273.322	272.38
273.553	280.38
273.785	248.38
274.017	256.38
274.249	289.38
274.481	262.38
274.713	282.38
274.945	273.38
275.176	276.38
275.408	265.38
275.64	275.38
275.872	278.38
276.104	280.38
276.335	274.38
276.567	280.38
276.799	285.38
277.031	311.38
277.262	320.38
277.494	312.38
277.726	283.38
277.957	304.38
278.189	304.38
278.421	289.38
278.652	271.38
278.884	285.38
279.115	273.38
279.347	266.38
279.579	278.38
279.81	276.38
280.042	278.38
280.273	271.38
280.505	274.38
280.736	286.38
280.968	280.38
281.199	280.38
281.431	283.38
281.662	294.38
281.894	269.38
282.125	278.38
282.356	304.38
282.588	306.38
282.819	312.38
283.051	280.38
283.282	276.38
283.513	285.38
283.745	289.38
283.976	279.38
284.207	288.38
284.439	272.38
284.67	308.38
284.901	276.38
285.132	299.38
285.364	293.38
285.595	299.38
285.826	282.38
286.057	284.38
286.288	301.38
286.52	292.38
286.751	285.38
286.982	296.38
287.213	305.38
287.444	304.38
287.675	322.38
287.906	296.38
288.138	318.38
288.369	316.38
288.6	319.38
288.831	315.38
289.062	322.38
289.293	313.38
289.524	292.38
289.755	299.38
289.986	308.38
290.217	306.38
290.448	317.38
290.679	315.38
290.91	304.38
291.141	284.38
291.371	297.38
291.602	300.38
291.833	291.38
292.064	311.38
292.295	312.38
292.526	322.38
292.757	313.38
292.987	312.38
293.218	286.38
293.449	284.38
293.68	320.38
293.91	300.38
294.141	320.38
294.372	298.38
294.603	299.38
294.833	298.38
295.064	324.38
295.295	304.38
295.525	306.38
295.756	320.38
295.987	329.38
296.217	326.38
296.448	331.38
296.679	316.38
296.909	307.38
297.14	321.38
297.37	326.38
297.601	316.38
297.831	309.38
298.062	323.38
298.292	325.38
298.523	324.38
298.753	326.38
298.984	326.38
299.214	335.38
299.445	317.38
299.675	310.38
299.905	333.38
300.136	317.38
300.366	311.38
300.597	326.38
300.827	354.38
301.057	320.38
301.288	350.38
301.518	334.38
301.748	340.38
301.979	345.38
302.209	338.38
302.439	335.38
302.669	342.38
302.9	323.38
303.13	331.38
303.36	331.38
303.59	339.38
303.82	348.38
304.051	342.38
304.281	348.38
304.511	353.38
304.741	321.38
304.971	337.38
305.201	330.38
305.431	351.38
305.661	344.38
305.891	347.38
306.121	353.38
306.352	354.38
306.582	357.38
306.812	339.38
307.042	330.38
307.272	353.38
307.502	343.38
307.731	349.38
307.961	349.38
308.191	352.38
308.421	324.38
308.651	361.38
308.881	334.38
309.111	341.38
309.341	340.38
309.571	350.38
309.8	374.38
310.03	359.38
310.26	378.38
310.49	354.38
310.72	356.38
310.949	375.38
311.179	408.38
311.409	396.38
311.639	379.38
311.868	373.38
312.098	379.38
312.328	387.38
312.557	392.38
312.787	410.38
313.017	385.38
313.246	412.38
313.476	393.38
313.706	382.38
313.935	384.38
314.165	426.38
314.394	421.38
314.624	390.38
314.853	396.38
315.083	387.38
315.312	397.38
315.542	375.38
315.771	396.38
316.001	377.38
316.23	378.38
316.46	381.38
316.689	377.38
316.919	410.38
317.148	410.38
317.377	398.38
317.607	411.38
317.836	376.38
318.065	392.38
318.295	379.38
318.524	416.38
318.753	392.38
318.983	398.38
319.212	381.38
319.441	382.38
319.67	389.38
319.9	387.38
320.129	399.38
320.358	379.38
320.587	393.38
320.816	402.38
321.046	413.38
321.275	425.38
321.504	391.38
321.733	384.38
321.962	421.38
322.191	421.38
322.42	424.38
322.649	410.38
322.878	444.38
323.108	433.38
323.337	443.38
323.566	448.38
323.795	465.38
324.024	491.38
324.253	556.38
324.482	753.38
324.71	1140.38
324.939	1662.38
325.168	1490.38
325.397	781.38
325.626	549.38
325.855	489.38
326.084	470.38
326.313	455.38
326.542	457.38
326.77	500.38
326.999	540.38
327.228	675.38
327.457	1055.38
327.686	1310.38
327.914	855.38
328.143	593.38
328.372	523.38
328.6	544.38
328.829	509.38
329.058	516.38
329.287	527.38
329.515	516.38
329.744	471.38
329.972	482.38
330.201	501.38
330.43	500.38
330.658	519.38
330.887	536.38
331.115	547.38
331.344	479.38
331.572	481.38
331.801	468.38
332.03	477.38
332.258	468.38
332.486	468.38
332.715	469.38
332.943	452.38
333.172	470.38
333.4	476.38
333.629	491.38
333.857	497.38
334.085	516.38
334.314	505.38
334.542	536.38
334.771	557.38
334.999	514.38
335.227	494.38
335.455	492.38
335.684	474.38
335.912	468.38
336.14	459.38
336.369	475.38
336.597	479.38
336.825	469.38
337.053	465.38
337.281	448.38
337.51	427.38
337.738	469.38
337.966	445.38
338.194	447.38
338.422	468.38
338.65	460.38
338.878	452.38
339.106	459.38
339.334	448.38
339.562	457.38
339.79	461.38
340.018	460.38
340.246	443.38
340.474	450.38
340.702	461.38
340.93	452.38
341.158	447.38
341.386	449.38
341.614	460.38
341.842	440.38
342.07	444.38
342.298	462.38
342.526	432.38
342.754	429.38
342.981	434.38
343.209	435.38
343.437	449.38
343.665	471.38
343.893	482.38
344.12	478.38
344.348	466.38
344.576	466.38
344.804	487.38
345.031	454.38
345.259	462.38
345.487	456.38
345.714	434.38
345.942	439.38
346.17	406.38
346.397	449.38
346.625	445.38
346.853	426.38
347.08	436.38
347.308	434.38
347.535	424.38
347.763	425.38
347.99	425.38
348.218	450.38
348.445	441.38
348.673	444.38
348.9	424.38
349.128	444.38
349.355	437.38
349.583	411.38
349.81	409.38
350.037	406.38
350.265	424.38
350.492	410.38
350.72	414.38
350.947	434.38
351.174	422.38
351.402	443.38
351.629	449.38
351.856	424.38
352.083	424.38
352.311	449.38
352.538	434.38
352.765	434.38
352.992	444.38
353.22	425.38
353.447	436.38
353.674	408.38
353.901	421.38
354.128	399.38
354.355	394.38
354.583	421.38
354.81	423.38
355.037	413.38
355.264	396.38
355.491	418.38
355.718	409.38
355.945	412.38
356.172	420.38
356.399	416.38
356.626	409.38
356.853	436.38
357.08	434.38
357.307	412.38
357.534	409.38
357.761	425.38
357.988	427.38
358.215	418.38
358.441	425.38
358.668	435.38
358.895	432.38
359.122	405.38
359.349	408.38
359.576	430.38
359.802	448.38
360.029	467.38
360.256	451.38
360.483	467.38
360.709	437.38
360.936	428.38
361.163	453.38
361.39	422.38
361.616	441.38
361.843	425.38
362.07	410.38
362.296	437.38
362.523	425.38
362.749	432.38
362.976	438.38
363.203	430.38
363.429	426.38
363.656	432.38
363.882	418.38
364.109	422.38
364.335	401.38
364.562	420.38
364.788	428.38
365.015	445.38
365.241	424.38
365.468	425.38
365.694	435.38
365.92	415.38
366.147	421.38
366.373	428.38
366.599	442.38
366.826	416.38
367.052	411.38
367.278	438.38
367.505	436.38
367.731	433.38
367.957	432.38
368.184	438.38
368.41	424.38
368.636	427.38
368.862	448.38
369.089	446.38
369.315	444.38
369.541	436.38
369.767	430.38
369.993	443.38
370.219	444.38
370.445	419.38
370.672	432.38
370.898	451.38
371.124	426.38
371.35	425.38
371.576	417.38
371.802	448.38
372.028	427.38
372.254	450.38
372.48	445.38
372.706	446.38
372.932	446.38
373.158	453.38
373.384	460.38
373.61	452.38
373.835	446.38
374.061	450.38
374.287	448.38
374.513	441.38
374.739	430.38
374.965	448.38
375.191	444.38
375.416	455.38
375.642	443.38
375.868	435.38
376.094	441.38
376.319	440.38
376.545	460.38
376.771	425.38
376.997	459.38
377.222	441.38
377.448	446.38
377.674	456.38
377.899	421.38
378.125	443.38
378.35	447.38
378.576	434.38
378.802	452.38
379.027	445.38
379.253	443.38
379.478	419.38
379.704	438.38
379.929	467.38
380.155	446.38
380.38	446.38
380.606	441.38
380.831	450.38
381.057	447.38
381.282	429.38
381.507	442.38
381.733	453.38
381.958	445.38
382.184	466.38
382.409	469.38
382.634	456.38
382.86	448.38
383.085	459.38
383.31	480.38
383.535	473.38
383.761	462.38
383.986	468.38
384.211	482.38
384.436	496.38
384.662	493.38
384.887	464.38
385.112	478.38
385.337	494.38
385.562	490.38
385.787	497.38
386.013	508.38
386.238	494.38
386.463	514.38
386.688	491.38
386.913	500.38
387.138	484.38
387.363	493.38
387.588	473.38
387.813	487.38
388.038	512.38
388.263	486.38
388.488	489.38
388.713	493.38
388.938	504.38
389.163	500.38
389.387	489.38
389.612	480.38
389.837	486.38
390.062	486.38
390.287	475.38
390.512	492.38
390.736	493.38
390.961	480.38
391.186	476.38
391.411	497.38
391.636	502.38
391.86	535.38
392.085	536.38
392.31	523.38
392.534	520.38
392.759	531.38
392.984	523.38
393.208	485.38
393.433	495.38
393.658	493.38
393.882	506.38
394.107	490.38
394.331	506.38
394.556	507.38
394.78	502.38
395.005	516.38
395.229	489.38
395.454	518.38
395.678	556.38
395.903	537.38
396.127	557.38
396.352	558.38
396.576	527.38
396.801	507.38
397.025	538.38
397.249	528.38
397.474	533.38
397.698	524.38
397.922	566.38
398.147	546.38
398.371	565.38
398.595	561.38
398.82	563.38
399.044	587.38
399.268	615.38
399.492	652.38
399.717	710.38
399.941	701.38
400.165	711.38
400.389	727.38
400.613	628.38
400.837	610.38
401.062	588.38
401.286	576.38
401.51	555.38
401.734	568.38
401.958	592.38
402.182	577.38
402.406	603.38
402.63	585.38
402.854	579.38
403.078	568.38
403.302	589.38
403.526	597.38
403.75	597.38
403.974	623.38
404.198	603.38
404.422	609.38
404.645	592.38
404.869	603.38
405.093	650.38
405.317	690.38
405.541	702.38
405.765	638.38
405.988	628.38
406.212	627.38
406.436	635.38
406.66	645.38
406.883	638.38
407.107	659.38
407.331	704.38
407.555	790.38
407.778	791.38
408.002	726.38
408.226	678.38
408.449	646.38
408.673	641.38
408.896	672.38
409.12	700.38
409.344	680.38
409.567	634.38
409.791	617.38
410.014	610.38
410.238	616.38
410.461	603.38
410.685	600.38
410.908	618.38
411.132	640.38
411.355	673.38
411.578	671.38
411.802	617.38
412.025	590.38
412.249	598.38
412.472	636.38
412.695	680.38
412.919	665.38
413.142	610.38
413.365	603.38
413.589	586.38
413.812	556.38
414.035	560.38
414.258	585.38
414.482	563.38
414.705	557.38
414.928	576.38
415.151	562.38
415.374	573.38
415.597	563.38
415.821	564.38
416.044	580.38
416.267	561.38
416.49	555.38
416.713	547.38
416.936	553.38
417.159	553.38
417.382	569.38
417.605	573.38
417.828	572.38
418.051	590.38
418.274	601.38
418.497	564.38
418.72	560.38
418.943	548.38
419.166	600.38
419.389	628.38
419.611	597.38
419.834	600.38
420.057	582.38
420.28	583.38
420.503	596.38
420.726	585.38
420.948	588.38
421.171	658.38
421.394	654.38
421.617	634.38
421.839	598.38
422.062	588.38
422.285	600.38
422.507	676.38
422.73	753.38
422.953	682.38
423.175	638.38
423.398	627.38
423.621	633.38
423.843	614.38
424.066	633.38
424.288	624.38
424.511	638.38
424.733	709.38
424.956	757.38
425.178	745.38
425.401	712.38
425.623	748.38
425.846	664.38
426.068	643.38
426.291	626.38
426.513	632.38
426.735	622.38
426.958	675.38
427.18	741.38
427.402	871.38
427.625	921.38
427.847	818.38
428.069	717.38
428.292	661.38
428.514	608.38
428.736	594.38
428.958	578.38
429.181	571.38
429.403	589.38
429.625	566.38
429.847	625.38
430.069	680.38
430.292	678.38
430.514	603.38
430.736	572.38
430.958	522.38
431.18	546.38
431.402	554.38
431.624	540.38
431.846	539.38
432.068	556.38
432.29	571.38
432.512	534.38
432.734	581.38
432.956	560.38
433.178	574.38
433.4	560.38
433.622	555.38
433.844	560.38
434.066	544.38
434.287	594.38
434.509	565.38
434.731	574.38
434.953	589.38
435.175	597.38
435.397	628.38
435.618	643.38
435.84	640.38
436.062	718.38
436.284	828.38
436.505	665.38
436.727	606.38
436.949	584.38
437.17	601.38
437.392	565.38
437.614	560.38
437.835	593.38
438.057	683.38
438.278	793.38
438.5	788.38
438.721	872.38
438.943	859.38
439.165	682.38
439.386	607.38
439.608	621.38
439.829	596.38
440.05	635.38
440.272	664.38
440.493	644.38
440.715	615.38
440.936	587.38
441.158	570.38
441.379	579.38
441.6	614.38
441.822	608.38
442.043	640.38
442.264	752.38
442.486	785.38
442.707	689.38
442.928	637.38
443.149	636.38
443.371	660.38
443.592	691.38
443.813	813.38
444.034	880.38
444.255	738.38
444.476	666.38
444.698	646.38
444.919	652.38
445.14	772.38
445.361	686.38
445.582	681.38
445.803	707.38
446.024	820.38
446.245	823.38
446.466	755.38
446.687	660.38
446.908	603.38
447.129	594.38
447.35	589.38
447.571	566.38
447.792	562.38
448.013	572.38
448.234	567.38
448.455	636.38
448.675	747.38
448.896	855.38
449.117	721.38
449.338	676.38
449.559	800.38
449.779	897.38
450	709.38
450.221	606.38
450.442	552.38
450.662	509.38
450.883	554.38
451.104	560.38
451.324	550.38
451.545	522.38
451.766	501.38
451.986	518.38
452.207	503.38
452.428	487.38
452.648	502.38
452.869	506.38
453.089	522.38
453.31	537.38
453.53	485.38
453.751	502.38
453.971	498.38
454.192	529.38
454.412	502.38
454.633	483.38
454.853	504.38
455.073	490.38
455.294	516.38
455.514	577.38
455.734	568.38
455.955	511.38
456.175	487.38
456.395	504.38
456.616	465.38
456.836	482.38
457.056	505.38
457.276	463.38
457.497	480.38
457.717	467.38
457.937	502.38
458.157	471.38
458.377	497.38
458.598	524.38
458.818	589.38
459.038	634.38
459.258	643.38
459.478	589.38
459.698	560.38
459.918	552.38
460.138	545.38
460.358	557.38
460.578	556.38
460.798	576.38
461.018	564.38
461.238	572.38
461.458	569.38
461.678	564.38
461.898	558.38
462.118	585.38
462.338	594.38
462.558	622.38
462.777	622.38
462.997	626.38
463.217	640.38
463.437	653.38
463.657	657.38
463.876	628.38
464.096	628.38
464.316	617.38
464.536	616.38
464.755	628.38
464.975	619.38
465.195	630.38
465.414	648.38
465.634	608.38
465.854	572.38
466.073	541.38
466.293	534.38
466.512	537.38
466.732	511.38
466.951	519.38
467.171	547.38
467.391	529.38
467.61	529.38
467.829	550.38
468.049	538.38
468.268	543.38
468.488	501.38
468.707	512.38
468.927	527.38
469.146	508.38
469.365	506.38
469.585	518.38
469.804	530.38
470.023	533.38
470.243	541.38
470.462	520.38
470.681	533.38
470.901	559.38
471.12	541.38
471.339	534.38
471.558	529.38
471.777	536.38
471.997	520.38
472.216	527.38
472.435	576.38
472.654	560.38
472.873	540.38
473.092	536.38
473.311	516.38
473.53	510.38
473.749	532.38
473.968	562.38
474.187	674.38
474.406	658.38
474.625	566.38
474.844	541.38
475.063	520.38
475.282	567.38
475.501	549.38
475.72	543.38
475.939	543.38
476.158	529.38
476.377	566.38
476.596	559.38
476.814	558.38
477.033	572.38
477.252	562.38
477.471	572.38
477.69	581.38
477.908	568.38
478.127	587.38
478.346	597.38
478.564	608.38
478.783	598.38
479.002	581.38
479.22	645.38
479.439	632.38
479.658	632.38
479.876	633.38
480.095	653.38
480.313	679.38
480.532	661.38
480.751	631.38
480.969	679.38
481.188	665.38
481.406	694.38
481.624	645.38
481.843	677.38
482.061	647.38
482.28	632.38
482.498	604.38
482.717	609.38
482.935	622.38
483.153	623.38
483.372	620.38
483.59	629.38
483.808	620.38
484.027	618.38
484.245	608.38
484.463	616.38
484.681	619.38
484.9	643.38
485.118	633.38
485.336	644.38
485.554	631.38
485.772	626.38
485.99	646.38
486.209	636.38
486.427	642.38
486.645	654.38
486.863	682.38
487.081	656.38
487.299	685.38
487.517	680.38
487.735	668.38
487.953	673.38
488.171	677.38
488.389	659.38
488.607	673.38
488.825	658.38
489.043	676.38
489.261	670.38
489.479	686.38
489.696	677.38
489.914	683.38
490.132	700.38
490.35	712.38
490.568	718.38
490.786	741.38
491.003	739.38
491.221	730.38
491.439	743.38
491.657	751.38
491.874	732.38
492.092	784.38
492.31	765.38
492.527	770.38
492.745	763.38
492.963	790.38
493.18	765.38
493.398	819.38
493.615	789.38
493.833	801.38
494.05	787.38
494.268	809.38
494.485	816.38
494.703	793.38
494.92	817.38
495.138	773.38
495.355	774.38
495.573	796.38
495.79	790.38
496.008	782.38
496.225	775.38
496.442	797.38
496.66	812.38
496.877	833.38
497.094	817.38
497.312	824.38
497.529	822.38
497.746	852.38
497.963	858.38
498.181	862.38
498.398	911.38
498.615	898.38
498.832	931.38
499.049	973.38
499.267	990.38
499.484	1034.38
499.701	1090.38
499.918	1132.38
500.135	1182.38
500.352	1274.38
500.569	1257.38
500.786	1289.38
501.003	1244.38
501.22	1207.38
501.437	1167.38
501.654	1113.38
