Data from 1974.PennyLincolnUp.Lamp.En5.5.200Scan.071719.P1.Changed Mount._HRD10591_15-52-25-856.txt Node
Date: Thu Jul 18 15:52:25 EDT 2019
User: cochatt
Spectrometer: HR+D1059
Trigger mode: 1
Integration Time (sec): 1.000000E-1
Scans to average: 1
Electric dark correction enabled: true
Nonlinearity correction enabled: false
Boxcar width: 0
XAxis mode: Wavelengths
Number of Pixels in Spectrum: 2048
>>>>>Begin Spectral Data<<<<<
223.165	-11.81
223.4	-11.81
223.635	-11.81
223.869	-13.81
224.104	-12.81
224.338	-12.81
224.573	-14.81
224.808	-6.81
225.042	-6.81
225.277	5.19
225.511	-15.81
225.746	-5.81
225.98	5.19
226.215	12.19
226.449	12.19
226.683	19.19
226.918	25.19
227.152	22.19
227.387	33.19
227.621	41.19
227.856	44.19
228.09	41.19
228.324	38.19
228.559	58.19
228.793	58.19
229.027	94.19
229.262	112.19
229.496	122.19
229.73	115.19
229.964	136.19
230.199	137.19
230.433	123.19
230.667	114.19
230.901	108.19
231.136	109.19
231.37	109.19
231.604	133.19
231.838	102.19
232.072	116.19
232.306	118.19
232.541	124.19
232.775	112.19
233.009	124.19
233.243	109.19
233.477	123.19
233.711	103.19
233.945	110.19
234.179	126.19
234.413	133.19
234.647	109.19
234.881	117.19
235.115	128.19
235.349	120.19
235.583	126.19
235.817	116.19
236.051	126.19
236.285	118.19
236.519	136.19
236.753	130.19
236.987	144.19
237.221	180.19
237.455	235.19
237.689	194.19
237.922	152.19
238.156	135.19
238.39	128.19
238.624	132.19
238.858	119.19
239.091	130.19
239.325	134.19
239.559	140.19
239.793	133.19
240.027	127.19
240.26	128.19
240.494	157.19
240.728	150.19
240.961	162.19
241.195	146.19
241.429	148.19
241.662	145.19
241.896	142.19
242.13	149.19
242.363	137.19
242.597	149.19
242.83	156.19
243.064	125.19
243.298	149.19
243.531	140.19
243.765	139.19
243.998	147.19
244.232	133.19
244.465	147.19
244.699	156.19
244.932	173.19
245.166	158.19
245.399	160.19
245.633	160.19
245.866	153.19
246.099	146.19
246.333	152.19
246.566	160.19
246.8	181.19
247.033	164.19
247.266	184.19
247.5	170.19
247.733	168.19
247.966	168.19
248.2	195.19
248.433	174.19
248.666	185.19
248.899	180.19
249.133	191.19
249.366	202.19
249.599	216.19
249.832	186.19
250.066	185.19
250.299	180.19
250.532	212.19
250.765	220.19
250.998	233.19
251.231	243.19
251.465	224.19
251.698	226.19
251.931	222.19
252.164	209.19
252.397	190.19
252.63	226.19
252.863	213.19
253.096	218.19
253.329	233.19
253.562	230.19
253.795	235.19
254.028	223.19
254.261	223.19
254.494	234.19
254.727	271.19
254.96	290.19
255.193	286.19
255.426	268.19
255.659	245.19
255.892	246.19
256.124	246.19
256.357	243.19
256.59	236.19
256.823	242.19
257.056	218.19
257.289	220.19
257.521	237.19
257.754	220.19
257.987	204.19
258.22	210.19
258.452	222.19
258.685	224.19
258.918	240.19
259.151	216.19
259.383	227.19
259.616	217.19
259.849	244.19
260.081	248.19
260.314	265.19
260.547	287.19
260.779	258.19
261.012	265.19
261.244	244.19
261.477	260.19
261.71	232.19
261.942	248.19
262.175	254.19
262.407	253.19
262.64	233.19
262.872	218.19
263.105	214.19
263.337	228.19
263.57	221.19
263.802	244.19
264.035	224.19
264.267	224.19
264.499	231.19
264.732	221.19
264.964	236.19
265.197	236.19
265.429	217.19
265.661	225.19
265.894	238.19
266.126	229.19
266.358	226.19
266.591	230.19
266.823	220.19
267.055	237.19
267.287	240.19
267.52	248.19
267.752	247.19
267.984	255.19
268.216	233.19
268.448	257.19
268.681	251.19
268.913	261.19
269.145	280.19
269.377	296.19
269.609	275.19
269.841	267.19
270.073	302.19
270.306	295.19
270.538	317.19
270.77	321.19
271.002	298.19
271.234	318.19
271.466	300.19
271.698	321.19
271.93	336.19
272.162	326.19
272.394	326.19
272.626	321.19
272.858	301.19
273.09	302.19
273.322	290.19
273.553	282.19
273.785	286.19
274.017	262.19
274.249	280.19
274.481	278.19
274.713	277.19
274.945	280.19
275.176	292.19
275.408	277.19
275.64	273.19
275.872	278.19
276.104	307.19
276.335	285.19
276.567	279.19
276.799	286.19
277.031	313.19
277.262	324.19
277.494	325.19
277.726	330.19
277.957	310.19
278.189	318.19
278.421	283.19
278.652	296.19
278.884	297.19
279.115	289.19
279.347	284.19
279.579	285.19
279.81	288.19
280.042	308.19
280.273	300.19
280.505	288.19
280.736	276.19
280.968	287.19
281.199	298.19
281.431	311.19
281.662	305.19
281.894	300.19
282.125	282.19
282.356	307.19
282.588	326.19
282.819	336.19
283.051	299.19
283.282	308.19
283.513	304.19
283.745	317.19
283.976	310.19
284.207	299.19
284.439	325.19
284.67	294.19
284.901	316.19
285.132	313.19
285.364	306.19
285.595	306.19
285.826	305.19
286.057	314.19
286.288	314.19
286.52	313.19
286.751	309.19
286.982	296.19
287.213	286.19
287.444	324.19
287.675	321.19
287.906	315.19
288.138	325.19
288.369	309.19
288.6	310.19
288.831	321.19
289.062	322.19
289.293	320.19
289.524	310.19
289.755	314.19
289.986	330.19
290.217	318.19
290.448	308.19
290.679	320.19
290.91	329.19
291.141	316.19
291.371	313.19
291.602	330.19
291.833	312.19
292.064	315.19
292.295	330.19
292.526	334.19
292.757	325.19
292.987	315.19
293.218	308.19
293.449	316.19
293.68	333.19
293.91	324.19
294.141	315.19
294.372	298.19
294.603	318.19
294.833	307.19
295.064	309.19
295.295	328.19
295.525	331.19
295.756	325.19
295.987	305.19
296.217	348.19
296.448	351.19
296.679	346.19
296.909	333.19
297.14	332.19
297.37	346.19
297.601	337.19
297.831	315.19
298.062	330.19
298.292	323.19
298.523	342.19
298.753	322.19
298.984	329.19
299.214	332.19
299.445	344.19
299.675	345.19
299.905	346.19
300.136	339.19
300.366	346.19
300.597	357.19
300.827	369.19
301.057	356.19
301.288	372.19
301.518	364.19
301.748	345.19
301.979	351.19
302.209	360.19
302.439	344.19
302.669	344.19
302.9	355.19
303.13	340.19
303.36	352.19
303.59	379.19
303.82	361.19
304.051	372.19
304.281	357.19
304.511	359.19
304.741	358.19
304.971	344.19
305.201	370.19
305.431	349.19
305.661	368.19
305.891	368.19
306.121	374.19
306.352	358.19
306.582	378.19
306.812	379.19
307.042	361.19
307.272	370.19
307.502	371.19
307.731	358.19
307.961	360.19
308.191	364.19
308.421	365.19
308.651	362.19
308.881	362.19
309.111	360.19
309.341	369.19
309.571	358.19
309.8	380.19
310.03	372.19
310.26	393.19
310.49	394.19
310.72	394.19
310.949	396.19
311.179	399.19
311.409	406.19
311.639	398.19
311.868	392.19
312.098	402.19
312.328	415.19
312.557	411.19
312.787	412.19
313.017	415.19
313.246	392.19
313.476	403.19
313.706	394.19
313.935	398.19
314.165	420.19
314.394	439.19
314.624	412.19
314.853	395.19
315.083	424.19
315.312	398.19
315.542	388.19
315.771	410.19
316.001	391.19
316.23	400.19
316.46	408.19
316.689	398.19
316.919	412.19
317.148	425.19
317.377	394.19
317.607	416.19
317.836	391.19
318.065	412.19
318.295	405.19
318.524	397.19
318.753	410.19
318.983	389.19
319.212	397.19
319.441	408.19
319.67	394.19
319.9	399.19
320.129	404.19
320.358	404.19
320.587	405.19
320.816	425.19
321.046	437.19
321.275	404.19
321.504	409.19
321.733	403.19
321.962	415.19
322.191	425.19
322.42	428.19
322.649	456.19
322.878	458.19
323.108	468.19
323.337	460.19
323.566	482.19
323.795	500.19
324.024	531.19
324.253	617.19
324.482	830.19
324.71	1241.19
324.939	1829.19
325.168	1648.19
325.397	851.19
325.626	609.19
325.855	523.19
326.084	493.19
326.313	501.19
326.542	492.19
326.77	503.19
326.999	581.19
327.228	777.19
327.457	1129.19
327.686	1411.19
327.914	948.19
328.143	666.19
328.372	588.19
328.6	560.19
328.829	548.19
329.058	569.19
329.287	558.19
329.515	543.19
329.744	509.19
329.972	517.19
330.201	527.19
330.43	541.19
330.658	573.19
330.887	593.19
331.115	565.19
331.344	560.19
331.572	495.19
331.801	509.19
332.03	507.19
332.258	478.19
332.486	500.19
332.715	486.19
332.943	513.19
333.172	481.19
333.4	490.19
333.629	514.19
333.857	517.19
334.085	521.19
334.314	514.19
334.542	551.19
334.771	594.19
334.999	534.19
335.227	529.19
335.455	492.19
335.684	505.19
335.912	522.19
336.14	489.19
336.369	470.19
336.597	493.19
336.825	481.19
337.053	485.19
337.281	492.19
337.51	479.19
337.738	474.19
337.966	462.19
338.194	478.19
338.422	462.19
338.65	481.19
338.878	469.19
339.106	461.19
339.334	455.19
339.562	468.19
339.79	464.19
340.018	458.19
340.246	459.19
340.474	457.19
340.702	471.19
340.93	462.19
341.158	458.19
341.386	468.19
341.614	472.19
341.842	467.19
342.07	461.19
342.298	469.19
342.526	470.19
342.754	443.19
342.981	453.19
343.209	462.19
343.437	476.19
343.665	485.19
343.893	499.19
344.12	505.19
344.348	501.19
344.576	492.19
344.804	477.19
345.031	470.19
345.259	467.19
345.487	476.19
345.714	470.19
345.942	448.19
346.17	444.19
346.397	444.19
346.625	450.19
346.853	456.19
347.08	460.19
347.308	449.19
347.535	464.19
347.763	462.19
347.99	458.19
348.218	462.19
348.445	457.19
348.673	466.19
348.9	462.19
349.128	449.19
349.355	469.19
349.583	446.19
349.81	458.19
350.037	436.19
350.265	428.19
350.492	440.19
350.72	440.19
350.947	451.19
351.174	444.19
351.402	450.19
351.629	450.19
351.856	461.19
352.083	467.19
352.311	470.19
352.538	460.19
352.765	451.19
352.992	457.19
353.22	440.19
353.447	444.19
353.674	438.19
353.901	438.19
354.128	420.19
354.355	434.19
354.583	420.19
354.81	428.19
355.037	418.19
355.264	451.19
355.491	429.19
355.718	439.19
355.945	423.19
356.172	425.19
356.399	407.19
356.626	435.19
356.853	442.19
357.08	413.19
357.307	426.19
357.534	413.19
357.761	423.19
357.988	444.19
358.215	423.19
358.441	436.19
358.668	428.19
358.895	449.19
359.122	425.19
359.349	432.19
359.576	444.19
359.802	453.19
360.029	486.19
360.256	487.19
360.483	488.19
360.709	461.19
360.936	475.19
361.163	447.19
361.39	461.19
361.616	441.19
361.843	453.19
362.07	470.19
362.296	468.19
362.523	477.19
362.749	444.19
362.976	438.19
363.203	437.19
363.429	438.19
363.656	422.19
363.882	438.19
364.109	445.19
364.335	426.19
364.562	454.19
364.788	456.19
365.015	440.19
365.241	445.19
365.468	449.19
365.694	469.19
365.92	436.19
366.147	452.19
366.373	439.19
366.599	433.19
366.826	439.19
367.052	448.19
367.278	421.19
367.505	452.19
367.731	453.19
367.957	460.19
368.184	438.19
368.41	438.19
368.636	456.19
368.862	459.19
369.089	450.19
369.315	469.19
369.541	446.19
369.767	439.19
369.993	426.19
370.219	452.19
370.445	445.19
370.672	434.19
370.898	461.19
371.124	445.19
371.35	453.19
371.576	457.19
371.802	451.19
372.028	442.19
372.254	465.19
372.48	444.19
372.706	453.19
372.932	450.19
373.158	463.19
373.384	459.19
373.61	459.19
373.835	469.19
374.061	435.19
374.287	472.19
374.513	458.19
374.739	464.19
374.965	502.19
375.191	473.19
375.416	460.19
375.642	450.19
375.868	440.19
376.094	447.19
376.319	456.19
376.545	464.19
376.771	446.19
376.997	443.19
377.222	459.19
377.448	429.19
377.674	460.19
377.899	443.19
378.125	450.19
378.35	448.19
378.576	458.19
378.802	458.19
379.027	452.19
379.253	446.19
379.478	422.19
379.704	465.19
379.929	431.19
380.155	451.19
380.38	462.19
380.606	474.19
380.831	466.19
381.057	465.19
381.282	471.19
381.507	440.19
381.733	457.19
381.958	450.19
382.184	440.19
382.409	449.19
382.634	472.19
382.86	443.19
383.085	461.19
383.31	473.19
383.535	471.19
383.761	469.19
383.986	498.19
384.211	491.19
384.436	468.19
384.662	489.19
384.887	496.19
385.112	477.19
385.337	498.19
385.562	512.19
385.787	519.19
386.013	528.19
386.238	520.19
386.463	540.19
386.688	494.19
386.913	524.19
387.138	500.19
387.363	514.19
387.588	509.19
387.813	516.19
388.038	514.19
388.263	505.19
388.488	500.19
388.713	505.19
388.938	484.19
389.163	506.19
389.387	516.19
389.612	514.19
389.837	488.19
390.062	506.19
390.287	502.19
390.512	506.19
390.736	498.19
390.961	500.19
391.186	505.19
391.411	498.19
391.636	535.19
391.86	517.19
392.085	550.19
392.31	539.19
392.534	516.19
392.759	517.19
392.984	505.19
393.208	499.19
393.433	513.19
393.658	535.19
393.882	534.19
394.107	536.19
394.331	519.19
394.556	540.19
394.78	512.19
395.005	531.19
395.229	524.19
395.454	527.19
395.678	533.19
395.903	547.19
396.127	562.19
396.352	555.19
396.576	538.19
396.801	532.19
397.025	518.19
397.249	524.19
397.474	549.19
397.698	549.19
397.922	548.19
398.147	586.19
398.371	564.19
398.595	582.19
398.82	587.19
399.044	604.19
399.268	642.19
399.492	632.19
399.717	711.19
399.941	748.19
400.165	742.19
400.389	731.19
400.613	690.19
400.837	621.19
401.062	628.19
401.286	628.19
401.51	614.19
401.734	601.19
401.958	595.19
402.182	594.19
402.406	597.19
402.63	619.19
402.854	622.19
403.078	631.19
403.302	616.19
403.526	598.19
403.75	603.19
403.974	625.19
404.198	630.19
404.422	631.19
404.645	620.19
404.869	624.19
405.093	672.19
405.317	710.19
405.541	724.19
405.765	688.19
405.988	644.19
406.212	617.19
406.436	676.19
406.66	700.19
406.883	653.19
407.107	689.19
407.331	721.19
407.555	824.19
407.778	804.19
408.002	745.19
408.226	685.19
408.449	681.19
408.673	668.19
408.896	677.19
409.12	748.19
409.344	725.19
409.567	638.19
409.791	634.19
410.014	631.19
410.238	614.19
410.461	605.19
410.685	632.19
410.908	633.19
411.132	676.19
411.355	716.19
411.578	697.19
411.802	637.19
412.025	611.19
412.249	624.19
412.472	656.19
412.695	694.19
412.919	653.19
413.142	645.19
413.365	616.19
413.589	606.19
413.812	604.19
414.035	594.19
414.258	577.19
414.482	583.19
414.705	576.19
414.928	567.19
415.151	599.19
415.374	578.19
415.597	606.19
415.821	609.19
416.044	594.19
416.267	596.19
416.49	579.19
416.713	566.19
416.936	564.19
417.159	588.19
417.382	569.19
417.605	613.19
417.828	598.19
418.051	605.19
418.274	604.19
418.497	617.19
418.72	597.19
418.943	580.19
419.166	594.19
419.389	658.19
419.611	653.19
419.834	633.19
420.057	609.19
420.28	633.19
420.503	616.19
420.726	609.19
420.948	626.19
421.171	658.19
421.394	689.19
421.617	626.19
421.839	629.19
422.062	603.19
422.285	628.19
422.507	669.19
422.73	758.19
422.953	745.19
423.175	659.19
423.398	638.19
423.621	627.19
423.843	657.19
424.066	675.19
424.288	647.19
424.511	655.19
424.733	734.19
424.956	822.19
425.178	762.19
425.401	770.19
425.623	813.19
425.846	669.19
426.068	642.19
426.291	621.19
426.513	672.19
426.735	664.19
426.958	690.19
427.18	759.19
427.402	902.19
427.625	950.19
427.847	831.19
428.069	742.19
428.292	695.19
428.514	631.19
428.736	621.19
428.958	600.19
429.181	578.19
429.403	601.19
429.625	609.19
429.847	641.19
430.069	673.19
430.292	689.19
430.514	590.19
430.736	581.19
430.958	582.19
431.18	584.19
431.402	574.19
431.624	557.19
431.846	578.19
432.068	547.19
432.29	574.19
432.512	579.19
432.734	568.19
432.956	568.19
433.178	573.19
433.4	599.19
433.622	581.19
433.844	580.19
434.066	559.19
434.287	566.19
434.509	584.19
434.731	572.19
434.953	594.19
435.175	614.19
435.397	649.19
435.618	653.19
435.84	667.19
436.062	769.19
436.284	831.19
436.505	698.19
436.727	622.19
436.949	602.19
437.17	589.19
437.392	582.19
437.614	620.19
437.835	646.19
438.057	714.19
438.278	851.19
438.5	816.19
438.721	897.19
438.943	872.19
439.165	712.19
439.386	654.19
439.608	653.19
439.829	621.19
440.05	655.19
440.272	688.19
440.493	664.19
440.715	618.19
440.936	594.19
441.158	599.19
441.379	617.19
441.6	622.19
441.822	633.19
442.043	679.19
442.264	787.19
442.486	800.19
442.707	713.19
442.928	675.19
443.149	655.19
443.371	681.19
443.592	741.19
443.813	826.19
444.034	909.19
444.255	744.19
444.476	683.19
444.698	684.19
444.919	674.19
445.14	758.19
445.361	712.19
445.582	690.19
445.803	746.19
446.024	835.19
446.245	845.19
446.466	752.19
446.687	685.19
446.908	644.19
447.129	601.19
447.35	610.19
447.571	615.19
447.792	570.19
448.013	585.19
448.234	600.19
448.455	628.19
448.675	772.19
448.896	888.19
449.117	758.19
449.338	703.19
449.559	843.19
449.779	920.19
450	750.19
450.221	656.19
450.442	601.19
450.662	564.19
450.883	576.19
451.104	581.19
451.324	588.19
451.545	571.19
451.766	568.19
451.986	538.19
452.207	519.19
452.428	535.19
452.648	539.19
452.869	500.19
453.089	547.19
453.31	552.19
453.53	524.19
453.751	546.19
453.971	531.19
454.192	544.19
454.412	507.19
454.633	516.19
454.853	521.19
455.073	515.19
455.294	550.19
455.514	601.19
455.734	602.19
455.955	529.19
456.175	519.19
456.395	508.19
456.616	508.19
456.836	504.19
457.056	505.19
457.276	492.19
457.497	515.19
457.717	497.19
457.937	514.19
458.157	498.19
458.377	523.19
458.598	528.19
458.818	586.19
459.038	654.19
459.258	680.19
459.478	613.19
459.698	603.19
459.918	562.19
460.138	580.19
460.358	586.19
460.578	594.19
460.798	588.19
461.018	617.19
461.238	582.19
461.458	597.19
461.678	578.19
461.898	608.19
462.118	577.19
462.338	605.19
462.558	618.19
462.777	631.19
462.997	652.19
463.217	675.19
463.437	691.19
463.657	676.19
463.876	649.19
464.096	658.19
464.316	649.19
464.536	646.19
464.755	643.19
464.975	651.19
465.195	644.19
465.414	674.19
465.634	636.19
465.854	603.19
466.073	585.19
466.293	566.19
466.512	555.19
466.732	568.19
466.951	539.19
467.171	554.19
467.391	552.19
467.61	555.19
467.829	565.19
468.049	538.19
468.268	530.19
468.488	536.19
468.707	521.19
468.927	549.19
469.146	536.19
469.365	555.19
469.585	542.19
469.804	560.19
470.023	544.19
470.243	541.19
470.462	558.19
470.681	573.19
470.901	576.19
471.12	546.19
471.339	564.19
471.558	552.19
471.777	537.19
471.997	569.19
472.216	558.19
472.435	568.19
472.654	567.19
472.873	546.19
473.092	543.19
473.311	543.19
473.53	550.19
473.749	573.19
473.968	590.19
474.187	674.19
474.406	728.19
474.625	584.19
474.844	570.19
475.063	562.19
475.282	554.19
475.501	550.19
475.72	573.19
475.939	562.19
476.158	571.19
476.377	572.19
476.596	558.19
476.814	560.19
477.033	588.19
477.252	568.19
477.471	594.19
477.69	609.19
477.908	604.19
478.127	624.19
478.346	605.19
478.564	632.19
478.783	624.19
479.002	648.19
479.22	665.19
479.439	644.19
479.658	668.19
479.876	670.19
480.095	663.19
480.313	695.19
480.532	697.19
480.751	694.19
480.969	689.19
481.188	724.19
481.406	769.19
481.624	708.19
481.843	683.19
482.061	650.19
482.28	665.19
482.498	654.19
482.717	631.19
482.935	626.19
483.153	644.19
483.372	638.19
483.59	632.19
483.808	641.19
484.027	638.19
484.245	656.19
484.463	656.19
484.681	665.19
484.9	658.19
485.118	658.19
485.336	661.19
485.554	662.19
485.772	650.19
485.99	666.19
486.209	664.19
486.427	672.19
486.645	675.19
486.863	683.19
487.081	690.19
487.299	660.19
487.517	679.19
487.735	679.19
487.953	690.19
488.171	694.19
488.389	692.19
488.607	686.19
488.825	699.19
489.043	715.19
489.261	689.19
489.479	725.19
489.696	708.19
489.914	727.19
490.132	706.19
490.35	701.19
490.568	720.19
490.786	741.19
491.003	733.19
491.221	780.19
491.439	789.19
491.657	780.19
491.874	796.19
492.092	808.19
492.31	782.19
492.527	830.19
492.745	796.19
492.963	832.19
493.18	823.19
493.398	806.19
493.615	837.19
493.833	837.19
494.05	807.19
494.268	838.19
494.485	828.19
494.703	840.19
494.92	800.19
495.138	820.19
495.355	826.19
495.573	829.19
495.79	826.19
496.008	859.19
496.225	845.19
496.442	825.19
496.66	843.19
496.877	847.19
497.094	837.19
497.312	861.19
497.529	850.19
497.746	853.19
497.963	850.19
498.181	906.19
498.398	900.19
498.615	925.19
498.832	966.19
499.049	987.19
499.267	1022.19
499.484	1065.19
499.701	1119.19
499.918	1158.19
500.135	1242.19
500.352	1304.19
500.569	1358.19
500.786	1316.19
501.003	1298.19
501.22	1242.19
501.437	1175.19
501.654	1132.19
