Data from 1974.PennyLincolnUp.Lamp.En5.5.200Scan.071719.P1.Changed Mount._HRD10591_15-53-28-857.txt Node
Date: Thu Jul 18 15:53:28 EDT 2019
User: cochatt
Spectrometer: HR+D1059
Trigger mode: 1
Integration Time (sec): 1.000000E-1
Scans to average: 1
Electric dark correction enabled: true
Nonlinearity correction enabled: false
Boxcar width: 0
XAxis mode: Wavelengths
Number of Pixels in Spectrum: 2048
>>>>>Begin Spectral Data<<<<<
223.165	-9.5
223.4	-9.5
223.635	-9.5
223.869	-16.5
224.104	-14.5
224.338	-11.5
224.573	-10.5
224.808	-20.5
225.042	-6.5
225.277	-18.5
225.511	-0.5
225.746	3.5
225.98	7.5
226.215	-0.5
226.449	13.5
226.683	26.5
226.918	19.5
227.152	38.5
227.387	37.5
227.621	41.5
227.856	53.5
228.09	39.5
228.324	37.5
228.559	71.5
228.793	55.5
229.027	99.5
229.262	117.5
229.496	120.5
229.73	123.5
229.964	158.5
230.199	138.5
230.433	124.5
230.667	119.5
230.901	103.5
231.136	112.5
231.37	121.5
231.604	115.5
231.838	114.5
232.072	116.5
232.306	118.5
232.541	112.5
232.775	134.5
233.009	130.5
233.243	119.5
233.477	130.5
233.711	125.5
233.945	118.5
234.179	133.5
234.413	117.5
234.647	127.5
234.881	128.5
235.115	117.5
235.349	138.5
235.583	147.5
235.817	124.5
236.051	134.5
236.285	130.5
236.519	132.5
236.753	142.5
236.987	142.5
237.221	180.5
237.455	250.5
237.689	187.5
237.922	164.5
238.156	144.5
238.39	140.5
238.624	136.5
238.858	135.5
239.091	141.5
239.325	126.5
239.559	133.5
239.793	133.5
240.027	149.5
240.26	164.5
240.494	167.5
240.728	167.5
240.961	157.5
241.195	166.5
241.429	145.5
241.662	139.5
241.896	155.5
242.13	141.5
242.363	137.5
242.597	136.5
242.83	156.5
243.064	150.5
243.298	157.5
243.531	150.5
243.765	170.5
243.998	150.5
244.232	157.5
244.465	134.5
244.699	149.5
244.932	167.5
245.166	151.5
245.399	163.5
245.633	168.5
245.866	163.5
246.099	163.5
246.333	154.5
246.566	170.5
246.8	167.5
247.033	168.5
247.266	183.5
247.5	194.5
247.733	180.5
247.966	164.5
248.2	186.5
248.433	196.5
248.666	184.5
248.899	199.5
249.133	199.5
249.366	213.5
249.599	192.5
249.832	207.5
250.066	194.5
250.299	185.5
250.532	212.5
250.765	208.5
250.998	239.5
251.231	238.5
251.465	215.5
251.698	226.5
251.931	197.5
252.164	198.5
252.397	221.5
252.63	206.5
252.863	227.5
253.096	245.5
253.329	227.5
253.562	229.5
253.795	240.5
254.028	242.5
254.261	231.5
254.494	217.5
254.727	252.5
254.96	282.5
255.193	280.5
255.426	269.5
255.659	250.5
255.892	246.5
256.124	240.5
256.357	256.5
256.59	250.5
256.823	218.5
257.056	230.5
257.289	212.5
257.521	239.5
257.754	229.5
257.987	229.5
258.22	222.5
258.452	244.5
258.685	231.5
258.918	237.5
259.151	220.5
259.383	225.5
259.616	232.5
259.849	261.5
260.081	235.5
260.314	282.5
260.547	264.5
260.779	258.5
261.012	249.5
261.244	232.5
261.477	238.5
261.71	237.5
261.942	239.5
262.175	278.5
262.407	282.5
262.64	215.5
262.872	228.5
263.105	237.5
263.337	240.5
263.57	230.5
263.802	220.5
264.035	228.5
264.267	242.5
264.499	217.5
264.732	214.5
264.964	237.5
265.197	218.5
265.429	220.5
265.661	222.5
265.894	219.5
266.126	234.5
266.358	237.5
266.591	236.5
266.823	267.5
267.055	250.5
267.287	267.5
267.52	239.5
267.752	250.5
267.984	229.5
268.216	250.5
268.448	242.5
268.681	276.5
268.913	264.5
269.145	273.5
269.377	301.5
269.609	297.5
269.841	298.5
270.073	297.5
270.306	326.5
270.538	320.5
270.77	307.5
271.002	334.5
271.234	306.5
271.466	310.5
271.698	300.5
271.93	332.5
272.162	333.5
272.394	324.5
272.626	324.5
272.858	315.5
273.09	286.5
273.322	301.5
273.553	304.5
273.785	282.5
274.017	281.5
274.249	283.5
274.481	282.5
274.713	286.5
274.945	300.5
275.176	285.5
275.408	290.5
275.64	292.5
275.872	293.5
276.104	288.5
276.335	288.5
276.567	307.5
276.799	294.5
277.031	325.5
277.262	318.5
277.494	338.5
277.726	321.5
277.957	340.5
278.189	316.5
278.421	284.5
278.652	284.5
278.884	325.5
279.115	308.5
279.347	311.5
279.579	286.5
279.81	294.5
280.042	303.5
280.273	288.5
280.505	295.5
280.736	306.5
280.968	292.5
281.199	291.5
281.431	303.5
281.662	301.5
281.894	298.5
282.125	306.5
282.356	318.5
282.588	326.5
282.819	328.5
283.051	299.5
283.282	299.5
283.513	308.5
283.745	308.5
283.976	314.5
284.207	320.5
284.439	299.5
284.67	309.5
284.901	306.5
285.132	318.5
285.364	298.5
285.595	306.5
285.826	305.5
286.057	312.5
286.288	304.5
286.52	302.5
286.751	310.5
286.982	316.5
287.213	321.5
287.444	335.5
287.675	310.5
287.906	315.5
288.138	307.5
288.369	336.5
288.6	340.5
288.831	327.5
289.062	349.5
289.293	318.5
289.524	327.5
289.755	322.5
289.986	322.5
290.217	333.5
290.448	312.5
290.679	326.5
290.91	318.5
291.141	332.5
291.371	325.5
291.602	339.5
291.833	333.5
292.064	334.5
292.295	327.5
292.526	309.5
292.757	328.5
292.987	323.5
293.218	321.5
293.449	327.5
293.68	342.5
293.91	327.5
294.141	316.5
294.372	314.5
294.603	330.5
294.833	327.5
295.064	316.5
295.295	311.5
295.525	340.5
295.756	359.5
295.987	332.5
296.217	347.5
296.448	355.5
296.679	354.5
296.909	317.5
297.14	331.5
297.37	349.5
297.601	349.5
297.831	326.5
298.062	344.5
298.292	347.5
298.523	324.5
298.753	352.5
298.984	343.5
299.214	343.5
299.445	367.5
299.675	350.5
299.905	357.5
300.136	363.5
300.366	347.5
300.597	341.5
300.827	365.5
301.057	366.5
301.288	374.5
301.518	368.5
301.748	362.5
301.979	367.5
302.209	379.5
302.439	378.5
302.669	358.5
302.9	373.5
303.13	372.5
303.36	349.5
303.59	372.5
303.82	351.5
304.051	370.5
304.281	354.5
304.511	359.5
304.741	368.5
304.971	368.5
305.201	359.5
305.431	367.5
305.661	370.5
305.891	352.5
306.121	382.5
306.352	357.5
306.582	383.5
306.812	365.5
307.042	388.5
307.272	382.5
307.502	344.5
307.731	358.5
307.961	381.5
308.191	373.5
308.421	356.5
308.651	382.5
308.881	354.5
309.111	370.5
309.341	369.5
309.571	378.5
309.8	381.5
310.03	383.5
310.26	404.5
310.49	401.5
310.72	423.5
310.949	402.5
311.179	408.5
311.409	407.5
311.639	407.5
311.868	399.5
312.098	412.5
312.328	417.5
312.557	405.5
312.787	427.5
313.017	419.5
313.246	424.5
313.476	423.5
313.706	412.5
313.935	406.5
314.165	437.5
314.394	434.5
314.624	422.5
314.853	412.5
315.083	405.5
315.312	387.5
315.542	397.5
315.771	391.5
316.001	420.5
316.23	401.5
316.46	389.5
316.689	396.5
316.919	404.5
317.148	424.5
317.377	423.5
317.607	421.5
317.836	431.5
318.065	410.5
318.295	393.5
318.524	421.5
318.753	393.5
318.983	404.5
319.212	411.5
319.441	414.5
319.67	414.5
319.9	411.5
320.129	413.5
320.358	410.5
320.587	424.5
320.816	410.5
321.046	442.5
321.275	438.5
321.504	448.5
321.733	444.5
321.962	434.5
322.191	431.5
322.42	480.5
322.649	463.5
322.878	473.5
323.108	470.5
323.337	475.5
323.566	500.5
323.795	504.5
324.024	567.5
324.253	631.5
324.482	893.5
324.71	1333.5
324.939	1939.5
325.168	1701.5
325.397	882.5
325.626	613.5
325.855	574.5
326.084	504.5
326.313	511.5
326.542	507.5
326.77	559.5
326.999	598.5
327.228	813.5
327.457	1183.5
327.686	1433.5
327.914	969.5
328.143	673.5
328.372	607.5
328.6	575.5
328.829	548.5
329.058	571.5
329.287	584.5
329.515	557.5
329.744	537.5
329.972	536.5
330.201	537.5
330.43	584.5
330.658	592.5
330.887	589.5
331.115	581.5
331.344	533.5
331.572	503.5
331.801	509.5
332.03	526.5
332.258	526.5
332.486	502.5
332.715	478.5
332.943	511.5
333.172	505.5
333.4	514.5
333.629	519.5
333.857	537.5
334.085	539.5
334.314	556.5
334.542	568.5
334.771	608.5
334.999	549.5
335.227	516.5
335.455	519.5
335.684	527.5
335.912	485.5
336.14	485.5
336.369	510.5
336.597	491.5
336.825	504.5
337.053	498.5
337.281	502.5
337.51	469.5
337.738	489.5
337.966	468.5
338.194	467.5
338.422	475.5
338.65	475.5
338.878	476.5
339.106	484.5
339.334	479.5
339.562	476.5
339.79	469.5
340.018	466.5
340.246	474.5
340.474	473.5
340.702	474.5
340.93	475.5
341.158	479.5
341.386	455.5
341.614	467.5
341.842	461.5
342.07	454.5
342.298	453.5
342.526	466.5
342.754	474.5
342.981	470.5
343.209	458.5
343.437	478.5
343.665	484.5
343.893	507.5
344.12	514.5
344.348	482.5
344.576	485.5
344.804	509.5
345.031	491.5
345.259	506.5
345.487	468.5
345.714	472.5
345.942	475.5
346.17	479.5
346.397	470.5
346.625	487.5
346.853	450.5
347.08	450.5
347.308	452.5
347.535	499.5
347.763	472.5
347.99	461.5
348.218	468.5
348.445	481.5
348.673	514.5
348.9	463.5
349.128	454.5
349.355	458.5
349.583	440.5
349.81	448.5
350.037	473.5
350.265	448.5
350.492	457.5
350.72	455.5
350.947	453.5
351.174	439.5
351.402	464.5
351.629	456.5
351.856	487.5
352.083	454.5
352.311	455.5
352.538	479.5
352.765	465.5
352.992	473.5
353.22	462.5
353.447	454.5
353.674	446.5
353.901	430.5
354.128	449.5
354.355	447.5
354.583	455.5
354.81	447.5
355.037	463.5
355.264	435.5
355.491	439.5
355.718	435.5
355.945	423.5
356.172	425.5
356.399	441.5
356.626	439.5
356.853	436.5
357.08	440.5
357.307	437.5
357.534	443.5
357.761	454.5
357.988	437.5
358.215	435.5
358.441	447.5
358.668	434.5
358.895	443.5
359.122	468.5
359.349	461.5
359.576	467.5
359.802	472.5
360.029	490.5
360.256	487.5
360.483	491.5
360.709	483.5
360.936	457.5
361.163	462.5
361.39	473.5
361.616	470.5
361.843	475.5
362.07	457.5
362.296	455.5
362.523	474.5
362.749	452.5
362.976	452.5
363.203	446.5
363.429	455.5
363.656	475.5
363.882	448.5
364.109	423.5
364.335	466.5
364.562	443.5
364.788	422.5
365.015	458.5
365.241	434.5
365.468	436.5
365.694	457.5
365.92	457.5
366.147	461.5
366.373	473.5
366.599	441.5
366.826	447.5
367.052	447.5
367.278	427.5
367.505	451.5
367.731	455.5
367.957	463.5
368.184	469.5
368.41	451.5
368.636	477.5
368.862	474.5
369.089	464.5
369.315	440.5
369.541	450.5
369.767	451.5
369.993	462.5
370.219	434.5
370.445	453.5
370.672	459.5
370.898	453.5
371.124	468.5
371.35	463.5
371.576	456.5
371.802	448.5
372.028	453.5
372.254	444.5
372.48	460.5
372.706	468.5
372.932	454.5
373.158	447.5
373.384	473.5
373.61	455.5
373.835	474.5
374.061	460.5
374.287	466.5
374.513	461.5
374.739	483.5
374.965	461.5
375.191	484.5
375.416	486.5
375.642	477.5
375.868	460.5
376.094	480.5
376.319	458.5
376.545	456.5
376.771	461.5
376.997	485.5
377.222	472.5
377.448	463.5
377.674	464.5
377.899	445.5
378.125	462.5
378.35	449.5
378.576	447.5
378.802	439.5
379.027	460.5
379.253	459.5
379.478	452.5
379.704	461.5
379.929	471.5
380.155	476.5
380.38	439.5
380.606	474.5
380.831	459.5
381.057	474.5
381.282	456.5
381.507	468.5
381.733	477.5
381.958	466.5
382.184	456.5
382.409	474.5
382.634	464.5
382.86	458.5
383.085	511.5
383.31	478.5
383.535	478.5
383.761	487.5
383.986	488.5
384.211	510.5
384.436	494.5
384.662	470.5
384.887	503.5
385.112	501.5
385.337	501.5
385.562	511.5
385.787	528.5
386.013	535.5
386.238	541.5
386.463	533.5
386.688	518.5
386.913	522.5
387.138	519.5
387.363	501.5
387.588	504.5
387.813	505.5
388.038	530.5
388.263	519.5
388.488	526.5
388.713	520.5
388.938	526.5
389.163	524.5
389.387	523.5
389.612	511.5
389.837	504.5
390.062	528.5
390.287	531.5
390.512	499.5
390.736	536.5
390.961	517.5
391.186	538.5
391.411	538.5
391.636	526.5
391.86	544.5
392.085	549.5
392.31	551.5
392.534	527.5
392.759	512.5
392.984	540.5
393.208	553.5
393.433	526.5
393.658	522.5
393.882	519.5
394.107	534.5
394.331	523.5
394.556	528.5
394.78	528.5
395.005	542.5
395.229	520.5
395.454	535.5
395.678	560.5
395.903	548.5
396.127	594.5
396.352	579.5
396.576	550.5
396.801	559.5
397.025	556.5
397.249	553.5
397.474	566.5
397.698	566.5
397.922	564.5
398.147	598.5
398.371	598.5
398.595	605.5
398.82	592.5
399.044	620.5
399.268	662.5
399.492	676.5
399.717	719.5
399.941	757.5
400.165	773.5
400.389	735.5
400.613	678.5
400.837	644.5
401.062	616.5
401.286	640.5
401.51	598.5
401.734	597.5
401.958	595.5
402.182	615.5
402.406	610.5
402.63	612.5
402.854	606.5
403.078	641.5
403.302	630.5
403.526	635.5
403.75	626.5
403.974	631.5
404.198	652.5
404.422	655.5
404.645	678.5
404.869	641.5
405.093	672.5
405.317	706.5
405.541	742.5
405.765	682.5
405.988	672.5
406.212	660.5
406.436	668.5
406.66	699.5
406.883	690.5
407.107	692.5
407.331	755.5
407.555	851.5
407.778	832.5
408.002	771.5
408.226	691.5
408.449	705.5
408.673	695.5
408.896	719.5
409.12	772.5
409.344	708.5
409.567	672.5
409.791	654.5
410.014	640.5
410.238	629.5
410.461	624.5
410.685	644.5
410.908	664.5
411.132	678.5
411.355	702.5
411.578	705.5
411.802	647.5
412.025	634.5
412.249	629.5
412.472	678.5
412.695	700.5
412.919	671.5
413.142	644.5
413.365	611.5
413.589	604.5
413.812	607.5
414.035	598.5
414.258	596.5
414.482	610.5
414.705	596.5
414.928	603.5
415.151	597.5
415.374	598.5
415.597	610.5
415.821	610.5
416.044	599.5
416.267	612.5
416.49	602.5
416.713	594.5
416.936	588.5
417.159	581.5
417.382	611.5
417.605	584.5
417.828	618.5
418.051	649.5
418.274	632.5
418.497	604.5
418.72	576.5
418.943	610.5
419.166	620.5
419.389	659.5
419.611	660.5
419.834	650.5
420.057	632.5
420.28	636.5
420.503	625.5
420.726	623.5
420.948	637.5
421.171	664.5
421.394	714.5
421.617	637.5
421.839	630.5
422.062	646.5
422.285	647.5
422.507	692.5
422.73	770.5
422.953	732.5
423.175	700.5
423.398	646.5
423.621	644.5
423.843	669.5
424.066	680.5
424.288	672.5
424.511	682.5
424.733	743.5
424.956	818.5
425.178	792.5
425.401	797.5
425.623	804.5
425.846	720.5
426.068	656.5
426.291	663.5
426.513	647.5
426.735	650.5
426.958	700.5
427.18	778.5
427.402	911.5
427.625	1006.5
427.847	862.5
428.069	763.5
428.292	691.5
428.514	645.5
428.736	622.5
428.958	627.5
429.181	608.5
429.403	588.5
429.625	600.5
429.847	628.5
430.069	682.5
430.292	718.5
430.514	619.5
430.736	618.5
430.958	614.5
431.18	595.5
431.402	575.5
431.624	573.5
431.846	600.5
432.068	563.5
432.29	575.5
432.512	565.5
432.734	604.5
432.956	598.5
433.178	626.5
433.4	588.5
433.622	591.5
433.844	591.5
434.066	553.5
434.287	580.5
434.509	599.5
434.731	583.5
434.953	580.5
435.175	629.5
435.397	660.5
435.618	656.5
435.84	683.5
436.062	763.5
436.284	848.5
436.505	708.5
436.727	667.5
436.949	639.5
437.17	590.5
437.392	596.5
437.614	627.5
437.835	648.5
438.057	725.5
438.278	841.5
438.5	834.5
438.721	944.5
438.943	882.5
439.165	704.5
439.386	669.5
439.608	653.5
439.829	640.5
440.05	691.5
440.272	706.5
440.493	682.5
440.715	647.5
440.936	637.5
441.158	631.5
441.379	634.5
441.6	650.5
441.822	669.5
442.043	669.5
442.264	806.5
442.486	846.5
442.707	748.5
442.928	684.5
443.149	661.5
443.371	728.5
443.592	739.5
443.813	836.5
444.034	909.5
444.255	754.5
444.476	717.5
444.698	666.5
444.919	692.5
445.14	793.5
445.361	747.5
445.582	704.5
445.803	762.5
446.024	834.5
446.245	862.5
446.466	798.5
446.687	684.5
446.908	667.5
447.129	621.5
447.35	596.5
447.571	613.5
447.792	577.5
448.013	592.5
448.234	608.5
448.455	671.5
448.675	792.5
448.896	911.5
449.117	789.5
449.338	716.5
449.559	845.5
449.779	951.5
450	770.5
450.221	675.5
450.442	626.5
450.662	581.5
450.883	600.5
451.104	608.5
451.324	590.5
451.545	570.5
451.766	542.5
451.986	550.5
452.207	527.5
452.428	546.5
452.648	523.5
452.869	533.5
453.089	544.5
453.31	548.5
453.53	560.5
453.751	535.5
453.971	541.5
454.192	562.5
454.412	542.5
454.633	534.5
454.853	521.5
455.073	534.5
455.294	549.5
455.514	620.5
455.734	593.5
455.955	538.5
456.175	520.5
456.395	529.5
456.616	511.5
456.836	512.5
457.056	507.5
457.276	528.5
457.497	505.5
457.717	511.5
457.937	517.5
458.157	519.5
458.377	523.5
458.598	562.5
458.818	578.5
459.038	674.5
459.258	712.5
459.478	614.5
459.698	567.5
459.918	599.5
460.138	579.5
460.358	611.5
460.578	579.5
460.798	614.5
461.018	595.5
461.238	597.5
461.458	598.5
461.678	595.5
461.898	607.5
462.118	624.5
462.338	636.5
462.558	643.5
462.777	639.5
462.997	654.5
463.217	690.5
463.437	706.5
463.657	679.5
463.876	662.5
464.096	684.5
464.316	655.5
464.536	634.5
464.755	663.5
464.975	644.5
465.195	662.5
465.414	704.5
465.634	642.5
465.854	612.5
466.073	607.5
466.293	596.5
466.512	573.5
466.732	559.5
466.951	551.5
467.171	565.5
467.391	551.5
467.61	566.5
467.829	574.5
468.049	563.5
468.268	569.5
468.488	557.5
468.707	542.5
468.927	546.5
469.146	547.5
469.365	553.5
469.585	547.5
469.804	578.5
470.023	566.5
470.243	583.5
470.462	558.5
470.681	583.5
470.901	582.5
471.12	574.5
471.339	573.5
471.558	564.5
471.777	578.5
471.997	565.5
472.216	558.5
472.435	592.5
472.654	582.5
472.873	558.5
473.092	549.5
473.311	561.5
473.53	564.5
473.749	576.5
473.968	603.5
474.187	702.5
474.406	734.5
474.625	636.5
474.844	576.5
475.063	560.5
475.282	539.5
475.501	557.5
475.72	570.5
475.939	556.5
476.158	586.5
476.377	591.5
476.596	589.5
476.814	604.5
477.033	628.5
477.252	595.5
477.471	602.5
477.69	606.5
477.908	620.5
478.127	608.5
478.346	627.5
478.564	639.5
478.783	631.5
479.002	647.5
479.22	657.5
479.439	636.5
479.658	671.5
479.876	671.5
480.095	696.5
480.313	718.5
480.532	700.5
480.751	696.5
480.969	717.5
481.188	724.5
481.406	752.5
481.624	709.5
481.843	668.5
482.061	638.5
482.28	671.5
482.498	652.5
482.717	664.5
482.935	674.5
483.153	674.5
483.372	656.5
483.59	646.5
483.808	676.5
484.027	646.5
484.245	656.5
484.463	676.5
484.681	674.5
484.9	675.5
485.118	687.5
485.336	671.5
485.554	679.5
485.772	687.5
485.99	671.5
486.209	682.5
486.427	679.5
486.645	684.5
486.863	704.5
487.081	720.5
487.299	679.5
487.517	703.5
487.735	702.5
487.953	706.5
488.171	725.5
488.389	707.5
488.607	726.5
488.825	700.5
489.043	716.5
489.261	741.5
489.479	719.5
489.696	738.5
489.914	712.5
490.132	712.5
490.35	741.5
490.568	729.5
490.786	765.5
491.003	798.5
491.221	784.5
491.439	794.5
491.657	811.5
491.874	804.5
492.092	819.5
492.31	824.5
492.527	823.5
492.745	795.5
492.963	819.5
493.18	840.5
493.398	832.5
493.615	822.5
493.833	838.5
494.05	846.5
494.268	861.5
494.485	838.5
494.703	833.5
494.92	830.5
495.138	843.5
495.355	838.5
495.573	845.5
495.79	863.5
496.008	857.5
496.225	837.5
496.442	830.5
496.66	838.5
496.877	846.5
497.094	846.5
497.312	834.5
497.529	904.5
497.746	908.5
497.963	908.5
498.181	928.5
498.398	952.5
498.615	967.5
498.832	983.5
499.049	1033.5
499.267	1034.5
499.484	1122.5
499.701	1140.5
499.918	1202.5
500.135	1260.5
500.352	1316.5
500.569	1357.5
500.786	1348.5
501.003	1363.5
501.22	1267.5
501.437	1231.5
501.654	1180.5
501.871	1123.5
502.088	1073.5
502.305	1012.5
502.522	973.5
502.739	943.5
502.956	901.5
503.172	898.5
503.389	899.5
503.606	871.5
503.823	888.5
504.04	879.5
504.256	864.5
504.473	852.5
504.69	866.5
504.907	878.5
505.123	876.5
505.34	830.5
505.557	803.5
505.773	799.5
505.99	814.5
506.207	822.5
506.423	812.5
506.64	791.5
506.856	774.5
507.073	759.5
507.289	774.5
507.506	762.5
507.722	754.5
507.939	797.5
508.155	760.5
508.372	768.5
508.588	723.5
508.805	722.5
509.021	755.5
509.238	751.5
509.454	748.5
509.67	760.5
509.887	741.5
510.103	728.5
510.319	759.5
510.536	808.5
510.752	1155.5
510.968	993.5
511.184	748.5
511.401	713.5
511.617	714.5
511.833	703.5
512.049	690.5
512.265	692.5
512.481	687.5
512.698	682.5
512.914	715.5
513.13	673.5
513.346	703.5
513.562	703.5
513.778	699.5
513.994	702.5
514.21	731.5
514.426	689.5
514.642	730.5
514.858	770.5
515.074	814.5
515.29	860.5
515.506	1167.5
515.721	1025.5
515.937	781.5
516.153	761.5
516.369	739.5
516.585	760.5
516.801	726.5
517.016	742.5
517.232	756.5
517.448	740.5
517.664	738.5
517.879	772.5
518.095	789.5
518.311	740.5
518.527	725.5
518.742	707.5
518.958	736.5
519.173	719.5
519.389	726.5
