Data from 1974.PennyLincolnUp.Lamp.En5.5.200Scan.071719.P1.Changed Mount._HRD10591_15-52-46-856.txt Node
Date: Thu Jul 18 15:52:46 EDT 2019
User: cochatt
Spectrometer: HR+D1059
Trigger mode: 1
Integration Time (sec): 1.000000E-1
Scans to average: 1
Electric dark correction enabled: true
Nonlinearity correction enabled: false
Boxcar width: 0
XAxis mode: Wavelengths
Number of Pixels in Spectrum: 2048
>>>>>Begin Spectral Data<<<<<
223.165	-7.44
223.4	-7.44
223.635	-7.44
223.869	-16.44
224.104	-15.44
224.338	-15.44
224.573	-21.44
224.808	-9.44
225.042	0.56
225.277	-2.44
225.511	-5.44
225.746	-3.44
225.98	2.56
226.215	6.56
226.449	10.56
226.683	24.56
226.918	18.56
227.152	33.56
227.387	34.56
227.621	18.56
227.856	26.56
228.09	47.56
228.324	37.56
228.559	44.56
228.793	67.56
229.027	97.56
229.262	109.56
229.496	116.56
229.73	122.56
229.964	151.56
230.199	130.56
230.433	116.56
230.667	114.56
230.901	119.56
231.136	129.56
231.37	104.56
231.604	122.56
231.838	122.56
232.072	119.56
232.306	103.56
232.541	120.56
232.775	126.56
233.009	110.56
233.243	120.56
233.477	125.56
233.711	118.56
233.945	120.56
234.179	121.56
234.413	117.56
234.647	117.56
234.881	123.56
235.115	105.56
235.349	133.56
235.583	118.56
235.817	118.56
236.051	142.56
236.285	120.56
236.519	112.56
236.753	131.56
236.987	148.56
237.221	190.56
237.455	224.56
237.689	174.56
237.922	159.56
238.156	132.56
238.39	149.56
238.624	133.56
238.858	136.56
239.091	125.56
239.325	121.56
239.559	131.56
239.793	118.56
240.027	124.56
240.26	136.56
240.494	163.56
240.728	165.56
240.961	157.56
241.195	152.56
241.429	154.56
241.662	138.56
241.896	149.56
242.13	138.56
242.363	141.56
242.597	143.56
242.83	138.56
243.064	147.56
243.298	152.56
243.531	121.56
243.765	146.56
243.998	146.56
244.232	164.56
244.465	166.56
244.699	142.56
244.932	146.56
245.166	151.56
245.399	146.56
245.633	151.56
245.866	158.56
246.099	149.56
246.333	161.56
246.566	161.56
246.8	163.56
247.033	162.56
247.266	166.56
247.5	168.56
247.733	172.56
247.966	177.56
248.2	187.56
248.433	178.56
248.666	184.56
248.899	200.56
249.133	206.56
249.366	176.56
249.599	196.56
249.832	182.56
250.066	182.56
250.299	182.56
250.532	198.56
250.765	219.56
250.998	224.56
251.231	227.56
251.465	212.56
251.698	213.56
251.931	191.56
252.164	218.56
252.397	209.56
252.63	202.56
252.863	220.56
253.096	198.56
253.329	232.56
253.562	233.56
253.795	229.56
254.028	242.56
254.261	213.56
254.494	224.56
254.727	286.56
254.96	300.56
255.193	268.56
255.426	260.56
255.659	236.56
255.892	230.56
256.124	242.56
256.357	241.56
256.59	240.56
256.823	219.56
257.056	224.56
257.289	213.56
257.521	219.56
257.754	222.56
257.987	222.56
258.22	219.56
258.452	233.56
258.685	220.56
258.918	211.56
259.151	230.56
259.383	227.56
259.616	232.56
259.849	253.56
260.081	253.56
260.314	287.56
260.547	264.56
260.779	256.56
261.012	233.56
261.244	234.56
261.477	224.56
261.71	240.56
261.942	231.56
262.175	240.56
262.407	235.56
262.64	225.56
262.872	237.56
263.105	206.56
263.337	233.56
263.57	229.56
263.802	211.56
264.035	214.56
264.267	237.56
264.499	219.56
264.732	242.56
264.964	245.56
265.197	226.56
265.429	215.56
265.661	213.56
265.894	226.56
266.126	215.56
266.358	230.56
266.591	220.56
266.823	254.56
267.055	247.56
267.287	231.56
267.52	233.56
267.752	241.56
267.984	238.56
268.216	242.56
268.448	229.56
268.681	229.56
268.913	252.56
269.145	288.56
269.377	294.56
269.609	303.56
269.841	284.56
270.073	284.56
270.306	300.56
270.538	318.56
270.77	326.56
271.002	310.56
271.234	310.56
271.466	307.56
271.698	321.56
271.93	328.56
272.162	324.56
272.394	300.56
272.626	292.56
272.858	316.56
273.09	292.56
273.322	292.56
273.553	289.56
273.785	281.56
274.017	281.56
274.249	284.56
274.481	301.56
274.713	265.56
274.945	281.56
275.176	280.56
275.408	274.56
275.64	275.56
275.872	285.56
276.104	296.56
276.335	262.56
276.567	274.56
276.799	284.56
277.031	329.56
277.262	323.56
277.494	334.56
277.726	310.56
277.957	306.56
278.189	289.56
278.421	300.56
278.652	270.56
278.884	289.56
279.115	266.56
279.347	289.56
279.579	287.56
279.81	268.56
280.042	292.56
280.273	295.56
280.505	289.56
280.736	285.56
280.968	289.56
281.199	299.56
281.431	289.56
281.662	287.56
281.894	288.56
282.125	272.56
282.356	299.56
282.588	322.56
282.819	301.56
283.051	300.56
283.282	285.56
283.513	304.56
283.745	296.56
283.976	292.56
284.207	306.56
284.439	297.56
284.67	288.56
284.901	296.56
285.132	306.56
285.364	299.56
285.595	301.56
285.826	292.56
286.057	312.56
286.288	296.56
286.52	320.56
286.751	316.56
286.982	316.56
287.213	314.56
287.444	309.56
287.675	314.56
287.906	327.56
288.138	320.56
288.369	339.56
288.6	325.56
288.831	310.56
289.062	331.56
289.293	327.56
289.524	315.56
289.755	306.56
289.986	295.56
290.217	320.56
290.448	326.56
290.679	318.56
290.91	316.56
291.141	325.56
291.371	331.56
291.602	309.56
291.833	322.56
292.064	304.56
292.295	325.56
292.526	302.56
292.757	326.56
292.987	301.56
293.218	323.56
293.449	312.56
293.68	310.56
293.91	312.56
294.141	330.56
294.372	295.56
294.603	314.56
294.833	333.56
295.064	330.56
295.295	344.56
295.525	318.56
295.756	326.56
295.987	319.56
296.217	345.56
296.448	347.56
296.679	315.56
296.909	325.56
297.14	327.56
297.37	321.56
297.601	325.56
297.831	314.56
298.062	323.56
298.292	330.56
298.523	334.56
298.753	316.56
298.984	325.56
299.214	332.56
299.445	340.56
299.675	332.56
299.905	354.56
300.136	339.56
300.366	322.56
300.597	334.56
300.827	349.56
301.057	347.56
301.288	349.56
301.518	351.56
301.748	347.56
301.979	346.56
302.209	361.56
302.439	352.56
302.669	349.56
302.9	340.56
303.13	356.56
303.36	338.56
303.59	350.56
303.82	349.56
304.051	358.56
304.281	370.56
304.511	347.56
304.741	358.56
304.971	359.56
305.201	377.56
305.431	354.56
305.661	347.56
305.891	344.56
306.121	362.56
306.352	346.56
306.582	364.56
306.812	372.56
307.042	357.56
307.272	355.56
307.502	345.56
307.731	379.56
307.961	350.56
308.191	361.56
308.421	362.56
308.651	351.56
308.881	368.56
309.111	357.56
309.341	356.56
309.571	364.56
309.8	375.56
310.03	382.56
310.26	392.56
310.49	382.56
310.72	379.56
310.949	400.56
311.179	395.56
311.409	400.56
311.639	384.56
311.868	394.56
312.098	394.56
312.328	382.56
312.557	419.56
312.787	419.56
313.017	406.56
313.246	429.56
313.476	411.56
313.706	415.56
313.935	433.56
314.165	402.56
314.394	409.56
314.624	424.56
314.853	420.56
315.083	397.56
315.312	400.56
315.542	409.56
315.771	395.56
316.001	376.56
316.23	383.56
316.46	396.56
316.689	416.56
316.919	411.56
317.148	402.56
317.377	419.56
317.607	410.56
317.836	397.56
318.065	418.56
318.295	382.56
318.524	397.56
318.753	392.56
318.983	400.56
319.212	407.56
319.441	398.56
319.67	406.56
319.9	402.56
320.129	392.56
320.358	390.56
320.587	388.56
320.816	414.56
321.046	418.56
321.275	429.56
321.504	424.56
321.733	423.56
321.962	443.56
322.191	437.56
322.42	454.56
322.649	437.56
322.878	443.56
323.108	454.56
323.337	471.56
323.566	476.56
323.795	503.56
324.024	532.56
324.253	607.56
324.482	824.56
324.71	1264.56
324.939	1833.56
325.168	1609.56
325.397	862.56
325.626	621.56
325.855	519.56
326.084	470.56
326.313	486.56
326.542	494.56
326.77	533.56
326.999	580.56
327.228	758.56
327.457	1154.56
327.686	1434.56
327.914	957.56
328.143	654.56
328.372	609.56
328.6	564.56
328.829	525.56
329.058	557.56
329.287	568.56
329.515	521.56
329.744	507.56
329.972	482.56
330.201	508.56
330.43	557.56
330.658	578.56
330.887	596.56
331.115	592.56
331.344	532.56
331.572	492.56
331.801	498.56
332.03	513.56
332.258	500.56
332.486	471.56
332.715	477.56
332.943	479.56
333.172	474.56
333.4	497.56
333.629	521.56
333.857	522.56
334.085	537.56
334.314	545.56
334.542	549.56
334.771	565.56
334.999	502.56
335.227	517.56
335.455	496.56
335.684	489.56
335.912	458.56
336.14	505.56
336.369	486.56
336.597	487.56
336.825	492.56
337.053	464.56
337.281	479.56
337.51	490.56
337.738	459.56
337.966	469.56
338.194	473.56
338.422	462.56
338.65	463.56
338.878	460.56
339.106	452.56
339.334	467.56
339.562	467.56
339.79	458.56
340.018	459.56
340.246	460.56
340.474	452.56
340.702	454.56
340.93	451.56
341.158	444.56
341.386	449.56
341.614	429.56
341.842	457.56
342.07	459.56
342.298	451.56
342.526	435.56
342.754	448.56
342.981	435.56
343.209	438.56
343.437	477.56
343.665	463.56
343.893	501.56
344.12	482.56
344.348	492.56
344.576	476.56
344.804	484.56
345.031	477.56
345.259	482.56
345.487	481.56
345.714	469.56
345.942	422.56
346.17	426.56
346.397	451.56
346.625	459.56
346.853	432.56
347.08	441.56
347.308	451.56
347.535	452.56
347.763	439.56
347.99	454.56
348.218	457.56
348.445	436.56
348.673	442.56
348.9	450.56
349.128	451.56
349.355	442.56
349.583	425.56
349.81	425.56
350.037	467.56
350.265	440.56
350.492	434.56
350.72	426.56
350.947	430.56
351.174	466.56
351.402	440.56
351.629	435.56
351.856	454.56
352.083	444.56
352.311	450.56
352.538	454.56
352.765	449.56
352.992	453.56
353.22	446.56
353.447	443.56
353.674	452.56
353.901	437.56
354.128	442.56
354.355	437.56
354.583	433.56
354.81	429.56
355.037	399.56
355.264	428.56
355.491	411.56
355.718	433.56
355.945	424.56
356.172	413.56
356.399	436.56
356.626	428.56
356.853	425.56
357.08	428.56
357.307	435.56
357.534	437.56
357.761	424.56
357.988	421.56
358.215	437.56
358.441	419.56
358.668	425.56
358.895	438.56
359.122	447.56
359.349	443.56
359.576	460.56
359.802	466.56
360.029	488.56
360.256	483.56
360.483	480.56
360.709	458.56
360.936	465.56
361.163	452.56
361.39	470.56
361.616	470.56
361.843	469.56
362.07	455.56
362.296	446.56
362.523	439.56
362.749	432.56
362.976	443.56
363.203	443.56
363.429	408.56
363.656	437.56
363.882	429.56
364.109	427.56
364.335	429.56
364.562	445.56
364.788	428.56
365.015	451.56
365.241	442.56
365.468	426.56
365.694	416.56
365.92	432.56
366.147	441.56
366.373	436.56
366.599	425.56
366.826	426.56
367.052	446.56
367.278	430.56
367.505	441.56
367.731	416.56
367.957	444.56
368.184	430.56
368.41	440.56
368.636	461.56
368.862	448.56
369.089	441.56
369.315	429.56
369.541	449.56
369.767	426.56
369.993	443.56
370.219	429.56
370.445	462.56
370.672	438.56
370.898	441.56
371.124	442.56
371.35	434.56
371.576	436.56
371.802	455.56
372.028	436.56
372.254	446.56
372.48	452.56
372.706	448.56
372.932	457.56
373.158	458.56
373.384	454.56
373.61	457.56
373.835	447.56
374.061	447.56
374.287	450.56
374.513	440.56
374.739	466.56
374.965	474.56
375.191	463.56
375.416	462.56
375.642	468.56
375.868	455.56
376.094	454.56
376.319	447.56
376.545	446.56
376.771	446.56
376.997	446.56
377.222	450.56
377.448	434.56
377.674	435.56
377.899	439.56
378.125	447.56
378.35	460.56
378.576	437.56
378.802	426.56
379.027	441.56
379.253	433.56
379.478	450.56
379.704	456.56
379.929	450.56
380.155	455.56
380.38	457.56
380.606	452.56
380.831	462.56
381.057	445.56
381.282	463.56
381.507	441.56
381.733	428.56
381.958	467.56
382.184	459.56
382.409	448.56
382.634	459.56
382.86	472.56
383.085	478.56
383.31	470.56
383.535	460.56
383.761	477.56
383.986	483.56
384.211	466.56
384.436	485.56
384.662	492.56
384.887	483.56
385.112	492.56
385.337	496.56
385.562	492.56
385.787	488.56
386.013	490.56
386.238	513.56
386.463	513.56
386.688	508.56
386.913	517.56
387.138	508.56
387.363	490.56
387.588	502.56
387.813	484.56
388.038	478.56
388.263	485.56
388.488	506.56
388.713	477.56
388.938	516.56
389.163	506.56
389.387	504.56
389.612	485.56
389.837	474.56
390.062	493.56
390.287	512.56
390.512	501.56
390.736	491.56
390.961	505.56
391.186	491.56
391.411	510.56
391.636	507.56
391.86	524.56
392.085	526.56
392.31	539.56
392.534	536.56
392.759	497.56
392.984	518.56
393.208	514.56
393.433	532.56
393.658	523.56
393.882	488.56
394.107	508.56
394.331	505.56
394.556	485.56
394.78	521.56
395.005	516.56
395.229	530.56
395.454	548.56
395.678	546.56
395.903	555.56
396.127	532.56
396.352	538.56
396.576	531.56
396.801	513.56
397.025	532.56
397.249	530.56
397.474	550.56
397.698	577.56
397.922	576.56
398.147	565.56
398.371	576.56
398.595	580.56
398.82	576.56
399.044	604.56
399.268	631.56
399.492	676.56
399.717	707.56
399.941	759.56
400.165	760.56
400.389	728.56
400.613	655.56
400.837	602.56
401.062	597.56
401.286	611.56
401.51	609.56
401.734	596.56
401.958	601.56
402.182	593.56
402.406	605.56
402.63	616.56
402.854	612.56
403.078	614.56
403.302	616.56
403.526	613.56
403.75	604.56
403.974	616.56
404.198	613.56
404.422	619.56
404.645	626.56
404.869	625.56
405.093	660.56
405.317	700.56
405.541	745.56
405.765	690.56
405.988	639.56
406.212	641.56
406.436	677.56
406.66	691.56
406.883	662.56
407.107	707.56
407.331	724.56
407.555	784.56
407.778	795.56
408.002	756.56
408.226	692.56
408.449	690.56
408.673	706.56
408.896	693.56
409.12	760.56
409.344	708.56
409.567	653.56
409.791	610.56
410.014	616.56
410.238	595.56
410.461	621.56
410.685	605.56
410.908	629.56
411.132	650.56
411.355	672.56
411.578	672.56
411.802	645.56
412.025	628.56
412.249	610.56
412.472	637.56
412.695	682.56
412.919	681.56
413.142	608.56
413.365	606.56
413.589	610.56
413.812	583.56
414.035	572.56
414.258	612.56
414.482	553.56
414.705	587.56
414.928	589.56
415.151	573.56
415.374	554.56
415.597	590.56
415.821	576.56
416.044	581.56
416.267	576.56
416.49	563.56
416.713	595.56
416.936	571.56
417.159	591.56
417.382	560.56
417.605	576.56
417.828	624.56
418.051	617.56
418.274	593.56
418.497	572.56
418.72	584.56
418.943	568.56
419.166	614.56
419.389	636.56
419.611	638.56
419.834	619.56
420.057	636.56
420.28	623.56
420.503	616.56
420.726	598.56
420.948	619.56
421.171	658.56
421.394	706.56
421.617	629.56
421.839	606.56
422.062	609.56
422.285	625.56
422.507	692.56
422.73	737.56
422.953	727.56
423.175	657.56
423.398	642.56
423.621	624.56
423.843	646.56
424.066	651.56
424.288	652.56
424.511	658.56
424.733	692.56
424.956	800.56
425.178	753.56
425.401	737.56
425.623	799.56
425.846	682.56
426.068	634.56
426.291	640.56
426.513	641.56
426.735	635.56
426.958	695.56
427.18	741.56
427.402	899.56
427.625	1004.56
427.847	853.56
428.069	764.56
428.292	665.56
428.514	635.56
428.736	611.56
428.958	605.56
429.181	573.56
429.403	580.56
429.625	598.56
429.847	646.56
430.069	681.56
430.292	694.56
430.514	606.56
430.736	597.56
430.958	580.56
431.18	581.56
431.402	595.56
431.624	564.56
431.846	544.56
432.068	563.56
432.29	573.56
432.512	561.56
432.734	581.56
432.956	551.56
433.178	572.56
433.4	590.56
433.622	567.56
433.844	579.56
434.066	564.56
434.287	589.56
434.509	568.56
434.731	581.56
434.953	597.56
435.175	617.56
435.397	626.56
435.618	632.56
435.84	655.56
436.062	749.56
436.284	840.56
436.505	720.56
436.727	654.56
436.949	619.56
437.17	577.56
437.392	584.56
437.614	578.56
437.835	600.56
438.057	719.56
438.278	821.56
438.5	825.56
438.721	901.56
438.943	874.56
439.165	675.56
439.386	664.56
439.608	642.56
439.829	651.56
440.05	651.56
440.272	691.56
440.493	642.56
440.715	629.56
440.936	596.56
441.158	584.56
441.379	601.56
441.6	605.56
441.822	621.56
442.043	653.56
442.264	777.56
442.486	811.56
442.707	685.56
442.928	645.56
443.149	664.56
443.371	659.56
443.592	714.56
443.813	819.56
444.034	890.56
444.255	739.56
444.476	680.56
444.698	652.56
444.919	693.56
445.14	753.56
445.361	718.56
445.582	692.56
445.803	713.56
446.024	824.56
446.245	825.56
446.466	774.56
446.687	670.56
446.908	637.56
447.129	610.56
447.35	609.56
447.571	577.56
447.792	572.56
448.013	564.56
448.234	622.56
448.455	636.56
448.675	772.56
448.896	893.56
449.117	733.56
449.338	692.56
449.559	803.56
449.779	929.56
450	755.56
450.221	634.56
450.442	597.56
450.662	580.56
450.883	545.56
451.104	560.56
451.324	572.56
451.545	537.56
451.766	538.56
451.986	504.56
452.207	518.56
452.428	509.56
452.648	518.56
452.869	522.56
453.089	536.56
453.31	537.56
453.53	526.56
453.751	530.56
453.971	511.56
454.192	522.56
454.412	532.56
454.633	523.56
454.853	512.56
455.073	508.56
455.294	519.56
455.514	620.56
455.734	611.56
455.955	524.56
456.175	507.56
456.395	513.56
456.616	481.56
456.836	488.56
457.056	473.56
457.276	498.56
457.497	481.56
457.717	472.56
457.937	514.56
458.157	512.56
458.377	486.56
458.598	534.56
458.818	598.56
459.038	637.56
459.258	680.56
459.478	586.56
459.698	583.56
459.918	565.56
460.138	570.56
460.358	586.56
460.578	604.56
460.798	598.56
461.018	584.56
461.238	585.56
461.458	572.56
461.678	570.56
461.898	601.56
462.118	600.56
462.338	600.56
462.558	601.56
462.777	634.56
462.997	637.56
463.217	652.56
463.437	680.56
463.657	651.56
463.876	640.56
464.096	630.56
464.316	640.56
464.536	632.56
464.755	640.56
464.975	630.56
465.195	644.56
465.414	660.56
465.634	620.56
465.854	605.56
466.073	547.56
466.293	562.56
466.512	573.56
466.732	544.56
466.951	528.56
467.171	534.56
467.391	543.56
467.61	577.56
467.829	579.56
468.049	534.56
468.268	552.56
468.488	531.56
468.707	535.56
468.927	532.56
469.146	530.56
469.365	534.56
469.585	507.56
469.804	540.56
470.023	564.56
470.243	544.56
470.462	544.56
470.681	553.56
470.901	558.56
471.12	563.56
471.339	548.56
471.558	532.56
471.777	546.56
471.997	534.56
472.216	544.56
472.435	568.56
472.654	570.56
472.873	545.56
473.092	528.56
473.311	540.56
473.53	549.56
473.749	546.56
473.968	558.56
474.187	674.56
474.406	727.56
474.625	587.56
474.844	548.56
475.063	574.56
475.282	525.56
475.501	544.56
475.72	549.56
475.939	558.56
476.158	553.56
476.377	579.56
476.596	557.56
476.814	582.56
477.033	580.56
477.252	570.56
477.471	589.56
477.69	590.56
477.908	593.56
478.127	589.56
478.346	624.56
478.564	616.56
478.783	629.56
479.002	624.56
479.22	665.56
479.439	643.56
479.658	636.56
479.876	663.56
480.095	677.56
480.313	691.56
480.532	683.56
480.751	685.56
480.969	665.56
481.188	719.56
481.406	744.56
481.624	693.56
481.843	660.56
482.061	654.56
482.28	629.56
482.498	642.56
482.717	632.56
482.935	635.56
483.153	636.56
483.372	637.56
483.59	635.56
483.808	617.56
484.027	644.56
484.245	636.56
484.463	645.56
484.681	666.56
484.9	650.56
485.118	663.56
485.336	646.56
485.554	647.56
485.772	662.56
485.99	660.56
486.209	635.56
486.427	664.56
486.645	675.56
486.863	703.56
487.081	693.56
487.299	676.56
487.517	666.56
487.735	672.56
487.953	681.56
488.171	668.56
488.389	685.56
488.607	692.56
488.825	696.56
489.043	701.56
489.261	689.56
489.479	710.56
489.696	690.56
489.914	697.56
490.132	706.56
490.35	725.56
490.568	738.56
490.786	724.56
491.003	748.56
491.221	789.56
491.439	770.56
491.657	770.56
491.874	789.56
492.092	794.56
492.31	813.56
492.527	803.56
492.745	809.56
492.963	798.56
493.18	802.56
493.398	826.56
493.615	796.56
493.833	818.56
494.05	792.56
494.268	817.56
494.485	826.56
494.703	826.56
494.92	791.56
495.138	811.56
495.355	812.56
495.573	792.56
495.79	820.56
496.008	822.56
496.225	835.56
496.442	796.56
496.66	826.56
496.877	833.56
497.094	840.56
497.312	814.56
497.529	834.56
497.746	845.56
497.963	868.56
498.181	915.56
498.398	894.56
498.615	935.56
498.832	960.56
499.049	980.56
499.267	1006.56
499.484	1041.56
499.701	1092.56
499.918	1137.56
500.135	1204.56
500.352	1283.56
500.569	1276.56
500.786	1305.56
501.003	1302.56
501.22	1228.56
501.437	1150.56
501.654	1114.56
