Data from 1974.PennyLincolnUp.Lamp.En5.5.200Scan.071719.P1.Changed Mount._HRD10591_15-53-56-857.txt Node
Date: Thu Jul 18 15:53:56 EDT 2019
User: cochatt
Spectrometer: HR+D1059
Trigger mode: 1
Integration Time (sec): 1.000000E-1
Scans to average: 1
Electric dark correction enabled: true
Nonlinearity correction enabled: false
Boxcar width: 0
XAxis mode: Wavelengths
Number of Pixels in Spectrum: 2048
>>>>>Begin Spectral Data<<<<<
223.165	-11.06
223.4	-11.06
223.635	-11.06
223.869	-15.06
224.104	-12.06
224.338	-16.06
224.573	-8.06
224.808	-24.06
225.042	-3.06
225.277	-9.06
225.511	1.94
225.746	1.94
225.98	4.94
226.215	5.94
226.449	22.94
226.683	5.94
226.918	17.94
227.152	36.94
227.387	30.94
227.621	28.94
227.856	39.94
228.09	43.94
228.324	45.94
228.559	59.94
228.793	60.94
229.027	93.94
229.262	116.94
229.496	130.94
229.73	156.94
229.964	158.94
230.199	132.94
230.433	116.94
230.667	115.94
230.901	126.94
231.136	118.94
231.37	122.94
231.604	114.94
231.838	112.94
232.072	123.94
232.306	121.94
232.541	121.94
232.775	121.94
233.009	118.94
233.243	112.94
233.477	112.94
233.711	120.94
233.945	115.94
234.179	122.94
234.413	136.94
234.647	106.94
234.881	113.94
235.115	120.94
235.349	120.94
235.583	115.94
235.817	128.94
236.051	134.94
236.285	134.94
236.519	123.94
236.753	148.94
236.987	154.94
237.221	177.94
237.455	240.94
237.689	173.94
237.922	155.94
238.156	138.94
238.39	131.94
238.624	139.94
238.858	133.94
239.091	135.94
239.325	138.94
239.559	126.94
239.793	129.94
240.027	130.94
240.26	152.94
240.494	168.94
240.728	169.94
240.961	172.94
241.195	153.94
241.429	143.94
241.662	134.94
241.896	147.94
242.13	146.94
242.363	138.94
242.597	137.94
242.83	141.94
243.064	149.94
243.298	152.94
243.531	140.94
243.765	160.94
243.998	150.94
244.232	153.94
244.465	151.94
244.699	141.94
244.932	163.94
245.166	152.94
245.399	150.94
245.633	157.94
245.866	169.94
246.099	160.94
246.333	152.94
246.566	155.94
246.8	152.94
247.033	171.94
247.266	164.94
247.5	167.94
247.733	172.94
247.966	189.94
248.2	171.94
248.433	182.94
248.666	192.94
248.899	208.94
249.133	212.94
249.366	218.94
249.599	217.94
249.832	184.94
250.066	193.94
250.299	181.94
250.532	207.94
250.765	233.94
250.998	238.94
251.231	266.94
251.465	221.94
251.698	222.94
251.931	212.94
252.164	222.94
252.397	210.94
252.63	230.94
252.863	217.94
253.096	227.94
253.329	241.94
253.562	242.94
253.795	236.94
254.028	233.94
254.261	252.94
254.494	228.94
254.727	248.94
254.96	303.94
255.193	299.94
255.426	264.94
255.659	231.94
255.892	244.94
256.124	238.94
256.357	264.94
256.59	239.94
256.823	230.94
257.056	219.94
257.289	208.94
257.521	225.94
257.754	216.94
257.987	227.94
258.22	235.94
258.452	212.94
258.685	229.94
258.918	221.94
259.151	205.94
259.383	230.94
259.616	238.94
259.849	244.94
260.081	256.94
260.314	271.94
260.547	265.94
260.779	245.94
261.012	235.94
261.244	235.94
261.477	241.94
261.71	230.94
261.942	236.94
262.175	240.94
262.407	246.94
262.64	227.94
262.872	212.94
263.105	211.94
263.337	224.94
263.57	228.94
263.802	234.94
264.035	237.94
264.267	218.94
264.499	242.94
264.732	256.94
264.964	219.94
265.197	218.94
265.429	238.94
265.661	233.94
265.894	233.94
266.126	233.94
266.358	244.94
266.591	241.94
266.823	251.94
267.055	249.94
267.287	271.94
267.52	225.94
267.752	248.94
267.984	240.94
268.216	247.94
268.448	246.94
268.681	256.94
268.913	261.94
269.145	285.94
269.377	285.94
269.609	295.94
269.841	293.94
270.073	285.94
270.306	292.94
270.538	334.94
270.77	319.94
271.002	327.94
271.234	321.94
271.466	313.94
271.698	331.94
271.93	316.94
272.162	348.94
272.394	331.94
272.626	300.94
272.858	308.94
273.09	298.94
273.322	294.94
273.553	281.94
273.785	290.94
274.017	282.94
274.249	279.94
274.481	295.94
274.713	275.94
274.945	290.94
275.176	288.94
275.408	279.94
275.64	273.94
275.872	288.94
276.104	281.94
276.335	273.94
276.567	295.94
276.799	289.94
277.031	325.94
277.262	340.94
277.494	341.94
277.726	326.94
277.957	320.94
278.189	310.94
278.421	291.94
278.652	275.94
278.884	296.94
279.115	294.94
279.347	281.94
279.579	312.94
279.81	288.94
280.042	275.94
280.273	287.94
280.505	279.94
280.736	288.94
280.968	278.94
281.199	293.94
281.431	285.94
281.662	289.94
281.894	299.94
282.125	293.94
282.356	299.94
282.588	311.94
282.819	335.94
283.051	305.94
283.282	297.94
283.513	299.94
283.745	286.94
283.976	296.94
284.207	329.94
284.439	314.94
284.67	312.94
284.901	291.94
285.132	295.94
285.364	304.94
285.595	316.94
285.826	308.94
286.057	296.94
286.288	310.94
286.52	310.94
286.751	311.94
286.982	308.94
287.213	296.94
287.444	309.94
287.675	313.94
287.906	308.94
288.138	351.94
288.369	334.94
288.6	342.94
288.831	322.94
289.062	330.94
289.293	312.94
289.524	329.94
289.755	330.94
289.986	318.94
290.217	326.94
290.448	320.94
290.679	308.94
290.91	324.94
291.141	325.94
291.371	304.94
291.602	322.94
291.833	313.94
292.064	310.94
292.295	313.94
292.526	335.94
292.757	316.94
292.987	320.94
293.218	325.94
293.449	330.94
293.68	325.94
293.91	306.94
294.141	298.94
294.372	317.94
294.603	327.94
294.833	304.94
295.064	330.94
295.295	318.94
295.525	329.94
295.756	333.94
295.987	324.94
296.217	366.94
296.448	365.94
296.679	338.94
296.909	333.94
297.14	342.94
297.37	330.94
297.601	334.94
297.831	328.94
298.062	344.94
298.292	331.94
298.523	337.94
298.753	331.94
298.984	336.94
299.214	346.94
299.445	358.94
299.675	337.94
299.905	329.94
300.136	330.94
300.366	331.94
300.597	350.94
300.827	346.94
301.057	357.94
301.288	363.94
301.518	360.94
301.748	347.94
301.979	356.94
302.209	359.94
302.439	366.94
302.669	372.94
302.9	360.94
303.13	362.94
303.36	375.94
303.59	361.94
303.82	357.94
304.051	353.94
304.281	355.94
304.511	366.94
304.741	355.94
304.971	337.94
305.201	362.94
305.431	371.94
305.661	350.94
305.891	359.94
306.121	366.94
306.352	357.94
306.582	389.94
306.812	369.94
307.042	378.94
307.272	368.94
307.502	377.94
307.731	382.94
307.961	346.94
308.191	376.94
308.421	361.94
308.651	377.94
308.881	376.94
309.111	370.94
309.341	378.94
309.571	402.94
309.8	408.94
310.03	393.94
310.26	387.94
310.49	382.94
310.72	380.94
310.949	414.94
311.179	412.94
311.409	411.94
311.639	405.94
311.868	391.94
312.098	392.94
312.328	406.94
312.557	410.94
312.787	424.94
313.017	407.94
313.246	426.94
313.476	399.94
313.706	396.94
313.935	421.94
314.165	404.94
314.394	411.94
314.624	432.94
314.853	410.94
315.083	423.94
315.312	410.94
315.542	408.94
315.771	433.94
316.001	411.94
316.23	404.94
316.46	394.94
316.689	414.94
316.919	419.94
317.148	418.94
317.377	406.94
317.607	399.94
317.836	391.94
318.065	391.94
318.295	417.94
318.524	404.94
318.753	406.94
318.983	410.94
319.212	412.94
319.441	420.94
319.67	423.94
319.9	424.94
320.129	418.94
320.358	418.94
320.587	427.94
320.816	424.94
321.046	406.94
321.275	442.94
321.504	447.94
321.733	429.94
321.962	447.94
322.191	440.94
322.42	436.94
322.649	450.94
322.878	452.94
323.108	457.94
323.337	480.94
323.566	517.94
323.795	512.94
324.024	553.94
324.253	665.94
324.482	855.94
324.71	1354.94
324.939	1956.94
325.168	1721.94
325.397	884.94
325.626	626.94
325.855	545.94
326.084	510.94
326.313	502.94
326.542	522.94
326.77	556.94
326.999	623.94
327.228	786.94
327.457	1193.94
327.686	1522.94
327.914	1029.94
328.143	689.94
328.372	628.94
328.6	582.94
328.829	548.94
329.058	563.94
329.287	580.94
329.515	546.94
329.744	513.94
329.972	529.94
330.201	536.94
330.43	572.94
330.658	588.94
330.887	602.94
331.115	583.94
331.344	538.94
331.572	492.94
331.801	494.94
332.03	509.94
332.258	490.94
332.486	470.94
332.715	485.94
332.943	462.94
333.172	498.94
333.4	512.94
333.629	546.94
333.857	548.94
334.085	521.94
334.314	542.94
334.542	594.94
334.771	606.94
334.999	548.94
335.227	520.94
335.455	497.94
335.684	510.94
335.912	525.94
336.14	513.94
336.369	520.94
336.597	506.94
336.825	493.94
337.053	499.94
337.281	510.94
337.51	511.94
337.738	509.94
337.966	480.94
338.194	481.94
338.422	485.94
338.65	480.94
338.878	505.94
339.106	472.94
339.334	496.94
339.562	458.94
339.79	469.94
340.018	464.94
340.246	471.94
340.474	481.94
340.702	467.94
340.93	469.94
341.158	441.94
341.386	477.94
341.614	475.94
341.842	469.94
342.07	452.94
342.298	465.94
342.526	462.94
342.754	464.94
342.981	444.94
343.209	440.94
343.437	454.94
343.665	470.94
343.893	498.94
344.12	496.94
344.348	486.94
344.576	496.94
344.804	487.94
345.031	479.94
345.259	516.94
345.487	514.94
345.714	473.94
345.942	460.94
346.17	457.94
346.397	461.94
346.625	471.94
346.853	463.94
347.08	465.94
347.308	457.94
347.535	472.94
347.763	467.94
347.99	456.94
348.218	469.94
348.445	464.94
348.673	462.94
348.9	466.94
349.128	465.94
349.355	439.94
349.583	432.94
349.81	441.94
350.037	448.94
350.265	426.94
350.492	441.94
350.72	450.94
350.947	440.94
351.174	438.94
351.402	453.94
351.629	454.94
351.856	453.94
352.083	480.94
352.311	478.94
352.538	477.94
352.765	446.94
352.992	463.94
353.22	463.94
353.447	450.94
353.674	472.94
353.901	455.94
354.128	434.94
354.355	449.94
354.583	450.94
354.81	441.94
355.037	434.94
355.264	433.94
355.491	432.94
355.718	415.94
355.945	447.94
356.172	434.94
356.399	414.94
356.626	425.94
356.853	464.94
357.08	424.94
357.307	455.94
357.534	409.94
357.761	448.94
357.988	450.94
358.215	442.94
358.441	419.94
358.668	418.94
358.895	409.94
359.122	457.94
359.349	439.94
359.576	470.94
359.802	472.94
360.029	477.94
360.256	493.94
360.483	474.94
360.709	468.94
360.936	440.94
361.163	458.94
361.39	457.94
361.616	457.94
361.843	441.94
362.07	464.94
362.296	459.94
362.523	470.94
362.749	459.94
362.976	442.94
363.203	444.94
363.429	447.94
363.656	448.94
363.882	438.94
364.109	445.94
364.335	442.94
364.562	432.94
364.788	454.94
365.015	462.94
365.241	455.94
365.468	437.94
365.694	444.94
365.92	461.94
366.147	439.94
366.373	442.94
366.599	448.94
366.826	446.94
367.052	443.94
367.278	448.94
367.505	437.94
367.731	423.94
367.957	440.94
368.184	440.94
368.41	447.94
368.636	462.94
368.862	462.94
369.089	451.94
369.315	439.94
369.541	441.94
369.767	443.94
369.993	433.94
370.219	449.94
370.445	432.94
370.672	444.94
370.898	457.94
371.124	456.94
371.35	452.94
371.576	464.94
371.802	438.94
372.028	440.94
372.254	468.94
372.48	456.94
372.706	454.94
372.932	450.94
373.158	477.94
373.384	447.94
373.61	464.94
373.835	452.94
374.061	461.94
374.287	453.94
374.513	462.94
374.739	465.94
374.965	478.94
375.191	473.94
375.416	476.94
375.642	450.94
375.868	460.94
376.094	473.94
376.319	442.94
376.545	460.94
376.771	461.94
376.997	436.94
377.222	456.94
377.448	463.94
377.674	479.94
377.899	453.94
378.125	466.94
378.35	455.94
378.576	434.94
378.802	462.94
379.027	461.94
379.253	454.94
379.478	442.94
379.704	453.94
379.929	460.94
380.155	471.94
380.38	458.94
380.606	454.94
380.831	441.94
381.057	460.94
381.282	466.94
381.507	467.94
381.733	472.94
381.958	488.94
382.184	476.94
382.409	464.94
382.634	486.94
382.86	475.94
383.085	467.94
383.31	472.94
383.535	464.94
383.761	465.94
383.986	474.94
384.211	486.94
384.436	485.94
384.662	474.94
384.887	489.94
385.112	476.94
385.337	493.94
385.562	514.94
385.787	496.94
386.013	503.94
386.238	503.94
386.463	517.94
386.688	502.94
386.913	512.94
387.138	475.94
387.363	510.94
387.588	510.94
387.813	492.94
388.038	518.94
388.263	490.94
388.488	490.94
388.713	492.94
388.938	521.94
389.163	514.94
389.387	502.94
389.612	508.94
389.837	509.94
390.062	493.94
390.287	506.94
390.512	493.94
390.736	504.94
390.961	497.94
391.186	514.94
391.411	520.94
391.636	532.94
391.86	538.94
392.085	541.94
392.31	538.94
392.534	532.94
392.759	524.94
392.984	526.94
393.208	509.94
393.433	536.94
393.658	531.94
393.882	500.94
394.107	491.94
394.331	497.94
394.556	527.94
394.78	535.94
395.005	540.94
395.229	520.94
395.454	550.94
395.678	542.94
395.903	549.94
396.127	577.94
396.352	583.94
396.576	552.94
396.801	562.94
397.025	552.94
397.249	562.94
397.474	530.94
397.698	563.94
397.922	583.94
398.147	572.94
398.371	579.94
398.595	572.94
398.82	587.94
399.044	597.94
399.268	610.94
399.492	674.94
399.717	725.94
399.941	752.94
400.165	740.94
400.389	741.94
400.613	714.94
400.837	640.94
401.062	616.94
401.286	589.94
401.51	606.94
401.734	588.94
401.958	585.94
402.182	608.94
402.406	609.94
402.63	593.94
402.854	615.94
403.078	635.94
403.302	640.94
403.526	636.94
403.75	626.94
403.974	629.94
404.198	643.94
404.422	626.94
404.645	643.94
404.869	621.94
405.093	656.94
405.317	707.94
405.541	740.94
405.765	695.94
405.988	638.94
406.212	680.94
406.436	672.94
406.66	697.94
406.883	680.94
407.107	701.94
407.331	733.94
407.555	844.94
407.778	813.94
408.002	749.94
408.226	711.94
408.449	662.94
408.673	678.94
408.896	723.94
409.12	747.94
409.344	717.94
409.567	663.94
409.791	634.94
410.014	614.94
410.238	631.94
410.461	612.94
410.685	615.94
410.908	632.94
411.132	680.94
411.355	709.94
411.578	687.94
411.802	656.94
412.025	645.94
412.249	636.94
412.472	647.94
412.695	678.94
412.919	688.94
413.142	648.94
413.365	600.94
413.589	602.94
413.812	612.94
414.035	590.94
414.258	596.94
414.482	587.94
414.705	565.94
414.928	579.94
415.151	594.94
415.374	597.94
415.597	579.94
415.821	595.94
416.044	588.94
416.267	570.94
416.49	586.94
416.713	613.94
416.936	596.94
417.159	617.94
417.382	589.94
417.605	611.94
417.828	589.94
418.051	621.94
418.274	615.94
418.497	584.94
418.72	600.94
418.943	566.94
419.166	604.94
419.389	644.94
419.611	621.94
419.834	640.94
420.057	655.94
420.28	622.94
420.503	628.94
420.726	636.94
420.948	626.94
421.171	662.94
421.394	704.94
421.617	644.94
421.839	635.94
422.062	628.94
422.285	636.94
422.507	678.94
422.73	770.94
422.953	734.94
423.175	645.94
423.398	642.94
423.621	642.94
423.843	661.94
424.066	676.94
424.288	636.94
424.511	676.94
424.733	721.94
424.956	792.94
425.178	764.94
425.401	778.94
425.623	812.94
425.846	718.94
426.068	662.94
426.291	650.94
426.513	626.94
426.735	644.94
426.958	695.94
427.18	751.94
427.402	914.94
427.625	980.94
427.847	844.94
428.069	764.94
428.292	688.94
428.514	643.94
428.736	600.94
428.958	613.94
429.181	607.94
429.403	596.94
429.625	614.94
429.847	634.94
430.069	709.94
430.292	700.94
430.514	629.94
430.736	596.94
430.958	575.94
431.18	569.94
431.402	572.94
431.624	574.94
431.846	549.94
432.068	580.94
432.29	579.94
432.512	565.94
432.734	588.94
432.956	579.94
433.178	581.94
433.4	613.94
433.622	590.94
433.844	579.94
434.066	566.94
434.287	588.94
434.509	615.94
434.731	596.94
434.953	613.94
435.175	628.94
435.397	613.94
435.618	663.94
435.84	684.94
436.062	769.94
436.284	847.94
436.505	727.94
436.727	691.94
436.949	619.94
437.17	604.94
437.392	598.94
437.614	617.94
437.835	649.94
438.057	725.94
438.278	841.94
438.5	848.94
438.721	923.94
438.943	906.94
439.165	723.94
439.386	658.94
439.608	643.94
439.829	630.94
440.05	707.94
440.272	706.94
440.493	673.94
440.715	634.94
440.936	604.94
441.158	600.94
441.379	596.94
441.6	650.94
441.822	635.94
442.043	699.94
442.264	786.94
442.486	795.94
442.707	721.94
442.928	682.94
443.149	653.94
443.371	700.94
443.592	731.94
443.813	815.94
444.034	903.94
444.255	768.94
444.476	698.94
444.698	663.94
444.919	692.94
445.14	784.94
445.361	728.94
445.582	730.94
445.803	739.94
446.024	850.94
446.245	852.94
446.466	809.94
446.687	690.94
446.908	648.94
447.129	621.94
447.35	610.94
447.571	594.94
447.792	582.94
448.013	583.94
448.234	610.94
448.455	654.94
448.675	778.94
448.896	897.94
449.117	759.94
449.338	742.94
449.559	847.94
449.779	955.94
450	750.94
450.221	624.94
450.442	601.94
450.662	592.94
450.883	569.94
451.104	611.94
451.324	584.94
451.545	572.94
451.766	518.94
451.986	534.94
452.207	533.94
452.428	518.94
452.648	548.94
452.869	532.94
453.089	541.94
453.31	535.94
453.53	529.94
453.751	517.94
453.971	514.94
454.192	541.94
454.412	534.94
454.633	523.94
454.853	500.94
455.073	521.94
455.294	520.94
455.514	633.94
455.734	624.94
455.955	541.94
456.175	520.94
456.395	516.94
456.616	509.94
456.836	498.94
457.056	511.94
457.276	508.94
457.497	520.94
457.717	505.94
457.937	522.94
458.157	509.94
458.377	508.94
458.598	552.94
458.818	613.94
459.038	640.94
459.258	682.94
459.478	596.94
459.698	584.94
459.918	567.94
460.138	563.94
460.358	580.94
460.578	598.94
460.798	616.94
461.018	612.94
461.238	627.94
461.458	601.94
461.678	603.94
461.898	589.94
462.118	618.94
462.338	613.94
462.558	612.94
462.777	636.94
462.997	656.94
463.217	681.94
463.437	683.94
463.657	648.94
463.876	647.94
464.096	647.94
464.316	627.94
464.536	658.94
464.755	649.94
464.975	648.94
465.195	659.94
465.414	703.94
465.634	636.94
465.854	632.94
466.073	590.94
466.293	566.94
466.512	547.94
466.732	541.94
466.951	539.94
467.171	550.94
467.391	550.94
467.61	547.94
467.829	576.94
468.049	564.94
468.268	555.94
468.488	560.94
468.707	524.94
468.927	525.94
469.146	503.94
469.365	533.94
469.585	532.94
469.804	554.94
470.023	546.94
470.243	576.94
470.462	569.94
470.681	576.94
470.901	562.94
471.12	546.94
471.339	567.94
471.558	547.94
471.777	549.94
471.997	566.94
472.216	562.94
472.435	574.94
472.654	593.94
472.873	556.94
473.092	565.94
473.311	546.94
473.53	540.94
473.749	593.94
473.968	618.94
474.187	691.94
474.406	733.94
474.625	629.94
474.844	574.94
475.063	567.94
475.282	539.94
475.501	573.94
475.72	562.94
475.939	577.94
476.158	601.94
476.377	581.94
476.596	571.94
476.814	591.94
477.033	590.94
477.252	604.94
477.471	590.94
477.69	611.94
477.908	601.94
478.127	594.94
478.346	622.94
478.564	616.94
478.783	635.94
479.002	644.94
479.22	642.94
479.439	648.94
479.658	685.94
479.876	691.94
480.095	672.94
480.313	694.94
480.532	704.94
480.751	712.94
480.969	722.94
481.188	756.94
481.406	780.94
481.624	679.94
481.843	673.94
482.061	660.94
482.28	648.94
482.498	672.94
482.717	660.94
482.935	658.94
483.153	654.94
483.372	657.94
483.59	648.94
483.808	642.94
484.027	668.94
484.245	646.94
484.463	661.94
484.681	658.94
484.9	667.94
485.118	672.94
485.336	685.94
485.554	673.94
485.772	663.94
485.99	673.94
486.209	668.94
486.427	682.94
486.645	691.94
486.863	706.94
487.081	702.94
487.299	716.94
487.517	723.94
487.735	720.94
487.953	724.94
488.171	695.94
488.389	721.94
488.607	691.94
488.825	692.94
489.043	715.94
489.261	711.94
489.479	729.94
489.696	730.94
489.914	734.94
490.132	729.94
490.35	760.94
490.568	748.94
490.786	736.94
491.003	762.94
491.221	800.94
491.439	793.94
491.657	809.94
491.874	811.94
492.092	796.94
492.31	821.94
492.527	790.94
492.745	800.94
492.963	790.94
493.18	798.94
493.398	816.94
493.615	840.94
493.833	833.94
494.05	830.94
494.268	838.94
494.485	828.94
494.703	840.94
494.92	827.94
495.138	862.94
495.355	855.94
495.573	849.94
495.79	844.94
496.008	850.94
496.225	811.94
496.442	836.94
496.66	850.94
496.877	851.94
497.094	854.94
497.312	862.94
497.529	870.94
497.746	891.94
497.963	880.94
498.181	931.94
498.398	913.94
498.615	973.94
498.832	995.94
499.049	996.94
499.267	1006.94
499.484	1084.94
499.701	1121.94
499.918	1160.94
500.135	1239.94
500.352	1317.94
500.569	1362.94
500.786	1349.94
501.003	1304.94
501.22	1264.94
501.437	1174.94
501.654	1149.94
