Data from 1974.PennyLincolnUp.Lamp.En5.5.200Scan.071719.P1.Changed Mount._HRD10591_15-53-43-856.txt Node
Date: Thu Jul 18 15:53:43 EDT 2019
User: cochatt
Spectrometer: HR+D1059
Trigger mode: 1
Integration Time (sec): 1.000000E-1
Scans to average: 1
Electric dark correction enabled: true
Nonlinearity correction enabled: false
Boxcar width: 0
XAxis mode: Wavelengths
Number of Pixels in Spectrum: 2048
>>>>>Begin Spectral Data<<<<<
223.165	-14.69
223.4	-14.69
223.635	-14.69
223.869	-25.69
224.104	-20.69
224.338	-10.69
224.573	-13.69
224.808	-15.69
225.042	-13.69
225.277	-4.69
225.511	3.31
225.746	5.31
225.98	18.31
226.215	3.31
226.449	18.31
226.683	31.31
226.918	21.31
227.152	18.31
227.387	41.31
227.621	53.31
227.856	42.31
228.09	40.31
228.324	40.31
228.559	54.31
228.793	78.31
229.027	104.31
229.262	106.31
229.496	121.31
229.73	135.31
229.964	144.31
230.199	136.31
230.433	131.31
230.667	126.31
230.901	99.31
231.136	103.31
231.37	127.31
231.604	125.31
231.838	122.31
232.072	120.31
232.306	102.31
232.541	127.31
232.775	128.31
233.009	119.31
233.243	104.31
233.477	104.31
233.711	104.31
233.945	117.31
234.179	130.31
234.413	119.31
234.647	117.31
234.881	111.31
235.115	115.31
235.349	110.31
235.583	137.31
235.817	133.31
236.051	132.31
236.285	115.31
236.519	141.31
236.753	130.31
236.987	151.31
237.221	196.31
237.455	230.31
237.689	207.31
237.922	149.31
238.156	148.31
238.39	153.31
238.624	138.31
238.858	142.31
239.091	142.31
239.325	137.31
239.559	139.31
239.793	125.31
240.027	139.31
240.26	143.31
240.494	179.31
240.728	158.31
240.961	143.31
241.195	161.31
241.429	145.31
241.662	150.31
241.896	137.31
242.13	152.31
242.363	157.31
242.597	135.31
242.83	147.31
243.064	152.31
243.298	153.31
243.531	130.31
243.765	148.31
243.998	149.31
244.232	153.31
244.465	162.31
244.699	143.31
244.932	150.31
245.166	165.31
245.399	155.31
245.633	142.31
245.866	164.31
246.099	153.31
246.333	146.31
246.566	165.31
246.8	158.31
247.033	168.31
247.266	178.31
247.5	164.31
247.733	163.31
247.966	184.31
248.2	202.31
248.433	180.31
248.666	203.31
248.899	183.31
249.133	196.31
249.366	224.31
249.599	208.31
249.832	196.31
250.066	189.31
250.299	218.31
250.532	207.31
250.765	206.31
250.998	229.31
251.231	244.31
251.465	256.31
251.698	207.31
251.931	199.31
252.164	222.31
252.397	211.31
252.63	218.31
252.863	213.31
253.096	211.31
253.329	237.31
253.562	247.31
253.795	218.31
254.028	238.31
254.261	220.31
254.494	242.31
254.727	235.31
254.96	292.31
255.193	286.31
255.426	254.31
255.659	231.31
255.892	237.31
256.124	243.31
256.357	256.31
256.59	211.31
256.823	218.31
257.056	227.31
257.289	231.31
257.521	231.31
257.754	234.31
257.987	223.31
258.22	235.31
258.452	220.31
258.685	219.31
258.918	228.31
259.151	220.31
259.383	222.31
259.616	240.31
259.849	250.31
260.081	244.31
260.314	269.31
260.547	286.31
260.779	268.31
261.012	255.31
261.244	233.31
261.477	226.31
261.71	225.31
261.942	233.31
262.175	249.31
262.407	248.31
262.64	232.31
262.872	229.31
263.105	246.31
263.337	254.31
263.57	245.31
263.802	233.31
264.035	232.31
264.267	228.31
264.499	227.31
264.732	231.31
264.964	231.31
265.197	228.31
265.429	262.31
265.661	233.31
265.894	237.31
266.126	251.31
266.358	255.31
266.591	250.31
266.823	242.31
267.055	228.31
267.287	256.31
267.52	236.31
267.752	224.31
267.984	245.31
268.216	250.31
268.448	247.31
268.681	256.31
268.913	258.31
269.145	279.31
269.377	300.31
269.609	291.31
269.841	288.31
270.073	284.31
270.306	301.31
270.538	333.31
270.77	329.31
271.002	324.31
271.234	324.31
271.466	309.31
271.698	321.31
271.93	334.31
272.162	329.31
272.394	328.31
272.626	318.31
272.858	308.31
273.09	316.31
273.322	291.31
273.553	284.31
273.785	294.31
274.017	290.31
274.249	290.31
274.481	289.31
274.713	285.31
274.945	284.31
275.176	290.31
275.408	293.31
275.64	294.31
275.872	303.31
276.104	281.31
276.335	301.31
276.567	291.31
276.799	293.31
277.031	338.31
277.262	329.31
277.494	331.31
277.726	347.31
277.957	303.31
278.189	302.31
278.421	293.31
278.652	279.31
278.884	282.31
279.115	296.31
279.347	290.31
279.579	293.31
279.81	287.31
280.042	271.31
280.273	288.31
280.505	305.31
280.736	282.31
280.968	280.31
281.199	278.31
281.431	286.31
281.662	295.31
281.894	304.31
282.125	293.31
282.356	314.31
282.588	321.31
282.819	312.31
283.051	324.31
283.282	285.31
283.513	299.31
283.745	316.31
283.976	291.31
284.207	307.31
284.439	312.31
284.67	306.31
284.901	306.31
285.132	317.31
285.364	313.31
285.595	301.31
285.826	302.31
286.057	294.31
286.288	304.31
286.52	292.31
286.751	302.31
286.982	313.31
287.213	300.31
287.444	302.31
287.675	310.31
287.906	323.31
288.138	338.31
288.369	352.31
288.6	318.31
288.831	305.31
289.062	308.31
289.293	308.31
289.524	335.31
289.755	329.31
289.986	319.31
290.217	303.31
290.448	316.31
290.679	330.31
290.91	318.31
291.141	326.31
291.371	319.31
291.602	327.31
291.833	312.31
292.064	322.31
292.295	307.31
292.526	323.31
292.757	319.31
292.987	310.31
293.218	306.31
293.449	309.31
293.68	322.31
293.91	330.31
294.141	311.31
294.372	310.31
294.603	336.31
294.833	319.31
295.064	349.31
295.295	307.31
295.525	316.31
295.756	319.31
295.987	329.31
296.217	354.31
296.448	344.31
296.679	349.31
296.909	334.31
297.14	326.31
297.37	340.31
297.601	354.31
297.831	339.31
298.062	323.31
298.292	327.31
298.523	337.31
298.753	330.31
298.984	338.31
299.214	336.31
299.445	337.31
299.675	338.31
299.905	333.31
300.136	336.31
300.366	330.31
300.597	319.31
300.827	340.31
301.057	344.31
301.288	363.31
301.518	356.31
301.748	372.31
301.979	354.31
302.209	378.31
302.439	354.31
302.669	355.31
302.9	368.31
303.13	355.31
303.36	363.31
303.59	342.31
303.82	365.31
304.051	379.31
304.281	368.31
304.511	374.31
304.741	353.31
304.971	348.31
305.201	359.31
305.431	372.31
305.661	366.31
305.891	358.31
306.121	361.31
306.352	356.31
306.582	365.31
306.812	371.31
307.042	376.31
307.272	346.31
307.502	346.31
307.731	362.31
307.961	386.31
308.191	388.31
308.421	350.31
308.651	359.31
308.881	366.31
309.111	372.31
309.341	382.31
309.571	385.31
309.8	396.31
310.03	394.31
310.26	383.31
310.49	389.31
310.72	392.31
310.949	421.31
311.179	431.31
311.409	395.31
311.639	390.31
311.868	396.31
312.098	400.31
312.328	429.31
312.557	422.31
312.787	430.31
313.017	442.31
313.246	407.31
313.476	382.31
313.706	401.31
313.935	405.31
314.165	426.31
314.394	436.31
314.624	434.31
314.853	417.31
315.083	412.31
315.312	414.31
315.542	402.31
315.771	404.31
316.001	403.31
316.23	397.31
316.46	396.31
316.689	421.31
316.919	408.31
317.148	435.31
317.377	419.31
317.607	415.31
317.836	399.31
318.065	408.31
318.295	410.31
318.524	402.31
318.753	416.31
318.983	413.31
319.212	404.31
319.441	410.31
319.67	433.31
319.9	415.31
320.129	410.31
320.358	402.31
320.587	412.31
320.816	401.31
321.046	418.31
321.275	413.31
321.504	434.31
321.733	418.31
321.962	426.31
322.191	431.31
322.42	435.31
322.649	484.31
322.878	464.31
323.108	467.31
323.337	479.31
323.566	495.31
323.795	537.31
324.024	571.31
324.253	645.31
324.482	857.31
324.71	1311.31
324.939	1931.31
325.168	1714.31
325.397	886.31
325.626	627.31
325.855	537.31
326.084	493.31
326.313	490.31
326.542	485.31
326.77	555.31
326.999	609.31
327.228	818.31
327.457	1174.31
327.686	1492.31
327.914	1012.31
328.143	669.31
328.372	614.31
328.6	596.31
328.829	552.31
329.058	572.31
329.287	566.31
329.515	541.31
329.744	530.31
329.972	511.31
330.201	521.31
330.43	565.31
330.658	595.31
330.887	578.31
331.115	600.31
331.344	518.31
331.572	490.31
331.801	519.31
332.03	507.31
332.258	502.31
332.486	500.31
332.715	498.31
332.943	488.31
333.172	505.31
333.4	522.31
333.629	520.31
333.857	534.31
334.085	549.31
334.314	549.31
334.542	551.31
334.771	572.31
334.999	537.31
335.227	525.31
335.455	521.31
335.684	518.31
335.912	510.31
336.14	508.31
336.369	496.31
336.597	530.31
336.825	490.31
337.053	477.31
337.281	469.31
337.51	478.31
337.738	493.31
337.966	493.31
338.194	495.31
338.422	473.31
338.65	459.31
338.878	484.31
339.106	467.31
339.334	490.31
339.562	468.31
339.79	458.31
340.018	476.31
340.246	478.31
340.474	500.31
340.702	471.31
340.93	486.31
341.158	462.31
341.386	482.31
341.614	468.31
341.842	453.31
342.07	468.31
342.298	451.31
342.526	452.31
342.754	468.31
342.981	463.31
343.209	458.31
343.437	472.31
343.665	477.31
343.893	475.31
344.12	500.31
344.348	490.31
344.576	492.31
344.804	514.31
345.031	486.31
345.259	503.31
345.487	470.31
345.714	463.31
345.942	471.31
346.17	462.31
346.397	450.31
346.625	452.31
346.853	463.31
347.08	432.31
347.308	462.31
347.535	470.31
347.763	454.31
347.99	462.31
348.218	487.31
348.445	457.31
348.673	449.31
348.9	468.31
349.128	485.31
349.355	450.31
349.583	437.31
349.81	435.31
350.037	448.31
350.265	459.31
350.492	441.31
350.72	456.31
350.947	462.31
351.174	453.31
351.402	451.31
351.629	432.31
351.856	485.31
352.083	462.31
352.311	463.31
352.538	466.31
352.765	445.31
352.992	482.31
353.22	450.31
353.447	437.31
353.674	448.31
353.901	445.31
354.128	448.31
354.355	426.31
354.583	455.31
354.81	442.31
355.037	444.31
355.264	449.31
355.491	432.31
355.718	435.31
355.945	435.31
356.172	426.31
356.399	438.31
356.626	429.31
356.853	428.31
357.08	427.31
357.307	426.31
357.534	423.31
357.761	436.31
357.988	452.31
358.215	422.31
358.441	412.31
358.668	447.31
358.895	447.31
359.122	441.31
359.349	438.31
359.576	455.31
359.802	474.31
360.029	493.31
360.256	500.31
360.483	500.31
360.709	456.31
360.936	464.31
361.163	466.31
361.39	465.31
361.616	450.31
361.843	471.31
362.07	461.31
362.296	450.31
362.523	441.31
362.749	462.31
362.976	459.31
363.203	481.31
363.429	447.31
363.656	431.31
363.882	444.31
364.109	459.31
364.335	440.31
364.562	448.31
364.788	434.31
365.015	445.31
365.241	450.31
365.468	428.31
365.694	442.31
365.92	424.31
366.147	450.31
366.373	430.31
366.599	450.31
366.826	453.31
367.052	446.31
367.278	454.31
367.505	446.31
367.731	466.31
367.957	439.31
368.184	454.31
368.41	443.31
368.636	454.31
368.862	454.31
369.089	455.31
369.315	451.31
369.541	458.31
369.767	463.31
369.993	456.31
370.219	453.31
370.445	432.31
370.672	460.31
370.898	447.31
371.124	465.31
371.35	470.31
371.576	463.31
371.802	447.31
372.028	459.31
372.254	459.31
372.48	465.31
372.706	466.31
372.932	464.31
373.158	453.31
373.384	456.31
373.61	444.31
373.835	442.31
374.061	474.31
374.287	471.31
374.513	463.31
374.739	486.31
374.965	490.31
375.191	468.31
375.416	468.31
375.642	448.31
375.868	469.31
376.094	450.31
376.319	460.31
376.545	483.31
376.771	456.31
376.997	440.31
377.222	442.31
377.448	431.31
377.674	455.31
377.899	454.31
378.125	459.31
378.35	478.31
378.576	454.31
378.802	457.31
379.027	463.31
379.253	458.31
379.478	437.31
379.704	448.31
379.929	461.31
380.155	468.31
380.38	476.31
380.606	454.31
380.831	459.31
381.057	452.31
381.282	446.31
381.507	475.31
381.733	472.31
381.958	476.31
382.184	486.31
382.409	463.31
382.634	490.31
382.86	452.31
383.085	473.31
383.31	503.31
383.535	477.31
383.761	476.31
383.986	484.31
384.211	483.31
384.436	493.31
384.662	487.31
384.887	498.31
385.112	477.31
385.337	495.31
385.562	490.31
385.787	495.31
386.013	510.31
386.238	507.31
386.463	512.31
386.688	524.31
386.913	519.31
387.138	514.31
387.363	512.31
387.588	507.31
387.813	517.31
388.038	487.31
388.263	503.31
388.488	506.31
388.713	510.31
388.938	523.31
389.163	519.31
389.387	526.31
389.612	525.31
389.837	527.31
390.062	521.31
390.287	511.31
390.512	499.31
390.736	495.31
390.961	524.31
391.186	504.31
391.411	532.31
391.636	532.31
391.86	524.31
392.085	552.31
392.31	520.31
392.534	512.31
392.759	501.31
392.984	506.31
393.208	525.31
393.433	520.31
393.658	538.31
393.882	518.31
394.107	527.31
394.331	516.31
394.556	517.31
394.78	525.31
395.005	520.31
395.229	519.31
395.454	531.31
395.678	548.31
395.903	556.31
396.127	585.31
396.352	573.31
396.576	533.31
396.801	529.31
397.025	524.31
397.249	525.31
397.474	539.31
397.698	568.31
397.922	595.31
398.147	604.31
398.371	596.31
398.595	591.31
398.82	592.31
399.044	609.31
399.268	638.31
399.492	663.31
399.717	686.31
399.941	748.31
400.165	758.31
400.389	738.31
400.613	686.31
400.837	622.31
401.062	631.31
401.286	620.31
401.51	596.31
401.734	595.31
401.958	605.31
402.182	579.31
402.406	625.31
402.63	621.31
402.854	620.31
403.078	602.31
403.302	616.31
403.526	615.31
403.75	650.31
403.974	636.31
404.198	621.31
404.422	637.31
404.645	642.31
404.869	660.31
405.093	691.31
405.317	707.31
405.541	748.31
405.765	680.31
405.988	668.31
406.212	663.31
406.436	683.31
406.66	692.31
406.883	668.31
407.107	693.31
407.331	758.31
407.555	832.31
407.778	823.31
408.002	749.31
408.226	725.31
408.449	679.31
408.673	680.31
408.896	703.31
409.12	748.31
409.344	715.31
409.567	655.31
409.791	621.31
410.014	635.31
410.238	639.31
410.461	628.31
410.685	627.31
410.908	623.31
411.132	681.31
411.355	704.31
411.578	680.31
411.802	625.31
412.025	631.31
412.249	623.31
412.472	648.31
412.695	706.31
412.919	672.31
413.142	616.31
413.365	597.31
413.589	620.31
413.812	587.31
414.035	605.31
414.258	606.31
414.482	589.31
414.705	597.31
414.928	572.31
415.151	608.31
415.374	607.31
415.597	596.31
415.821	574.31
416.044	609.31
416.267	591.31
416.49	582.31
416.713	588.31
416.936	579.31
417.159	581.31
417.382	597.31
417.605	603.31
417.828	606.31
418.051	623.31
418.274	621.31
418.497	588.31
418.72	613.31
418.943	578.31
419.166	608.31
419.389	674.31
419.611	636.31
419.834	627.31
420.057	607.31
420.28	631.31
420.503	623.31
420.726	620.31
420.948	615.31
421.171	663.31
421.394	720.31
421.617	654.31
421.839	630.31
422.062	620.31
422.285	621.31
422.507	690.31
422.73	763.31
422.953	760.31
423.175	657.31
423.398	637.31
423.621	634.31
423.843	670.31
424.066	682.31
424.288	650.31
424.511	661.31
424.733	724.31
424.956	807.31
425.178	757.31
425.401	762.31
425.623	802.31
425.846	709.31
426.068	647.31
426.291	635.31
426.513	632.31
426.735	655.31
426.958	717.31
427.18	787.31
427.402	906.31
427.625	973.31
427.847	868.31
428.069	756.31
428.292	668.31
428.514	648.31
428.736	613.31
428.958	603.31
429.181	594.31
429.403	606.31
429.625	603.31
429.847	636.31
430.069	707.31
430.292	707.31
430.514	597.31
430.736	596.31
430.958	600.31
431.18	596.31
431.402	555.31
431.624	557.31
431.846	553.31
432.068	565.31
432.29	552.31
432.512	571.31
432.734	587.31
432.956	580.31
433.178	599.31
433.4	596.31
433.622	594.31
433.844	574.31
434.066	558.31
434.287	557.31
434.509	589.31
434.731	625.31
434.953	601.31
435.175	616.31
435.397	631.31
435.618	646.31
435.84	711.31
436.062	778.31
436.284	863.31
436.505	741.31
436.727	653.31
436.949	596.31
437.17	615.31
437.392	607.31
437.614	586.31
437.835	641.31
438.057	713.31
438.278	808.31
438.5	825.31
438.721	891.31
438.943	872.31
439.165	709.31
439.386	669.31
439.608	636.31
439.829	630.31
440.05	663.31
440.272	728.31
440.493	686.31
440.715	657.31
440.936	602.31
441.158	618.31
441.379	628.31
441.6	633.31
441.822	649.31
442.043	666.31
442.264	787.31
442.486	842.31
442.707	711.31
442.928	664.31
443.149	679.31
443.371	669.31
443.592	723.31
443.813	850.31
444.034	898.31
444.255	780.31
444.476	717.31
444.698	700.31
444.919	679.31
445.14	784.31
445.361	732.31
445.582	682.31
445.803	751.31
446.024	872.31
446.245	867.31
446.466	805.31
446.687	704.31
446.908	660.31
447.129	642.31
447.35	605.31
447.571	582.31
447.792	587.31
448.013	598.31
448.234	588.31
448.455	655.31
448.675	790.31
448.896	922.31
449.117	758.31
449.338	728.31
449.559	826.31
449.779	923.31
450	738.31
450.221	657.31
450.442	612.31
450.662	586.31
450.883	576.31
451.104	572.31
451.324	593.31
451.545	564.31
451.766	548.31
451.986	540.31
452.207	518.31
452.428	516.31
452.648	535.31
452.869	531.31
453.089	548.31
453.31	572.31
453.53	557.31
453.751	537.31
453.971	528.31
454.192	558.31
454.412	531.31
454.633	522.31
454.853	515.31
455.073	522.31
455.294	564.31
455.514	615.31
455.734	635.31
455.955	538.31
456.175	512.31
456.395	489.31
456.616	493.31
456.836	504.31
457.056	494.31
457.276	496.31
457.497	528.31
457.717	501.31
457.937	514.31
458.157	526.31
458.377	537.31
458.598	564.31
458.818	586.31
459.038	639.31
459.258	700.31
459.478	614.31
459.698	586.31
459.918	571.31
460.138	577.31
460.358	589.31
460.578	591.31
460.798	600.31
461.018	606.31
461.238	595.31
461.458	600.31
461.678	581.31
461.898	607.31
462.118	605.31
462.338	633.31
462.558	626.31
462.777	607.31
462.997	668.31
463.217	675.31
463.437	682.31
463.657	638.31
463.876	647.31
464.096	650.31
464.316	640.31
464.536	656.31
464.755	650.31
464.975	645.31
465.195	666.31
465.414	710.31
465.634	654.31
465.854	615.31
466.073	583.31
466.293	580.31
466.512	550.31
466.732	556.31
466.951	546.31
467.171	531.31
467.391	575.31
467.61	532.31
467.829	563.31
468.049	574.31
468.268	579.31
468.488	526.31
468.707	518.31
468.927	536.31
469.146	535.31
469.365	533.31
469.585	535.31
469.804	547.31
470.023	564.31
470.243	558.31
470.462	558.31
470.681	561.31
470.901	588.31
471.12	570.31
471.339	565.31
471.558	547.31
471.777	569.31
471.997	544.31
472.216	563.31
472.435	567.31
472.654	558.31
472.873	563.31
473.092	559.31
473.311	566.31
473.53	566.31
473.749	576.31
473.968	620.31
474.187	680.31
474.406	708.31
474.625	608.31
474.844	549.31
475.063	568.31
475.282	558.31
475.501	577.31
475.72	564.31
475.939	554.31
476.158	552.31
476.377	567.31
476.596	570.31
476.814	592.31
477.033	611.31
477.252	583.31
477.471	597.31
477.69	602.31
477.908	592.31
478.127	612.31
478.346	611.31
478.564	611.31
478.783	629.31
479.002	656.31
479.22	655.31
479.439	635.31
479.658	672.31
479.876	659.31
480.095	680.31
480.313	710.31
480.532	706.31
480.751	702.31
480.969	675.31
481.188	738.31
481.406	765.31
481.624	700.31
481.843	672.31
482.061	670.31
482.28	668.31
482.498	650.31
482.717	652.31
482.935	674.31
483.153	646.31
483.372	663.31
483.59	671.31
483.808	661.31
484.027	632.31
484.245	652.31
484.463	643.31
484.681	640.31
484.9	682.31
485.118	645.31
485.336	660.31
485.554	677.31
485.772	674.31
485.99	656.31
486.209	688.31
486.427	679.31
486.645	683.31
486.863	690.31
487.081	702.31
487.299	666.31
487.517	677.31
487.735	715.31
487.953	683.31
488.171	692.31
488.389	710.31
488.607	700.31
488.825	692.31
489.043	715.31
489.261	735.31
489.479	708.31
489.696	732.31
489.914	730.31
490.132	717.31
490.35	738.31
490.568	717.31
490.786	745.31
491.003	765.31
491.221	782.31
491.439	773.31
491.657	773.31
491.874	803.31
492.092	827.31
492.31	822.31
492.527	832.31
492.745	831.31
492.963	797.31
493.18	835.31
493.398	840.31
493.615	840.31
493.833	837.31
494.05	808.31
494.268	809.31
494.485	832.31
494.703	847.31
494.92	855.31
495.138	839.31
495.355	854.31
495.573	835.31
495.79	852.31
496.008	818.31
496.225	832.31
496.442	844.31
496.66	861.31
496.877	855.31
497.094	839.31
497.312	863.31
497.529	858.31
497.746	899.31
497.963	920.31
498.181	929.31
498.398	934.31
498.615	931.31
498.832	968.31
499.049	1000.31
499.267	1024.31
499.484	1087.31
499.701	1147.31
499.918	1182.31
500.135	1252.31
500.352	1294.31
500.569	1310.31
500.786	1331.31
501.003	1314.31
501.22	1248.31
501.437	1212.31
501.654	1128.31
