Data from 1974.PennyLincolnUp.Lamp.En5.5.200Scan.071719.P1.Changed Mount._HRD10591_15-54-05-857.txt Node
Date: Thu Jul 18 15:54:05 EDT 2019
User: cochatt
Spectrometer: HR+D1059
Trigger mode: 1
Integration Time (sec): 1.000000E-1
Scans to average: 1
Electric dark correction enabled: true
Nonlinearity correction enabled: false
Boxcar width: 0
XAxis mode: Wavelengths
Number of Pixels in Spectrum: 2048
>>>>>Begin Spectral Data<<<<<
223.165	-11.31
223.4	-11.31
223.635	-11.31
223.869	-20.31
224.104	-17.31
224.338	-10.31
224.573	-14.31
224.808	-20.31
225.042	-16.31
225.277	2.69
225.511	-3.31
225.746	-1.31
225.98	-10.31
226.215	6.69
226.449	14.69
226.683	23.69
226.918	36.69
227.152	40.69
227.387	42.69
227.621	45.69
227.856	48.69
228.09	50.69
228.324	52.69
228.559	54.69
228.793	66.69
229.027	87.69
229.262	103.69
229.496	123.69
229.73	121.69
229.964	166.69
230.199	137.69
230.433	118.69
230.667	124.69
230.901	141.69
231.136	117.69
231.37	131.69
231.604	113.69
231.838	118.69
232.072	123.69
232.306	121.69
232.541	115.69
232.775	117.69
233.009	131.69
233.243	127.69
233.477	112.69
233.711	130.69
233.945	124.69
234.179	123.69
234.413	121.69
234.647	128.69
234.881	132.69
235.115	124.69
235.349	119.69
235.583	121.69
235.817	126.69
236.051	140.69
236.285	138.69
236.519	140.69
236.753	146.69
236.987	141.69
237.221	199.69
237.455	230.69
237.689	205.69
237.922	164.69
238.156	139.69
238.39	129.69
238.624	127.69
238.858	137.69
239.091	164.69
239.325	136.69
239.559	145.69
239.793	135.69
240.027	141.69
240.26	158.69
240.494	170.69
240.728	162.69
240.961	164.69
241.195	164.69
241.429	127.69
241.662	154.69
241.896	141.69
242.13	144.69
242.363	135.69
242.597	163.69
242.83	139.69
243.064	161.69
243.298	146.69
243.531	149.69
243.765	162.69
243.998	144.69
244.232	152.69
244.465	165.69
244.699	157.69
244.932	158.69
245.166	167.69
245.399	166.69
245.633	157.69
245.866	153.69
246.099	167.69
246.333	173.69
246.566	169.69
246.8	172.69
247.033	177.69
247.266	182.69
247.5	177.69
247.733	196.69
247.966	187.69
248.2	176.69
248.433	187.69
248.666	175.69
248.899	207.69
249.133	212.69
249.366	205.69
249.599	200.69
249.832	202.69
250.066	210.69
250.299	200.69
250.532	201.69
250.765	213.69
250.998	253.69
251.231	254.69
251.465	247.69
251.698	215.69
251.931	216.69
252.164	222.69
252.397	204.69
252.63	228.69
252.863	232.69
253.096	233.69
253.329	261.69
253.562	239.69
253.795	238.69
254.028	235.69
254.261	257.69
254.494	256.69
254.727	274.69
254.96	283.69
255.193	303.69
255.426	268.69
255.659	257.69
255.892	244.69
256.124	273.69
256.357	260.69
256.59	246.69
256.823	217.69
257.056	235.69
257.289	234.69
257.521	237.69
257.754	244.69
257.987	224.69
258.22	224.69
258.452	243.69
258.685	230.69
258.918	219.69
259.151	217.69
259.383	227.69
259.616	264.69
259.849	243.69
260.081	238.69
260.314	260.69
260.547	273.69
260.779	263.69
261.012	270.69
261.244	249.69
261.477	236.69
261.71	228.69
261.942	237.69
262.175	257.69
262.407	248.69
262.64	238.69
262.872	238.69
263.105	249.69
263.337	237.69
263.57	245.69
263.802	226.69
264.035	240.69
264.267	241.69
264.499	250.69
264.732	223.69
264.964	241.69
265.197	231.69
265.429	244.69
265.661	243.69
265.894	261.69
266.126	245.69
266.358	237.69
266.591	240.69
266.823	244.69
267.055	244.69
267.287	253.69
267.52	238.69
267.752	244.69
267.984	236.69
268.216	257.69
268.448	248.69
268.681	254.69
268.913	282.69
269.145	287.69
269.377	306.69
269.609	285.69
269.841	292.69
270.073	301.69
270.306	325.69
270.538	345.69
270.77	337.69
271.002	356.69
271.234	315.69
271.466	314.69
271.698	326.69
271.93	346.69
272.162	336.69
272.394	334.69
272.626	341.69
272.858	298.69
273.09	299.69
273.322	294.69
273.553	287.69
273.785	305.69
274.017	287.69
274.249	304.69
274.481	279.69
274.713	276.69
274.945	295.69
275.176	294.69
275.408	308.69
275.64	273.69
275.872	270.69
276.104	285.69
276.335	298.69
276.567	297.69
276.799	314.69
277.031	313.69
277.262	338.69
277.494	345.69
277.726	333.69
277.957	305.69
278.189	301.69
278.421	288.69
278.652	306.69
278.884	305.69
279.115	295.69
279.347	306.69
279.579	310.69
279.81	306.69
280.042	302.69
280.273	293.69
280.505	288.69
280.736	295.69
280.968	283.69
281.199	298.69
281.431	299.69
281.662	300.69
281.894	292.69
282.125	319.69
282.356	332.69
282.588	346.69
282.819	337.69
283.051	310.69
283.282	292.69
283.513	305.69
283.745	295.69
283.976	313.69
284.207	326.69
284.439	333.69
284.67	345.69
284.901	319.69
285.132	324.69
285.364	316.69
285.595	314.69
285.826	302.69
286.057	318.69
286.288	316.69
286.52	324.69
286.751	312.69
286.982	342.69
287.213	318.69
287.444	311.69
287.675	328.69
287.906	346.69
288.138	356.69
288.369	338.69
288.6	319.69
288.831	338.69
289.062	322.69
289.293	337.69
289.524	338.69
289.755	326.69
289.986	327.69
290.217	321.69
290.448	331.69
290.679	336.69
290.91	334.69
291.141	336.69
291.371	319.69
291.602	312.69
291.833	336.69
292.064	324.69
292.295	329.69
292.526	338.69
292.757	348.69
292.987	313.69
293.218	320.69
293.449	340.69
293.68	337.69
293.91	318.69
294.141	351.69
294.372	356.69
294.603	329.69
294.833	339.69
295.064	345.69
295.295	351.69
295.525	333.69
295.756	317.69
295.987	356.69
296.217	355.69
296.448	356.69
296.679	345.69
296.909	347.69
297.14	351.69
297.37	328.69
297.601	344.69
297.831	325.69
298.062	342.69
298.292	347.69
298.523	351.69
298.753	349.69
298.984	330.69
299.214	347.69
299.445	358.69
299.675	343.69
299.905	352.69
300.136	356.69
300.366	352.69
300.597	339.69
300.827	372.69
301.057	370.69
301.288	372.69
301.518	374.69
301.748	365.69
301.979	354.69
302.209	361.69
302.439	359.69
302.669	386.69
302.9	376.69
303.13	352.69
303.36	370.69
303.59	363.69
303.82	376.69
304.051	372.69
304.281	368.69
304.511	377.69
304.741	361.69
304.971	378.69
305.201	365.69
305.431	354.69
305.661	359.69
305.891	348.69
306.121	358.69
306.352	372.69
306.582	375.69
306.812	374.69
307.042	377.69
307.272	352.69
307.502	378.69
307.731	363.69
307.961	361.69
308.191	390.69
308.421	381.69
308.651	373.69
308.881	373.69
309.111	393.69
309.341	375.69
309.571	386.69
309.8	381.69
310.03	402.69
310.26	399.69
310.49	395.69
310.72	417.69
310.949	412.69
311.179	440.69
311.409	418.69
311.639	384.69
311.868	384.69
312.098	413.69
312.328	411.69
312.557	435.69
312.787	448.69
313.017	427.69
313.246	415.69
313.476	412.69
313.706	419.69
313.935	430.69
314.165	432.69
314.394	453.69
314.624	430.69
314.853	418.69
315.083	404.69
315.312	426.69
315.542	410.69
315.771	428.69
316.001	425.69
316.23	412.69
316.46	430.69
316.689	423.69
316.919	432.69
317.148	417.69
317.377	445.69
317.607	426.69
317.836	421.69
318.065	416.69
318.295	406.69
318.524	427.69
318.753	434.69
318.983	414.69
319.212	420.69
319.441	430.69
319.67	439.69
319.9	422.69
320.129	428.69
320.358	393.69
320.587	412.69
320.816	410.69
321.046	450.69
321.275	429.69
321.504	459.69
321.733	422.69
321.962	446.69
322.191	452.69
322.42	465.69
322.649	453.69
322.878	476.69
323.108	469.69
323.337	473.69
323.566	489.69
323.795	538.69
324.024	569.69
324.253	667.69
324.482	836.69
324.71	1354.69
324.939	1982.69
325.168	1755.69
325.397	928.69
325.626	637.69
325.855	568.69
326.084	523.69
326.313	529.69
326.542	537.69
326.77	578.69
326.999	626.69
327.228	810.69
327.457	1228.69
327.686	1528.69
327.914	1030.69
328.143	713.69
328.372	621.69
328.6	589.69
328.829	571.69
329.058	578.69
329.287	601.69
329.515	575.69
329.744	537.69
329.972	532.69
330.201	557.69
330.43	569.69
330.658	601.69
330.887	595.69
331.115	620.69
331.344	549.69
331.572	533.69
331.801	552.69
332.03	542.69
332.258	536.69
332.486	526.69
332.715	529.69
332.943	526.69
333.172	523.69
333.4	500.69
333.629	519.69
333.857	537.69
334.085	555.69
334.314	583.69
334.542	588.69
334.771	593.69
334.999	554.69
335.227	535.69
335.455	526.69
335.684	518.69
335.912	508.69
336.14	506.69
336.369	505.69
336.597	512.69
336.825	517.69
337.053	507.69
337.281	488.69
337.51	472.69
337.738	479.69
337.966	475.69
338.194	488.69
338.422	497.69
338.65	485.69
338.878	489.69
339.106	485.69
339.334	493.69
339.562	492.69
339.79	465.69
340.018	479.69
340.246	470.69
340.474	495.69
340.702	497.69
340.93	467.69
341.158	485.69
341.386	480.69
341.614	485.69
341.842	489.69
342.07	459.69
342.298	475.69
342.526	473.69
342.754	468.69
342.981	485.69
343.209	470.69
343.437	470.69
343.665	508.69
343.893	481.69
344.12	514.69
344.348	506.69
344.576	501.69
344.804	519.69
345.031	516.69
345.259	516.69
345.487	486.69
345.714	469.69
345.942	465.69
346.17	478.69
346.397	476.69
346.625	432.69
346.853	476.69
347.08	458.69
347.308	489.69
347.535	459.69
347.763	490.69
347.99	488.69
348.218	474.69
348.445	464.69
348.673	482.69
348.9	466.69
349.128	458.69
349.355	457.69
349.583	457.69
349.81	476.69
350.037	442.69
350.265	452.69
350.492	461.69
350.72	463.69
350.947	455.69
351.174	475.69
351.402	496.69
351.629	473.69
351.856	477.69
352.083	472.69
352.311	480.69
352.538	483.69
352.765	484.69
352.992	463.69
353.22	477.69
353.447	465.69
353.674	463.69
353.901	464.69
354.128	453.69
354.355	454.69
354.583	445.69
354.81	447.69
355.037	447.69
355.264	456.69
355.491	450.69
355.718	451.69
355.945	446.69
356.172	454.69
356.399	450.69
356.626	454.69
356.853	439.69
357.08	429.69
357.307	448.69
357.534	439.69
357.761	458.69
357.988	458.69
358.215	439.69
358.441	434.69
358.668	454.69
358.895	464.69
359.122	458.69
359.349	469.69
359.576	452.69
359.802	492.69
360.029	483.69
360.256	508.69
360.483	488.69
360.709	479.69
360.936	479.69
361.163	480.69
361.39	478.69
361.616	485.69
361.843	479.69
362.07	454.69
362.296	462.69
362.523	482.69
362.749	452.69
362.976	456.69
363.203	470.69
363.429	455.69
363.656	460.69
363.882	462.69
364.109	459.69
364.335	466.69
364.562	431.69
364.788	459.69
365.015	457.69
365.241	458.69
365.468	473.69
365.694	456.69
365.92	463.69
366.147	466.69
366.373	448.69
366.599	456.69
366.826	470.69
367.052	454.69
367.278	458.69
367.505	476.69
367.731	452.69
367.957	455.69
368.184	479.69
368.41	474.69
368.636	472.69
368.862	462.69
369.089	465.69
369.315	445.69
369.541	481.69
369.767	471.69
369.993	467.69
370.219	462.69
370.445	464.69
370.672	461.69
370.898	469.69
371.124	463.69
371.35	476.69
371.576	478.69
371.802	453.69
372.028	480.69
372.254	460.69
372.48	459.69
372.706	458.69
372.932	472.69
373.158	473.69
373.384	493.69
373.61	469.69
373.835	467.69
374.061	484.69
374.287	483.69
374.513	481.69
374.739	475.69
374.965	489.69
375.191	489.69
375.416	492.69
375.642	470.69
375.868	462.69
376.094	456.69
376.319	462.69
376.545	468.69
376.771	469.69
376.997	456.69
377.222	475.69
377.448	458.69
377.674	483.69
377.899	468.69
378.125	469.69
378.35	454.69
378.576	452.69
378.802	453.69
379.027	458.69
379.253	454.69
379.478	467.69
379.704	465.69
379.929	473.69
380.155	480.69
380.38	477.69
380.606	471.69
380.831	485.69
381.057	478.69
381.282	457.69
381.507	483.69
381.733	467.69
381.958	478.69
382.184	473.69
382.409	477.69
382.634	479.69
382.86	467.69
383.085	495.69
383.31	508.69
383.535	487.69
383.761	491.69
383.986	518.69
384.211	501.69
384.436	508.69
384.662	502.69
384.887	515.69
385.112	491.69
385.337	532.69
385.562	534.69
385.787	526.69
386.013	540.69
386.238	535.69
386.463	542.69
386.688	522.69
386.913	509.69
387.138	518.69
387.363	521.69
387.588	531.69
387.813	544.69
388.038	529.69
388.263	537.69
388.488	543.69
388.713	510.69
388.938	545.69
389.163	550.69
389.387	520.69
389.612	534.69
389.837	530.69
390.062	527.69
390.287	537.69
390.512	523.69
390.736	516.69
390.961	510.69
391.186	540.69
391.411	529.69
391.636	526.69
391.86	551.69
392.085	540.69
392.31	550.69
392.534	548.69
392.759	542.69
392.984	549.69
393.208	531.69
393.433	520.69
393.658	527.69
393.882	520.69
394.107	535.69
394.331	540.69
394.556	505.69
394.78	546.69
395.005	533.69
395.229	529.69
395.454	554.69
395.678	566.69
395.903	581.69
396.127	563.69
396.352	591.69
396.576	572.69
396.801	538.69
397.025	543.69
397.249	575.69
397.474	560.69
397.698	567.69
397.922	588.69
398.147	582.69
398.371	598.69
398.595	598.69
398.82	583.69
399.044	640.69
399.268	654.69
399.492	720.69
399.717	751.69
399.941	764.69
400.165	777.69
400.389	772.69
400.613	704.69
400.837	655.69
401.062	636.69
401.286	620.69
401.51	622.69
401.734	606.69
401.958	617.69
402.182	610.69
402.406	634.69
402.63	639.69
402.854	619.69
403.078	624.69
403.302	620.69
403.526	649.69
403.75	657.69
403.974	646.69
404.198	644.69
404.422	637.69
404.645	666.69
404.869	653.69
405.093	673.69
405.317	729.69
405.541	747.69
405.765	709.69
405.988	670.69
406.212	660.69
406.436	692.69
406.66	702.69
406.883	679.69
407.107	725.69
407.331	765.69
407.555	842.69
407.778	840.69
408.002	772.69
408.226	745.69
408.449	710.69
408.673	697.69
408.896	744.69
409.12	761.69
409.344	748.69
409.567	670.69
409.791	665.69
410.014	639.69
410.238	632.69
410.461	640.69
410.685	637.69
410.908	674.69
411.132	680.69
411.355	732.69
411.578	738.69
411.802	650.69
412.025	637.69
412.249	631.69
412.472	689.69
412.695	708.69
412.919	708.69
413.142	671.69
413.365	642.69
413.589	628.69
413.812	618.69
414.035	599.69
414.258	623.69
414.482	626.69
414.705	593.69
414.928	608.69
415.151	601.69
415.374	606.69
415.597	594.69
415.821	594.69
416.044	613.69
416.267	601.69
416.49	587.69
416.713	600.69
416.936	590.69
417.159	588.69
417.382	628.69
417.605	598.69
417.828	626.69
418.051	641.69
418.274	624.69
418.497	630.69
418.72	620.69
418.943	617.69
419.166	620.69
419.389	698.69
419.611	674.69
419.834	645.69
420.057	656.69
420.28	641.69
420.503	626.69
420.726	615.69
420.948	642.69
421.171	677.69
421.394	707.69
421.617	647.69
421.839	634.69
422.062	623.69
422.285	649.69
422.507	701.69
422.73	782.69
422.953	766.69
423.175	702.69
423.398	665.69
423.621	678.69
423.843	674.69
424.066	682.69
424.288	652.69
424.511	670.69
424.733	748.69
424.956	835.69
425.178	810.69
425.401	787.69
425.623	820.69
425.846	698.69
426.068	662.69
426.291	675.69
426.513	669.69
426.735	660.69
426.958	745.69
427.18	798.69
427.402	936.69
427.625	1006.69
427.847	840.69
428.069	782.69
428.292	700.69
428.514	653.69
428.736	646.69
428.958	652.69
429.181	621.69
429.403	598.69
429.625	626.69
429.847	673.69
430.069	738.69
430.292	721.69
430.514	632.69
430.736	607.69
430.958	615.69
431.18	591.69
431.402	594.69
431.624	600.69
431.846	564.69
432.068	590.69
432.29	592.69
432.512	586.69
432.734	606.69
432.956	597.69
433.178	595.69
433.4	600.69
433.622	616.69
433.844	582.69
434.066	606.69
434.287	583.69
434.509	607.69
434.731	633.69
434.953	625.69
435.175	636.69
435.397	667.69
435.618	646.69
435.84	718.69
436.062	808.69
436.284	865.69
436.505	746.69
436.727	680.69
436.949	631.69
437.17	625.69
437.392	626.69
437.614	638.69
437.835	644.69
438.057	765.69
438.278	860.69
438.5	874.69
438.721	927.69
438.943	887.69
439.165	725.69
439.386	671.69
439.608	656.69
439.829	692.69
440.05	713.69
440.272	734.69
440.493	697.69
440.715	629.69
440.936	624.69
441.158	617.69
441.379	619.69
441.6	648.69
441.822	677.69
442.043	696.69
442.264	798.69
442.486	846.69
442.707	732.69
442.928	684.69
443.149	696.69
443.371	695.69
443.592	748.69
443.813	886.69
444.034	917.69
444.255	785.69
444.476	699.69
444.698	708.69
444.919	677.69
445.14	799.69
445.361	726.69
445.582	723.69
445.803	757.69
446.024	894.69
446.245	873.69
446.466	800.69
446.687	705.69
446.908	666.69
447.129	599.69
447.35	610.69
447.571	595.69
447.792	590.69
448.013	602.69
448.234	636.69
448.455	679.69
448.675	808.69
448.896	918.69
449.117	811.69
449.338	746.69
449.559	836.69
449.779	964.69
450	786.69
450.221	650.69
450.442	621.69
450.662	604.69
450.883	590.69
451.104	598.69
451.324	585.69
451.545	592.69
451.766	569.69
451.986	551.69
452.207	556.69
452.428	554.69
452.648	542.69
452.869	553.69
453.089	548.69
453.31	549.69
453.53	558.69
453.751	552.69
453.971	541.69
454.192	559.69
454.412	558.69
454.633	528.69
454.853	525.69
455.073	532.69
455.294	571.69
455.514	630.69
455.734	624.69
455.955	544.69
456.175	531.69
456.395	520.69
456.616	508.69
456.836	519.69
457.056	524.69
457.276	493.69
457.497	534.69
457.717	501.69
457.937	520.69
458.157	542.69
458.377	528.69
458.598	548.69
458.818	602.69
459.038	694.69
459.258	714.69
459.478	621.69
459.698	598.69
459.918	567.69
460.138	577.69
460.358	607.69
460.578	613.69
460.798	617.69
461.018	625.69
461.238	604.69
461.458	590.69
461.678	595.69
461.898	618.69
462.118	636.69
462.338	648.69
462.558	642.69
462.777	658.69
462.997	676.69
463.217	702.69
463.437	704.69
463.657	664.69
463.876	665.69
464.096	684.69
464.316	657.69
464.536	655.69
464.755	664.69
464.975	674.69
465.195	692.69
465.414	723.69
465.634	651.69
465.854	629.69
466.073	599.69
466.293	597.69
466.512	583.69
466.732	579.69
466.951	576.69
467.171	594.69
467.391	576.69
467.61	553.69
467.829	598.69
468.049	573.69
468.268	568.69
468.488	567.69
468.707	540.69
468.927	520.69
469.146	536.69
469.365	539.69
469.585	554.69
469.804	576.69
470.023	574.69
470.243	556.69
470.462	588.69
470.681	599.69
470.901	608.69
471.12	585.69
471.339	584.69
471.558	575.69
471.777	587.69
471.997	561.69
472.216	575.69
472.435	591.69
472.654	587.69
472.873	569.69
473.092	578.69
473.311	565.69
473.53	552.69
473.749	574.69
473.968	616.69
474.187	758.69
474.406	752.69
474.625	633.69
474.844	583.69
475.063	576.69
475.282	575.69
475.501	586.69
475.72	589.69
475.939	597.69
476.158	594.69
476.377	612.69
476.596	588.69
476.814	580.69
477.033	588.69
477.252	584.69
477.471	589.69
477.69	613.69
477.908	638.69
478.127	622.69
478.346	642.69
478.564	635.69
478.783	665.69
479.002	662.69
479.22	652.69
479.439	656.69
479.658	689.69
479.876	687.69
480.095	719.69
480.313	724.69
480.532	716.69
480.751	710.69
480.969	710.69
481.188	758.69
481.406	757.69
481.624	729.69
481.843	678.69
482.061	687.69
482.28	697.69
482.498	686.69
482.717	687.69
482.935	664.69
483.153	632.69
483.372	664.69
483.59	674.69
483.808	675.69
484.027	676.69
484.245	692.69
484.463	677.69
484.681	678.69
484.9	706.69
485.118	678.69
485.336	698.69
485.554	687.69
485.772	673.69
485.99	690.69
486.209	695.69
486.427	675.69
486.645	694.69
486.863	714.69
487.081	704.69
487.299	693.69
487.517	715.69
487.735	698.69
487.953	722.69
488.171	717.69
488.389	694.69
488.607	727.69
488.825	743.69
489.043	722.69
489.261	731.69
489.479	729.69
489.696	730.69
489.914	726.69
490.132	729.69
490.35	722.69
490.568	776.69
490.786	758.69
491.003	792.69
491.221	827.69
491.439	790.69
491.657	819.69
491.874	827.69
492.092	844.69
492.31	814.69
492.527	841.69
492.745	836.69
492.963	855.69
493.18	826.69
493.398	855.69
493.615	857.69
493.833	853.69
494.05	841.69
494.268	850.69
494.485	881.69
494.703	857.69
494.92	861.69
495.138	856.69
495.355	829.69
495.573	869.69
495.79	865.69
496.008	858.69
496.225	845.69
496.442	875.69
496.66	848.69
496.877	858.69
497.094	859.69
497.312	902.69
497.529	902.69
497.746	903.69
497.963	910.69
498.181	939.69
498.398	966.69
498.615	997.69
498.832	1005.69
499.049	1028.69
499.267	1057.69
499.484	1096.69
499.701	1137.69
499.918	1201.69
500.135	1273.69
500.352	1335.69
500.569	1413.69
500.786	1422.69
501.003	1352.69
501.22	1310.69
501.437	1244.69
