Data from 1975.PennyLincolnUp.Lamp.En5.5.200Scan.071719.P1.Changed Mount._HRD10591_15-58-15-859.txt Node
Date: Thu Jul 18 15:58:15 EDT 2019
User: cochatt
Spectrometer: HR+D1059
Trigger mode: 1
Integration Time (sec): 1.000000E-1
Scans to average: 1
Electric dark correction enabled: true
Nonlinearity correction enabled: false
Boxcar width: 0
XAxis mode: Wavelengths
Number of Pixels in Spectrum: 2048
>>>>>Begin Spectral Data<<<<<
223.165	-14.94
223.4	-14.94
223.635	-14.94
223.869	-16.94
224.104	-6.94
224.338	-25.94
224.573	-16.94
224.808	-21.94
225.042	-18.94
225.277	-3.94
225.511	7.06
225.746	10.06
225.98	10.06
226.215	5.06
226.449	10.06
226.683	26.06
226.918	34.06
227.152	24.06
227.387	38.06
227.621	42.06
227.856	58.06
228.09	64.06
228.324	51.06
228.559	56.06
228.793	65.06
229.027	87.06
229.262	90.06
229.496	126.06
229.73	132.06
229.964	162.06
230.199	130.06
230.433	136.06
230.667	118.06
230.901	133.06
231.136	111.06
231.37	109.06
231.604	116.06
231.838	115.06
232.072	125.06
232.306	137.06
232.541	120.06
232.775	121.06
233.009	124.06
233.243	109.06
233.477	120.06
233.711	116.06
233.945	121.06
234.179	125.06
234.413	122.06
234.647	132.06
234.881	118.06
235.115	135.06
235.349	127.06
235.583	127.06
235.817	119.06
236.051	119.06
236.285	120.06
236.519	138.06
236.753	143.06
236.987	136.06
237.221	178.06
237.455	235.06
237.689	198.06
237.922	132.06
238.156	134.06
238.39	141.06
238.624	134.06
238.858	132.06
239.091	127.06
239.325	137.06
239.559	135.06
239.793	133.06
240.027	136.06
240.26	137.06
240.494	184.06
240.728	162.06
240.961	163.06
241.195	152.06
241.429	138.06
241.662	144.06
241.896	134.06
242.13	143.06
242.363	141.06
242.597	147.06
242.83	157.06
243.064	141.06
243.298	145.06
243.531	153.06
243.765	150.06
243.998	146.06
244.232	142.06
244.465	156.06
244.699	136.06
244.932	159.06
245.166	143.06
245.399	157.06
245.633	150.06
245.866	150.06
246.099	160.06
246.333	165.06
246.566	166.06
246.8	161.06
247.033	165.06
247.266	162.06
247.5	173.06
247.733	185.06
247.966	204.06
248.2	187.06
248.433	167.06
248.666	165.06
248.899	208.06
249.133	192.06
249.366	214.06
249.599	199.06
249.832	195.06
250.066	189.06
250.299	200.06
250.532	201.06
250.765	209.06
250.998	210.06
251.231	225.06
251.465	235.06
251.698	222.06
251.931	206.06
252.164	203.06
252.397	205.06
252.63	194.06
252.863	216.06
253.096	226.06
253.329	234.06
253.562	220.06
253.795	218.06
254.028	219.06
254.261	224.06
254.494	231.06
254.727	253.06
254.96	275.06
255.193	268.06
255.426	263.06
255.659	226.06
255.892	234.06
256.124	252.06
256.357	241.06
256.59	236.06
256.823	224.06
257.056	232.06
257.289	233.06
257.521	221.06
257.754	234.06
257.987	228.06
258.22	222.06
258.452	225.06
258.685	223.06
258.918	221.06
259.151	214.06
259.383	229.06
259.616	260.06
259.849	215.06
260.081	232.06
260.314	268.06
260.547	288.06
260.779	266.06
261.012	247.06
261.244	257.06
261.477	224.06
261.71	240.06
261.942	241.06
262.175	234.06
262.407	248.06
262.64	219.06
262.872	220.06
263.105	228.06
263.337	230.06
263.57	230.06
263.802	220.06
264.035	209.06
264.267	225.06
264.499	220.06
264.732	231.06
264.964	216.06
265.197	234.06
265.429	237.06
265.661	229.06
265.894	227.06
266.126	246.06
266.358	246.06
266.591	242.06
266.823	233.06
267.055	232.06
267.287	244.06
267.52	256.06
267.752	254.06
267.984	227.06
268.216	249.06
268.448	246.06
268.681	260.06
268.913	270.06
269.145	254.06
269.377	295.06
269.609	273.06
269.841	289.06
270.073	276.06
270.306	326.06
270.538	325.06
270.77	330.06
271.002	322.06
271.234	313.06
271.466	316.06
271.698	335.06
271.93	347.06
272.162	320.06
272.394	343.06
272.626	316.06
272.858	294.06
273.09	287.06
273.322	281.06
273.553	279.06
273.785	275.06
274.017	272.06
274.249	278.06
274.481	263.06
274.713	280.06
274.945	288.06
275.176	292.06
275.408	287.06
275.64	274.06
275.872	278.06
276.104	283.06
276.335	273.06
276.567	281.06
276.799	287.06
277.031	313.06
277.262	341.06
277.494	327.06
277.726	323.06
277.957	308.06
278.189	303.06
278.421	280.06
278.652	300.06
278.884	293.06
279.115	279.06
279.347	292.06
279.579	286.06
279.81	287.06
280.042	287.06
280.273	290.06
280.505	284.06
280.736	264.06
280.968	289.06
281.199	281.06
281.431	300.06
281.662	288.06
281.894	278.06
282.125	293.06
282.356	292.06
282.588	317.06
282.819	328.06
283.051	306.06
283.282	291.06
283.513	302.06
283.745	299.06
283.976	289.06
284.207	318.06
284.439	317.06
284.67	305.06
284.901	286.06
285.132	299.06
285.364	287.06
285.595	297.06
285.826	310.06
286.057	312.06
286.288	299.06
286.52	306.06
286.751	295.06
286.982	304.06
287.213	311.06
287.444	298.06
287.675	304.06
287.906	308.06
288.138	322.06
288.369	335.06
288.6	305.06
288.831	315.06
289.062	335.06
289.293	312.06
289.524	300.06
289.755	289.06
289.986	301.06
290.217	301.06
290.448	297.06
290.679	311.06
290.91	321.06
291.141	316.06
291.371	318.06
291.602	314.06
291.833	314.06
292.064	318.06
292.295	312.06
292.526	305.06
292.757	308.06
292.987	312.06
293.218	321.06
293.449	324.06
293.68	309.06
293.91	301.06
294.141	300.06
294.372	325.06
294.603	315.06
294.833	318.06
295.064	324.06
295.295	301.06
295.525	334.06
295.756	320.06
295.987	331.06
296.217	329.06
296.448	361.06
296.679	320.06
296.909	312.06
297.14	295.06
297.37	303.06
297.601	340.06
297.831	333.06
298.062	329.06
298.292	322.06
298.523	319.06
298.753	336.06
298.984	337.06
299.214	328.06
299.445	346.06
299.675	356.06
299.905	336.06
300.136	314.06
300.366	342.06
300.597	330.06
300.827	335.06
301.057	358.06
301.288	349.06
301.518	349.06
301.748	341.06
301.979	374.06
302.209	348.06
302.439	338.06
302.669	348.06
302.9	351.06
303.13	345.06
303.36	363.06
303.59	356.06
303.82	354.06
304.051	367.06
304.281	354.06
304.511	349.06
304.741	353.06
304.971	352.06
305.201	351.06
305.431	352.06
305.661	376.06
305.891	335.06
306.121	361.06
306.352	353.06
306.582	337.06
306.812	360.06
307.042	363.06
307.272	362.06
307.502	343.06
307.731	360.06
307.961	372.06
308.191	338.06
308.421	336.06
308.651	364.06
308.881	369.06
309.111	352.06
309.341	356.06
309.571	337.06
309.8	369.06
310.03	363.06
310.26	391.06
310.49	380.06
310.72	375.06
310.949	406.06
311.179	416.06
311.409	381.06
311.639	404.06
311.868	386.06
312.098	385.06
312.328	403.06
312.557	419.06
312.787	431.06
313.017	421.06
313.246	400.06
313.476	382.06
313.706	394.06
313.935	387.06
314.165	407.06
314.394	424.06
314.624	397.06
314.853	384.06
315.083	408.06
315.312	381.06
315.542	392.06
315.771	392.06
316.001	415.06
316.23	395.06
316.46	392.06
316.689	398.06
316.919	403.06
317.148	398.06
317.377	425.06
317.607	428.06
317.836	391.06
318.065	400.06
318.295	405.06
318.524	394.06
318.753	396.06
318.983	399.06
319.212	393.06
319.441	386.06
319.67	396.06
319.9	388.06
320.129	394.06
320.358	405.06
320.587	398.06
320.816	405.06
321.046	416.06
321.275	413.06
321.504	427.06
321.733	411.06
321.962	420.06
322.191	433.06
322.42	444.06
322.649	447.06
322.878	450.06
323.108	465.06
323.337	480.06
323.566	473.06
323.795	499.06
324.024	517.06
324.253	614.06
324.482	857.06
324.71	1317.06
324.939	1952.06
325.168	1750.06
325.397	853.06
325.626	609.06
325.855	525.06
326.084	510.06
326.313	481.06
326.542	476.06
326.77	536.06
326.999	618.06
327.228	796.06
327.457	1163.06
327.686	1491.06
327.914	1009.06
328.143	666.06
328.372	605.06
328.6	568.06
328.829	521.06
329.058	534.06
329.287	559.06
329.515	528.06
329.744	502.06
329.972	510.06
330.201	525.06
330.43	554.06
330.658	554.06
330.887	591.06
331.115	568.06
331.344	524.06
331.572	486.06
331.801	507.06
332.03	497.06
332.258	489.06
332.486	476.06
332.715	488.06
332.943	481.06
333.172	486.06
333.4	518.06
333.629	524.06
333.857	509.06
334.085	508.06
334.314	525.06
334.542	584.06
334.771	583.06
334.999	530.06
335.227	496.06
335.455	495.06
335.684	502.06
335.912	484.06
336.14	459.06
336.369	489.06
336.597	464.06
336.825	493.06
337.053	470.06
337.281	460.06
337.51	462.06
337.738	457.06
337.966	445.06
338.194	473.06
338.422	471.06
338.65	438.06
338.878	466.06
339.106	460.06
339.334	456.06
339.562	477.06
339.79	461.06
340.018	477.06
340.246	463.06
340.474	455.06
340.702	466.06
340.93	441.06
341.158	456.06
341.386	443.06
341.614	470.06
341.842	459.06
342.07	448.06
342.298	421.06
342.526	455.06
342.754	432.06
342.981	423.06
343.209	430.06
343.437	458.06
343.665	469.06
343.893	477.06
344.12	487.06
344.348	480.06
344.576	447.06
344.804	465.06
345.031	467.06
345.259	471.06
345.487	484.06
345.714	446.06
345.942	462.06
346.17	429.06
346.397	424.06
346.625	441.06
346.853	448.06
347.08	437.06
347.308	448.06
347.535	428.06
347.763	438.06
347.99	444.06
348.218	439.06
348.445	441.06
348.673	434.06
348.9	454.06
349.128	443.06
349.355	419.06
349.583	408.06
349.81	420.06
350.037	414.06
350.265	425.06
350.492	425.06
350.72	434.06
350.947	446.06
351.174	441.06
351.402	443.06
351.629	437.06
351.856	438.06
352.083	439.06
352.311	464.06
352.538	436.06
352.765	449.06
352.992	444.06
353.22	417.06
353.447	447.06
353.674	437.06
353.901	429.06
354.128	421.06
354.355	399.06
354.583	429.06
354.81	406.06
355.037	424.06
355.264	402.06
355.491	415.06
355.718	418.06
355.945	415.06
356.172	410.06
356.399	409.06
356.626	413.06
356.853	420.06
357.08	414.06
357.307	422.06
357.534	409.06
357.761	403.06
357.988	403.06
358.215	421.06
358.441	419.06
358.668	418.06
358.895	433.06
359.122	412.06
359.349	414.06
359.576	426.06
359.802	446.06
360.029	479.06
360.256	484.06
360.483	452.06
360.709	425.06
360.936	451.06
361.163	438.06
361.39	448.06
361.616	438.06
361.843	431.06
362.07	429.06
362.296	425.06
362.523	438.06
362.749	433.06
362.976	434.06
363.203	450.06
363.429	421.06
363.656	430.06
363.882	416.06
364.109	422.06
364.335	406.06
364.562	438.06
364.788	446.06
365.015	433.06
365.241	430.06
365.468	438.06
365.694	454.06
365.92	434.06
366.147	445.06
366.373	430.06
366.599	409.06
366.826	412.06
367.052	419.06
367.278	427.06
367.505	426.06
367.731	431.06
367.957	428.06
368.184	420.06
368.41	415.06
368.636	429.06
368.862	442.06
369.089	418.06
369.315	411.06
369.541	437.06
369.767	433.06
369.993	423.06
370.219	433.06
370.445	420.06
370.672	421.06
370.898	429.06
371.124	437.06
371.35	423.06
371.576	432.06
371.802	424.06
372.028	420.06
372.254	424.06
372.48	452.06
372.706	447.06
372.932	431.06
373.158	440.06
373.384	450.06
373.61	434.06
373.835	455.06
374.061	453.06
374.287	436.06
374.513	429.06
374.739	450.06
374.965	432.06
375.191	451.06
375.416	455.06
375.642	457.06
375.868	445.06
376.094	426.06
376.319	430.06
376.545	421.06
376.771	425.06
376.997	412.06
377.222	414.06
377.448	429.06
377.674	432.06
377.899	422.06
378.125	419.06
378.35	420.06
378.576	439.06
378.802	432.06
379.027	444.06
379.253	452.06
379.478	430.06
379.704	408.06
379.929	417.06
380.155	420.06
380.38	452.06
380.606	442.06
380.831	428.06
381.057	439.06
381.282	424.06
381.507	433.06
381.733	462.06
381.958	440.06
382.184	448.06
382.409	439.06
382.634	433.06
382.86	434.06
383.085	472.06
383.31	444.06
383.535	448.06
383.761	461.06
383.986	457.06
384.211	471.06
384.436	474.06
384.662	486.06
384.887	464.06
385.112	486.06
385.337	459.06
385.562	478.06
385.787	493.06
386.013	486.06
386.238	484.06
386.463	481.06
386.688	456.06
386.913	496.06
387.138	474.06
387.363	484.06
387.588	496.06
387.813	494.06
388.038	481.06
388.263	487.06
388.488	484.06
388.713	501.06
388.938	480.06
389.163	502.06
389.387	482.06
389.612	467.06
389.837	485.06
390.062	485.06
390.287	453.06
390.512	478.06
390.736	476.06
390.961	476.06
391.186	491.06
391.411	506.06
391.636	485.06
391.86	500.06
392.085	512.06
392.31	508.06
392.534	493.06
392.759	526.06
392.984	502.06
393.208	493.06
393.433	503.06
393.658	492.06
393.882	481.06
394.107	485.06
394.331	501.06
394.556	502.06
394.78	489.06
395.005	516.06
395.229	502.06
395.454	501.06
395.678	503.06
395.903	530.06
396.127	534.06
396.352	529.06
396.576	504.06
396.801	487.06
397.025	514.06
397.249	504.06
397.474	504.06
397.698	529.06
397.922	548.06
398.147	570.06
398.371	565.06
398.595	558.06
398.82	554.06
399.044	581.06
399.268	591.06
399.492	619.06
399.717	687.06
399.941	696.06
400.165	726.06
400.389	734.06
400.613	663.06
400.837	622.06
401.062	596.06
401.286	590.06
401.51	598.06
401.734	557.06
401.958	569.06
402.182	589.06
402.406	572.06
402.63	581.06
402.854	599.06
403.078	590.06
403.302	594.06
403.526	600.06
403.75	603.06
403.974	595.06
404.198	608.06
404.422	624.06
404.645	614.06
404.869	608.06
405.093	654.06
405.317	673.06
405.541	725.06
405.765	654.06
405.988	640.06
406.212	624.06
406.436	623.06
406.66	659.06
406.883	640.06
407.107	663.06
407.331	693.06
407.555	768.06
407.778	762.06
408.002	716.06
408.226	648.06
408.449	644.06
408.673	654.06
408.896	689.06
409.12	729.06
409.344	661.06
409.567	644.06
409.791	608.06
410.014	588.06
410.238	620.06
410.461	597.06
410.685	596.06
410.908	611.06
411.132	651.06
411.355	671.06
411.578	633.06
411.802	620.06
412.025	582.06
412.249	604.06
412.472	624.06
412.695	641.06
412.919	682.06
413.142	617.06
413.365	582.06
413.589	594.06
413.812	585.06
414.035	561.06
414.258	571.06
414.482	572.06
414.705	568.06
414.928	553.06
415.151	552.06
415.374	556.06
415.597	580.06
415.821	557.06
416.044	558.06
416.267	551.06
416.49	548.06
416.713	566.06
416.936	562.06
417.159	539.06
417.382	590.06
417.605	574.06
417.828	582.06
418.051	591.06
418.274	575.06
418.497	577.06
418.72	551.06
418.943	570.06
419.166	573.06
419.389	616.06
419.611	592.06
419.834	584.06
420.057	580.06
420.28	596.06
420.503	603.06
420.726	609.06
420.948	602.06
421.171	641.06
421.394	650.06
421.617	629.06
421.839	591.06
422.062	605.06
422.285	613.06
422.507	668.06
422.73	736.06
422.953	682.06
423.175	659.06
423.398	623.06
423.621	626.06
423.843	639.06
424.066	620.06
424.288	633.06
424.511	635.06
424.733	677.06
424.956	778.06
425.178	766.06
425.401	727.06
425.623	774.06
425.846	668.06
426.068	630.06
426.291	618.06
426.513	635.06
426.735	607.06
426.958	670.06
427.18	734.06
427.402	839.06
427.625	975.06
427.847	827.06
428.069	733.06
428.292	646.06
428.514	620.06
428.736	589.06
428.958	549.06
429.181	560.06
429.403	585.06
429.625	581.06
429.847	610.06
430.069	664.06
430.292	662.06
430.514	581.06
430.736	570.06
430.958	576.06
431.18	576.06
431.402	541.06
431.624	552.06
431.846	545.06
432.068	517.06
432.29	544.06
432.512	556.06
432.734	548.06
432.956	539.06
433.178	550.06
433.4	566.06
433.622	538.06
433.844	538.06
434.066	568.06
434.287	526.06
434.509	551.06
434.731	573.06
434.953	567.06
435.175	603.06
435.397	615.06
435.618	609.06
435.84	657.06
436.062	739.06
436.284	830.06
436.505	718.06
436.727	629.06
436.949	582.06
437.17	599.06
437.392	564.06
437.614	583.06
437.835	597.06
438.057	684.06
438.278	804.06
438.5	787.06
438.721	877.06
438.943	856.06
439.165	692.06
439.386	620.06
439.608	602.06
439.829	612.06
440.05	635.06
440.272	675.06
440.493	650.06
440.715	603.06
440.936	585.06
441.158	578.06
441.379	581.06
441.6	610.06
441.822	608.06
442.043	662.06
442.264	737.06
442.486	776.06
442.707	661.06
442.928	631.06
443.149	658.06
443.371	674.06
443.592	703.06
443.813	788.06
444.034	850.06
444.255	741.06
444.476	660.06
444.698	628.06
444.919	630.06
445.14	781.06
445.361	699.06
445.582	669.06
445.803	714.06
446.024	821.06
446.245	829.06
446.466	775.06
446.687	669.06
446.908	598.06
447.129	594.06
447.35	562.06
447.571	570.06
447.792	546.06
448.013	533.06
448.234	572.06
448.455	616.06
448.675	750.06
448.896	881.06
449.117	733.06
449.338	689.06
449.559	799.06
449.779	908.06
450	756.06
450.221	572.06
450.442	570.06
450.662	548.06
450.883	552.06
451.104	568.06
451.324	537.06
451.545	533.06
451.766	534.06
451.986	497.06
452.207	499.06
452.428	523.06
452.648	497.06
452.869	482.06
453.089	497.06
453.31	504.06
453.53	503.06
453.751	500.06
453.971	487.06
454.192	532.06
454.412	511.06
454.633	524.06
454.853	493.06
455.073	508.06
455.294	553.06
455.514	591.06
455.734	592.06
455.955	497.06
456.175	491.06
456.395	462.06
456.616	447.06
456.836	485.06
457.056	468.06
457.276	454.06
457.497	479.06
457.717	487.06
457.937	487.06
458.157	493.06
458.377	495.06
458.598	507.06
458.818	550.06
459.038	632.06
459.258	666.06
459.478	578.06
459.698	551.06
459.918	533.06
460.138	546.06
460.358	571.06
460.578	544.06
460.798	533.06
461.018	577.06
461.238	560.06
461.458	555.06
461.678	545.06
461.898	577.06
462.118	571.06
462.338	592.06
462.558	587.06
462.777	580.06
462.997	615.06
463.217	644.06
463.437	631.06
463.657	628.06
463.876	624.06
464.096	605.06
464.316	605.06
464.536	622.06
464.755	614.06
464.975	609.06
465.195	622.06
465.414	667.06
465.634	593.06
465.854	566.06
466.073	560.06
466.293	514.06
466.512	518.06
466.732	530.06
466.951	524.06
467.171	521.06
467.391	507.06
467.61	538.06
467.829	528.06
468.049	497.06
468.268	536.06
468.488	502.06
468.707	519.06
468.927	520.06
469.146	481.06
469.365	502.06
469.585	518.06
469.804	525.06
470.023	518.06
470.243	513.06
470.462	555.06
470.681	580.06
470.901	552.06
471.12	543.06
471.339	548.06
471.558	537.06
471.777	542.06
471.997	548.06
472.216	526.06
472.435	553.06
472.654	539.06
472.873	509.06
473.092	527.06
473.311	523.06
473.53	547.06
473.749	519.06
473.968	555.06
474.187	650.06
474.406	685.06
474.625	591.06
474.844	550.06
475.063	534.06
475.282	524.06
475.501	535.06
475.72	531.06
475.939	528.06
476.158	556.06
476.377	532.06
476.596	539.06
476.814	538.06
477.033	565.06
477.252	565.06
477.471	570.06
477.69	600.06
477.908	552.06
478.127	574.06
478.346	585.06
478.564	587.06
478.783	603.06
479.002	625.06
479.22	622.06
479.439	628.06
479.658	636.06
479.876	639.06
480.095	651.06
480.313	676.06
480.532	659.06
480.751	652.06
480.969	658.06
481.188	738.06
481.406	737.06
481.624	661.06
481.843	655.06
482.061	652.06
482.28	622.06
482.498	638.06
482.717	611.06
482.935	589.06
483.153	606.06
483.372	612.06
483.59	609.06
483.808	629.06
484.027	614.06
484.245	616.06
484.463	635.06
484.681	644.06
484.9	631.06
485.118	611.06
485.336	628.06
485.554	628.06
485.772	649.06
485.99	649.06
486.209	646.06
486.427	636.06
486.645	649.06
486.863	665.06
487.081	640.06
487.299	646.06
487.517	637.06
487.735	620.06
487.953	656.06
488.171	661.06
488.389	638.06
488.607	675.06
488.825	666.06
489.043	682.06
489.261	682.06
489.479	669.06
489.696	657.06
489.914	688.06
490.132	693.06
490.35	666.06
490.568	681.06
490.786	696.06
491.003	720.06
491.221	729.06
491.439	726.06
491.657	729.06
491.874	771.06
492.092	752.06
492.31	758.06
492.527	774.06
492.745	762.06
492.963	758.06
493.18	768.06
493.398	768.06
493.615	757.06
493.833	767.06
494.05	806.06
494.268	781.06
494.485	812.06
494.703	777.06
494.92	792.06
495.138	786.06
495.355	805.06
495.573	777.06
495.79	767.06
496.008	785.06
496.225	793.06
496.442	806.06
496.66	794.06
496.877	794.06
497.094	815.06
497.312	823.06
497.529	817.06
497.746	831.06
497.963	831.06
498.181	898.06
498.398	851.06
498.615	895.06
498.832	922.06
499.049	918.06
499.267	949.06
499.484	989.06
499.701	1028.06
499.918	1080.06
500.135	1127.06
500.352	1218.06
500.569	1280.06
500.786	1244.06
501.003	1247.06
501.22	1179.06
501.437	1124.06
501.654	1081.06
