Data from 1975.PennyLincolnUp.Lamp.En5.5.200Scan.071719.P1.Changed Mount._HRD10591_15-55-36-858.txt Node
Date: Thu Jul 18 15:55:36 EDT 2019
User: cochatt
Spectrometer: HR+D1059
Trigger mode: 1
Integration Time (sec): 1.000000E-1
Scans to average: 1
Electric dark correction enabled: true
Nonlinearity correction enabled: false
Boxcar width: 0
XAxis mode: Wavelengths
Number of Pixels in Spectrum: 2048
>>>>>Begin Spectral Data<<<<<
223.165	-16.31
223.4	-16.31
223.635	-16.31
223.869	-20.31
224.104	-19.31
224.338	-23.31
224.573	-12.31
224.808	-9.31
225.042	-1.31
225.277	-4.31
225.511	6.69
225.746	-8.31
225.98	-0.31
226.215	16.69
226.449	21.69
226.683	12.69
226.918	22.69
227.152	34.69
227.387	44.69
227.621	17.69
227.856	42.69
228.09	46.69
228.324	52.69
228.559	64.69
228.793	62.69
229.027	80.69
229.262	103.69
229.496	103.69
229.73	118.69
229.964	134.69
230.199	110.69
230.433	108.69
230.667	110.69
230.901	124.69
231.136	107.69
231.37	121.69
231.604	114.69
231.838	110.69
232.072	110.69
232.306	110.69
232.541	110.69
232.775	115.69
233.009	110.69
233.243	122.69
233.477	103.69
233.711	116.69
233.945	120.69
234.179	120.69
234.413	122.69
234.647	126.69
234.881	125.69
235.115	109.69
235.349	114.69
235.583	111.69
235.817	128.69
236.051	130.69
236.285	115.69
236.519	134.69
236.753	127.69
236.987	131.69
237.221	153.69
237.455	194.69
237.689	174.69
237.922	131.69
238.156	126.69
238.39	127.69
238.624	117.69
238.858	125.69
239.091	112.69
239.325	125.69
239.559	115.69
239.793	120.69
240.027	134.69
240.26	135.69
240.494	149.69
240.728	138.69
240.961	154.69
241.195	143.69
241.429	130.69
241.662	126.69
241.896	137.69
242.13	144.69
242.363	122.69
242.597	122.69
242.83	120.69
243.064	129.69
243.298	132.69
243.531	134.69
243.765	127.69
243.998	136.69
244.232	127.69
244.465	135.69
244.699	149.69
244.932	142.69
245.166	141.69
245.399	154.69
245.633	156.69
245.866	133.69
246.099	172.69
246.333	140.69
246.566	152.69
246.8	139.69
247.033	139.69
247.266	165.69
247.5	167.69
247.733	164.69
247.966	159.69
248.2	158.69
248.433	160.69
248.666	155.69
248.899	166.69
249.133	192.69
249.366	201.69
249.599	176.69
249.832	164.69
250.066	170.69
250.299	167.69
250.532	173.69
250.765	188.69
250.998	210.69
251.231	203.69
251.465	198.69
251.698	192.69
251.931	192.69
252.164	182.69
252.397	181.69
252.63	189.69
252.863	195.69
253.096	200.69
253.329	207.69
253.562	219.69
253.795	182.69
254.028	207.69
254.261	190.69
254.494	205.69
254.727	216.69
254.96	262.69
255.193	235.69
255.426	217.69
255.659	222.69
255.892	187.69
256.124	220.69
256.357	208.69
256.59	212.69
256.823	204.69
257.056	204.69
257.289	202.69
257.521	204.69
257.754	192.69
257.987	195.69
258.22	209.69
258.452	212.69
258.685	194.69
258.918	195.69
259.151	201.69
259.383	208.69
259.616	211.69
259.849	203.69
260.081	229.69
260.314	222.69
260.547	223.69
260.779	228.69
261.012	207.69
261.244	202.69
261.477	214.69
261.71	191.69
261.942	213.69
262.175	210.69
262.407	210.69
262.64	202.69
262.872	194.69
263.105	204.69
263.337	190.69
263.57	208.69
263.802	196.69
264.035	201.69
264.267	224.69
264.499	203.69
264.732	216.69
264.964	203.69
265.197	216.69
265.429	192.69
265.661	212.69
265.894	206.69
266.126	207.69
266.358	218.69
266.591	203.69
266.823	202.69
267.055	212.69
267.287	214.69
267.52	227.69
267.752	205.69
267.984	210.69
268.216	213.69
268.448	220.69
268.681	224.69
268.913	230.69
269.145	231.69
269.377	254.69
269.609	262.69
269.841	261.69
270.073	246.69
270.306	271.69
270.538	272.69
270.77	275.69
271.002	262.69
271.234	260.69
271.466	267.69
271.698	260.69
271.93	276.69
272.162	290.69
272.394	290.69
272.626	277.69
272.858	282.69
273.09	245.69
273.322	247.69
273.553	239.69
273.785	252.69
274.017	268.69
274.249	263.69
274.481	236.69
274.713	262.69
274.945	258.69
275.176	256.69
275.408	253.69
275.64	250.69
275.872	237.69
276.104	249.69
276.335	242.69
276.567	258.69
276.799	283.69
277.031	272.69
277.262	293.69
277.494	295.69
277.726	279.69
277.957	272.69
278.189	268.69
278.421	284.69
278.652	265.69
278.884	268.69
279.115	263.69
279.347	265.69
279.579	268.69
279.81	255.69
280.042	259.69
280.273	259.69
280.505	268.69
280.736	262.69
280.968	252.69
281.199	243.69
281.431	262.69
281.662	275.69
281.894	280.69
282.125	259.69
282.356	271.69
282.588	269.69
282.819	287.69
283.051	252.69
283.282	263.69
283.513	266.69
283.745	273.69
283.976	259.69
284.207	263.69
284.439	285.69
284.67	275.69
284.901	280.69
285.132	276.69
285.364	273.69
285.595	267.69
285.826	280.69
286.057	291.69
286.288	279.69
286.52	263.69
286.751	284.69
286.982	279.69
287.213	284.69
287.444	276.69
287.675	286.69
287.906	282.69
288.138	288.69
288.369	278.69
288.6	297.69
288.831	290.69
289.062	292.69
289.293	278.69
289.524	293.69
289.755	297.69
289.986	292.69
290.217	293.69
290.448	284.69
290.679	300.69
290.91	280.69
291.141	275.69
291.371	283.69
291.602	295.69
291.833	271.69
292.064	272.69
292.295	280.69
292.526	266.69
292.757	294.69
292.987	272.69
293.218	279.69
293.449	291.69
293.68	294.69
293.91	286.69
294.141	295.69
294.372	298.69
294.603	292.69
294.833	294.69
295.064	285.69
295.295	284.69
295.525	288.69
295.756	294.69
295.987	282.69
296.217	307.69
296.448	308.69
296.679	294.69
296.909	288.69
297.14	294.69
297.37	307.69
297.601	280.69
297.831	298.69
298.062	295.69
298.292	290.69
298.523	302.69
298.753	306.69
298.984	293.69
299.214	301.69
299.445	300.69
299.675	299.69
299.905	311.69
300.136	308.69
300.366	318.69
300.597	300.69
300.827	292.69
301.057	315.69
301.288	324.69
301.518	313.69
301.748	325.69
301.979	317.69
302.209	324.69
302.439	302.69
302.669	320.69
302.9	316.69
303.13	316.69
303.36	319.69
303.59	315.69
303.82	320.69
304.051	302.69
304.281	335.69
304.511	322.69
304.741	311.69
304.971	321.69
305.201	310.69
305.431	299.69
305.661	328.69
305.891	324.69
306.121	310.69
306.352	312.69
306.582	321.69
306.812	302.69
307.042	309.69
307.272	317.69
307.502	329.69
307.731	326.69
307.961	310.69
308.191	334.69
308.421	328.69
308.651	319.69
308.881	324.69
309.111	346.69
309.341	317.69
309.571	326.69
309.8	360.69
310.03	337.69
310.26	346.69
310.49	328.69
310.72	339.69
310.949	346.69
311.179	343.69
311.409	356.69
311.639	324.69
311.868	339.69
312.098	352.69
312.328	345.69
312.557	357.69
312.787	355.69
313.017	366.69
313.246	362.69
313.476	340.69
313.706	363.69
313.935	371.69
314.165	380.69
314.394	379.69
314.624	380.69
314.853	359.69
315.083	368.69
315.312	359.69
315.542	344.69
315.771	331.69
316.001	341.69
316.23	344.69
316.46	365.69
316.689	357.69
316.919	367.69
317.148	376.69
317.377	359.69
317.607	356.69
317.836	349.69
318.065	351.69
318.295	354.69
318.524	352.69
318.753	364.69
318.983	359.69
319.212	348.69
319.441	352.69
319.67	345.69
319.9	331.69
320.129	355.69
320.358	359.69
320.587	358.69
320.816	343.69
321.046	366.69
321.275	352.69
321.504	364.69
321.733	386.69
321.962	370.69
322.191	372.69
322.42	387.69
322.649	375.69
322.878	392.69
323.108	393.69
323.337	413.69
323.566	397.69
323.795	429.69
324.024	446.69
324.253	501.69
324.482	690.69
324.71	1017.69
324.939	1516.69
325.168	1302.69
325.397	664.69
325.626	475.69
325.855	446.69
326.084	420.69
326.313	398.69
326.542	405.69
326.77	431.69
326.999	504.69
327.228	642.69
327.457	942.69
327.686	1166.69
327.914	758.69
328.143	533.69
328.372	479.69
328.6	458.69
328.829	464.69
329.058	460.69
329.287	464.69
329.515	452.69
329.744	419.69
329.972	398.69
330.201	433.69
330.43	445.69
330.658	498.69
330.887	490.69
331.115	499.69
331.344	450.69
331.572	438.69
331.801	445.69
332.03	423.69
332.258	410.69
332.486	421.69
332.715	417.69
332.943	424.69
333.172	420.69
333.4	448.69
333.629	444.69
333.857	444.69
334.085	445.69
334.314	477.69
334.542	463.69
334.771	471.69
334.999	455.69
335.227	460.69
335.455	437.69
335.684	461.69
335.912	442.69
336.14	428.69
336.369	438.69
336.597	445.69
336.825	438.69
337.053	422.69
337.281	427.69
337.51	420.69
337.738	432.69
337.966	415.69
338.194	423.69
338.422	394.69
338.65	407.69
338.878	407.69
339.106	411.69
339.334	408.69
339.562	390.69
339.79	426.69
340.018	408.69
340.246	422.69
340.474	370.69
340.702	400.69
340.93	414.69
341.158	402.69
341.386	416.69
341.614	403.69
341.842	385.69
342.07	400.69
342.298	398.69
342.526	394.69
342.754	400.69
342.981	390.69
343.209	414.69
343.437	421.69
343.665	403.69
343.893	435.69
344.12	420.69
344.348	424.69
344.576	432.69
344.804	430.69
345.031	424.69
345.259	407.69
345.487	437.69
345.714	406.69
345.942	393.69
346.17	399.69
346.397	402.69
346.625	410.69
346.853	390.69
347.08	380.69
347.308	387.69
347.535	397.69
347.763	389.69
347.99	396.69
348.218	374.69
348.445	383.69
348.673	391.69
348.9	381.69
349.128	399.69
349.355	390.69
349.583	367.69
349.81	381.69
350.037	380.69
350.265	382.69
350.492	397.69
350.72	395.69
350.947	383.69
351.174	396.69
351.402	386.69
351.629	403.69
351.856	394.69
352.083	402.69
352.311	393.69
352.538	410.69
352.765	410.69
352.992	378.69
353.22	395.69
353.447	400.69
353.674	391.69
353.901	381.69
354.128	377.69
354.355	373.69
354.583	374.69
354.81	378.69
355.037	373.69
355.264	402.69
355.491	371.69
355.718	376.69
355.945	367.69
356.172	371.69
356.399	362.69
356.626	374.69
356.853	374.69
357.08	376.69
357.307	364.69
357.534	378.69
357.761	378.69
357.988	383.69
358.215	389.69
358.441	390.69
358.668	383.69
358.895	395.69
359.122	394.69
359.349	392.69
359.576	412.69
359.802	405.69
360.029	425.69
360.256	419.69
360.483	396.69
360.709	388.69
360.936	399.69
361.163	396.69
361.39	384.69
361.616	393.69
361.843	393.69
362.07	372.69
362.296	397.69
362.523	383.69
362.749	373.69
362.976	385.69
363.203	380.69
363.429	369.69
363.656	390.69
363.882	376.69
364.109	382.69
364.335	371.69
364.562	382.69
364.788	378.69
365.015	360.69
365.241	394.69
365.468	400.69
365.694	373.69
365.92	372.69
366.147	365.69
366.373	378.69
366.599	394.69
366.826	370.69
367.052	386.69
367.278	365.69
367.505	388.69
367.731	400.69
367.957	409.69
368.184	409.69
368.41	395.69
368.636	400.69
368.862	407.69
369.089	395.69
369.315	381.69
369.541	398.69
369.767	380.69
369.993	377.69
370.219	407.69
370.445	401.69
370.672	408.69
370.898	409.69
371.124	389.69
371.35	388.69
371.576	407.69
371.802	384.69
372.028	392.69
372.254	414.69
372.48	384.69
372.706	393.69
372.932	384.69
373.158	418.69
373.384	404.69
373.61	414.69
373.835	426.69
374.061	397.69
374.287	394.69
374.513	407.69
374.739	404.69
374.965	422.69
375.191	417.69
375.416	428.69
375.642	409.69
375.868	411.69
376.094	388.69
376.319	422.69
376.545	390.69
376.771	404.69
376.997	395.69
377.222	404.69
377.448	396.69
377.674	408.69
377.899	409.69
378.125	395.69
378.35	399.69
378.576	410.69
378.802	394.69
379.027	396.69
379.253	420.69
379.478	397.69
379.704	402.69
379.929	386.69
380.155	402.69
380.38	407.69
380.606	408.69
380.831	408.69
381.057	408.69
381.282	392.69
381.507	409.69
381.733	412.69
381.958	401.69
382.184	414.69
382.409	415.69
382.634	422.69
382.86	413.69
383.085	434.69
383.31	444.69
383.535	426.69
383.761	425.69
383.986	435.69
384.211	450.69
384.436	424.69
384.662	431.69
384.887	445.69
385.112	455.69
385.337	464.69
385.562	452.69
385.787	456.69
386.013	470.69
386.238	479.69
386.463	471.69
386.688	461.69
386.913	457.69
387.138	470.69
387.363	460.69
387.588	447.69
387.813	444.69
388.038	440.69
388.263	484.69
388.488	447.69
388.713	474.69
388.938	466.69
389.163	474.69
389.387	461.69
389.612	426.69
389.837	460.69
390.062	439.69
390.287	452.69
390.512	437.69
390.736	449.69
390.961	442.69
391.186	456.69
391.411	480.69
391.636	470.69
391.86	469.69
392.085	475.69
392.31	491.69
392.534	453.69
392.759	460.69
392.984	460.69
393.208	439.69
393.433	481.69
393.658	453.69
393.882	473.69
394.107	462.69
394.331	464.69
394.556	476.69
394.78	471.69
395.005	480.69
395.229	454.69
395.454	450.69
395.678	481.69
395.903	502.69
396.127	491.69
396.352	484.69
396.576	484.69
396.801	472.69
397.025	487.69
397.249	481.69
397.474	495.69
397.698	474.69
397.922	518.69
398.147	518.69
398.371	514.69
398.595	502.69
398.82	505.69
399.044	548.69
399.268	552.69
399.492	595.69
399.717	619.69
399.941	634.69
400.165	654.69
400.389	674.69
400.613	596.69
400.837	550.69
401.062	538.69
401.286	523.69
401.51	554.69
401.734	518.69
401.958	544.69
402.182	547.69
402.406	517.69
402.63	511.69
402.854	534.69
403.078	532.69
403.302	542.69
403.526	566.69
403.75	538.69
403.974	560.69
404.198	534.69
404.422	546.69
404.645	565.69
404.869	579.69
405.093	583.69
405.317	616.69
405.541	638.69
405.765	610.69
405.988	586.69
406.212	588.69
406.436	587.69
406.66	582.69
406.883	580.69
407.107	621.69
407.331	654.69
407.555	734.69
407.778	736.69
408.002	663.69
408.226	614.69
408.449	600.69
408.673	603.69
408.896	619.69
409.12	652.69
409.344	619.69
409.567	566.69
409.791	553.69
410.014	557.69
410.238	527.69
410.461	549.69
410.685	540.69
410.908	574.69
411.132	604.69
411.355	617.69
411.578	600.69
411.802	530.69
412.025	554.69
412.249	535.69
412.472	584.69
412.695	604.69
412.919	582.69
413.142	556.69
413.365	548.69
413.589	545.69
413.812	518.69
414.035	522.69
414.258	539.69
414.482	527.69
414.705	505.69
414.928	522.69
415.151	521.69
415.374	513.69
415.597	524.69
415.821	522.69
416.044	513.69
416.267	505.69
416.49	518.69
416.713	512.69
416.936	511.69
417.159	502.69
417.382	532.69
417.605	524.69
417.828	550.69
418.051	518.69
418.274	543.69
418.497	518.69
418.72	522.69
418.943	517.69
419.166	559.69
419.389	545.69
419.611	567.69
419.834	536.69
420.057	562.69
420.28	523.69
420.503	555.69
420.726	548.69
420.948	545.69
421.171	576.69
421.394	599.69
421.617	560.69
421.839	538.69
422.062	548.69
422.285	539.69
422.507	602.69
422.73	682.69
422.953	630.69
423.175	574.69
423.398	558.69
423.621	542.69
423.843	574.69
424.066	566.69
424.288	557.69
424.511	580.69
424.733	625.69
424.956	701.69
425.178	653.69
425.401	671.69
425.623	663.69
425.846	597.69
426.068	556.69
426.291	547.69
426.513	536.69
426.735	555.69
426.958	591.69
427.18	651.69
427.402	786.69
427.625	836.69
427.847	700.69
428.069	648.69
428.292	591.69
428.514	518.69
428.736	518.69
428.958	501.69
429.181	488.69
429.403	503.69
429.625	542.69
429.847	554.69
430.069	617.69
430.292	600.69
430.514	520.69
430.736	516.69
430.958	501.69
431.18	505.69
431.402	524.69
431.624	498.69
431.846	487.69
432.068	482.69
432.29	496.69
432.512	506.69
432.734	525.69
432.956	513.69
433.178	510.69
433.4	518.69
433.622	495.69
433.844	485.69
434.066	488.69
434.287	523.69
434.509	528.69
434.731	529.69
434.953	529.69
435.175	556.69
435.397	564.69
435.618	541.69
435.84	572.69
436.062	672.69
436.284	732.69
436.505	597.69
436.727	551.69
436.949	524.69
437.17	511.69
437.392	514.69
437.614	533.69
437.835	539.69
438.057	602.69
438.278	712.69
438.5	706.69
438.721	810.69
438.943	754.69
439.165	610.69
439.386	556.69
439.608	554.69
439.829	541.69
440.05	581.69
440.272	615.69
440.493	575.69
440.715	534.69
440.936	544.69
441.158	515.69
441.379	519.69
441.6	533.69
441.822	563.69
442.043	593.69
442.264	655.69
442.486	684.69
442.707	592.69
442.928	560.69
443.149	568.69
443.371	588.69
443.592	608.69
443.813	706.69
444.034	751.69
444.255	648.69
444.476	567.69
444.698	578.69
444.919	579.69
445.14	714.69
445.361	621.69
445.582	595.69
445.803	655.69
446.024	719.69
446.245	726.69
446.466	666.69
446.687	585.69
446.908	526.69
447.129	532.69
447.35	527.69
447.571	515.69
447.792	509.69
448.013	516.69
448.234	532.69
448.455	550.69
448.675	673.69
448.896	793.69
449.117	635.69
449.338	622.69
449.559	708.69
449.779	814.69
450	626.69
450.221	553.69
450.442	507.69
450.662	484.69
450.883	481.69
451.104	516.69
451.324	494.69
451.545	498.69
451.766	457.69
451.986	472.69
452.207	468.69
452.428	458.69
452.648	464.69
452.869	458.69
453.089	461.69
453.31	463.69
453.53	481.69
453.751	472.69
453.971	451.69
454.192	462.69
454.412	444.69
454.633	444.69
454.853	448.69
455.073	450.69
455.294	482.69
455.514	514.69
455.734	532.69
455.955	453.69
456.175	445.69
456.395	417.69
456.616	442.69
456.836	422.69
457.056	424.69
457.276	431.69
457.497	447.69
457.717	443.69
457.937	432.69
458.157	438.69
458.377	436.69
458.598	477.69
458.818	505.69
459.038	549.69
459.258	566.69
459.478	519.69
459.698	486.69
459.918	512.69
460.138	494.69
460.358	498.69
460.578	539.69
460.798	546.69
461.018	542.69
461.238	522.69
461.458	508.69
461.678	506.69
461.898	539.69
462.118	526.69
462.338	526.69
462.558	549.69
462.777	582.69
462.997	564.69
463.217	605.69
463.437	617.69
463.657	598.69
463.876	590.69
464.096	564.69
464.316	553.69
464.536	565.69
464.755	586.69
464.975	567.69
465.195	564.69
465.414	608.69
465.634	549.69
465.854	491.69
466.073	501.69
466.293	491.69
466.512	478.69
466.732	499.69
466.951	492.69
467.171	474.69
467.391	500.69
467.61	473.69
467.829	486.69
468.049	488.69
468.268	489.69
468.488	487.69
468.707	478.69
468.927	474.69
469.146	483.69
469.365	461.69
469.585	474.69
469.804	463.69
470.023	494.69
470.243	503.69
470.462	508.69
470.681	502.69
470.901	497.69
471.12	492.69
471.339	468.69
471.558	487.69
471.777	509.69
471.997	461.69
472.216	495.69
472.435	496.69
472.654	467.69
472.873	489.69
473.092	495.69
473.311	485.69
473.53	475.69
473.749	487.69
473.968	493.69
474.187	589.69
474.406	632.69
474.625	540.69
474.844	500.69
475.063	494.69
475.282	452.69
475.501	476.69
475.72	496.69
475.939	503.69
476.158	492.69
476.377	502.69
476.596	497.69
476.814	504.69
477.033	491.69
477.252	523.69
477.471	518.69
477.69	524.69
477.908	530.69
478.127	521.69
478.346	509.69
478.564	541.69
478.783	559.69
479.002	546.69
479.22	580.69
479.439	554.69
479.658	559.69
479.876	604.69
480.095	587.69
480.313	606.69
480.532	610.69
480.751	604.69
480.969	597.69
481.188	623.69
481.406	662.69
481.624	592.69
481.843	570.69
482.061	581.69
482.28	553.69
482.498	549.69
482.717	550.69
482.935	556.69
483.153	575.69
483.372	573.69
483.59	593.69
483.808	560.69
484.027	578.69
484.245	585.69
484.463	564.69
484.681	577.69
484.9	586.69
485.118	567.69
485.336	598.69
485.554	590.69
485.772	590.69
485.99	601.69
486.209	604.69
486.427	598.69
486.645	615.69
486.863	631.69
487.081	602.69
487.299	599.69
487.517	618.69
487.735	601.69
487.953	606.69
488.171	617.69
488.389	601.69
488.607	606.69
488.825	601.69
489.043	582.69
489.261	600.69
489.479	613.69
489.696	613.69
489.914	613.69
490.132	623.69
490.35	614.69
490.568	643.69
490.786	656.69
491.003	654.69
491.221	662.69
491.439	687.69
491.657	654.69
491.874	677.69
492.092	694.69
492.31	706.69
492.527	698.69
492.745	683.69
492.963	674.69
493.18	695.69
493.398	706.69
493.615	714.69
493.833	718.69
494.05	709.69
494.268	723.69
494.485	707.69
494.703	708.69
494.92	700.69
495.138	709.69
495.355	716.69
495.573	750.69
495.79	719.69
496.008	737.69
496.225	720.69
496.442	701.69
496.66	723.69
496.877	717.69
497.094	722.69
497.312	716.69
497.529	713.69
497.746	722.69
497.963	768.69
498.181	796.69
498.398	782.69
498.615	838.69
498.832	847.69
499.049	877.69
499.267	908.69
499.484	932.69
499.701	988.69
499.918	1024.69
500.135	1091.69
500.352	1159.69
500.569	1188.69
500.786	1176.69
501.003	1167.69
501.22	1099.69
501.437	1056.69
501.654	980.69
