Data from 1975.PennyLincolnUp.Lamp.En5.5.200Scan.071719.P1.Changed Mount._HRD10591_15-57-04-859.txt Node
Date: Thu Jul 18 15:57:04 EDT 2019
User: cochatt
Spectrometer: HR+D1059
Trigger mode: 1
Integration Time (sec): 1.000000E-1
Scans to average: 1
Electric dark correction enabled: true
Nonlinearity correction enabled: false
Boxcar width: 0
XAxis mode: Wavelengths
Number of Pixels in Spectrum: 2048
>>>>>Begin Spectral Data<<<<<
223.165	-25.62
223.4	-25.62
223.635	-25.62
223.869	-12.62
224.104	-16.62
224.338	-15.62
224.573	-20.62
224.808	-22.62
225.042	-0.62
225.277	1.38
225.511	4.38
225.746	-11.62
225.98	11.38
226.215	7.38
226.449	18.38
226.683	26.38
226.918	20.38
227.152	36.38
227.387	24.38
227.621	45.38
227.856	47.38
228.09	37.38
228.324	65.38
228.559	57.38
228.793	63.38
229.027	93.38
229.262	109.38
229.496	108.38
229.73	123.38
229.964	149.38
230.199	135.38
230.433	107.38
230.667	105.38
230.901	115.38
231.136	104.38
231.37	102.38
231.604	111.38
231.838	118.38
232.072	130.38
232.306	109.38
232.541	119.38
232.775	101.38
233.009	122.38
233.243	126.38
233.477	123.38
233.711	106.38
233.945	124.38
234.179	131.38
234.413	128.38
234.647	129.38
234.881	128.38
235.115	126.38
235.349	132.38
235.583	126.38
235.817	121.38
236.051	123.38
236.285	143.38
236.519	123.38
236.753	126.38
236.987	143.38
237.221	164.38
237.455	216.38
237.689	195.38
237.922	134.38
238.156	133.38
238.39	151.38
238.624	127.38
238.858	133.38
239.091	125.38
239.325	128.38
239.559	121.38
239.793	127.38
240.027	133.38
240.26	138.38
240.494	170.38
240.728	151.38
240.961	164.38
241.195	145.38
241.429	143.38
241.662	133.38
241.896	158.38
242.13	122.38
242.363	157.38
242.597	137.38
242.83	140.38
243.064	151.38
243.298	144.38
243.531	142.38
243.765	140.38
243.998	142.38
244.232	144.38
244.465	129.38
244.699	139.38
244.932	135.38
245.166	159.38
245.399	156.38
245.633	161.38
245.866	147.38
246.099	147.38
246.333	154.38
246.566	160.38
246.8	152.38
247.033	147.38
247.266	159.38
247.5	171.38
247.733	177.38
247.966	185.38
248.2	187.38
248.433	167.38
248.666	176.38
248.899	183.38
249.133	208.38
249.366	209.38
249.599	197.38
249.832	191.38
250.066	192.38
250.299	173.38
250.532	197.38
250.765	219.38
250.998	226.38
251.231	236.38
251.465	224.38
251.698	205.38
251.931	201.38
252.164	195.38
252.397	189.38
252.63	199.38
252.863	221.38
253.096	199.38
253.329	223.38
253.562	209.38
253.795	223.38
254.028	230.38
254.261	217.38
254.494	216.38
254.727	244.38
254.96	272.38
255.193	272.38
255.426	243.38
255.659	233.38
255.892	264.38
256.124	231.38
256.357	236.38
256.59	222.38
256.823	234.38
257.056	224.38
257.289	216.38
257.521	216.38
257.754	216.38
257.987	213.38
258.22	221.38
258.452	213.38
258.685	203.38
258.918	209.38
259.151	203.38
259.383	228.38
259.616	224.38
259.849	227.38
260.081	243.38
260.314	252.38
260.547	261.38
260.779	235.38
261.012	247.38
261.244	243.38
261.477	235.38
261.71	230.38
261.942	216.38
262.175	229.38
262.407	217.38
262.64	209.38
262.872	219.38
263.105	206.38
263.337	219.38
263.57	228.38
263.802	210.38
264.035	210.38
264.267	213.38
264.499	217.38
264.732	225.38
264.964	209.38
265.197	231.38
265.429	217.38
265.661	232.38
265.894	221.38
266.126	221.38
266.358	213.38
266.591	231.38
266.823	247.38
267.055	243.38
267.287	245.38
267.52	245.38
267.752	232.38
267.984	231.38
268.216	247.38
268.448	232.38
268.681	238.38
268.913	249.38
269.145	276.38
269.377	272.38
269.609	268.38
269.841	275.38
270.073	277.38
270.306	281.38
270.538	304.38
270.77	302.38
271.002	285.38
271.234	296.38
271.466	289.38
271.698	321.38
271.93	325.38
272.162	327.38
272.394	327.38
272.626	296.38
272.858	297.38
273.09	278.38
273.322	279.38
273.553	270.38
273.785	274.38
274.017	284.38
274.249	281.38
274.481	267.38
274.713	264.38
274.945	282.38
275.176	251.38
275.408	282.38
275.64	262.38
275.872	260.38
276.104	270.38
276.335	271.38
276.567	289.38
276.799	292.38
277.031	303.38
277.262	323.38
277.494	327.38
277.726	315.38
277.957	311.38
278.189	288.38
278.421	279.38
278.652	289.38
278.884	276.38
279.115	276.38
279.347	285.38
279.579	252.38
279.81	272.38
280.042	302.38
280.273	272.38
280.505	270.38
280.736	287.38
280.968	269.38
281.199	288.38
281.431	276.38
281.662	281.38
281.894	279.38
282.125	275.38
282.356	298.38
282.588	318.38
282.819	298.38
283.051	284.38
283.282	299.38
283.513	297.38
283.745	289.38
283.976	312.38
284.207	294.38
284.439	295.38
284.67	282.38
284.901	285.38
285.132	294.38
285.364	291.38
285.595	281.38
285.826	292.38
286.057	305.38
286.288	299.38
286.52	295.38
286.751	299.38
286.982	287.38
287.213	289.38
287.444	306.38
287.675	301.38
287.906	315.38
288.138	320.38
288.369	311.38
288.6	320.38
288.831	325.38
289.062	297.38
289.293	290.38
289.524	303.38
289.755	310.38
289.986	319.38
290.217	302.38
290.448	294.38
290.679	316.38
290.91	305.38
291.141	299.38
291.371	294.38
291.602	290.38
291.833	289.38
292.064	302.38
292.295	304.38
292.526	299.38
292.757	293.38
292.987	317.38
293.218	305.38
293.449	312.38
293.68	309.38
293.91	317.38
294.141	313.38
294.372	294.38
294.603	299.38
294.833	315.38
295.064	325.38
295.295	314.38
295.525	315.38
295.756	315.38
295.987	343.38
296.217	327.38
296.448	327.38
296.679	323.38
296.909	315.38
297.14	320.38
297.37	321.38
297.601	323.38
297.831	317.38
298.062	337.38
298.292	320.38
298.523	319.38
298.753	328.38
298.984	309.38
299.214	315.38
299.445	334.38
299.675	323.38
299.905	343.38
300.136	330.38
300.366	316.38
300.597	322.38
300.827	321.38
301.057	334.38
301.288	331.38
301.518	328.38
301.748	322.38
301.979	342.38
302.209	342.38
302.439	342.38
302.669	333.38
302.9	323.38
303.13	331.38
303.36	348.38
303.59	339.38
303.82	349.38
304.051	356.38
304.281	353.38
304.511	333.38
304.741	336.38
304.971	331.38
305.201	341.38
305.431	334.38
305.661	323.38
305.891	361.38
306.121	346.38
306.352	351.38
306.582	359.38
306.812	363.38
307.042	359.38
307.272	340.38
307.502	356.38
307.731	344.38
307.961	345.38
308.191	331.38
308.421	354.38
308.651	352.38
308.881	350.38
309.111	380.38
309.341	350.38
309.571	363.38
309.8	361.38
310.03	372.38
310.26	371.38
310.49	353.38
310.72	374.38
310.949	411.38
311.179	409.38
311.409	381.38
311.639	386.38
311.868	376.38
312.098	379.38
312.328	366.38
312.557	383.38
312.787	387.38
313.017	396.38
313.246	401.38
313.476	380.38
313.706	375.38
313.935	377.38
314.165	397.38
314.394	400.38
314.624	399.38
314.853	382.38
315.083	408.38
315.312	401.38
315.542	383.38
315.771	376.38
316.001	377.38
316.23	381.38
316.46	383.38
316.689	380.38
316.919	403.38
317.148	371.38
317.377	387.38
317.607	382.38
317.836	411.38
318.065	391.38
318.295	385.38
318.524	379.38
318.753	370.38
318.983	360.38
319.212	385.38
319.441	395.38
319.67	392.38
319.9	399.38
320.129	393.38
320.358	397.38
320.587	385.38
320.816	393.38
321.046	401.38
321.275	400.38
321.504	407.38
321.733	405.38
321.962	408.38
322.191	391.38
322.42	410.38
322.649	407.38
322.878	428.38
323.108	425.38
323.337	427.38
323.566	466.38
323.795	489.38
324.024	506.38
324.253	603.38
324.482	826.38
324.71	1226.38
324.939	1837.38
325.168	1593.38
325.397	811.38
325.626	581.38
325.855	494.38
326.084	469.38
326.313	459.38
326.542	476.38
326.77	501.38
326.999	584.38
327.228	740.38
327.457	1103.38
327.686	1376.38
327.914	946.38
328.143	632.38
328.372	574.38
328.6	515.38
328.829	507.38
329.058	536.38
329.287	549.38
329.515	513.38
329.744	511.38
329.972	491.38
330.201	515.38
330.43	527.38
330.658	550.38
330.887	569.38
331.115	560.38
331.344	483.38
331.572	484.38
331.801	488.38
332.03	464.38
332.258	479.38
332.486	445.38
332.715	466.38
332.943	465.38
333.172	462.38
333.4	481.38
333.629	453.38
333.857	508.38
334.085	515.38
334.314	534.38
334.542	523.38
334.771	555.38
334.999	525.38
335.227	494.38
335.455	487.38
335.684	473.38
335.912	474.38
336.14	449.38
336.369	473.38
336.597	462.38
336.825	461.38
337.053	462.38
337.281	464.38
337.51	450.38
337.738	455.38
337.966	437.38
338.194	456.38
338.422	480.38
338.65	438.38
338.878	443.38
339.106	462.38
339.334	439.38
339.562	424.38
339.79	425.38
340.018	436.38
340.246	432.38
340.474	439.38
340.702	433.38
340.93	431.38
341.158	427.38
341.386	426.38
341.614	433.38
341.842	431.38
342.07	439.38
342.298	429.38
342.526	422.38
342.754	430.38
342.981	448.38
343.209	410.38
343.437	444.38
343.665	426.38
343.893	455.38
344.12	416.38
344.348	479.38
344.576	454.38
344.804	451.38
345.031	444.38
345.259	455.38
345.487	450.38
345.714	429.38
345.942	408.38
346.17	443.38
346.397	451.38
346.625	428.38
346.853	407.38
347.08	409.38
347.308	417.38
347.535	409.38
347.763	402.38
347.99	447.38
348.218	455.38
348.445	421.38
348.673	439.38
348.9	424.38
349.128	399.38
349.355	422.38
349.583	408.38
349.81	413.38
350.037	400.38
350.265	414.38
350.492	421.38
350.72	427.38
350.947	425.38
351.174	427.38
351.402	421.38
351.629	410.38
351.856	429.38
352.083	435.38
352.311	437.38
352.538	435.38
352.765	444.38
352.992	414.38
353.22	405.38
353.447	443.38
353.674	416.38
353.901	405.38
354.128	410.38
354.355	401.38
354.583	406.38
354.81	405.38
355.037	398.38
355.264	406.38
355.491	407.38
355.718	396.38
355.945	413.38
356.172	386.38
356.399	413.38
356.626	401.38
356.853	395.38
357.08	393.38
357.307	393.38
357.534	409.38
357.761	400.38
357.988	410.38
358.215	419.38
358.441	403.38
358.668	394.38
358.895	419.38
359.122	417.38
359.349	406.38
359.576	414.38
359.802	438.38
360.029	461.38
360.256	482.38
360.483	458.38
360.709	441.38
360.936	424.38
361.163	422.38
361.39	435.38
361.616	445.38
361.843	415.38
362.07	402.38
362.296	413.38
362.523	436.38
362.749	412.38
362.976	411.38
363.203	430.38
363.429	417.38
363.656	424.38
363.882	407.38
364.109	430.38
364.335	400.38
364.562	419.38
364.788	389.38
365.015	411.38
365.241	424.38
365.468	427.38
365.694	420.38
365.92	413.38
366.147	401.38
366.373	410.38
366.599	397.38
366.826	419.38
367.052	401.38
367.278	420.38
367.505	407.38
367.731	421.38
367.957	425.38
368.184	436.38
368.41	421.38
368.636	431.38
368.862	415.38
369.089	404.38
369.315	427.38
369.541	404.38
369.767	415.38
369.993	415.38
370.219	412.38
370.445	396.38
370.672	404.38
370.898	428.38
371.124	416.38
371.35	405.38
371.576	411.38
371.802	413.38
372.028	419.38
372.254	399.38
372.48	421.38
372.706	442.38
372.932	431.38
373.158	426.38
373.384	415.38
373.61	439.38
373.835	433.38
374.061	435.38
374.287	441.38
374.513	436.38
374.739	443.38
374.965	449.38
375.191	432.38
375.416	441.38
375.642	431.38
375.868	429.38
376.094	429.38
376.319	417.38
376.545	445.38
376.771	422.38
376.997	429.38
377.222	429.38
377.448	433.38
377.674	429.38
377.899	401.38
378.125	412.38
378.35	400.38
378.576	417.38
378.802	403.38
379.027	402.38
379.253	424.38
379.478	415.38
379.704	415.38
379.929	414.38
380.155	421.38
380.38	409.38
380.606	432.38
380.831	433.38
381.057	448.38
381.282	430.38
381.507	423.38
381.733	430.38
381.958	419.38
382.184	439.38
382.409	437.38
382.634	444.38
382.86	420.38
383.085	435.38
383.31	451.38
383.535	447.38
383.761	465.38
383.986	446.38
384.211	442.38
384.436	447.38
384.662	458.38
384.887	465.38
385.112	484.38
385.337	464.38
385.562	440.38
385.787	464.38
386.013	490.38
386.238	457.38
386.463	501.38
386.688	481.38
386.913	453.38
387.138	465.38
387.363	455.38
387.588	481.38
387.813	463.38
388.038	469.38
388.263	475.38
388.488	475.38
388.713	474.38
388.938	455.38
389.163	488.38
389.387	497.38
389.612	473.38
389.837	462.38
390.062	465.38
390.287	462.38
390.512	484.38
390.736	461.38
390.961	491.38
391.186	479.38
391.411	485.38
391.636	470.38
391.86	495.38
392.085	500.38
392.31	481.38
392.534	501.38
392.759	478.38
392.984	490.38
393.208	488.38
393.433	482.38
393.658	467.38
393.882	501.38
394.107	483.38
394.331	476.38
394.556	468.38
394.78	486.38
395.005	470.38
395.229	478.38
395.454	495.38
395.678	510.38
395.903	501.38
396.127	503.38
396.352	533.38
396.576	531.38
396.801	496.38
397.025	481.38
397.249	493.38
397.474	493.38
397.698	528.38
397.922	543.38
398.147	524.38
398.371	530.38
398.595	540.38
398.82	544.38
399.044	557.38
399.268	573.38
399.492	639.38
399.717	661.38
399.941	693.38
400.165	698.38
400.389	696.38
400.613	653.38
400.837	570.38
401.062	575.38
401.286	547.38
401.51	570.38
401.734	544.38
401.958	551.38
402.182	544.38
402.406	561.38
402.63	579.38
402.854	583.38
403.078	535.38
403.302	571.38
403.526	586.38
403.75	584.38
403.974	571.38
404.198	585.38
404.422	584.38
404.645	594.38
404.869	605.38
405.093	617.38
405.317	649.38
405.541	696.38
405.765	622.38
405.988	608.38
406.212	627.38
406.436	605.38
406.66	639.38
406.883	649.38
407.107	655.38
407.331	710.38
407.555	766.38
407.778	751.38
408.002	679.38
408.226	651.38
408.449	606.38
408.673	635.38
408.896	669.38
409.12	713.38
409.344	675.38
409.567	586.38
409.791	596.38
410.014	581.38
410.238	580.38
410.461	567.38
410.685	592.38
410.908	589.38
411.132	602.38
411.355	656.38
411.578	625.38
411.802	583.38
412.025	580.38
412.249	586.38
412.472	603.38
412.695	637.38
412.919	639.38
413.142	576.38
413.365	588.38
413.589	565.38
413.812	545.38
414.035	554.38
414.258	552.38
414.482	532.38
414.705	563.38
414.928	539.38
415.151	547.38
415.374	529.38
415.597	543.38
415.821	548.38
416.044	560.38
416.267	541.38
416.49	531.38
416.713	564.38
416.936	547.38
417.159	533.38
417.382	562.38
417.605	553.38
417.828	559.38
418.051	579.38
418.274	565.38
418.497	544.38
418.72	550.38
418.943	547.38
419.166	579.38
419.389	600.38
419.611	609.38
419.834	596.38
420.057	592.38
420.28	602.38
420.503	577.38
420.726	576.38
420.948	583.38
421.171	621.38
421.394	647.38
421.617	603.38
421.839	571.38
422.062	547.38
422.285	561.38
422.507	647.38
422.73	722.38
422.953	686.38
423.175	606.38
423.398	592.38
423.621	588.38
423.843	606.38
424.066	628.38
424.288	582.38
424.511	601.38
424.733	692.38
424.956	761.38
425.178	733.38
425.401	705.38
425.623	745.38
425.846	655.38
426.068	590.38
426.291	571.38
426.513	590.38
426.735	589.38
426.958	610.38
427.18	714.38
427.402	852.38
427.625	926.38
427.847	784.38
428.069	675.38
428.292	631.38
428.514	586.38
428.736	557.38
428.958	567.38
429.181	528.38
429.403	551.38
429.625	547.38
429.847	597.38
430.069	653.38
430.292	652.38
430.514	566.38
430.736	540.38
430.958	563.38
431.18	523.38
431.402	525.38
431.624	511.38
431.846	531.38
432.068	528.38
432.29	534.38
432.512	512.38
432.734	530.38
432.956	521.38
433.178	538.38
433.4	547.38
433.622	543.38
433.844	518.38
434.066	525.38
434.287	527.38
434.509	542.38
434.731	557.38
434.953	557.38
435.175	565.38
435.397	594.38
435.618	597.38
435.84	630.38
436.062	695.38
436.284	771.38
436.505	656.38
436.727	631.38
436.949	589.38
437.17	576.38
437.392	555.38
437.614	569.38
437.835	579.38
438.057	655.38
438.278	792.38
438.5	760.38
438.721	865.38
438.943	832.38
439.165	686.38
439.386	621.38
439.608	606.38
439.829	603.38
440.05	623.38
440.272	661.38
440.493	624.38
440.715	576.38
440.936	551.38
441.158	565.38
441.379	580.38
441.6	548.38
441.822	617.38
442.043	636.38
442.264	709.38
442.486	736.38
442.707	657.38
442.928	618.38
443.149	620.38
443.371	658.38
443.592	661.38
443.813	756.38
444.034	837.38
444.255	697.38
444.476	648.38
444.698	624.38
444.919	609.38
445.14	740.38
445.361	673.38
445.582	632.38
445.803	687.38
446.024	812.38
446.245	823.38
446.466	734.38
446.687	635.38
446.908	611.38
447.129	547.38
447.35	556.38
447.571	534.38
447.792	511.38
448.013	563.38
448.234	558.38
448.455	609.38
448.675	719.38
448.896	825.38
449.117	731.38
449.338	669.38
449.559	774.38
449.779	895.38
450	719.38
450.221	575.38
450.442	570.38
450.662	509.38
450.883	517.38
451.104	534.38
451.324	550.38
451.545	529.38
451.766	487.38
451.986	494.38
452.207	471.38
452.428	494.38
452.648	495.38
452.869	492.38
453.089	505.38
453.31	523.38
453.53	519.38
453.751	484.38
453.971	472.38
454.192	467.38
454.412	494.38
454.633	479.38
454.853	506.38
455.073	492.38
455.294	495.38
455.514	582.38
455.734	573.38
455.955	508.38
456.175	465.38
456.395	486.38
456.616	467.38
456.836	473.38
457.056	460.38
457.276	454.38
457.497	461.38
457.717	466.38
457.937	462.38
458.157	455.38
458.377	471.38
458.598	502.38
458.818	545.38
459.038	604.38
459.258	620.38
459.478	561.38
459.698	536.38
459.918	533.38
460.138	524.38
460.358	527.38
460.578	543.38
460.798	556.38
461.018	557.38
461.238	555.38
461.458	541.38
461.678	538.38
461.898	570.38
462.118	544.38
462.338	578.38
462.558	577.38
462.777	592.38
462.997	599.38
463.217	617.38
463.437	614.38
463.657	600.38
463.876	601.38
464.096	605.38
464.316	601.38
464.536	595.38
464.755	590.38
464.975	589.38
465.195	612.38
465.414	662.38
465.634	579.38
465.854	573.38
466.073	549.38
466.293	522.38
466.512	505.38
466.732	516.38
466.951	507.38
467.171	490.38
467.391	509.38
467.61	502.38
467.829	527.38
468.049	526.38
468.268	517.38
468.488	516.38
468.707	514.38
468.927	488.38
469.146	481.38
469.365	493.38
469.585	489.38
469.804	507.38
470.023	523.38
470.243	505.38
470.462	530.38
470.681	549.38
470.901	545.38
471.12	497.38
471.339	517.38
471.558	520.38
471.777	502.38
471.997	505.38
472.216	504.38
472.435	549.38
472.654	542.38
472.873	522.38
473.092	490.38
473.311	526.38
473.53	505.38
473.749	516.38
473.968	538.38
474.187	633.38
474.406	661.38
474.625	544.38
474.844	529.38
475.063	501.38
475.282	509.38
475.501	529.38
475.72	530.38
475.939	539.38
476.158	539.38
476.377	553.38
476.596	535.38
476.814	560.38
477.033	532.38
477.252	556.38
477.471	539.38
477.69	536.38
477.908	556.38
478.127	567.38
478.346	577.38
478.564	589.38
478.783	586.38
479.002	596.38
479.22	587.38
479.439	589.38
479.658	589.38
479.876	631.38
480.095	620.38
480.313	656.38
480.532	656.38
480.751	646.38
480.969	643.38
481.188	668.38
481.406	709.38
481.624	661.38
481.843	616.38
482.061	608.38
482.28	616.38
482.498	598.38
482.717	597.38
482.935	580.38
483.153	584.38
483.372	602.38
483.59	609.38
483.808	615.38
484.027	616.38
484.245	611.38
484.463	603.38
484.681	615.38
484.9	615.38
485.118	615.38
485.336	617.38
485.554	610.38
485.772	633.38
485.99	610.38
486.209	615.38
486.427	638.38
486.645	628.38
486.863	600.38
487.081	613.38
487.299	619.38
487.517	640.38
487.735	650.38
487.953	658.38
488.171	667.38
488.389	635.38
488.607	647.38
488.825	636.38
489.043	630.38
489.261	650.38
489.479	632.38
489.696	659.38
489.914	653.38
490.132	669.38
490.35	675.38
490.568	682.38
490.786	683.38
491.003	708.38
491.221	701.38
491.439	725.38
491.657	725.38
491.874	720.38
492.092	731.38
492.31	735.38
492.527	729.38
492.745	753.38
492.963	772.38
493.18	746.38
493.398	759.38
493.615	749.38
493.833	755.38
494.05	760.38
494.268	793.38
494.485	758.38
494.703	759.38
494.92	757.38
495.138	739.38
495.355	767.38
495.573	751.38
495.79	759.38
496.008	776.38
496.225	746.38
496.442	745.38
496.66	787.38
496.877	750.38
497.094	785.38
497.312	810.38
497.529	805.38
497.746	796.38
497.963	816.38
498.181	842.38
498.398	861.38
498.615	909.38
498.832	897.38
499.049	928.38
499.267	933.38
499.484	989.38
499.701	1024.38
499.918	1068.38
500.135	1139.38
500.352	1176.38
500.569	1232.38
500.786	1234.38
501.003	1189.38
501.22	1158.38
501.437	1069.38
501.654	1068.38
