Data from 1975.PennyLincolnUp.Lamp.En5.5.200Scan.071719.P1.Changed Mount._HRD10591_15-57-23-860.txt Node
Date: Thu Jul 18 15:57:23 EDT 2019
User: cochatt
Spectrometer: HR+D1059
Trigger mode: 1
Integration Time (sec): 1.000000E-1
Scans to average: 1
Electric dark correction enabled: true
Nonlinearity correction enabled: false
Boxcar width: 0
XAxis mode: Wavelengths
Number of Pixels in Spectrum: 2048
>>>>>Begin Spectral Data<<<<<
223.165	-21.5
223.4	-21.5
223.635	-21.5
223.869	-7.5
224.104	-20.5
224.338	-11.5
224.573	-1.5
224.808	-9.5
225.042	-7.5
225.277	-6.5
225.511	-14.5
225.746	7.5
225.98	2.5
226.215	4.5
226.449	11.5
226.683	25.5
226.918	33.5
227.152	15.5
227.387	32.5
227.621	36.5
227.856	51.5
228.09	45.5
228.324	41.5
228.559	41.5
228.793	77.5
229.027	88.5
229.262	100.5
229.496	122.5
229.73	129.5
229.964	135.5
230.199	136.5
230.433	106.5
230.667	113.5
230.901	112.5
231.136	97.5
231.37	107.5
231.604	117.5
231.838	103.5
232.072	105.5
232.306	121.5
232.541	124.5
232.775	123.5
233.009	136.5
233.243	106.5
233.477	132.5
233.711	106.5
233.945	116.5
234.179	109.5
234.413	122.5
234.647	112.5
234.881	107.5
235.115	120.5
235.349	124.5
235.583	121.5
235.817	126.5
236.051	120.5
236.285	125.5
236.519	124.5
236.753	135.5
236.987	127.5
237.221	170.5
237.455	228.5
237.689	195.5
237.922	142.5
238.156	126.5
238.39	137.5
238.624	132.5
238.858	116.5
239.091	118.5
239.325	132.5
239.559	130.5
239.793	126.5
240.027	129.5
240.26	149.5
240.494	141.5
240.728	157.5
240.961	167.5
241.195	144.5
241.429	134.5
241.662	142.5
241.896	140.5
242.13	150.5
242.363	150.5
242.597	132.5
242.83	141.5
243.064	137.5
243.298	147.5
243.531	147.5
243.765	150.5
243.998	154.5
244.232	150.5
244.465	145.5
244.699	149.5
244.932	151.5
245.166	156.5
245.399	153.5
245.633	146.5
245.866	157.5
246.099	171.5
246.333	175.5
246.566	152.5
246.8	165.5
247.033	165.5
247.266	166.5
247.5	161.5
247.733	160.5
247.966	171.5
248.2	170.5
248.433	193.5
248.666	183.5
248.899	185.5
249.133	203.5
249.366	201.5
249.599	187.5
249.832	189.5
250.066	190.5
250.299	196.5
250.532	192.5
250.765	198.5
250.998	235.5
251.231	231.5
251.465	247.5
251.698	231.5
251.931	203.5
252.164	201.5
252.397	182.5
252.63	196.5
252.863	198.5
253.096	226.5
253.329	237.5
253.562	235.5
253.795	227.5
254.028	227.5
254.261	221.5
254.494	224.5
254.727	250.5
254.96	273.5
255.193	282.5
255.426	230.5
255.659	237.5
255.892	240.5
256.124	215.5
256.357	258.5
256.59	233.5
256.823	234.5
257.056	228.5
257.289	224.5
257.521	221.5
257.754	216.5
257.987	201.5
258.22	210.5
258.452	214.5
258.685	203.5
258.918	197.5
259.151	225.5
259.383	218.5
259.616	220.5
259.849	236.5
260.081	236.5
260.314	238.5
260.547	261.5
260.779	237.5
261.012	240.5
261.244	228.5
261.477	237.5
261.71	226.5
261.942	216.5
262.175	219.5
262.407	228.5
262.64	232.5
262.872	219.5
263.105	228.5
263.337	228.5
263.57	224.5
263.802	198.5
264.035	192.5
264.267	220.5
264.499	220.5
264.732	216.5
264.964	210.5
265.197	227.5
265.429	218.5
265.661	231.5
265.894	227.5
266.126	222.5
266.358	223.5
266.591	228.5
266.823	230.5
267.055	246.5
267.287	225.5
267.52	244.5
267.752	252.5
267.984	253.5
268.216	241.5
268.448	241.5
268.681	260.5
268.913	248.5
269.145	266.5
269.377	280.5
269.609	267.5
269.841	281.5
270.073	280.5
270.306	299.5
270.538	307.5
270.77	299.5
271.002	318.5
271.234	297.5
271.466	313.5
271.698	320.5
271.93	323.5
272.162	295.5
272.394	322.5
272.626	301.5
272.858	306.5
273.09	306.5
273.322	270.5
273.553	284.5
273.785	274.5
274.017	271.5
274.249	264.5
274.481	274.5
274.713	278.5
274.945	269.5
275.176	281.5
275.408	275.5
275.64	276.5
275.872	269.5
276.104	283.5
276.335	285.5
276.567	269.5
276.799	290.5
277.031	304.5
277.262	313.5
277.494	336.5
277.726	310.5
277.957	308.5
278.189	296.5
278.421	276.5
278.652	285.5
278.884	280.5
279.115	271.5
279.347	278.5
279.579	281.5
279.81	274.5
280.042	283.5
280.273	284.5
280.505	288.5
280.736	285.5
280.968	282.5
281.199	281.5
281.431	271.5
281.662	289.5
281.894	273.5
282.125	292.5
282.356	284.5
282.588	322.5
282.819	310.5
283.051	288.5
283.282	268.5
283.513	282.5
283.745	299.5
283.976	291.5
284.207	285.5
284.439	300.5
284.67	301.5
284.901	295.5
285.132	292.5
285.364	293.5
285.595	297.5
285.826	301.5
286.057	305.5
286.288	290.5
286.52	304.5
286.751	297.5
286.982	301.5
287.213	290.5
287.444	305.5
287.675	304.5
287.906	297.5
288.138	305.5
288.369	302.5
288.6	322.5
288.831	312.5
289.062	316.5
289.293	312.5
289.524	305.5
289.755	318.5
289.986	304.5
290.217	293.5
290.448	312.5
290.679	314.5
290.91	305.5
291.141	323.5
291.371	300.5
291.602	319.5
291.833	296.5
292.064	316.5
292.295	304.5
292.526	298.5
292.757	296.5
292.987	319.5
293.218	292.5
293.449	294.5
293.68	310.5
293.91	307.5
294.141	294.5
294.372	297.5
294.603	300.5
294.833	302.5
295.064	300.5
295.295	327.5
295.525	329.5
295.756	327.5
295.987	326.5
296.217	347.5
296.448	330.5
296.679	318.5
296.909	298.5
297.14	304.5
297.37	336.5
297.601	330.5
297.831	312.5
298.062	314.5
298.292	305.5
298.523	325.5
298.753	315.5
298.984	301.5
299.214	316.5
299.445	326.5
299.675	330.5
299.905	335.5
300.136	327.5
300.366	348.5
300.597	341.5
300.827	336.5
301.057	337.5
301.288	354.5
301.518	359.5
301.748	357.5
301.979	365.5
302.209	362.5
302.439	338.5
302.669	345.5
302.9	339.5
303.13	338.5
303.36	352.5
303.59	357.5
303.82	357.5
304.051	345.5
304.281	347.5
304.511	345.5
304.741	352.5
304.971	355.5
305.201	355.5
305.431	342.5
305.661	356.5
305.891	344.5
306.121	358.5
306.352	336.5
306.582	339.5
306.812	346.5
307.042	352.5
307.272	353.5
307.502	370.5
307.731	353.5
307.961	328.5
308.191	346.5
308.421	348.5
308.651	335.5
308.881	361.5
309.111	342.5
309.341	332.5
309.571	377.5
309.8	362.5
310.03	370.5
310.26	374.5
310.49	348.5
310.72	373.5
310.949	382.5
311.179	378.5
311.409	374.5
311.639	377.5
311.868	377.5
312.098	386.5
312.328	380.5
312.557	404.5
312.787	406.5
313.017	440.5
313.246	403.5
313.476	397.5
313.706	381.5
313.935	399.5
314.165	410.5
314.394	408.5
314.624	405.5
314.853	390.5
315.083	381.5
315.312	388.5
315.542	378.5
315.771	382.5
316.001	396.5
316.23	394.5
316.46	381.5
316.689	391.5
316.919	382.5
317.148	416.5
317.377	398.5
317.607	405.5
317.836	398.5
318.065	394.5
318.295	380.5
318.524	398.5
318.753	399.5
318.983	392.5
319.212	377.5
319.441	372.5
319.67	398.5
319.9	402.5
320.129	380.5
320.358	378.5
320.587	386.5
320.816	406.5
321.046	400.5
321.275	408.5
321.504	392.5
321.733	395.5
321.962	402.5
322.191	429.5
322.42	418.5
322.649	435.5
322.878	442.5
323.108	428.5
323.337	461.5
323.566	477.5
323.795	481.5
324.024	543.5
324.253	622.5
324.482	827.5
324.71	1258.5
324.939	1857.5
325.168	1627.5
325.397	854.5
325.626	600.5
325.855	506.5
326.084	481.5
326.313	481.5
326.542	477.5
326.77	508.5
326.999	585.5
327.228	753.5
327.457	1148.5
327.686	1434.5
327.914	966.5
328.143	640.5
328.372	564.5
328.6	555.5
328.829	521.5
329.058	540.5
329.287	552.5
329.515	524.5
329.744	500.5
329.972	520.5
330.201	514.5
330.43	521.5
330.658	586.5
330.887	596.5
331.115	557.5
331.344	485.5
331.572	493.5
331.801	500.5
332.03	481.5
332.258	489.5
332.486	482.5
332.715	454.5
332.943	457.5
333.172	478.5
333.4	487.5
333.629	502.5
333.857	484.5
334.085	526.5
334.314	534.5
334.542	571.5
334.771	578.5
334.999	527.5
335.227	490.5
335.455	485.5
335.684	461.5
335.912	466.5
336.14	445.5
336.369	466.5
336.597	483.5
336.825	465.5
337.053	472.5
337.281	455.5
337.51	477.5
337.738	492.5
337.966	453.5
338.194	440.5
338.422	487.5
338.65	461.5
338.878	449.5
339.106	469.5
339.334	443.5
339.562	461.5
339.79	443.5
340.018	436.5
340.246	443.5
340.474	445.5
340.702	461.5
340.93	440.5
341.158	446.5
341.386	439.5
341.614	426.5
341.842	444.5
342.07	423.5
342.298	445.5
342.526	424.5
342.754	448.5
342.981	451.5
343.209	442.5
343.437	428.5
343.665	446.5
343.893	476.5
344.12	497.5
344.348	464.5
344.576	460.5
344.804	481.5
345.031	469.5
345.259	475.5
345.487	441.5
345.714	465.5
345.942	447.5
346.17	431.5
346.397	457.5
346.625	437.5
346.853	418.5
347.08	436.5
347.308	429.5
347.535	441.5
347.763	425.5
347.99	437.5
348.218	440.5
348.445	445.5
348.673	446.5
348.9	442.5
349.128	436.5
349.355	429.5
349.583	430.5
349.81	423.5
350.037	422.5
350.265	423.5
350.492	411.5
350.72	413.5
350.947	422.5
351.174	413.5
351.402	435.5
351.629	448.5
351.856	434.5
352.083	449.5
352.311	438.5
352.538	445.5
352.765	471.5
352.992	438.5
353.22	420.5
353.447	442.5
353.674	426.5
353.901	428.5
354.128	416.5
354.355	417.5
354.583	417.5
354.81	422.5
355.037	394.5
355.264	418.5
355.491	412.5
355.718	415.5
355.945	418.5
356.172	397.5
356.399	404.5
356.626	398.5
356.853	389.5
357.08	401.5
357.307	418.5
357.534	406.5
357.761	406.5
357.988	413.5
358.215	402.5
358.441	432.5
358.668	433.5
358.895	437.5
359.122	414.5
359.349	434.5
359.576	433.5
359.802	462.5
360.029	464.5
360.256	472.5
360.483	462.5
360.709	441.5
360.936	419.5
361.163	419.5
361.39	436.5
361.616	432.5
361.843	430.5
362.07	430.5
362.296	410.5
362.523	420.5
362.749	434.5
362.976	417.5
363.203	428.5
363.429	417.5
363.656	411.5
363.882	427.5
364.109	399.5
364.335	419.5
364.562	423.5
364.788	417.5
365.015	400.5
365.241	406.5
365.468	428.5
365.694	427.5
365.92	421.5
366.147	434.5
366.373	421.5
366.599	421.5
366.826	413.5
367.052	403.5
367.278	429.5
367.505	408.5
367.731	411.5
367.957	410.5
368.184	442.5
368.41	428.5
368.636	422.5
368.862	428.5
369.089	429.5
369.315	422.5
369.541	412.5
369.767	439.5
369.993	430.5
370.219	428.5
370.445	436.5
370.672	427.5
370.898	437.5
371.124	440.5
371.35	441.5
371.576	428.5
371.802	411.5
372.028	438.5
372.254	424.5
372.48	442.5
372.706	442.5
372.932	445.5
373.158	434.5
373.384	441.5
373.61	421.5
373.835	419.5
374.061	432.5
374.287	442.5
374.513	441.5
374.739	458.5
374.965	451.5
375.191	445.5
375.416	451.5
375.642	442.5
375.868	453.5
376.094	423.5
376.319	436.5
376.545	423.5
376.771	437.5
376.997	437.5
377.222	420.5
377.448	451.5
377.674	418.5
377.899	422.5
378.125	397.5
378.35	427.5
378.576	427.5
378.802	429.5
379.027	441.5
379.253	435.5
379.478	430.5
379.704	414.5
379.929	429.5
380.155	446.5
380.38	432.5
380.606	425.5
380.831	436.5
381.057	434.5
381.282	422.5
381.507	432.5
381.733	447.5
381.958	442.5
382.184	455.5
382.409	428.5
382.634	448.5
382.86	432.5
383.085	434.5
383.31	436.5
383.535	449.5
383.761	458.5
383.986	466.5
384.211	461.5
384.436	470.5
384.662	459.5
384.887	483.5
385.112	478.5
385.337	462.5
385.562	483.5
385.787	465.5
386.013	506.5
386.238	504.5
386.463	482.5
386.688	488.5
386.913	474.5
387.138	478.5
387.363	450.5
387.588	475.5
387.813	476.5
388.038	465.5
388.263	491.5
388.488	498.5
388.713	488.5
388.938	496.5
389.163	477.5
389.387	487.5
389.612	461.5
389.837	476.5
390.062	507.5
390.287	483.5
390.512	479.5
390.736	476.5
390.961	494.5
391.186	483.5
391.411	464.5
391.636	483.5
391.86	499.5
392.085	507.5
392.31	516.5
392.534	503.5
392.759	491.5
392.984	488.5
393.208	480.5
393.433	484.5
393.658	496.5
393.882	499.5
394.107	481.5
394.331	508.5
394.556	496.5
394.78	496.5
395.005	512.5
395.229	498.5
395.454	494.5
395.678	513.5
395.903	494.5
396.127	552.5
396.352	553.5
396.576	538.5
396.801	498.5
397.025	521.5
397.249	503.5
397.474	546.5
397.698	508.5
397.922	516.5
398.147	570.5
398.371	554.5
398.595	545.5
398.82	545.5
399.044	558.5
399.268	576.5
399.492	645.5
399.717	675.5
399.941	714.5
400.165	708.5
400.389	723.5
400.613	664.5
400.837	588.5
401.062	600.5
401.286	556.5
401.51	579.5
401.734	566.5
401.958	573.5
402.182	583.5
402.406	584.5
402.63	584.5
402.854	595.5
403.078	585.5
403.302	599.5
403.526	627.5
403.75	617.5
403.974	585.5
404.198	599.5
404.422	602.5
404.645	596.5
404.869	630.5
405.093	643.5
405.317	682.5
405.541	684.5
405.765	648.5
405.988	620.5
406.212	612.5
406.436	650.5
406.66	651.5
406.883	632.5
407.107	654.5
407.331	738.5
407.555	783.5
407.778	776.5
408.002	716.5
408.226	668.5
408.449	669.5
408.673	658.5
408.896	661.5
409.12	731.5
409.344	670.5
409.567	621.5
409.791	599.5
410.014	584.5
410.238	607.5
410.461	608.5
410.685	593.5
410.908	632.5
411.132	619.5
411.355	668.5
411.578	651.5
411.802	596.5
412.025	598.5
412.249	596.5
412.472	619.5
412.695	658.5
412.919	663.5
413.142	606.5
413.365	600.5
413.589	574.5
413.812	572.5
414.035	542.5
414.258	540.5
414.482	569.5
414.705	542.5
414.928	564.5
415.151	560.5
415.374	565.5
415.597	554.5
415.821	533.5
416.044	545.5
416.267	545.5
416.49	562.5
416.713	552.5
416.936	547.5
417.159	550.5
417.382	552.5
417.605	585.5
417.828	576.5
418.051	589.5
418.274	583.5
418.497	552.5
418.72	571.5
418.943	548.5
419.166	576.5
419.389	597.5
419.611	599.5
419.834	605.5
420.057	590.5
420.28	610.5
420.503	589.5
420.726	588.5
420.948	604.5
421.171	635.5
421.394	673.5
421.617	621.5
421.839	585.5
422.062	598.5
422.285	598.5
422.507	671.5
422.73	726.5
422.953	708.5
423.175	631.5
423.398	583.5
423.621	604.5
423.843	640.5
424.066	612.5
424.288	629.5
424.511	636.5
424.733	685.5
424.956	758.5
425.178	743.5
425.401	716.5
425.623	755.5
425.846	660.5
426.068	598.5
426.291	605.5
426.513	578.5
426.735	617.5
426.958	644.5
427.18	739.5
427.402	862.5
427.625	936.5
427.847	837.5
428.069	726.5
428.292	662.5
428.514	593.5
428.736	588.5
428.958	546.5
429.181	565.5
429.403	575.5
429.625	582.5
429.847	597.5
430.069	662.5
430.292	673.5
430.514	599.5
430.736	573.5
430.958	554.5
431.18	541.5
431.402	550.5
431.624	518.5
431.846	515.5
432.068	550.5
432.29	569.5
432.512	528.5
432.734	572.5
432.956	554.5
433.178	564.5
433.4	560.5
433.622	572.5
433.844	541.5
434.066	535.5
434.287	562.5
434.509	566.5
434.731	528.5
434.953	569.5
435.175	587.5
435.397	599.5
435.618	618.5
435.84	648.5
436.062	745.5
436.284	802.5
436.505	687.5
436.727	612.5
436.949	590.5
437.17	581.5
437.392	552.5
437.614	560.5
437.835	600.5
438.057	661.5
438.278	793.5
438.5	778.5
438.721	870.5
438.943	862.5
439.165	677.5
439.386	618.5
439.608	614.5
439.829	634.5
440.05	634.5
440.272	675.5
440.493	622.5
440.715	620.5
440.936	589.5
441.158	592.5
441.379	572.5
441.6	577.5
441.822	617.5
442.043	651.5
442.264	741.5
442.486	785.5
442.707	688.5
442.928	629.5
443.149	621.5
443.371	637.5
443.592	693.5
443.813	766.5
444.034	858.5
444.255	708.5
444.476	670.5
444.698	644.5
444.919	629.5
445.14	781.5
445.361	681.5
445.582	641.5
445.803	708.5
446.024	813.5
446.245	837.5
446.466	762.5
446.687	643.5
446.908	622.5
447.129	568.5
447.35	566.5
447.571	537.5
447.792	542.5
448.013	565.5
448.234	564.5
448.455	628.5
448.675	766.5
448.896	897.5
449.117	712.5
449.338	700.5
449.559	818.5
449.779	932.5
450	729.5
450.221	600.5
450.442	575.5
450.662	553.5
450.883	522.5
451.104	554.5
451.324	534.5
451.545	522.5
451.766	531.5
451.986	512.5
452.207	462.5
452.428	498.5
452.648	497.5
452.869	493.5
453.089	516.5
453.31	534.5
453.53	490.5
453.751	499.5
453.971	494.5
454.192	500.5
454.412	490.5
454.633	483.5
454.853	487.5
455.073	488.5
455.294	515.5
455.514	584.5
455.734	579.5
455.955	525.5
456.175	482.5
456.395	450.5
456.616	478.5
456.836	462.5
457.056	487.5
457.276	466.5
457.497	450.5
457.717	458.5
457.937	480.5
458.157	481.5
458.377	501.5
458.598	493.5
458.818	552.5
459.038	638.5
459.258	664.5
459.478	576.5
459.698	534.5
459.918	540.5
460.138	548.5
460.358	577.5
460.578	554.5
460.798	557.5
461.018	569.5
461.238	578.5
461.458	551.5
461.678	548.5
461.898	555.5
462.118	590.5
462.338	576.5
462.558	582.5
462.777	600.5
462.997	616.5
463.217	620.5
463.437	644.5
463.657	638.5
463.876	627.5
464.096	606.5
464.316	602.5
464.536	598.5
464.755	600.5
464.975	580.5
465.195	598.5
465.414	658.5
465.634	596.5
465.854	557.5
466.073	548.5
466.293	538.5
466.512	544.5
466.732	540.5
466.951	508.5
467.171	525.5
467.391	530.5
467.61	512.5
467.829	524.5
468.049	531.5
468.268	517.5
468.488	516.5
468.707	517.5
468.927	500.5
469.146	490.5
469.365	510.5
469.585	518.5
469.804	504.5
470.023	539.5
470.243	548.5
470.462	531.5
470.681	534.5
470.901	543.5
471.12	525.5
471.339	527.5
471.558	541.5
471.777	524.5
471.997	537.5
472.216	542.5
472.435	564.5
472.654	532.5
472.873	511.5
473.092	531.5
473.311	503.5
473.53	512.5
473.749	516.5
473.968	569.5
474.187	685.5
474.406	681.5
474.625	604.5
474.844	556.5
475.063	518.5
475.282	537.5
475.501	542.5
475.72	530.5
475.939	524.5
476.158	535.5
476.377	553.5
476.596	549.5
476.814	526.5
477.033	537.5
477.252	531.5
477.471	542.5
477.69	568.5
477.908	569.5
478.127	579.5
478.346	595.5
478.564	589.5
478.783	601.5
479.002	599.5
479.22	604.5
479.439	590.5
479.658	621.5
479.876	616.5
480.095	616.5
480.313	655.5
480.532	647.5
480.751	650.5
480.969	676.5
481.188	723.5
481.406	734.5
481.624	674.5
481.843	644.5
482.061	637.5
482.28	623.5
482.498	630.5
482.717	596.5
482.935	605.5
483.153	616.5
483.372	622.5
483.59	618.5
483.808	598.5
484.027	588.5
484.245	609.5
484.463	625.5
484.681	610.5
484.9	611.5
485.118	615.5
485.336	621.5
485.554	629.5
485.772	627.5
485.99	628.5
486.209	638.5
486.427	662.5
486.645	639.5
486.863	650.5
487.081	640.5
487.299	640.5
487.517	646.5
487.735	644.5
487.953	650.5
488.171	669.5
488.389	675.5
488.607	645.5
488.825	673.5
489.043	658.5
489.261	657.5
489.479	665.5
489.696	672.5
489.914	669.5
490.132	690.5
490.35	681.5
490.568	692.5
490.786	704.5
491.003	714.5
491.221	706.5
491.439	733.5
491.657	723.5
491.874	753.5
492.092	728.5
492.31	748.5
492.527	750.5
492.745	774.5
492.963	770.5
493.18	764.5
493.398	793.5
493.615	800.5
493.833	755.5
494.05	785.5
494.268	732.5
494.485	748.5
494.703	756.5
494.92	768.5
495.138	777.5
495.355	774.5
495.573	769.5
495.79	764.5
496.008	768.5
496.225	764.5
496.442	807.5
496.66	772.5
496.877	779.5
497.094	794.5
497.312	788.5
497.529	800.5
497.746	838.5
497.963	840.5
498.181	838.5
498.398	857.5
498.615	874.5
498.832	891.5
499.049	946.5
499.267	977.5
499.484	983.5
499.701	1041.5
499.918	1097.5
500.135	1152.5
500.352	1240.5
500.569	1237.5
500.786	1287.5
501.003	1201.5
501.22	1176.5
501.437	1089.5
501.654	1084.5
501.871	1045.5
502.088	990.5
502.305	957.5
502.522	907.5
502.739	897.5
502.956	866.5
503.172	857.5
503.389	827.5
503.606	832.5
503.823	820.5
504.04	824.5
504.256	803.5
504.473	794.5
504.69	801.5
504.907	770.5
505.123	766.5
505.34	740.5
505.557	734.5
505.773	744.5
505.99	747.5
506.207	750.5
506.423	737.5
506.64	738.5
506.856	718.5
507.073	696.5
507.289	714.5
507.506	725.5
507.722	705.5
507.939	723.5
508.155	704.5
508.372	689.5
508.588	685.5
508.805	691.5
509.021	673.5
509.238	669.5
509.454	675.5
509.67	703.5
509.887	698.5
510.103	674.5
510.319	670.5
510.536	737.5
510.752	1089.5
510.968	942.5
511.184	685.5
511.401	655.5
511.617	678.5
511.833	667.5
512.049	668.5
512.265	647.5
512.481	622.5
512.698	614.5
512.914	621.5
513.13	646.5
513.346	634.5
513.562	640.5
513.778	636.5
513.994	630.5
514.21	657.5
514.426	677.5
514.642	696.5
514.858	697.5
515.074	733.5
515.29	845.5
515.506	1096.5
515.721	946.5
515.937	746.5
516.153	699.5
516.369	678.5
516.585	658.5
516.801	673.5
517.016	660.5
517.232	669.5
517.448	700.5
517.664	697.5
517.879	698.5
518.095	690.5
518.311	709.5
518.527	674.5
518.742	672.5
518.958	644.5
519.173	665.5
519.389	655.5
519.605	636.5
