Data from 1975.PennyLincolnUp.Lamp.En5.5.200Scan.071719.P1.Changed Mount._HRD10591_15-55-37-858.txt Node
Date: Thu Jul 18 15:55:37 EDT 2019
User: cochatt
Spectrometer: HR+D1059
Trigger mode: 1
Integration Time (sec): 1.000000E-1
Scans to average: 1
Electric dark correction enabled: true
Nonlinearity correction enabled: false
Boxcar width: 0
XAxis mode: Wavelengths
Number of Pixels in Spectrum: 2048
>>>>>Begin Spectral Data<<<<<
223.165	-11.94
223.4	-11.94
223.635	-11.94
223.869	-19.94
224.104	-9.94
224.338	-15.94
224.573	-13.94
224.808	-13.94
225.042	-7.94
225.277	-0.94
225.511	0.06
225.746	1.06
225.98	1.06
226.215	13.06
226.449	7.06
226.683	20.06
226.918	23.06
227.152	29.06
227.387	23.06
227.621	31.06
227.856	39.06
228.09	32.06
228.324	34.06
228.559	51.06
228.793	49.06
229.027	92.06
229.262	95.06
229.496	83.06
229.73	105.06
229.964	146.06
230.199	119.06
230.433	111.06
230.667	106.06
230.901	105.06
231.136	101.06
231.37	105.06
231.604	101.06
231.838	111.06
232.072	107.06
232.306	124.06
232.541	110.06
232.775	99.06
233.009	105.06
233.243	133.06
233.477	103.06
233.711	112.06
233.945	107.06
234.179	119.06
234.413	105.06
234.647	117.06
234.881	130.06
235.115	107.06
235.349	110.06
235.583	105.06
235.817	100.06
236.051	112.06
236.285	121.06
236.519	119.06
236.753	127.06
236.987	122.06
237.221	148.06
237.455	195.06
237.689	160.06
237.922	133.06
238.156	108.06
238.39	118.06
238.624	118.06
238.858	119.06
239.091	127.06
239.325	128.06
239.559	120.06
239.793	126.06
240.027	135.06
240.26	126.06
240.494	122.06
240.728	127.06
240.961	141.06
241.195	137.06
241.429	128.06
241.662	121.06
241.896	128.06
242.13	126.06
242.363	135.06
242.597	124.06
242.83	122.06
243.064	139.06
243.298	134.06
243.531	120.06
243.765	134.06
243.998	138.06
244.232	136.06
244.465	138.06
244.699	132.06
244.932	114.06
245.166	136.06
245.399	128.06
245.633	134.06
245.866	138.06
246.099	151.06
246.333	139.06
246.566	151.06
246.8	134.06
247.033	129.06
247.266	147.06
247.5	151.06
247.733	136.06
247.966	161.06
248.2	172.06
248.433	151.06
248.666	164.06
248.899	171.06
249.133	171.06
249.366	178.06
249.599	190.06
249.832	168.06
250.066	151.06
250.299	162.06
250.532	167.06
250.765	186.06
250.998	188.06
251.231	208.06
251.465	194.06
251.698	173.06
251.931	192.06
252.164	163.06
252.397	176.06
252.63	163.06
252.863	193.06
253.096	204.06
253.329	200.06
253.562	199.06
253.795	206.06
254.028	183.06
254.261	190.06
254.494	200.06
254.727	214.06
254.96	238.06
255.193	238.06
255.426	202.06
255.659	187.06
255.892	192.06
256.124	206.06
256.357	203.06
256.59	196.06
256.823	203.06
257.056	193.06
257.289	188.06
257.521	198.06
257.754	197.06
257.987	185.06
258.22	201.06
258.452	182.06
258.685	180.06
258.918	196.06
259.151	198.06
259.383	187.06
259.616	183.06
259.849	201.06
260.081	195.06
260.314	217.06
260.547	226.06
260.779	208.06
261.012	194.06
261.244	201.06
261.477	207.06
261.71	202.06
261.942	195.06
262.175	208.06
262.407	204.06
262.64	202.06
262.872	207.06
263.105	200.06
263.337	195.06
263.57	204.06
263.802	204.06
264.035	201.06
264.267	185.06
264.499	192.06
264.732	188.06
264.964	199.06
265.197	194.06
265.429	185.06
265.661	199.06
265.894	202.06
266.126	198.06
266.358	192.06
266.591	214.06
266.823	212.06
267.055	209.06
267.287	217.06
267.52	217.06
267.752	201.06
267.984	216.06
268.216	208.06
268.448	216.06
268.681	222.06
268.913	221.06
269.145	241.06
269.377	246.06
269.609	255.06
269.841	238.06
270.073	222.06
270.306	223.06
270.538	253.06
270.77	269.06
271.002	254.06
271.234	263.06
271.466	265.06
271.698	276.06
271.93	278.06
272.162	271.06
272.394	281.06
272.626	251.06
272.858	246.06
273.09	232.06
273.322	239.06
273.553	239.06
273.785	249.06
274.017	226.06
274.249	250.06
274.481	244.06
274.713	249.06
274.945	249.06
275.176	237.06
275.408	241.06
275.64	236.06
275.872	242.06
276.104	243.06
276.335	225.06
276.567	244.06
276.799	243.06
277.031	265.06
277.262	283.06
277.494	271.06
277.726	265.06
277.957	262.06
278.189	261.06
278.421	228.06
278.652	261.06
278.884	259.06
279.115	256.06
279.347	260.06
279.579	249.06
279.81	255.06
280.042	242.06
280.273	242.06
280.505	264.06
280.736	242.06
280.968	253.06
281.199	251.06
281.431	231.06
281.662	248.06
281.894	238.06
282.125	251.06
282.356	253.06
282.588	265.06
282.819	264.06
283.051	266.06
283.282	246.06
283.513	257.06
283.745	254.06
283.976	263.06
284.207	262.06
284.439	252.06
284.67	268.06
284.901	264.06
285.132	265.06
285.364	258.06
285.595	261.06
285.826	269.06
286.057	281.06
286.288	268.06
286.52	254.06
286.751	274.06
286.982	278.06
287.213	243.06
287.444	261.06
287.675	276.06
287.906	294.06
288.138	280.06
288.369	280.06
288.6	303.06
288.831	263.06
289.062	266.06
289.293	281.06
289.524	279.06
289.755	262.06
289.986	280.06
290.217	248.06
290.448	283.06
290.679	276.06
290.91	287.06
291.141	255.06
291.371	277.06
291.602	272.06
291.833	279.06
292.064	265.06
292.295	285.06
292.526	278.06
292.757	254.06
292.987	289.06
293.218	266.06
293.449	258.06
293.68	267.06
293.91	286.06
294.141	260.06
294.372	267.06
294.603	295.06
294.833	273.06
295.064	278.06
295.295	275.06
295.525	273.06
295.756	289.06
295.987	272.06
296.217	300.06
296.448	284.06
296.679	302.06
296.909	268.06
297.14	279.06
297.37	269.06
297.601	280.06
297.831	286.06
298.062	287.06
298.292	303.06
298.523	282.06
298.753	295.06
298.984	290.06
299.214	283.06
299.445	290.06
299.675	286.06
299.905	291.06
300.136	296.06
300.366	297.06
300.597	293.06
300.827	309.06
301.057	296.06
301.288	310.06
301.518	293.06
301.748	322.06
301.979	290.06
302.209	298.06
302.439	313.06
302.669	314.06
302.9	300.06
303.13	314.06
303.36	306.06
303.59	306.06
303.82	302.06
304.051	310.06
304.281	298.06
304.511	274.06
304.741	295.06
304.971	295.06
305.201	314.06
305.431	322.06
305.661	299.06
305.891	313.06
306.121	292.06
306.352	301.06
306.582	297.06
306.812	287.06
307.042	306.06
307.272	302.06
307.502	313.06
307.731	310.06
307.961	319.06
308.191	302.06
308.421	307.06
308.651	321.06
308.881	318.06
309.111	308.06
309.341	294.06
309.571	320.06
309.8	328.06
310.03	310.06
310.26	326.06
310.49	316.06
310.72	344.06
310.949	347.06
311.179	339.06
311.409	319.06
311.639	327.06
311.868	355.06
312.098	323.06
312.328	328.06
312.557	345.06
312.787	359.06
313.017	343.06
313.246	346.06
313.476	324.06
313.706	330.06
313.935	318.06
314.165	346.06
314.394	371.06
314.624	347.06
314.853	318.06
315.083	363.06
315.312	352.06
315.542	327.06
315.771	328.06
316.001	336.06
316.23	343.06
316.46	333.06
316.689	329.06
316.919	348.06
317.148	350.06
317.377	347.06
317.607	356.06
317.836	355.06
318.065	345.06
318.295	353.06
318.524	359.06
318.753	370.06
318.983	352.06
319.212	318.06
319.441	326.06
319.67	357.06
319.9	330.06
320.129	351.06
320.358	348.06
320.587	335.06
320.816	341.06
321.046	339.06
321.275	335.06
321.504	353.06
321.733	360.06
321.962	338.06
322.191	358.06
322.42	371.06
322.649	361.06
322.878	366.06
323.108	390.06
323.337	408.06
323.566	414.06
323.795	420.06
324.024	439.06
324.253	488.06
324.482	629.06
324.71	968.06
324.939	1435.06
325.168	1266.06
325.397	642.06
325.626	478.06
325.855	407.06
326.084	409.06
326.313	397.06
326.542	410.06
326.77	440.06
326.999	481.06
327.228	615.06
327.457	908.06
327.686	1098.06
327.914	705.06
328.143	483.06
328.372	458.06
328.6	452.06
328.829	451.06
329.058	450.06
329.287	455.06
329.515	441.06
329.744	412.06
329.972	436.06
330.201	430.06
330.43	432.06
330.658	468.06
330.887	470.06
331.115	467.06
331.344	448.06
331.572	418.06
331.801	415.06
332.03	406.06
332.258	426.06
332.486	410.06
332.715	406.06
332.943	412.06
333.172	416.06
333.4	436.06
333.629	430.06
333.857	427.06
334.085	445.06
334.314	430.06
334.542	475.06
334.771	473.06
334.999	439.06
335.227	438.06
335.455	414.06
335.684	424.06
335.912	425.06
336.14	423.06
336.369	405.06
336.597	399.06
336.825	393.06
337.053	423.06
337.281	393.06
337.51	418.06
337.738	401.06
337.966	411.06
338.194	432.06
338.422	394.06
338.65	407.06
338.878	396.06
339.106	374.06
339.334	389.06
339.562	399.06
339.79	402.06
340.018	404.06
340.246	399.06
340.474	386.06
340.702	379.06
340.93	403.06
341.158	389.06
341.386	396.06
341.614	394.06
341.842	392.06
342.07	378.06
342.298	391.06
342.526	386.06
342.754	392.06
342.981	381.06
343.209	380.06
343.437	380.06
343.665	431.06
343.893	416.06
344.12	419.06
344.348	412.06
344.576	404.06
344.804	414.06
345.031	409.06
345.259	406.06
345.487	404.06
345.714	394.06
345.942	377.06
346.17	374.06
346.397	384.06
346.625	378.06
346.853	378.06
347.08	369.06
347.308	397.06
347.535	376.06
347.763	384.06
347.99	382.06
348.218	374.06
348.445	375.06
348.673	391.06
348.9	415.06
349.128	370.06
349.355	372.06
349.583	340.06
349.81	370.06
350.037	372.06
350.265	374.06
350.492	376.06
350.72	357.06
350.947	368.06
351.174	375.06
351.402	383.06
351.629	357.06
351.856	382.06
352.083	378.06
352.311	371.06
352.538	391.06
352.765	385.06
352.992	348.06
353.22	378.06
353.447	356.06
353.674	370.06
353.901	372.06
354.128	382.06
354.355	368.06
354.583	361.06
354.81	353.06
355.037	365.06
355.264	361.06
355.491	372.06
355.718	357.06
355.945	370.06
356.172	352.06
356.399	374.06
356.626	375.06
356.853	384.06
357.08	364.06
357.307	366.06
357.534	345.06
357.761	370.06
357.988	368.06
358.215	373.06
358.441	369.06
358.668	371.06
358.895	393.06
359.122	370.06
359.349	366.06
359.576	396.06
359.802	383.06
360.029	392.06
360.256	411.06
360.483	402.06
360.709	378.06
360.936	372.06
361.163	353.06
361.39	362.06
361.616	382.06
361.843	382.06
362.07	385.06
362.296	378.06
362.523	371.06
362.749	373.06
362.976	384.06
363.203	381.06
363.429	384.06
363.656	380.06
363.882	368.06
364.109	362.06
364.335	378.06
364.562	390.06
364.788	375.06
365.015	370.06
365.241	366.06
365.468	370.06
365.694	367.06
365.92	363.06
366.147	382.06
366.373	379.06
366.599	380.06
366.826	369.06
367.052	375.06
367.278	369.06
367.505	380.06
367.731	361.06
367.957	374.06
368.184	376.06
368.41	382.06
368.636	400.06
368.862	397.06
369.089	378.06
369.315	388.06
369.541	390.06
369.767	363.06
369.993	370.06
370.219	382.06
370.445	360.06
370.672	382.06
370.898	376.06
371.124	378.06
371.35	389.06
371.576	386.06
371.802	393.06
372.028	382.06
372.254	394.06
372.48	399.06
372.706	389.06
372.932	400.06
373.158	386.06
373.384	375.06
373.61	386.06
373.835	382.06
374.061	396.06
374.287	386.06
374.513	406.06
374.739	392.06
374.965	415.06
375.191	399.06
375.416	410.06
375.642	409.06
375.868	409.06
376.094	399.06
376.319	385.06
376.545	386.06
376.771	366.06
376.997	397.06
377.222	394.06
377.448	386.06
377.674	382.06
377.899	397.06
378.125	400.06
378.35	379.06
378.576	394.06
378.802	389.06
379.027	388.06
379.253	394.06
379.478	389.06
379.704	398.06
379.929	388.06
380.155	373.06
380.38	394.06
380.606	382.06
380.831	379.06
381.057	387.06
381.282	402.06
381.507	384.06
381.733	391.06
381.958	398.06
382.184	407.06
382.409	417.06
382.634	405.06
382.86	418.06
383.085	404.06
383.31	404.06
383.535	401.06
383.761	402.06
383.986	390.06
384.211	442.06
384.436	444.06
384.662	434.06
384.887	446.06
385.112	439.06
385.337	446.06
385.562	445.06
385.787	424.06
386.013	450.06
386.238	448.06
386.463	444.06
386.688	457.06
386.913	422.06
387.138	435.06
387.363	455.06
387.588	431.06
387.813	439.06
388.038	441.06
388.263	442.06
388.488	447.06
388.713	451.06
388.938	454.06
389.163	440.06
389.387	440.06
389.612	417.06
389.837	435.06
390.062	422.06
390.287	434.06
390.512	446.06
390.736	420.06
390.961	426.06
391.186	434.06
391.411	416.06
391.636	457.06
391.86	450.06
392.085	452.06
392.31	422.06
392.534	454.06
392.759	446.06
392.984	439.06
393.208	441.06
393.433	443.06
393.658	442.06
393.882	445.06
394.107	430.06
394.331	439.06
394.556	451.06
394.78	437.06
395.005	437.06
395.229	425.06
395.454	459.06
395.678	463.06
395.903	480.06
396.127	469.06
396.352	461.06
396.576	461.06
396.801	442.06
397.025	469.06
397.249	473.06
397.474	469.06
397.698	472.06
397.922	488.06
398.147	491.06
398.371	498.06
398.595	499.06
398.82	508.06
399.044	506.06
399.268	538.06
399.492	576.06
399.717	602.06
399.941	611.06
400.165	634.06
400.389	654.06
400.613	548.06
400.837	540.06
401.062	523.06
401.286	496.06
401.51	508.06
401.734	515.06
401.958	508.06
402.182	523.06
402.406	497.06
402.63	504.06
402.854	507.06
403.078	519.06
403.302	522.06
403.526	534.06
403.75	541.06
403.974	522.06
404.198	534.06
404.422	543.06
404.645	547.06
404.869	568.06
405.093	559.06
405.317	591.06
405.541	636.06
405.765	561.06
405.988	564.06
406.212	580.06
406.436	540.06
406.66	579.06
406.883	580.06
407.107	579.06
407.331	601.06
407.555	684.06
407.778	692.06
408.002	605.06
408.226	563.06
408.449	586.06
408.673	586.06
408.896	587.06
409.12	615.06
409.344	588.06
409.567	542.06
409.791	547.06
410.014	520.06
410.238	529.06
410.461	521.06
410.685	529.06
410.908	535.06
411.132	580.06
411.355	605.06
411.578	558.06
411.802	536.06
412.025	530.06
412.249	542.06
412.472	537.06
412.695	579.06
412.919	568.06
413.142	548.06
413.365	513.06
413.589	517.06
413.812	514.06
414.035	522.06
414.258	494.06
414.482	514.06
414.705	491.06
414.928	496.06
415.151	514.06
415.374	525.06
415.597	480.06
415.821	483.06
416.044	481.06
416.267	491.06
416.49	510.06
416.713	468.06
416.936	504.06
417.159	489.06
417.382	481.06
417.605	489.06
417.828	524.06
418.051	517.06
418.274	512.06
418.497	495.06
418.72	482.06
418.943	492.06
419.166	542.06
419.389	545.06
419.611	522.06
419.834	547.06
420.057	530.06
420.28	545.06
420.503	527.06
420.726	524.06
420.948	544.06
421.171	560.06
421.394	607.06
421.617	540.06
421.839	523.06
422.062	503.06
422.285	528.06
422.507	578.06
422.73	629.06
422.953	615.06
423.175	560.06
423.398	534.06
423.621	506.06
423.843	551.06
424.066	560.06
424.288	558.06
424.511	551.06
424.733	590.06
424.956	653.06
425.178	641.06
425.401	643.06
425.623	639.06
425.846	550.06
426.068	512.06
426.291	528.06
426.513	512.06
426.735	534.06
426.958	586.06
427.18	634.06
427.402	758.06
427.625	825.06
427.847	682.06
428.069	598.06
428.292	553.06
428.514	516.06
428.736	498.06
428.958	511.06
429.181	506.06
429.403	490.06
429.625	511.06
429.847	516.06
430.069	571.06
430.292	573.06
430.514	515.06
430.736	497.06
430.958	489.06
431.18	475.06
431.402	480.06
431.624	470.06
431.846	462.06
432.068	474.06
432.29	470.06
432.512	467.06
432.734	485.06
432.956	462.06
433.178	485.06
433.4	482.06
433.622	485.06
433.844	475.06
434.066	489.06
434.287	488.06
434.509	455.06
434.731	485.06
434.953	529.06
435.175	534.06
435.397	527.06
435.618	534.06
435.84	581.06
436.062	622.06
436.284	696.06
436.505	575.06
436.727	544.06
436.949	510.06
437.17	510.06
437.392	500.06
437.614	484.06
437.835	528.06
438.057	600.06
438.278	678.06
438.5	658.06
438.721	762.06
438.943	731.06
439.165	569.06
439.386	543.06
439.608	522.06
439.829	518.06
440.05	546.06
440.272	582.06
440.493	571.06
440.715	533.06
440.936	496.06
441.158	500.06
441.379	488.06
441.6	536.06
441.822	518.06
442.043	581.06
442.264	622.06
442.486	692.06
442.707	594.06
442.928	554.06
443.149	543.06
443.371	562.06
443.592	580.06
443.813	668.06
444.034	754.06
444.255	639.06
444.476	580.06
444.698	566.06
444.919	564.06
445.14	706.06
445.361	617.06
445.582	585.06
445.803	634.06
446.024	683.06
446.245	691.06
446.466	637.06
446.687	562.06
446.908	526.06
447.129	511.06
447.35	486.06
447.571	502.06
447.792	481.06
448.013	477.06
448.234	488.06
448.455	537.06
448.675	624.06
448.896	736.06
449.117	623.06
449.338	584.06
449.559	678.06
449.779	804.06
450	643.06
450.221	523.06
450.442	480.06
450.662	481.06
450.883	472.06
451.104	465.06
451.324	474.06
451.545	456.06
451.766	436.06
451.986	452.06
452.207	433.06
452.428	408.06
452.648	436.06
452.869	464.06
453.089	448.06
453.31	455.06
453.53	435.06
453.751	444.06
453.971	426.06
454.192	457.06
454.412	435.06
454.633	435.06
454.853	434.06
455.073	422.06
455.294	430.06
455.514	500.06
455.734	501.06
455.955	453.06
456.175	416.06
456.395	416.06
456.616	436.06
456.836	434.06
457.056	423.06
457.276	406.06
457.497	413.06
457.717	432.06
457.937	390.06
458.157	438.06
458.377	420.06
458.598	450.06
458.818	469.06
459.038	534.06
459.258	574.06
459.478	508.06
459.698	486.06
459.918	475.06
460.138	499.06
460.358	482.06
460.578	488.06
460.798	506.06
461.018	477.06
461.238	502.06
461.458	498.06
461.678	509.06
461.898	516.06
462.118	516.06
462.338	532.06
462.558	555.06
462.777	532.06
462.997	554.06
463.217	576.06
463.437	603.06
463.657	560.06
463.876	567.06
464.096	553.06
464.316	555.06
464.536	555.06
464.755	539.06
464.975	536.06
465.195	553.06
465.414	576.06
465.634	520.06
465.854	499.06
466.073	494.06
466.293	473.06
466.512	465.06
466.732	481.06
466.951	486.06
467.171	460.06
467.391	471.06
467.61	458.06
467.829	463.06
468.049	487.06
468.268	471.06
468.488	455.06
468.707	455.06
468.927	464.06
469.146	448.06
469.365	434.06
469.585	445.06
469.804	457.06
470.023	466.06
470.243	478.06
470.462	466.06
470.681	473.06
470.901	488.06
471.12	469.06
471.339	473.06
471.558	468.06
471.777	468.06
471.997	464.06
472.216	460.06
472.435	479.06
472.654	483.06
472.873	458.06
473.092	455.06
473.311	448.06
473.53	458.06
473.749	475.06
473.968	505.06
474.187	564.06
474.406	600.06
474.625	499.06
474.844	480.06
475.063	465.06
475.282	466.06
475.501	470.06
475.72	473.06
475.939	451.06
476.158	468.06
476.377	487.06
476.596	471.06
476.814	467.06
477.033	501.06
477.252	498.06
477.471	504.06
477.69	502.06
477.908	482.06
478.127	511.06
478.346	537.06
478.564	518.06
478.783	547.06
479.002	531.06
479.22	549.06
479.439	543.06
479.658	553.06
479.876	550.06
480.095	550.06
480.313	592.06
480.532	589.06
480.751	565.06
480.969	567.06
481.188	619.06
481.406	633.06
481.624	588.06
481.843	550.06
482.061	563.06
482.28	554.06
482.498	523.06
482.717	534.06
482.935	533.06
483.153	532.06
483.372	548.06
483.59	541.06
483.808	560.06
484.027	542.06
484.245	552.06
484.463	555.06
484.681	556.06
484.9	550.06
485.118	571.06
485.336	572.06
485.554	555.06
485.772	577.06
485.99	548.06
486.209	586.06
486.427	558.06
486.645	570.06
486.863	588.06
487.081	620.06
487.299	572.06
487.517	587.06
487.735	577.06
487.953	587.06
488.171	571.06
488.389	571.06
488.607	598.06
488.825	612.06
489.043	572.06
489.261	604.06
489.479	573.06
489.696	585.06
489.914	599.06
490.132	599.06
490.35	614.06
490.568	615.06
490.786	622.06
491.003	652.06
491.221	645.06
491.439	628.06
491.657	674.06
491.874	648.06
492.092	659.06
492.31	689.06
492.527	663.06
492.745	697.06
492.963	662.06
493.18	670.06
493.398	677.06
493.615	706.06
493.833	690.06
494.05	672.06
494.268	682.06
494.485	686.06
494.703	663.06
494.92	676.06
495.138	658.06
495.355	691.06
495.573	683.06
495.79	692.06
496.008	684.06
496.225	688.06
496.442	694.06
496.66	692.06
496.877	706.06
497.094	699.06
497.312	704.06
497.529	686.06
497.746	726.06
497.963	751.06
498.181	770.06
498.398	768.06
498.615	801.06
498.832	820.06
499.049	847.06
499.267	855.06
499.484	914.06
499.701	950.06
499.918	1007.06
500.135	1056.06
500.352	1126.06
500.569	1157.06
500.786	1141.06
501.003	1097.06
501.22	1099.06
501.437	977.06
501.654	962.06
