Data from 1975.PennyLincolnUp.Lamp.En5.5.200Scan.071719.P1.Changed Mount._HRD10591_15-58-28-860.txt Node
Date: Thu Jul 18 15:58:28 EDT 2019
User: cochatt
Spectrometer: HR+D1059
Trigger mode: 1
Integration Time (sec): 1.000000E-1
Scans to average: 1
Electric dark correction enabled: true
Nonlinearity correction enabled: false
Boxcar width: 0
XAxis mode: Wavelengths
Number of Pixels in Spectrum: 2048
>>>>>Begin Spectral Data<<<<<
223.165	-13.88
223.4	-13.88
223.635	-13.88
223.869	-14.88
224.104	-9.88
224.338	-24.88
224.573	-17.88
224.808	-19.88
225.042	-3.88
225.277	-7.88
225.511	-10.88
225.746	8.12
225.98	11.12
226.215	10.12
226.449	20.12
226.683	34.12
226.918	21.12
227.152	19.12
227.387	32.12
227.621	37.12
227.856	51.12
228.09	47.12
228.324	42.12
228.559	63.12
228.793	69.12
229.027	86.12
229.262	112.12
229.496	111.12
229.73	128.12
229.964	160.12
230.199	150.12
230.433	127.12
230.667	125.12
230.901	108.12
231.136	108.12
231.37	121.12
231.604	117.12
231.838	114.12
232.072	118.12
232.306	100.12
232.541	114.12
232.775	110.12
233.009	120.12
233.243	118.12
233.477	119.12
233.711	118.12
233.945	122.12
234.179	126.12
234.413	113.12
234.647	124.12
234.881	125.12
235.115	135.12
235.349	126.12
235.583	129.12
235.817	114.12
236.051	126.12
236.285	142.12
236.519	127.12
236.753	138.12
236.987	139.12
237.221	190.12
237.455	223.12
237.689	192.12
237.922	155.12
238.156	134.12
238.39	126.12
238.624	123.12
238.858	131.12
239.091	142.12
239.325	133.12
239.559	142.12
239.793	134.12
240.027	134.12
240.26	152.12
240.494	161.12
240.728	159.12
240.961	158.12
241.195	153.12
241.429	160.12
241.662	134.12
241.896	141.12
242.13	144.12
242.363	145.12
242.597	136.12
242.83	138.12
243.064	140.12
243.298	139.12
243.531	140.12
243.765	155.12
243.998	148.12
244.232	156.12
244.465	142.12
244.699	156.12
244.932	158.12
245.166	167.12
245.399	169.12
245.633	151.12
245.866	162.12
246.099	163.12
246.333	151.12
246.566	151.12
246.8	156.12
247.033	158.12
247.266	169.12
247.5	184.12
247.733	174.12
247.966	171.12
248.2	179.12
248.433	168.12
248.666	194.12
248.899	180.12
249.133	188.12
249.366	211.12
249.599	182.12
249.832	179.12
250.066	191.12
250.299	186.12
250.532	205.12
250.765	215.12
250.998	238.12
251.231	239.12
251.465	216.12
251.698	206.12
251.931	202.12
252.164	197.12
252.397	202.12
252.63	199.12
252.863	202.12
253.096	218.12
253.329	236.12
253.562	246.12
253.795	213.12
254.028	223.12
254.261	226.12
254.494	230.12
254.727	257.12
254.96	285.12
255.193	276.12
255.426	245.12
255.659	249.12
255.892	248.12
256.124	251.12
256.357	254.12
256.59	214.12
256.823	234.12
257.056	203.12
257.289	226.12
257.521	226.12
257.754	227.12
257.987	206.12
258.22	216.12
258.452	220.12
258.685	220.12
258.918	222.12
259.151	219.12
259.383	223.12
259.616	235.12
259.849	247.12
260.081	258.12
260.314	266.12
260.547	268.12
260.779	244.12
261.012	258.12
261.244	241.12
261.477	251.12
261.71	243.12
261.942	225.12
262.175	258.12
262.407	258.12
262.64	221.12
262.872	232.12
263.105	221.12
263.337	233.12
263.57	222.12
263.802	214.12
264.035	213.12
264.267	229.12
264.499	212.12
264.732	215.12
264.964	227.12
265.197	213.12
265.429	237.12
265.661	210.12
265.894	221.12
266.126	241.12
266.358	226.12
266.591	237.12
266.823	242.12
267.055	257.12
267.287	240.12
267.52	248.12
267.752	239.12
267.984	230.12
268.216	231.12
268.448	268.12
268.681	244.12
268.913	264.12
269.145	271.12
269.377	289.12
269.609	279.12
269.841	285.12
270.073	300.12
270.306	314.12
270.538	318.12
270.77	309.12
271.002	308.12
271.234	301.12
271.466	319.12
271.698	325.12
271.93	335.12
272.162	346.12
272.394	335.12
272.626	336.12
272.858	309.12
273.09	310.12
273.322	287.12
273.553	285.12
273.785	283.12
274.017	280.12
274.249	269.12
274.481	279.12
274.713	264.12
274.945	282.12
275.176	275.12
275.408	286.12
275.64	273.12
275.872	282.12
276.104	283.12
276.335	291.12
276.567	295.12
276.799	290.12
277.031	342.12
277.262	333.12
277.494	330.12
277.726	326.12
277.957	316.12
278.189	308.12
278.421	281.12
278.652	290.12
278.884	276.12
279.115	274.12
279.347	281.12
279.579	285.12
279.81	275.12
280.042	276.12
280.273	276.12
280.505	281.12
280.736	292.12
280.968	299.12
281.199	284.12
281.431	295.12
281.662	286.12
281.894	283.12
282.125	294.12
282.356	312.12
282.588	307.12
282.819	327.12
283.051	293.12
283.282	319.12
283.513	315.12
283.745	299.12
283.976	307.12
284.207	303.12
284.439	297.12
284.67	303.12
284.901	312.12
285.132	301.12
285.364	302.12
285.595	299.12
285.826	300.12
286.057	295.12
286.288	294.12
286.52	304.12
286.751	310.12
286.982	307.12
287.213	310.12
287.444	297.12
287.675	318.12
287.906	334.12
288.138	320.12
288.369	334.12
288.6	343.12
288.831	329.12
289.062	309.12
289.293	307.12
289.524	333.12
289.755	316.12
289.986	308.12
290.217	345.12
290.448	318.12
290.679	319.12
290.91	310.12
291.141	308.12
291.371	322.12
291.602	313.12
291.833	304.12
292.064	312.12
292.295	320.12
292.526	314.12
292.757	317.12
292.987	310.12
293.218	307.12
293.449	319.12
293.68	314.12
293.91	330.12
294.141	327.12
294.372	288.12
294.603	312.12
294.833	336.12
295.064	318.12
295.295	315.12
295.525	314.12
295.756	323.12
295.987	328.12
296.217	340.12
296.448	349.12
296.679	326.12
296.909	320.12
297.14	325.12
297.37	349.12
297.601	321.12
297.831	341.12
298.062	345.12
298.292	326.12
298.523	328.12
298.753	316.12
298.984	344.12
299.214	326.12
299.445	349.12
299.675	322.12
299.905	345.12
300.136	333.12
300.366	332.12
300.597	332.12
300.827	339.12
301.057	361.12
301.288	326.12
301.518	348.12
301.748	355.12
301.979	334.12
302.209	356.12
302.439	365.12
302.669	331.12
302.9	347.12
303.13	371.12
303.36	366.12
303.59	343.12
303.82	360.12
304.051	362.12
304.281	342.12
304.511	336.12
304.741	359.12
304.971	358.12
305.201	340.12
305.431	354.12
305.661	342.12
305.891	345.12
306.121	368.12
306.352	359.12
306.582	358.12
306.812	336.12
307.042	349.12
307.272	351.12
307.502	360.12
307.731	350.12
307.961	353.12
308.191	357.12
308.421	371.12
308.651	354.12
308.881	355.12
309.111	355.12
309.341	379.12
309.571	394.12
309.8	381.12
310.03	387.12
310.26	372.12
310.49	378.12
310.72	393.12
310.949	416.12
311.179	410.12
311.409	400.12
311.639	406.12
311.868	402.12
312.098	379.12
312.328	410.12
312.557	406.12
312.787	424.12
313.017	403.12
313.246	382.12
313.476	391.12
313.706	392.12
313.935	394.12
314.165	398.12
314.394	434.12
314.624	419.12
314.853	425.12
315.083	386.12
315.312	429.12
315.542	398.12
315.771	395.12
316.001	377.12
316.23	386.12
316.46	404.12
316.689	420.12
316.919	401.12
317.148	442.12
317.377	419.12
317.607	404.12
317.836	391.12
318.065	386.12
318.295	396.12
318.524	405.12
318.753	406.12
318.983	396.12
319.212	392.12
319.441	403.12
319.67	422.12
319.9	394.12
320.129	407.12
320.358	406.12
320.587	411.12
320.816	426.12
321.046	421.12
321.275	416.12
321.504	434.12
321.733	438.12
321.962	422.12
322.191	419.12
322.42	443.12
322.649	448.12
322.878	448.12
323.108	443.12
323.337	473.12
323.566	474.12
323.795	510.12
324.024	525.12
324.253	624.12
324.482	860.12
324.71	1309.12
324.939	1986.12
325.168	1738.12
325.397	876.12
325.626	614.12
325.855	506.12
326.084	489.12
326.313	515.12
326.542	496.12
326.77	547.12
326.999	616.12
327.228	803.12
327.457	1185.12
327.686	1517.12
327.914	988.12
328.143	670.12
328.372	603.12
328.6	586.12
328.829	559.12
329.058	548.12
329.287	558.12
329.515	558.12
329.744	519.12
329.972	500.12
330.201	522.12
330.43	559.12
330.658	589.12
330.887	634.12
331.115	590.12
331.344	539.12
331.572	484.12
331.801	513.12
332.03	498.12
332.258	514.12
332.486	486.12
332.715	482.12
332.943	495.12
333.172	502.12
333.4	476.12
333.629	506.12
333.857	527.12
334.085	546.12
334.314	538.12
334.542	575.12
334.771	574.12
334.999	544.12
335.227	520.12
335.455	489.12
335.684	536.12
335.912	497.12
336.14	488.12
336.369	502.12
336.597	498.12
336.825	476.12
337.053	488.12
337.281	463.12
337.51	477.12
337.738	485.12
337.966	487.12
338.194	486.12
338.422	478.12
338.65	467.12
338.878	441.12
339.106	458.12
339.334	466.12
339.562	465.12
339.79	464.12
340.018	450.12
340.246	465.12
340.474	452.12
340.702	444.12
340.93	442.12
341.158	424.12
341.386	444.12
341.614	459.12
341.842	465.12
342.07	455.12
342.298	438.12
342.526	434.12
342.754	451.12
342.981	438.12
343.209	446.12
343.437	456.12
343.665	468.12
343.893	468.12
344.12	498.12
344.348	476.12
344.576	482.12
344.804	484.12
345.031	463.12
345.259	472.12
345.487	464.12
345.714	464.12
345.942	438.12
346.17	439.12
346.397	446.12
346.625	441.12
346.853	443.12
347.08	435.12
347.308	439.12
347.535	428.12
347.763	468.12
347.99	459.12
348.218	461.12
348.445	471.12
348.673	448.12
348.9	436.12
349.128	438.12
349.355	420.12
349.583	424.12
349.81	423.12
350.037	431.12
350.265	430.12
350.492	442.12
350.72	441.12
350.947	427.12
351.174	440.12
351.402	466.12
351.629	461.12
351.856	450.12
352.083	447.12
352.311	457.12
352.538	447.12
352.765	451.12
352.992	451.12
353.22	426.12
353.447	456.12
353.674	431.12
353.901	440.12
354.128	434.12
354.355	418.12
354.583	412.12
354.81	457.12
355.037	430.12
355.264	428.12
355.491	414.12
355.718	429.12
355.945	415.12
356.172	410.12
356.399	412.12
356.626	419.12
356.853	402.12
357.08	422.12
357.307	431.12
357.534	392.12
357.761	414.12
357.988	417.12
358.215	415.12
358.441	420.12
358.668	442.12
358.895	436.12
359.122	434.12
359.349	441.12
359.576	420.12
359.802	469.12
360.029	481.12
360.256	485.12
360.483	479.12
360.709	450.12
360.936	462.12
361.163	435.12
361.39	452.12
361.616	452.12
361.843	440.12
362.07	431.12
362.296	438.12
362.523	426.12
362.749	426.12
362.976	451.12
363.203	426.12
363.429	459.12
363.656	445.12
363.882	431.12
364.109	439.12
364.335	421.12
364.562	435.12
364.788	432.12
365.015	442.12
365.241	439.12
365.468	426.12
365.694	448.12
365.92	424.12
366.147	431.12
366.373	421.12
366.599	439.12
366.826	416.12
367.052	432.12
367.278	425.12
367.505	443.12
367.731	427.12
367.957	404.12
368.184	438.12
368.41	450.12
368.636	454.12
368.862	456.12
369.089	452.12
369.315	431.12
369.541	461.12
369.767	448.12
369.993	431.12
370.219	438.12
370.445	426.12
370.672	431.12
370.898	422.12
371.124	428.12
371.35	415.12
371.576	450.12
371.802	435.12
372.028	459.12
372.254	444.12
372.48	438.12
372.706	453.12
372.932	443.12
373.158	436.12
373.384	431.12
373.61	444.12
373.835	476.12
374.061	445.12
374.287	450.12
374.513	448.12
374.739	451.12
374.965	457.12
375.191	454.12
375.416	457.12
375.642	470.12
375.868	452.12
376.094	454.12
376.319	441.12
376.545	460.12
376.771	435.12
376.997	432.12
377.222	446.12
377.448	446.12
377.674	434.12
377.899	413.12
378.125	434.12
378.35	442.12
378.576	439.12
378.802	440.12
379.027	442.12
379.253	428.12
379.478	429.12
379.704	443.12
379.929	447.12
380.155	459.12
380.38	441.12
380.606	454.12
380.831	427.12
381.057	436.12
381.282	436.12
381.507	409.12
381.733	435.12
381.958	451.12
382.184	449.12
382.409	440.12
382.634	445.12
382.86	446.12
383.085	449.12
383.31	459.12
383.535	473.12
383.761	474.12
383.986	474.12
384.211	467.12
384.436	461.12
384.662	475.12
384.887	491.12
385.112	473.12
385.337	487.12
385.562	491.12
385.787	473.12
386.013	493.12
386.238	507.12
386.463	486.12
386.688	510.12
386.913	504.12
387.138	477.12
387.363	498.12
387.588	498.12
387.813	485.12
388.038	493.12
388.263	488.12
388.488	497.12
388.713	506.12
388.938	478.12
389.163	504.12
389.387	494.12
389.612	503.12
389.837	480.12
390.062	471.12
390.287	477.12
390.512	488.12
390.736	494.12
390.961	488.12
391.186	480.12
391.411	493.12
391.636	505.12
391.86	528.12
392.085	514.12
392.31	541.12
392.534	507.12
392.759	524.12
392.984	500.12
393.208	520.12
393.433	514.12
393.658	491.12
393.882	486.12
394.107	489.12
394.331	490.12
394.556	524.12
394.78	489.12
395.005	488.12
395.229	503.12
395.454	525.12
395.678	526.12
395.903	515.12
396.127	552.12
396.352	565.12
396.576	530.12
396.801	518.12
397.025	531.12
397.249	540.12
397.474	513.12
397.698	526.12
397.922	535.12
398.147	562.12
398.371	573.12
398.595	583.12
398.82	588.12
399.044	586.12
399.268	615.12
399.492	662.12
399.717	705.12
399.941	723.12
400.165	757.12
400.389	744.12
400.613	686.12
400.837	629.12
401.062	587.12
401.286	590.12
401.51	600.12
401.734	577.12
401.958	596.12
402.182	574.12
402.406	598.12
402.63	596.12
402.854	599.12
403.078	623.12
403.302	622.12
403.526	610.12
403.75	634.12
403.974	603.12
404.198	620.12
404.422	626.12
404.645	629.12
404.869	623.12
405.093	644.12
405.317	711.12
405.541	745.12
405.765	670.12
405.988	645.12
406.212	616.12
406.436	656.12
406.66	663.12
406.883	668.12
407.107	664.12
407.331	733.12
407.555	819.12
407.778	792.12
408.002	732.12
408.226	698.12
408.449	662.12
408.673	658.12
408.896	686.12
409.12	720.12
409.344	684.12
409.567	613.12
409.791	607.12
410.014	609.12
410.238	610.12
410.461	614.12
410.685	585.12
410.908	613.12
411.132	638.12
411.355	678.12
411.578	640.12
411.802	631.12
412.025	612.12
412.249	612.12
412.472	635.12
412.695	672.12
412.919	657.12
413.142	622.12
413.365	623.12
413.589	613.12
413.812	608.12
414.035	568.12
414.258	588.12
414.482	587.12
414.705	583.12
414.928	564.12
415.151	567.12
415.374	566.12
415.597	566.12
415.821	544.12
416.044	573.12
416.267	570.12
416.49	559.12
416.713	565.12
416.936	538.12
417.159	580.12
417.382	568.12
417.605	553.12
417.828	574.12
418.051	604.12
418.274	588.12
418.497	583.12
418.72	551.12
418.943	580.12
419.166	619.12
419.389	610.12
419.611	617.12
419.834	616.12
420.057	631.12
420.28	592.12
420.503	607.12
420.726	603.12
420.948	615.12
421.171	656.12
421.394	663.12
421.617	600.12
421.839	600.12
422.062	603.12
422.285	620.12
422.507	687.12
422.73	751.12
422.953	713.12
423.175	642.12
423.398	601.12
423.621	634.12
423.843	616.12
424.066	644.12
424.288	648.12
424.511	663.12
424.733	694.12
424.956	782.12
425.178	749.12
425.401	749.12
425.623	776.12
425.846	675.12
426.068	608.12
426.291	596.12
426.513	616.12
426.735	639.12
426.958	665.12
427.18	725.12
427.402	898.12
427.625	976.12
427.847	801.12
428.069	725.12
428.292	671.12
428.514	593.12
428.736	602.12
428.958	610.12
429.181	554.12
429.403	573.12
429.625	580.12
429.847	608.12
430.069	699.12
430.292	682.12
430.514	596.12
430.736	590.12
430.958	580.12
431.18	575.12
431.402	554.12
431.624	538.12
431.846	551.12
432.068	547.12
432.29	566.12
432.512	565.12
432.734	597.12
432.956	567.12
433.178	600.12
433.4	559.12
433.622	553.12
433.844	568.12
434.066	544.12
434.287	557.12
434.509	564.12
434.731	572.12
434.953	587.12
435.175	581.12
435.397	622.12
435.618	630.12
435.84	674.12
436.062	778.12
436.284	843.12
436.505	695.12
436.727	600.12
436.949	608.12
437.17	585.12
437.392	560.12
437.614	592.12
437.835	638.12
438.057	717.12
438.278	831.12
438.5	818.12
438.721	896.12
438.943	884.12
439.165	684.12
439.386	630.12
439.608	641.12
439.829	610.12
440.05	658.12
440.272	698.12
440.493	646.12
440.715	638.12
440.936	588.12
441.158	581.12
441.379	596.12
441.6	604.12
441.822	626.12
442.043	681.12
442.264	757.12
442.486	810.12
442.707	682.12
442.928	629.12
443.149	644.12
443.371	687.12
443.592	710.12
443.813	799.12
444.034	869.12
444.255	735.12
444.476	680.12
444.698	658.12
444.919	668.12
445.14	773.12
445.361	720.12
445.582	700.12
445.803	733.12
446.024	838.12
446.245	840.12
446.466	758.12
446.687	670.12
446.908	627.12
447.129	586.12
447.35	556.12
447.571	561.12
447.792	558.12
448.013	555.12
448.234	600.12
448.455	627.12
448.675	739.12
448.896	874.12
449.117	743.12
449.338	701.12
449.559	807.12
449.779	930.12
450	746.12
450.221	605.12
450.442	580.12
450.662	554.12
450.883	545.12
451.104	559.12
451.324	559.12
451.545	544.12
451.766	530.12
451.986	503.12
452.207	498.12
452.428	523.12
452.648	536.12
452.869	516.12
453.089	522.12
453.31	541.12
453.53	498.12
453.751	495.12
453.971	514.12
454.192	505.12
454.412	486.12
454.633	492.12
454.853	490.12
455.073	503.12
455.294	503.12
455.514	584.12
455.734	603.12
455.955	528.12
456.175	474.12
456.395	510.12
456.616	491.12
456.836	478.12
457.056	487.12
457.276	492.12
457.497	502.12
457.717	493.12
457.937	479.12
458.157	494.12
458.377	501.12
458.598	528.12
458.818	544.12
459.038	648.12
459.258	670.12
459.478	588.12
459.698	557.12
459.918	546.12
460.138	547.12
460.358	589.12
460.578	571.12
460.798	583.12
461.018	572.12
461.238	571.12
461.458	582.12
461.678	551.12
461.898	572.12
462.118	610.12
462.338	600.12
462.558	603.12
462.777	598.12
462.997	630.12
463.217	656.12
463.437	664.12
463.657	635.12
463.876	621.12
464.096	649.12
464.316	624.12
464.536	608.12
464.755	631.12
464.975	615.12
465.195	627.12
465.414	692.12
465.634	629.12
465.854	564.12
466.073	572.12
466.293	570.12
466.512	542.12
466.732	535.12
466.951	544.12
467.171	546.12
467.391	539.12
467.61	524.12
467.829	532.12
468.049	543.12
468.268	537.12
468.488	535.12
468.707	521.12
468.927	512.12
469.146	515.12
469.365	527.12
469.585	504.12
469.804	516.12
470.023	543.12
470.243	533.12
470.462	531.12
470.681	578.12
470.901	552.12
471.12	551.12
471.339	532.12
471.558	542.12
471.777	538.12
471.997	520.12
472.216	516.12
472.435	551.12
472.654	564.12
472.873	543.12
473.092	546.12
473.311	520.12
473.53	531.12
473.749	555.12
473.968	569.12
474.187	652.12
474.406	694.12
474.625	574.12
474.844	569.12
475.063	539.12
475.282	515.12
475.501	532.12
475.72	550.12
475.939	541.12
476.158	551.12
476.377	535.12
476.596	569.12
476.814	558.12
477.033	567.12
477.252	559.12
477.471	590.12
477.69	576.12
477.908	577.12
478.127	588.12
478.346	605.12
478.564	583.12
478.783	610.12
479.002	614.12
479.22	603.12
479.439	628.12
479.658	627.12
479.876	638.12
480.095	676.12
480.313	680.12
480.532	682.12
480.751	683.12
480.969	664.12
481.188	729.12
481.406	733.12
481.624	687.12
481.843	664.12
482.061	662.12
482.28	645.12
482.498	634.12
482.717	614.12
482.935	646.12
483.153	615.12
483.372	626.12
483.59	638.12
483.808	616.12
484.027	634.12
484.245	640.12
484.463	604.12
484.681	634.12
484.9	631.12
485.118	637.12
485.336	623.12
485.554	650.12
485.772	639.12
485.99	642.12
486.209	678.12
486.427	656.12
486.645	670.12
486.863	659.12
487.081	688.12
487.299	687.12
487.517	667.12
487.735	655.12
487.953	679.12
488.171	697.12
488.389	673.12
488.607	656.12
488.825	668.12
489.043	675.12
489.261	664.12
489.479	670.12
489.696	676.12
489.914	655.12
490.132	709.12
490.35	705.12
490.568	707.12
490.786	706.12
491.003	733.12
491.221	778.12
491.439	751.12
491.657	762.12
491.874	758.12
492.092	776.12
492.31	783.12
492.527	792.12
492.745	784.12
492.963	783.12
493.18	794.12
493.398	784.12
493.615	794.12
493.833	795.12
494.05	810.12
494.268	786.12
494.485	796.12
494.703	823.12
494.92	792.12
495.138	806.12
495.355	804.12
495.573	817.12
495.79	800.12
496.008	790.12
496.225	824.12
496.442	788.12
496.66	828.12
496.877	824.12
497.094	831.12
497.312	819.12
497.529	837.12
497.746	841.12
497.963	863.12
498.181	876.12
498.398	894.12
498.615	892.12
498.832	926.12
499.049	921.12
499.267	968.12
499.484	1032.12
499.701	1067.12
499.918	1117.12
500.135	1163.12
500.352	1261.12
500.569	1273.12
500.786	1282.12
501.003	1272.12
501.22	1214.12
501.437	1143.12
501.654	1096.12
