Data from 1975.PennyLincolnUp.Lamp.En5.5.200Scan.071719.P1.Changed Mount._HRD10591_15-56-31-858.txt Node
Date: Thu Jul 18 15:56:31 EDT 2019
User: cochatt
Spectrometer: HR+D1059
Trigger mode: 1
Integration Time (sec): 1.000000E-1
Scans to average: 1
Electric dark correction enabled: true
Nonlinearity correction enabled: false
Boxcar width: 0
XAxis mode: Wavelengths
Number of Pixels in Spectrum: 2048
>>>>>Begin Spectral Data<<<<<
223.165	-9.31
223.4	-9.31
223.635	-9.31
223.869	-18.31
224.104	-7.31
224.338	-12.31
224.573	-10.31
224.808	-19.31
225.042	-10.31
225.277	-3.31
225.511	-10.31
225.746	10.69
225.98	-5.31
226.215	23.69
226.449	20.69
226.683	12.69
226.918	12.69
227.152	25.69
227.387	32.69
227.621	41.69
227.856	29.69
228.09	37.69
228.324	73.69
228.559	56.69
228.793	71.69
229.027	105.69
229.262	105.69
229.496	124.69
229.73	143.69
229.964	153.69
230.199	150.69
230.433	131.69
230.667	125.69
230.901	105.69
231.136	126.69
231.37	123.69
231.604	108.69
231.838	115.69
232.072	110.69
232.306	117.69
232.541	118.69
232.775	142.69
233.009	129.69
233.243	118.69
233.477	119.69
233.711	127.69
233.945	115.69
234.179	115.69
234.413	135.69
234.647	113.69
234.881	136.69
235.115	115.69
235.349	111.69
235.583	114.69
235.817	123.69
236.051	141.69
236.285	124.69
236.519	133.69
236.753	127.69
236.987	139.69
237.221	171.69
237.455	223.69
237.689	173.69
237.922	135.69
238.156	131.69
238.39	125.69
238.624	115.69
238.858	129.69
239.091	136.69
239.325	115.69
239.559	138.69
239.793	121.69
240.027	140.69
240.26	117.69
240.494	156.69
240.728	150.69
240.961	159.69
241.195	141.69
241.429	137.69
241.662	128.69
241.896	143.69
242.13	132.69
242.363	131.69
242.597	157.69
242.83	135.69
243.064	149.69
243.298	143.69
243.531	139.69
243.765	154.69
243.998	155.69
244.232	161.69
244.465	152.69
244.699	141.69
244.932	161.69
245.166	159.69
245.399	156.69
245.633	158.69
245.866	143.69
246.099	161.69
246.333	145.69
246.566	159.69
246.8	166.69
247.033	160.69
247.266	167.69
247.5	151.69
247.733	173.69
247.966	176.69
248.2	190.69
248.433	179.69
248.666	161.69
248.899	191.69
249.133	192.69
249.366	224.69
249.599	196.69
249.832	190.69
250.066	175.69
250.299	185.69
250.532	216.69
250.765	202.69
250.998	222.69
251.231	212.69
251.465	228.69
251.698	211.69
251.931	205.69
252.164	191.69
252.397	184.69
252.63	201.69
252.863	206.69
253.096	209.69
253.329	228.69
253.562	217.69
253.795	240.69
254.028	227.69
254.261	220.69
254.494	212.69
254.727	270.69
254.96	285.69
255.193	282.69
255.426	228.69
255.659	249.69
255.892	256.69
256.124	244.69
256.357	230.69
256.59	238.69
256.823	223.69
257.056	208.69
257.289	223.69
257.521	220.69
257.754	218.69
257.987	227.69
258.22	212.69
258.452	215.69
258.685	208.69
258.918	214.69
259.151	217.69
259.383	224.69
259.616	223.69
259.849	231.69
260.081	245.69
260.314	254.69
260.547	272.69
260.779	239.69
261.012	245.69
261.244	228.69
261.477	232.69
261.71	225.69
261.942	224.69
262.175	229.69
262.407	213.69
262.64	212.69
262.872	204.69
263.105	215.69
263.337	219.69
263.57	222.69
263.802	241.69
264.035	222.69
264.267	231.69
264.499	228.69
264.732	223.69
264.964	225.69
265.197	225.69
265.429	244.69
265.661	218.69
265.894	213.69
266.126	220.69
266.358	219.69
266.591	242.69
266.823	236.69
267.055	241.69
267.287	244.69
267.52	221.69
267.752	233.69
267.984	229.69
268.216	225.69
268.448	235.69
268.681	231.69
268.913	268.69
269.145	254.69
269.377	284.69
269.609	268.69
269.841	273.69
270.073	286.69
270.306	295.69
270.538	314.69
270.77	311.69
271.002	307.69
271.234	294.69
271.466	294.69
271.698	327.69
271.93	328.69
272.162	313.69
272.394	322.69
272.626	316.69
272.858	283.69
273.09	275.69
273.322	274.69
273.553	278.69
273.785	268.69
274.017	282.69
274.249	292.69
274.481	269.69
274.713	273.69
274.945	270.69
275.176	267.69
275.408	279.69
275.64	278.69
275.872	269.69
276.104	275.69
276.335	269.69
276.567	285.69
276.799	286.69
277.031	298.69
277.262	316.69
277.494	336.69
277.726	319.69
277.957	291.69
278.189	302.69
278.421	269.69
278.652	274.69
278.884	275.69
279.115	285.69
279.347	303.69
279.579	296.69
279.81	283.69
280.042	268.69
280.273	276.69
280.505	271.69
280.736	284.69
280.968	280.69
281.199	281.69
281.431	278.69
281.662	307.69
281.894	301.69
282.125	286.69
282.356	291.69
282.588	280.69
282.819	288.69
283.051	297.69
283.282	292.69
283.513	302.69
283.745	299.69
283.976	291.69
284.207	288.69
284.439	294.69
284.67	288.69
284.901	299.69
285.132	292.69
285.364	295.69
285.595	283.69
285.826	285.69
286.057	317.69
286.288	318.69
286.52	297.69
286.751	293.69
286.982	288.69
287.213	300.69
287.444	301.69
287.675	317.69
287.906	318.69
288.138	335.69
288.369	303.69
288.6	304.69
288.831	302.69
289.062	329.69
289.293	293.69
289.524	297.69
289.755	310.69
289.986	303.69
290.217	337.69
290.448	304.69
290.679	316.69
290.91	284.69
291.141	313.69
291.371	311.69
291.602	297.69
291.833	330.69
292.064	332.69
292.295	316.69
292.526	299.69
292.757	327.69
292.987	295.69
293.218	324.69
293.449	327.69
293.68	318.69
293.91	304.69
294.141	309.69
294.372	297.69
294.603	315.69
294.833	308.69
295.064	323.69
295.295	322.69
295.525	331.69
295.756	309.69
295.987	321.69
296.217	341.69
296.448	348.69
296.679	333.69
296.909	311.69
297.14	321.69
297.37	317.69
297.601	325.69
297.831	321.69
298.062	327.69
298.292	311.69
298.523	327.69
298.753	323.69
298.984	319.69
299.214	316.69
299.445	327.69
299.675	337.69
299.905	352.69
300.136	328.69
300.366	336.69
300.597	340.69
300.827	329.69
301.057	325.69
301.288	359.69
301.518	352.69
301.748	337.69
301.979	350.69
302.209	360.69
302.439	326.69
302.669	354.69
302.9	337.69
303.13	341.69
303.36	343.69
303.59	345.69
303.82	356.69
304.051	362.69
304.281	354.69
304.511	359.69
304.741	342.69
304.971	356.69
305.201	369.69
305.431	341.69
305.661	352.69
305.891	363.69
306.121	364.69
306.352	349.69
306.582	362.69
306.812	319.69
307.042	345.69
307.272	342.69
307.502	331.69
307.731	351.69
307.961	340.69
308.191	323.69
308.421	341.69
308.651	333.69
308.881	336.69
309.111	364.69
309.341	350.69
309.571	371.69
309.8	383.69
310.03	376.69
310.26	379.69
310.49	392.69
310.72	374.69
310.949	388.69
311.179	384.69
311.409	394.69
311.639	369.69
311.868	407.69
312.098	389.69
312.328	390.69
312.557	410.69
312.787	398.69
313.017	411.69
313.246	390.69
313.476	364.69
313.706	381.69
313.935	386.69
314.165	391.69
314.394	409.69
314.624	412.69
314.853	393.69
315.083	393.69
315.312	416.69
315.542	410.69
315.771	385.69
316.001	365.69
316.23	384.69
316.46	380.69
316.689	381.69
316.919	386.69
317.148	376.69
317.377	404.69
317.607	398.69
317.836	416.69
318.065	368.69
318.295	389.69
318.524	397.69
318.753	395.69
318.983	392.69
319.212	371.69
319.441	407.69
319.67	399.69
319.9	396.69
320.129	375.69
320.358	387.69
320.587	400.69
320.816	391.69
321.046	409.69
321.275	424.69
321.504	407.69
321.733	416.69
321.962	413.69
322.191	419.69
322.42	431.69
322.649	414.69
322.878	446.69
323.108	441.69
323.337	456.69
323.566	484.69
323.795	468.69
324.024	518.69
324.253	593.69
324.482	806.69
324.71	1200.69
324.939	1806.69
325.168	1589.69
325.397	808.69
325.626	563.69
325.855	503.69
326.084	477.69
326.313	480.69
326.542	460.69
326.77	507.69
326.999	574.69
327.228	744.69
327.457	1125.69
327.686	1387.69
327.914	914.69
328.143	625.69
328.372	569.69
328.6	542.69
328.829	504.69
329.058	494.69
329.287	543.69
329.515	534.69
329.744	493.69
329.972	479.69
330.201	496.69
330.43	540.69
330.658	534.69
330.887	557.69
331.115	565.69
331.344	506.69
331.572	482.69
331.801	490.69
332.03	474.69
332.258	476.69
332.486	475.69
332.715	490.69
332.943	488.69
333.172	481.69
333.4	489.69
333.629	493.69
333.857	511.69
334.085	504.69
334.314	538.69
334.542	569.69
334.771	569.69
334.999	518.69
335.227	499.69
335.455	482.69
335.684	471.69
335.912	454.69
336.14	491.69
336.369	482.69
336.597	494.69
336.825	487.69
337.053	457.69
337.281	463.69
337.51	474.69
337.738	469.69
337.966	456.69
338.194	460.69
338.422	465.69
338.65	465.69
338.878	439.69
339.106	453.69
339.334	459.69
339.562	442.69
339.79	434.69
340.018	432.69
340.246	445.69
340.474	445.69
340.702	435.69
340.93	428.69
341.158	416.69
341.386	447.69
341.614	450.69
341.842	447.69
342.07	441.69
342.298	427.69
342.526	449.69
342.754	432.69
342.981	436.69
343.209	429.69
343.437	465.69
343.665	447.69
343.893	469.69
344.12	476.69
344.348	483.69
344.576	456.69
344.804	457.69
345.031	459.69
345.259	469.69
345.487	454.69
345.714	469.69
345.942	421.69
346.17	422.69
346.397	440.69
346.625	412.69
346.853	434.69
347.08	411.69
347.308	427.69
347.535	438.69
347.763	427.69
347.99	422.69
348.218	431.69
348.445	455.69
348.673	426.69
348.9	427.69
349.128	426.69
349.355	421.69
349.583	424.69
349.81	425.69
350.037	407.69
350.265	436.69
350.492	405.69
350.72	408.69
350.947	423.69
351.174	435.69
351.402	419.69
351.629	407.69
351.856	423.69
352.083	437.69
352.311	433.69
352.538	440.69
352.765	452.69
352.992	452.69
353.22	432.69
353.447	407.69
353.674	433.69
353.901	422.69
354.128	387.69
354.355	409.69
354.583	412.69
354.81	410.69
355.037	421.69
355.264	436.69
355.491	408.69
355.718	406.69
355.945	404.69
356.172	413.69
356.399	387.69
356.626	413.69
356.853	401.69
357.08	404.69
357.307	416.69
357.534	398.69
357.761	430.69
357.988	419.69
358.215	424.69
358.441	429.69
358.668	407.69
358.895	418.69
359.122	425.69
359.349	422.69
359.576	455.69
359.802	445.69
360.029	474.69
360.256	492.69
360.483	466.69
360.709	440.69
360.936	442.69
361.163	421.69
361.39	423.69
361.616	429.69
361.843	416.69
362.07	419.69
362.296	422.69
362.523	428.69
362.749	425.69
362.976	428.69
363.203	419.69
363.429	405.69
363.656	411.69
363.882	417.69
364.109	406.69
364.335	409.69
364.562	416.69
364.788	424.69
365.015	421.69
365.241	415.69
365.468	419.69
365.694	395.69
365.92	411.69
366.147	410.69
366.373	424.69
366.599	411.69
366.826	421.69
367.052	411.69
367.278	415.69
367.505	432.69
367.731	411.69
367.957	428.69
368.184	450.69
368.41	425.69
368.636	419.69
368.862	457.69
369.089	445.69
369.315	432.69
369.541	413.69
369.767	418.69
369.993	423.69
370.219	418.69
370.445	407.69
370.672	417.69
370.898	409.69
371.124	428.69
371.35	431.69
371.576	435.69
371.802	436.69
372.028	447.69
372.254	426.69
372.48	442.69
372.706	435.69
372.932	449.69
373.158	421.69
373.384	452.69
373.61	435.69
373.835	423.69
374.061	436.69
374.287	446.69
374.513	439.69
374.739	432.69
374.965	443.69
375.191	451.69
375.416	439.69
375.642	442.69
375.868	429.69
376.094	441.69
376.319	439.69
376.545	439.69
376.771	421.69
376.997	430.69
377.222	435.69
377.448	419.69
377.674	422.69
377.899	408.69
378.125	422.69
378.35	444.69
378.576	433.69
378.802	434.69
379.027	440.69
379.253	438.69
379.478	442.69
379.704	421.69
379.929	435.69
380.155	420.69
380.38	443.69
380.606	448.69
380.831	436.69
381.057	451.69
381.282	441.69
381.507	448.69
381.733	446.69
381.958	433.69
382.184	451.69
382.409	455.69
382.634	444.69
382.86	439.69
383.085	442.69
383.31	445.69
383.535	472.69
383.761	482.69
383.986	458.69
384.211	473.69
384.436	455.69
384.662	473.69
384.887	479.69
385.112	462.69
385.337	489.69
385.562	455.69
385.787	470.69
386.013	504.69
386.238	505.69
386.463	502.69
386.688	480.69
386.913	490.69
387.138	485.69
387.363	474.69
387.588	479.69
387.813	461.69
388.038	471.69
388.263	476.69
388.488	480.69
388.713	489.69
388.938	493.69
389.163	509.69
389.387	478.69
389.612	473.69
389.837	468.69
390.062	489.69
390.287	471.69
390.512	500.69
390.736	491.69
390.961	477.69
391.186	500.69
391.411	490.69
391.636	482.69
391.86	501.69
392.085	503.69
392.31	516.69
392.534	499.69
392.759	525.69
392.984	485.69
393.208	486.69
393.433	500.69
393.658	487.69
393.882	494.69
394.107	484.69
394.331	499.69
394.556	499.69
394.78	508.69
395.005	492.69
395.229	495.69
395.454	517.69
395.678	495.69
395.903	515.69
396.127	540.69
396.352	533.69
396.576	511.69
396.801	513.69
397.025	527.69
397.249	517.69
397.474	503.69
397.698	542.69
397.922	550.69
398.147	541.69
398.371	553.69
398.595	543.69
398.82	575.69
399.044	578.69
399.268	602.69
399.492	624.69
399.717	680.69
399.941	697.69
400.165	710.69
400.389	711.69
400.613	662.69
400.837	617.69
401.062	583.69
401.286	571.69
401.51	577.69
401.734	578.69
401.958	574.69
402.182	582.69
402.406	576.69
402.63	583.69
402.854	590.69
403.078	592.69
403.302	563.69
403.526	599.69
403.75	601.69
403.974	599.69
404.198	591.69
404.422	581.69
404.645	627.69
404.869	608.69
405.093	641.69
405.317	667.69
405.541	731.69
405.765	632.69
405.988	639.69
406.212	615.69
406.436	641.69
406.66	659.69
406.883	632.69
407.107	665.69
407.331	700.69
407.555	804.69
407.778	800.69
408.002	731.69
408.226	676.69
408.449	667.69
408.673	655.69
408.896	669.69
409.12	716.69
409.344	699.69
409.567	601.69
409.791	601.69
410.014	610.69
410.238	581.69
410.461	603.69
410.685	604.69
410.908	623.69
411.132	646.69
411.355	666.69
411.578	643.69
411.802	596.69
412.025	577.69
412.249	617.69
412.472	615.69
412.695	658.69
412.919	651.69
413.142	609.69
413.365	568.69
413.589	600.69
413.812	575.69
414.035	573.69
414.258	557.69
414.482	567.69
414.705	571.69
414.928	555.69
415.151	560.69
415.374	569.69
415.597	563.69
415.821	549.69
416.044	560.69
416.267	551.69
416.49	560.69
416.713	555.69
416.936	553.69
417.159	560.69
417.382	541.69
417.605	552.69
417.828	577.69
418.051	602.69
418.274	576.69
418.497	554.69
418.72	551.69
418.943	558.69
419.166	587.69
419.389	617.69
419.611	611.69
419.834	619.69
420.057	595.69
420.28	611.69
420.503	586.69
420.726	577.69
420.948	616.69
421.171	622.69
421.394	679.69
421.617	612.69
421.839	573.69
422.062	581.69
422.285	581.69
422.507	646.69
422.73	721.69
422.953	673.69
423.175	620.69
423.398	591.69
423.621	622.69
423.843	650.69
424.066	615.69
424.288	607.69
424.511	640.69
424.733	706.69
424.956	772.69
425.178	743.69
425.401	724.69
425.623	747.69
425.846	659.69
426.068	585.69
426.291	618.69
426.513	598.69
426.735	604.69
426.958	654.69
427.18	731.69
427.402	867.69
427.625	947.69
427.847	797.69
428.069	694.69
428.292	655.69
428.514	590.69
428.736	593.69
428.958	580.69
429.181	554.69
429.403	534.69
429.625	544.69
429.847	605.69
430.069	674.69
430.292	653.69
430.514	575.69
430.736	553.69
430.958	554.69
431.18	556.69
431.402	536.69
431.624	563.69
431.846	524.69
432.068	545.69
432.29	534.69
432.512	507.69
432.734	558.69
432.956	559.69
433.178	557.69
433.4	557.69
433.622	551.69
433.844	552.69
434.066	528.69
434.287	540.69
434.509	567.69
434.731	557.69
434.953	585.69
435.175	608.69
435.397	638.69
435.618	626.69
435.84	656.69
436.062	758.69
436.284	770.69
436.505	662.69
436.727	615.69
436.949	604.69
437.17	569.69
437.392	547.69
437.614	570.69
437.835	612.69
438.057	665.69
438.278	811.69
438.5	787.69
438.721	881.69
438.943	815.69
439.165	668.69
439.386	603.69
439.608	619.69
439.829	606.69
440.05	614.69
440.272	678.69
440.493	615.69
440.715	590.69
440.936	606.69
441.158	582.69
441.379	594.69
441.6	588.69
441.822	591.69
442.043	629.69
442.264	752.69
442.486	756.69
442.707	663.69
442.928	631.69
443.149	624.69
443.371	667.69
443.592	698.69
443.813	821.69
444.034	847.69
444.255	707.69
444.476	654.69
444.698	655.69
444.919	619.69
445.14	749.69
445.361	675.69
445.582	668.69
445.803	706.69
446.024	797.69
446.245	826.69
446.466	746.69
446.687	641.69
446.908	607.69
447.129	596.69
447.35	562.69
447.571	559.69
447.792	520.69
448.013	553.69
448.234	592.69
448.455	612.69
448.675	741.69
448.896	877.69
449.117	721.69
449.338	682.69
449.559	793.69
449.779	927.69
450	722.69
450.221	593.69
450.442	565.69
450.662	535.69
450.883	528.69
451.104	543.69
451.324	556.69
451.545	534.69
451.766	503.69
451.986	489.69
452.207	500.69
452.428	478.69
452.648	509.69
452.869	508.69
453.089	510.69
453.31	517.69
453.53	513.69
453.751	496.69
453.971	481.69
454.192	514.69
454.412	475.69
454.633	495.69
454.853	480.69
455.073	476.69
455.294	510.69
455.514	575.69
455.734	572.69
455.955	506.69
456.175	481.69
456.395	470.69
456.616	463.69
456.836	466.69
457.056	474.69
457.276	455.69
457.497	473.69
457.717	474.69
457.937	469.69
458.157	488.69
458.377	484.69
458.598	506.69
458.818	549.69
459.038	616.69
459.258	653.69
459.478	578.69
459.698	521.69
459.918	550.69
460.138	549.69
460.358	559.69
460.578	536.69
460.798	573.69
461.018	569.69
461.238	570.69
461.458	564.69
461.678	576.69
461.898	576.69
462.118	572.69
462.338	573.69
462.558	604.69
462.777	607.69
462.997	625.69
463.217	664.69
463.437	663.69
463.657	612.69
463.876	609.69
464.096	614.69
464.316	597.69
464.536	605.69
464.755	613.69
464.975	589.69
465.195	591.69
465.414	683.69
465.634	622.69
465.854	573.69
466.073	564.69
466.293	504.69
466.512	536.69
466.732	510.69
466.951	494.69
467.171	503.69
467.391	509.69
467.61	492.69
467.829	521.69
468.049	515.69
468.268	516.69
468.488	506.69
468.707	516.69
468.927	488.69
469.146	513.69
469.365	490.69
469.585	508.69
469.804	516.69
470.023	521.69
470.243	537.69
470.462	520.69
470.681	545.69
470.901	545.69
471.12	527.69
471.339	518.69
471.558	528.69
471.777	547.69
471.997	510.69
472.216	528.69
472.435	532.69
472.654	526.69
472.873	523.69
473.092	507.69
473.311	496.69
473.53	501.69
473.749	533.69
473.968	557.69
474.187	621.69
474.406	688.69
474.625	584.69
474.844	520.69
475.063	521.69
475.282	526.69
475.501	513.69
475.72	534.69
475.939	527.69
476.158	526.69
476.377	513.69
476.596	523.69
476.814	543.69
477.033	555.69
477.252	569.69
477.471	551.69
477.69	553.69
477.908	585.69
478.127	574.69
478.346	560.69
478.564	588.69
478.783	598.69
479.002	591.69
479.22	592.69
479.439	632.69
479.658	643.69
479.876	643.69
480.095	640.69
480.313	672.69
480.532	646.69
480.751	648.69
480.969	655.69
481.188	697.69
481.406	711.69
481.624	675.69
481.843	655.69
482.061	601.69
482.28	621.69
482.498	614.69
482.717	594.69
482.935	602.69
483.153	619.69
483.372	588.69
483.59	617.69
483.808	639.69
484.027	588.69
484.245	628.69
484.463	611.69
484.681	631.69
484.9	635.69
485.118	644.69
485.336	649.69
485.554	624.69
485.772	645.69
485.99	647.69
486.209	636.69
486.427	645.69
486.645	639.69
486.863	649.69
487.081	649.69
487.299	680.69
487.517	654.69
487.735	671.69
487.953	663.69
488.171	660.69
488.389	653.69
488.607	643.69
488.825	640.69
489.043	631.69
489.261	676.69
489.479	654.69
489.696	661.69
489.914	669.69
490.132	662.69
490.35	687.69
490.568	691.69
490.786	682.69
491.003	719.69
491.221	715.69
491.439	731.69
491.657	729.69
491.874	758.69
492.092	745.69
492.31	755.69
492.527	745.69
492.745	759.69
492.963	758.69
493.18	752.69
493.398	763.69
493.615	767.69
493.833	803.69
494.05	771.69
494.268	779.69
494.485	743.69
494.703	767.69
494.92	758.69
495.138	795.69
495.355	785.69
495.573	799.69
495.79	767.69
496.008	769.69
496.225	761.69
496.442	796.69
496.66	824.69
496.877	775.69
497.094	783.69
497.312	780.69
497.529	797.69
497.746	819.69
497.963	815.69
498.181	893.69
498.398	874.69
498.615	910.69
498.832	917.69
499.049	945.69
499.267	963.69
499.484	1009.69
499.701	1056.69
499.918	1100.69
500.135	1171.69
500.352	1184.69
500.569	1231.69
500.786	1257.69
501.003	1246.69
501.22	1183.69
501.437	1126.69
501.654	1072.69
