Data from 1975.PennyLincolnUp.Lamp.En5.5.200Scan.071719.P1.Changed Mount._HRD10591_15-57-27-860.txt Node
Date: Thu Jul 18 15:57:27 EDT 2019
User: cochatt
Spectrometer: HR+D1059
Trigger mode: 1
Integration Time (sec): 1.000000E-1
Scans to average: 1
Electric dark correction enabled: true
Nonlinearity correction enabled: false
Boxcar width: 0
XAxis mode: Wavelengths
Number of Pixels in Spectrum: 2048
>>>>>Begin Spectral Data<<<<<
223.165	-7.06
223.4	-7.06
223.635	-7.06
223.869	-19.06
224.104	-17.06
224.338	-19.06
224.573	-21.06
224.808	-17.06
225.042	4.94
225.277	4.94
225.511	0.94
225.746	1.94
225.98	-4.06
226.215	7.94
226.449	-5.06
226.683	26.94
226.918	22.94
227.152	38.94
227.387	30.94
227.621	29.94
227.856	32.94
228.09	32.94
228.324	48.94
228.559	66.94
228.793	71.94
229.027	94.94
229.262	104.94
229.496	118.94
229.73	119.94
229.964	157.94
230.199	123.94
230.433	104.94
230.667	101.94
230.901	109.94
231.136	108.94
231.37	105.94
231.604	116.94
231.838	113.94
232.072	110.94
232.306	126.94
232.541	121.94
232.775	106.94
233.009	120.94
233.243	116.94
233.477	122.94
233.711	115.94
233.945	103.94
234.179	127.94
234.413	114.94
234.647	118.94
234.881	119.94
235.115	120.94
235.349	126.94
235.583	123.94
235.817	121.94
236.051	133.94
236.285	130.94
236.519	134.94
236.753	132.94
236.987	140.94
237.221	200.94
237.455	218.94
237.689	185.94
237.922	142.94
238.156	129.94
238.39	135.94
238.624	127.94
238.858	119.94
239.091	137.94
239.325	124.94
239.559	114.94
239.793	129.94
240.027	132.94
240.26	148.94
240.494	172.94
240.728	133.94
240.961	171.94
241.195	155.94
241.429	152.94
241.662	128.94
241.896	133.94
242.13	128.94
242.363	125.94
242.597	133.94
242.83	134.94
243.064	143.94
243.298	130.94
243.531	150.94
243.765	149.94
243.998	160.94
244.232	153.94
244.465	131.94
244.699	141.94
244.932	144.94
245.166	144.94
245.399	147.94
245.633	152.94
245.866	153.94
246.099	146.94
246.333	154.94
246.566	159.94
246.8	170.94
247.033	159.94
247.266	157.94
247.5	176.94
247.733	181.94
247.966	172.94
248.2	180.94
248.433	169.94
248.666	192.94
248.899	174.94
249.133	202.94
249.366	202.94
249.599	211.94
249.832	175.94
250.066	191.94
250.299	179.94
250.532	181.94
250.765	208.94
250.998	224.94
251.231	242.94
251.465	224.94
251.698	192.94
251.931	220.94
252.164	199.94
252.397	190.94
252.63	186.94
252.863	213.94
253.096	224.94
253.329	247.94
253.562	228.94
253.795	216.94
254.028	209.94
254.261	224.94
254.494	227.94
254.727	237.94
254.96	289.94
255.193	272.94
255.426	243.94
255.659	224.94
255.892	229.94
256.124	227.94
256.357	242.94
256.59	226.94
256.823	225.94
257.056	225.94
257.289	206.94
257.521	209.94
257.754	208.94
257.987	196.94
258.22	199.94
258.452	213.94
258.685	214.94
258.918	221.94
259.151	222.94
259.383	226.94
259.616	227.94
259.849	246.94
260.081	227.94
260.314	250.94
260.547	272.94
260.779	238.94
261.012	229.94
261.244	224.94
261.477	227.94
261.71	217.94
261.942	234.94
262.175	248.94
262.407	234.94
262.64	233.94
262.872	218.94
263.105	221.94
263.337	226.94
263.57	222.94
263.802	237.94
264.035	227.94
264.267	208.94
264.499	225.94
264.732	234.94
264.964	213.94
265.197	220.94
265.429	219.94
265.661	226.94
265.894	221.94
266.126	219.94
266.358	240.94
266.591	227.94
266.823	233.94
267.055	234.94
267.287	242.94
267.52	244.94
267.752	237.94
267.984	213.94
268.216	244.94
268.448	226.94
268.681	226.94
268.913	249.94
269.145	280.94
269.377	293.94
269.609	293.94
269.841	294.94
270.073	278.94
270.306	296.94
270.538	315.94
270.77	324.94
271.002	304.94
271.234	296.94
271.466	297.94
271.698	321.94
271.93	313.94
272.162	338.94
272.394	326.94
272.626	310.94
272.858	304.94
273.09	286.94
273.322	269.94
273.553	256.94
273.785	261.94
274.017	283.94
274.249	283.94
274.481	258.94
274.713	266.94
274.945	271.94
275.176	288.94
275.408	282.94
275.64	279.94
275.872	275.94
276.104	289.94
276.335	266.94
276.567	270.94
276.799	293.94
277.031	313.94
277.262	329.94
277.494	320.94
277.726	313.94
277.957	306.94
278.189	291.94
278.421	283.94
278.652	286.94
278.884	292.94
279.115	277.94
279.347	277.94
279.579	283.94
279.81	273.94
280.042	273.94
280.273	289.94
280.505	299.94
280.736	302.94
280.968	305.94
281.199	288.94
281.431	277.94
281.662	293.94
281.894	285.94
282.125	298.94
282.356	308.94
282.588	313.94
282.819	322.94
283.051	297.94
283.282	295.94
283.513	278.94
283.745	289.94
283.976	293.94
284.207	283.94
284.439	282.94
284.67	282.94
284.901	296.94
285.132	295.94
285.364	281.94
285.595	305.94
285.826	290.94
286.057	292.94
286.288	295.94
286.52	309.94
286.751	314.94
286.982	320.94
287.213	314.94
287.444	298.94
287.675	299.94
287.906	314.94
288.138	304.94
288.369	321.94
288.6	322.94
288.831	326.94
289.062	345.94
289.293	316.94
289.524	323.94
289.755	321.94
289.986	316.94
290.217	303.94
290.448	316.94
290.679	322.94
290.91	324.94
291.141	311.94
291.371	301.94
291.602	307.94
291.833	309.94
292.064	310.94
292.295	294.94
292.526	309.94
292.757	294.94
292.987	310.94
293.218	311.94
293.449	297.94
293.68	309.94
293.91	298.94
294.141	322.94
294.372	324.94
294.603	311.94
294.833	327.94
295.064	315.94
295.295	286.94
295.525	319.94
295.756	309.94
295.987	323.94
296.217	315.94
296.448	343.94
296.679	334.94
296.909	326.94
297.14	322.94
297.37	336.94
297.601	328.94
297.831	314.94
298.062	312.94
298.292	311.94
298.523	320.94
298.753	314.94
298.984	340.94
299.214	317.94
299.445	333.94
299.675	337.94
299.905	337.94
300.136	332.94
300.366	328.94
300.597	329.94
300.827	343.94
301.057	342.94
301.288	346.94
301.518	360.94
301.748	344.94
301.979	357.94
302.209	361.94
302.439	363.94
302.669	352.94
302.9	344.94
303.13	341.94
303.36	362.94
303.59	371.94
303.82	349.94
304.051	358.94
304.281	354.94
304.511	354.94
304.741	351.94
304.971	348.94
305.201	354.94
305.431	343.94
305.661	365.94
305.891	366.94
306.121	334.94
306.352	356.94
306.582	340.94
306.812	339.94
307.042	337.94
307.272	374.94
307.502	359.94
307.731	374.94
307.961	358.94
308.191	363.94
308.421	325.94
308.651	352.94
308.881	345.94
309.111	343.94
309.341	357.94
309.571	348.94
309.8	373.94
310.03	378.94
310.26	385.94
310.49	375.94
310.72	385.94
310.949	390.94
311.179	418.94
311.409	369.94
311.639	388.94
311.868	386.94
312.098	390.94
312.328	407.94
312.557	383.94
312.787	428.94
313.017	389.94
313.246	401.94
313.476	389.94
313.706	380.94
313.935	417.94
314.165	398.94
314.394	412.94
314.624	413.94
314.853	413.94
315.083	405.94
315.312	380.94
315.542	398.94
315.771	393.94
316.001	403.94
316.23	400.94
316.46	386.94
316.689	382.94
316.919	400.94
317.148	400.94
317.377	403.94
317.607	387.94
317.836	390.94
318.065	391.94
318.295	392.94
318.524	385.94
318.753	378.94
318.983	393.94
319.212	378.94
319.441	401.94
319.67	405.94
319.9	406.94
320.129	389.94
320.358	385.94
320.587	398.94
320.816	397.94
321.046	426.94
321.275	430.94
321.504	411.94
321.733	414.94
321.962	438.94
322.191	425.94
322.42	402.94
322.649	427.94
322.878	451.94
323.108	436.94
323.337	465.94
323.566	474.94
323.795	485.94
324.024	531.94
324.253	617.94
324.482	846.94
324.71	1256.94
324.939	1875.94
325.168	1631.94
325.397	859.94
325.626	606.94
325.855	497.94
326.084	502.94
326.313	490.94
326.542	484.94
326.77	514.94
326.999	577.94
327.228	777.94
327.457	1150.94
327.686	1434.94
327.914	951.94
328.143	642.94
328.372	570.94
328.6	564.94
328.829	525.94
329.058	534.94
329.287	550.94
329.515	504.94
329.744	512.94
329.972	497.94
330.201	521.94
330.43	557.94
330.658	551.94
330.887	560.94
331.115	569.94
331.344	533.94
331.572	480.94
331.801	463.94
332.03	480.94
332.258	499.94
332.486	487.94
332.715	467.94
332.943	469.94
333.172	470.94
333.4	487.94
333.629	509.94
333.857	499.94
334.085	515.94
334.314	539.94
334.542	565.94
334.771	575.94
334.999	514.94
335.227	507.94
335.455	499.94
335.684	493.94
335.912	478.94
336.14	465.94
336.369	468.94
336.597	478.94
336.825	459.94
337.053	472.94
337.281	435.94
337.51	462.94
337.738	433.94
337.966	456.94
338.194	468.94
338.422	471.94
338.65	464.94
338.878	447.94
339.106	440.94
339.334	450.94
339.562	451.94
339.79	457.94
340.018	461.94
340.246	458.94
340.474	437.94
340.702	433.94
340.93	459.94
341.158	448.94
341.386	444.94
341.614	451.94
341.842	442.94
342.07	431.94
342.298	430.94
342.526	452.94
342.754	418.94
342.981	448.94
343.209	440.94
343.437	457.94
343.665	444.94
343.893	470.94
344.12	478.94
344.348	470.94
344.576	484.94
344.804	459.94
345.031	481.94
345.259	441.94
345.487	467.94
345.714	427.94
345.942	448.94
346.17	456.94
346.397	438.94
346.625	436.94
346.853	448.94
347.08	436.94
347.308	439.94
347.535	447.94
347.763	441.94
347.99	450.94
348.218	450.94
348.445	451.94
348.673	465.94
348.9	425.94
349.128	447.94
349.355	404.94
349.583	424.94
349.81	417.94
350.037	437.94
350.265	415.94
350.492	421.94
350.72	410.94
350.947	410.94
351.174	426.94
351.402	440.94
351.629	453.94
351.856	443.94
352.083	444.94
352.311	467.94
352.538	415.94
352.765	463.94
352.992	425.94
353.22	447.94
353.447	416.94
353.674	432.94
353.901	408.94
354.128	410.94
354.355	423.94
354.583	418.94
354.81	423.94
355.037	409.94
355.264	420.94
355.491	429.94
355.718	408.94
355.945	412.94
356.172	406.94
356.399	424.94
356.626	399.94
356.853	418.94
357.08	416.94
357.307	420.94
357.534	415.94
357.761	406.94
357.988	407.94
358.215	400.94
358.441	412.94
358.668	410.94
358.895	419.94
359.122	404.94
359.349	432.94
359.576	445.94
359.802	436.94
360.029	471.94
360.256	489.94
360.483	477.94
360.709	449.94
360.936	452.94
361.163	449.94
361.39	431.94
361.616	449.94
361.843	429.94
362.07	422.94
362.296	436.94
362.523	456.94
362.749	425.94
362.976	424.94
363.203	426.94
363.429	423.94
363.656	424.94
363.882	416.94
364.109	431.94
364.335	428.94
364.562	425.94
364.788	417.94
365.015	421.94
365.241	417.94
365.468	420.94
365.694	425.94
365.92	438.94
366.147	427.94
366.373	427.94
366.599	445.94
366.826	419.94
367.052	425.94
367.278	415.94
367.505	405.94
367.731	430.94
367.957	403.94
368.184	436.94
368.41	438.94
368.636	439.94
368.862	447.94
369.089	419.94
369.315	417.94
369.541	434.94
369.767	453.94
369.993	437.94
370.219	437.94
370.445	419.94
370.672	442.94
370.898	430.94
371.124	438.94
371.35	441.94
371.576	432.94
371.802	440.94
372.028	407.94
372.254	429.94
372.48	434.94
372.706	428.94
372.932	439.94
373.158	452.94
373.384	441.94
373.61	433.94
373.835	443.94
374.061	435.94
374.287	445.94
374.513	438.94
374.739	457.94
374.965	449.94
375.191	426.94
375.416	457.94
375.642	432.94
375.868	420.94
376.094	441.94
376.319	452.94
376.545	439.94
376.771	433.94
376.997	458.94
377.222	447.94
377.448	434.94
377.674	429.94
377.899	437.94
378.125	431.94
378.35	443.94
378.576	429.94
378.802	428.94
379.027	445.94
379.253	427.94
379.478	424.94
379.704	454.94
379.929	403.94
380.155	432.94
380.38	433.94
380.606	429.94
380.831	430.94
381.057	429.94
381.282	425.94
381.507	424.94
381.733	426.94
381.958	417.94
382.184	437.94
382.409	439.94
382.634	433.94
382.86	436.94
383.085	440.94
383.31	442.94
383.535	459.94
383.761	458.94
383.986	478.94
384.211	483.94
384.436	478.94
384.662	460.94
384.887	483.94
385.112	484.94
385.337	485.94
385.562	504.94
385.787	474.94
386.013	480.94
386.238	491.94
386.463	481.94
386.688	478.94
386.913	487.94
387.138	488.94
387.363	469.94
387.588	456.94
387.813	464.94
388.038	474.94
388.263	484.94
388.488	467.94
388.713	500.94
388.938	503.94
389.163	490.94
389.387	471.94
389.612	484.94
389.837	468.94
390.062	479.94
390.287	478.94
390.512	486.94
390.736	484.94
390.961	488.94
391.186	473.94
391.411	491.94
391.636	496.94
391.86	504.94
392.085	499.94
392.31	511.94
392.534	507.94
392.759	512.94
392.984	481.94
393.208	507.94
393.433	499.94
393.658	487.94
393.882	477.94
394.107	506.94
394.331	497.94
394.556	492.94
394.78	496.94
395.005	488.94
395.229	519.94
395.454	506.94
395.678	516.94
395.903	535.94
396.127	544.94
396.352	547.94
396.576	508.94
396.801	497.94
397.025	496.94
397.249	519.94
397.474	546.94
397.698	515.94
397.922	535.94
398.147	545.94
398.371	549.94
398.595	550.94
398.82	566.94
399.044	576.94
399.268	602.94
399.492	653.94
399.717	700.94
399.941	727.94
400.165	730.94
400.389	687.94
400.613	640.94
400.837	584.94
401.062	580.94
401.286	563.94
401.51	569.94
401.734	557.94
401.958	580.94
402.182	588.94
402.406	575.94
402.63	582.94
402.854	560.94
403.078	590.94
403.302	588.94
403.526	621.94
403.75	593.94
403.974	628.94
404.198	602.94
404.422	598.94
404.645	616.94
404.869	616.94
405.093	648.94
405.317	681.94
405.541	723.94
405.765	669.94
405.988	620.94
406.212	646.94
406.436	656.94
406.66	640.94
406.883	613.94
407.107	658.94
407.331	710.94
407.555	780.94
407.778	774.94
408.002	712.94
408.226	663.94
408.449	658.94
408.673	682.94
408.896	676.94
409.12	729.94
409.344	646.94
409.567	622.94
409.791	587.94
410.014	621.94
410.238	597.94
410.461	600.94
410.685	596.94
410.908	603.94
411.132	642.94
411.355	684.94
411.578	639.94
411.802	599.94
412.025	600.94
412.249	606.94
412.472	633.94
412.695	678.94
412.919	650.94
413.142	618.94
413.365	597.94
413.589	608.94
413.812	564.94
414.035	580.94
414.258	561.94
414.482	545.94
414.705	566.94
414.928	540.94
415.151	554.94
415.374	552.94
415.597	557.94
415.821	548.94
416.044	570.94
416.267	582.94
416.49	563.94
416.713	558.94
416.936	565.94
417.159	548.94
417.382	575.94
417.605	565.94
417.828	560.94
418.051	597.94
418.274	566.94
418.497	549.94
418.72	560.94
418.943	564.94
419.166	616.94
419.389	615.94
419.611	617.94
419.834	609.94
420.057	602.94
420.28	590.94
420.503	597.94
420.726	576.94
420.948	581.94
421.171	649.94
421.394	659.94
421.617	593.94
421.839	571.94
422.062	576.94
422.285	588.94
422.507	634.94
422.73	712.94
422.953	707.94
423.175	620.94
423.398	604.94
423.621	594.94
423.843	626.94
424.066	628.94
424.288	655.94
424.511	658.94
424.733	673.94
424.956	790.94
425.178	728.94
425.401	709.94
425.623	774.94
425.846	646.94
426.068	620.94
426.291	634.94
426.513	626.94
426.735	624.94
426.958	654.94
427.18	731.94
427.402	877.94
427.625	952.94
427.847	804.94
428.069	713.94
428.292	644.94
428.514	605.94
428.736	580.94
428.958	581.94
429.181	577.94
429.403	584.94
429.625	587.94
429.847	576.94
430.069	648.94
430.292	638.94
430.514	579.94
430.736	572.94
430.958	568.94
431.18	558.94
431.402	558.94
431.624	546.94
431.846	522.94
432.068	553.94
432.29	542.94
432.512	541.94
432.734	544.94
432.956	532.94
433.178	548.94
433.4	546.94
433.622	576.94
433.844	554.94
434.066	559.94
434.287	572.94
434.509	566.94
434.731	564.94
434.953	580.94
435.175	582.94
435.397	629.94
435.618	601.94
435.84	657.94
436.062	718.94
436.284	811.94
436.505	658.94
436.727	609.94
436.949	558.94
437.17	583.94
437.392	580.94
437.614	579.94
437.835	600.94
438.057	676.94
438.278	811.94
438.5	805.94
438.721	875.94
438.943	851.94
439.165	694.94
439.386	632.94
439.608	627.94
439.829	608.94
440.05	650.94
440.272	683.94
440.493	639.94
440.715	602.94
440.936	586.94
441.158	585.94
441.379	575.94
441.6	595.94
441.822	606.94
442.043	653.94
442.264	742.94
442.486	766.94
442.707	642.94
442.928	623.94
443.149	620.94
443.371	661.94
443.592	696.94
443.813	800.94
444.034	862.94
444.255	703.94
444.476	652.94
444.698	647.94
444.919	648.94
445.14	761.94
445.361	684.94
445.582	672.94
445.803	702.94
446.024	814.94
446.245	823.94
446.466	747.94
446.687	659.94
446.908	600.94
447.129	583.94
447.35	574.94
447.571	554.94
447.792	551.94
448.013	555.94
448.234	570.94
448.455	636.94
448.675	758.94
448.896	844.94
449.117	734.94
449.338	690.94
449.559	790.94
449.779	920.94
450	744.94
450.221	598.94
450.442	589.94
450.662	536.94
450.883	549.94
451.104	549.94
451.324	545.94
451.545	534.94
451.766	517.94
451.986	517.94
452.207	485.94
452.428	493.94
452.648	491.94
452.869	478.94
453.089	493.94
453.31	523.94
453.53	507.94
453.751	514.94
453.971	485.94
454.192	496.94
454.412	500.94
454.633	497.94
454.853	502.94
455.073	476.94
455.294	518.94
455.514	589.94
455.734	576.94
455.955	484.94
456.175	492.94
456.395	469.94
456.616	473.94
456.836	478.94
457.056	485.94
457.276	458.94
457.497	485.94
457.717	469.94
457.937	481.94
458.157	474.94
458.377	484.94
458.598	523.94
458.818	560.94
459.038	648.94
459.258	651.94
459.478	613.94
459.698	546.94
459.918	541.94
460.138	529.94
460.358	548.94
460.578	551.94
460.798	549.94
461.018	573.94
461.238	569.94
461.458	575.94
461.678	542.94
461.898	556.94
462.118	566.94
462.338	592.94
462.558	596.94
462.777	571.94
462.997	610.94
463.217	650.94
463.437	648.94
463.657	628.94
463.876	617.94
464.096	624.94
464.316	603.94
464.536	613.94
464.755	607.94
464.975	593.94
465.195	614.94
465.414	672.94
465.634	605.94
465.854	570.94
466.073	564.94
466.293	535.94
466.512	553.94
466.732	524.94
466.951	537.94
467.171	548.94
467.391	532.94
467.61	536.94
467.829	525.94
468.049	496.94
468.268	542.94
468.488	517.94
468.707	528.94
468.927	508.94
469.146	516.94
469.365	486.94
469.585	517.94
469.804	519.94
470.023	541.94
470.243	539.94
470.462	556.94
470.681	548.94
470.901	553.94
471.12	516.94
471.339	503.94
471.558	532.94
471.777	520.94
471.997	515.94
472.216	545.94
472.435	570.94
472.654	541.94
472.873	530.94
473.092	519.94
473.311	509.94
473.53	519.94
473.749	542.94
473.968	550.94
474.187	663.94
474.406	678.94
474.625	572.94
474.844	544.94
475.063	522.94
475.282	516.94
475.501	505.94
475.72	526.94
475.939	534.94
476.158	540.94
476.377	539.94
476.596	551.94
476.814	542.94
477.033	539.94
477.252	564.94
477.471	575.94
477.69	573.94
477.908	548.94
478.127	573.94
478.346	574.94
478.564	602.94
478.783	596.94
479.002	601.94
479.22	595.94
479.439	642.94
479.658	638.94
479.876	602.94
480.095	633.94
480.313	642.94
480.532	668.94
480.751	666.94
480.969	661.94
481.188	718.94
481.406	744.94
481.624	655.94
481.843	657.94
482.061	640.94
482.28	635.94
482.498	608.94
482.717	615.94
482.935	619.94
483.153	611.94
483.372	607.94
483.59	602.94
483.808	625.94
484.027	598.94
484.245	605.94
484.463	615.94
484.681	655.94
484.9	637.94
485.118	646.94
485.336	628.94
485.554	624.94
485.772	620.94
485.99	636.94
486.209	642.94
486.427	631.94
486.645	643.94
486.863	662.94
487.081	668.94
487.299	650.94
487.517	644.94
487.735	665.94
487.953	634.94
488.171	647.94
488.389	662.94
488.607	644.94
488.825	660.94
489.043	649.94
489.261	664.94
489.479	661.94
489.696	672.94
489.914	665.94
490.132	685.94
490.35	679.94
490.568	692.94
490.786	684.94
491.003	715.94
491.221	741.94
491.439	735.94
491.657	720.94
491.874	755.94
492.092	782.94
492.31	762.94
492.527	724.94
492.745	768.94
492.963	759.94
493.18	753.94
493.398	756.94
493.615	786.94
493.833	761.94
494.05	782.94
494.268	773.94
494.485	777.94
494.703	764.94
494.92	744.94
495.138	778.94
495.355	788.94
495.573	768.94
495.79	768.94
496.008	773.94
496.225	773.94
496.442	788.94
496.66	791.94
496.877	776.94
497.094	791.94
497.312	823.94
497.529	822.94
497.746	821.94
497.963	832.94
498.181	850.94
498.398	868.94
498.615	890.94
498.832	939.94
499.049	925.94
499.267	917.94
499.484	999.94
499.701	1053.94
499.918	1105.94
500.135	1171.94
500.352	1234.94
500.569	1291.94
500.786	1259.94
501.003	1234.94
501.22	1180.94
501.437	1136.94
501.654	1076.94
