Data from 1975.PennyLincolnUp.Lamp.En5.5.200Scan.071719.P1.Changed Mount._HRD10591_15-57-12-859.txt Node
Date: Thu Jul 18 15:57:12 EDT 2019
User: cochatt
Spectrometer: HR+D1059
Trigger mode: 1
Integration Time (sec): 1.000000E-1
Scans to average: 1
Electric dark correction enabled: true
Nonlinearity correction enabled: false
Boxcar width: 0
XAxis mode: Wavelengths
Number of Pixels in Spectrum: 2048
>>>>>Begin Spectral Data<<<<<
223.165	-7.56
223.4	-7.56
223.635	-7.56
223.869	-7.56
224.104	-18.56
224.338	-19.56
224.573	-12.56
224.808	-11.56
225.042	-10.56
225.277	-10.56
225.511	4.44
225.746	3.44
225.98	8.44
226.215	9.44
226.449	17.44
226.683	10.44
226.918	20.44
227.152	24.44
227.387	38.44
227.621	39.44
227.856	44.44
228.09	52.44
228.324	57.44
228.559	46.44
228.793	58.44
229.027	90.44
229.262	120.44
229.496	116.44
229.73	124.44
229.964	171.44
230.199	119.44
230.433	118.44
230.667	109.44
230.901	123.44
231.136	108.44
231.37	124.44
231.604	133.44
231.838	102.44
232.072	112.44
232.306	116.44
232.541	120.44
232.775	118.44
233.009	119.44
233.243	108.44
233.477	126.44
233.711	125.44
233.945	130.44
234.179	131.44
234.413	132.44
234.647	117.44
234.881	126.44
235.115	125.44
235.349	135.44
235.583	122.44
235.817	116.44
236.051	131.44
236.285	139.44
236.519	131.44
236.753	137.44
236.987	158.44
237.221	189.44
237.455	250.44
237.689	199.44
237.922	149.44
238.156	128.44
238.39	124.44
238.624	138.44
238.858	135.44
239.091	130.44
239.325	132.44
239.559	128.44
239.793	132.44
240.027	145.44
240.26	151.44
240.494	158.44
240.728	158.44
240.961	150.44
241.195	153.44
241.429	144.44
241.662	143.44
241.896	130.44
242.13	136.44
242.363	144.44
242.597	142.44
242.83	137.44
243.064	129.44
243.298	143.44
243.531	150.44
243.765	151.44
243.998	149.44
244.232	126.44
244.465	145.44
244.699	159.44
244.932	146.44
245.166	143.44
245.399	151.44
245.633	153.44
245.866	150.44
246.099	159.44
246.333	164.44
246.566	147.44
246.8	149.44
247.033	156.44
247.266	162.44
247.5	160.44
247.733	167.44
247.966	181.44
248.2	190.44
248.433	176.44
248.666	168.44
248.899	188.44
249.133	208.44
249.366	209.44
249.599	210.44
249.832	189.44
250.066	181.44
250.299	180.44
250.532	191.44
250.765	204.44
250.998	227.44
251.231	247.44
251.465	212.44
251.698	217.44
251.931	201.44
252.164	217.44
252.397	212.44
252.63	218.44
252.863	215.44
253.096	222.44
253.329	238.44
253.562	245.44
253.795	238.44
254.028	207.44
254.261	248.44
254.494	217.44
254.727	248.44
254.96	286.44
255.193	279.44
255.426	254.44
255.659	267.44
255.892	244.44
256.124	255.44
256.357	249.44
256.59	231.44
256.823	234.44
257.056	219.44
257.289	208.44
257.521	214.44
257.754	203.44
257.987	208.44
258.22	222.44
258.452	217.44
258.685	209.44
258.918	214.44
259.151	226.44
259.383	226.44
259.616	216.44
259.849	230.44
260.081	255.44
260.314	252.44
260.547	269.44
260.779	241.44
261.012	237.44
261.244	225.44
261.477	226.44
261.71	219.44
261.942	248.44
262.175	247.44
262.407	227.44
262.64	218.44
262.872	224.44
263.105	227.44
263.337	227.44
263.57	221.44
263.802	219.44
264.035	212.44
264.267	237.44
264.499	233.44
264.732	224.44
264.964	238.44
265.197	211.44
265.429	213.44
265.661	215.44
265.894	217.44
266.126	222.44
266.358	228.44
266.591	237.44
266.823	232.44
267.055	235.44
267.287	235.44
267.52	234.44
267.752	228.44
267.984	240.44
268.216	231.44
268.448	236.44
268.681	252.44
268.913	270.44
269.145	277.44
269.377	302.44
269.609	283.44
269.841	275.44
270.073	267.44
270.306	313.44
270.538	301.44
270.77	324.44
271.002	312.44
271.234	299.44
271.466	318.44
271.698	320.44
271.93	330.44
272.162	326.44
272.394	332.44
272.626	318.44
272.858	297.44
273.09	300.44
273.322	291.44
273.553	270.44
273.785	276.44
274.017	265.44
274.249	292.44
274.481	248.44
274.713	264.44
274.945	280.44
275.176	262.44
275.408	280.44
275.64	270.44
275.872	267.44
276.104	286.44
276.335	293.44
276.567	297.44
276.799	292.44
277.031	335.44
277.262	340.44
277.494	319.44
277.726	303.44
277.957	295.44
278.189	302.44
278.421	277.44
278.652	287.44
278.884	297.44
279.115	274.44
279.347	285.44
279.579	302.44
279.81	259.44
280.042	276.44
280.273	281.44
280.505	271.44
280.736	286.44
280.968	287.44
281.199	295.44
281.431	296.44
281.662	299.44
281.894	294.44
282.125	291.44
282.356	295.44
282.588	314.44
282.819	307.44
283.051	295.44
283.282	301.44
283.513	282.44
283.745	299.44
283.976	307.44
284.207	286.44
284.439	292.44
284.67	317.44
284.901	298.44
285.132	298.44
285.364	302.44
285.595	294.44
285.826	291.44
286.057	306.44
286.288	300.44
286.52	316.44
286.751	310.44
286.982	311.44
287.213	287.44
287.444	315.44
287.675	298.44
287.906	320.44
288.138	322.44
288.369	334.44
288.6	311.44
288.831	305.44
289.062	324.44
289.293	315.44
289.524	313.44
289.755	287.44
289.986	305.44
290.217	308.44
290.448	318.44
290.679	316.44
290.91	322.44
291.141	312.44
291.371	304.44
291.602	326.44
291.833	319.44
292.064	316.44
292.295	300.44
292.526	317.44
292.757	296.44
292.987	320.44
293.218	310.44
293.449	308.44
293.68	315.44
293.91	291.44
294.141	307.44
294.372	309.44
294.603	319.44
294.833	298.44
295.064	304.44
295.295	317.44
295.525	320.44
295.756	315.44
295.987	320.44
296.217	342.44
296.448	346.44
296.679	319.44
296.909	311.44
297.14	331.44
297.37	316.44
297.601	312.44
297.831	322.44
298.062	336.44
298.292	346.44
298.523	332.44
298.753	334.44
298.984	314.44
299.214	327.44
299.445	335.44
299.675	343.44
299.905	354.44
300.136	346.44
300.366	327.44
300.597	308.44
300.827	342.44
301.057	342.44
301.288	333.44
301.518	350.44
301.748	338.44
301.979	347.44
302.209	364.44
302.439	354.44
302.669	361.44
302.9	361.44
303.13	327.44
303.36	346.44
303.59	348.44
303.82	383.44
304.051	347.44
304.281	338.44
304.511	344.44
304.741	344.44
304.971	340.44
305.201	339.44
305.431	347.44
305.661	356.44
305.891	343.44
306.121	349.44
306.352	341.44
306.582	342.44
306.812	362.44
307.042	347.44
307.272	333.44
307.502	358.44
307.731	354.44
307.961	354.44
308.191	362.44
308.421	360.44
308.651	349.44
308.881	364.44
309.111	368.44
309.341	364.44
309.571	360.44
309.8	358.44
310.03	382.44
310.26	380.44
310.49	386.44
310.72	390.44
310.949	385.44
311.179	391.44
311.409	387.44
311.639	383.44
311.868	380.44
312.098	384.44
312.328	392.44
312.557	384.44
312.787	403.44
313.017	410.44
313.246	408.44
313.476	390.44
313.706	394.44
313.935	380.44
314.165	366.44
314.394	400.44
314.624	429.44
314.853	415.44
315.083	400.44
315.312	403.44
315.542	392.44
315.771	391.44
316.001	372.44
316.23	392.44
316.46	379.44
316.689	394.44
316.919	388.44
317.148	423.44
317.377	404.44
317.607	395.44
317.836	392.44
318.065	394.44
318.295	381.44
318.524	406.44
318.753	379.44
318.983	382.44
319.212	376.44
319.441	393.44
319.67	406.44
319.9	405.44
320.129	401.44
320.358	400.44
320.587	400.44
320.816	392.44
321.046	411.44
321.275	429.44
321.504	391.44
321.733	391.44
321.962	406.44
322.191	428.44
322.42	438.44
322.649	450.44
322.878	435.44
323.108	473.44
323.337	477.44
323.566	487.44
323.795	506.44
324.024	531.44
324.253	618.44
324.482	868.44
324.71	1333.44
324.939	1990.44
325.168	1741.44
325.397	883.44
325.626	582.44
325.855	505.44
326.084	492.44
326.313	490.44
326.542	484.44
326.77	523.44
326.999	614.44
327.228	812.44
327.457	1208.44
327.686	1504.44
327.914	1023.44
328.143	686.44
328.372	594.44
328.6	563.44
328.829	554.44
329.058	574.44
329.287	554.44
329.515	543.44
329.744	507.44
329.972	499.44
330.201	517.44
330.43	562.44
330.658	612.44
330.887	587.44
331.115	572.44
331.344	511.44
331.572	483.44
331.801	502.44
332.03	500.44
332.258	501.44
332.486	478.44
332.715	484.44
332.943	473.44
333.172	491.44
333.4	487.44
333.629	491.44
333.857	491.44
334.085	513.44
334.314	526.44
334.542	570.44
334.771	592.44
334.999	559.44
335.227	489.44
335.455	498.44
335.684	483.44
335.912	485.44
336.14	460.44
336.369	470.44
336.597	477.44
336.825	489.44
337.053	475.44
337.281	462.44
337.51	481.44
337.738	455.44
337.966	479.44
338.194	478.44
338.422	474.44
338.65	469.44
338.878	466.44
339.106	443.44
339.334	470.44
339.562	453.44
339.79	448.44
340.018	441.44
340.246	462.44
340.474	468.44
340.702	436.44
340.93	455.44
341.158	436.44
341.386	422.44
341.614	451.44
341.842	457.44
342.07	449.44
342.298	456.44
342.526	431.44
342.754	448.44
342.981	450.44
343.209	440.44
343.437	462.44
343.665	455.44
343.893	455.44
344.12	486.44
344.348	480.44
344.576	487.44
344.804	452.44
345.031	476.44
345.259	472.44
345.487	464.44
345.714	447.44
345.942	425.44
346.17	452.44
346.397	450.44
346.625	411.44
346.853	442.44
347.08	425.44
347.308	431.44
347.535	445.44
347.763	422.44
347.99	462.44
348.218	427.44
348.445	447.44
348.673	441.44
348.9	429.44
349.128	414.44
349.355	442.44
349.583	424.44
349.81	429.44
350.037	427.44
350.265	428.44
350.492	418.44
350.72	416.44
350.947	448.44
351.174	453.44
351.402	436.44
351.629	434.44
351.856	435.44
352.083	438.44
352.311	438.44
352.538	448.44
352.765	454.44
352.992	446.44
353.22	425.44
353.447	426.44
353.674	422.44
353.901	447.44
354.128	418.44
354.355	419.44
354.583	427.44
354.81	419.44
355.037	405.44
355.264	426.44
355.491	412.44
355.718	413.44
355.945	426.44
356.172	434.44
356.399	389.44
356.626	414.44
356.853	415.44
357.08	396.44
357.307	406.44
357.534	391.44
357.761	413.44
357.988	440.44
358.215	433.44
358.441	423.44
358.668	397.44
358.895	414.44
359.122	430.44
359.349	426.44
359.576	426.44
359.802	434.44
360.029	464.44
360.256	488.44
360.483	453.44
360.709	442.44
360.936	443.44
361.163	441.44
361.39	452.44
361.616	430.44
361.843	435.44
362.07	409.44
362.296	426.44
362.523	439.44
362.749	420.44
362.976	431.44
363.203	450.44
363.429	426.44
363.656	416.44
363.882	422.44
364.109	419.44
364.335	417.44
364.562	423.44
364.788	423.44
365.015	420.44
365.241	424.44
365.468	445.44
365.694	422.44
365.92	422.44
366.147	443.44
366.373	426.44
366.599	414.44
366.826	415.44
367.052	427.44
367.278	405.44
367.505	424.44
367.731	427.44
367.957	408.44
368.184	453.44
368.41	441.44
368.636	424.44
368.862	440.44
369.089	426.44
369.315	432.44
369.541	443.44
369.767	412.44
369.993	410.44
370.219	418.44
370.445	424.44
370.672	420.44
370.898	420.44
371.124	432.44
371.35	428.44
371.576	442.44
371.802	433.44
372.028	426.44
372.254	442.44
372.48	445.44
372.706	429.44
372.932	437.44
373.158	428.44
373.384	447.44
373.61	421.44
373.835	449.44
374.061	427.44
374.287	431.44
374.513	435.44
374.739	443.44
374.965	445.44
375.191	450.44
375.416	444.44
375.642	435.44
375.868	443.44
376.094	452.44
376.319	439.44
376.545	420.44
376.771	428.44
376.997	417.44
377.222	427.44
377.448	422.44
377.674	431.44
377.899	434.44
378.125	451.44
378.35	426.44
378.576	412.44
378.802	443.44
379.027	449.44
379.253	441.44
379.478	414.44
379.704	416.44
379.929	431.44
380.155	431.44
380.38	427.44
380.606	440.44
380.831	440.44
381.057	437.44
381.282	429.44
381.507	455.44
381.733	441.44
381.958	447.44
382.184	427.44
382.409	444.44
382.634	438.44
382.86	434.44
383.085	449.44
383.31	453.44
383.535	441.44
383.761	451.44
383.986	439.44
384.211	466.44
384.436	456.44
384.662	460.44
384.887	455.44
385.112	484.44
385.337	478.44
385.562	448.44
385.787	486.44
386.013	498.44
386.238	492.44
386.463	516.44
386.688	479.44
386.913	468.44
387.138	473.44
387.363	474.44
387.588	469.44
387.813	510.44
388.038	491.44
388.263	471.44
388.488	486.44
388.713	475.44
388.938	478.44
389.163	474.44
389.387	495.44
389.612	489.44
389.837	470.44
390.062	482.44
390.287	475.44
390.512	485.44
390.736	457.44
390.961	491.44
391.186	483.44
391.411	493.44
391.636	513.44
391.86	516.44
392.085	486.44
392.31	508.44
392.534	490.44
392.759	511.44
392.984	499.44
393.208	488.44
393.433	495.44
393.658	490.44
393.882	490.44
394.107	482.44
394.331	475.44
394.556	477.44
394.78	494.44
395.005	492.44
395.229	485.44
395.454	491.44
395.678	504.44
395.903	551.44
396.127	527.44
396.352	538.44
396.576	498.44
396.801	516.44
397.025	487.44
397.249	527.44
397.474	522.44
397.698	521.44
397.922	538.44
398.147	548.44
398.371	563.44
398.595	566.44
398.82	562.44
399.044	574.44
399.268	586.44
399.492	648.44
399.717	688.44
399.941	713.44
400.165	698.44
400.389	706.44
400.613	652.44
400.837	600.44
401.062	588.44
401.286	575.44
401.51	564.44
401.734	568.44
401.958	566.44
402.182	567.44
402.406	556.44
402.63	559.44
402.854	562.44
403.078	575.44
403.302	574.44
403.526	595.44
403.75	602.44
403.974	608.44
404.198	623.44
404.422	600.44
404.645	626.44
404.869	598.44
405.093	642.44
405.317	672.44
405.541	727.44
405.765	674.44
405.988	632.44
406.212	633.44
406.436	639.44
406.66	661.44
406.883	650.44
407.107	648.44
407.331	706.44
407.555	772.44
407.778	794.44
408.002	731.44
408.226	671.44
408.449	647.44
408.673	622.44
408.896	669.44
409.12	724.44
409.344	682.44
409.567	594.44
409.791	619.44
410.014	582.44
410.238	589.44
410.461	578.44
410.685	578.44
410.908	605.44
411.132	629.44
411.355	659.44
411.578	655.44
411.802	616.44
412.025	580.44
412.249	611.44
412.472	607.44
412.695	654.44
412.919	644.44
413.142	602.44
413.365	567.44
413.589	582.44
413.812	567.44
414.035	574.44
414.258	562.44
414.482	579.44
414.705	559.44
414.928	563.44
415.151	526.44
415.374	557.44
415.597	558.44
415.821	532.44
416.044	559.44
416.267	559.44
416.49	553.44
416.713	571.44
416.936	544.44
417.159	550.44
417.382	559.44
417.605	557.44
417.828	553.44
418.051	594.44
418.274	582.44
418.497	553.44
418.72	570.44
418.943	566.44
419.166	596.44
419.389	591.44
419.611	627.44
419.834	604.44
420.057	597.44
420.28	598.44
420.503	581.44
420.726	597.44
420.948	592.44
421.171	646.44
421.394	671.44
421.617	580.44
421.839	580.44
422.062	602.44
422.285	570.44
422.507	666.44
422.73	743.44
422.953	704.44
423.175	634.44
423.398	604.44
423.621	603.44
423.843	608.44
424.066	666.44
424.288	620.44
424.511	633.44
424.733	702.44
424.956	795.44
425.178	745.44
425.401	730.44
425.623	770.44
425.846	660.44
426.068	596.44
426.291	601.44
426.513	621.44
426.735	603.44
426.958	673.44
427.18	715.44
427.402	859.44
427.625	953.44
427.847	815.44
428.069	744.44
428.292	640.44
428.514	586.44
428.736	581.44
428.958	587.44
429.181	580.44
429.403	544.44
429.625	575.44
429.847	619.44
430.069	669.44
430.292	656.44
430.514	589.44
430.736	592.44
430.958	569.44
431.18	546.44
431.402	539.44
431.624	521.44
431.846	524.44
432.068	550.44
432.29	539.44
432.512	534.44
432.734	568.44
432.956	533.44
433.178	566.44
433.4	544.44
433.622	559.44
433.844	558.44
434.066	541.44
434.287	526.44
434.509	540.44
434.731	563.44
434.953	562.44
435.175	580.44
435.397	642.44
435.618	621.44
435.84	646.44
436.062	742.44
436.284	820.44
436.505	684.44
436.727	612.44
436.949	587.44
437.17	578.44
437.392	553.44
437.614	572.44
437.835	599.44
438.057	695.44
438.278	818.44
438.5	836.44
438.721	870.44
438.943	856.44
439.165	695.44
439.386	618.44
439.608	618.44
439.829	592.44
440.05	636.44
440.272	686.44
440.493	672.44
440.715	627.44
440.936	582.44
441.158	574.44
441.379	587.44
441.6	597.44
441.822	607.44
442.043	650.44
442.264	756.44
442.486	808.44
442.707	695.44
442.928	657.44
443.149	636.44
443.371	658.44
443.592	703.44
443.813	793.44
444.034	890.44
444.255	733.44
444.476	662.44
444.698	635.44
444.919	640.44
445.14	751.44
445.361	707.44
445.582	650.44
445.803	710.44
446.024	810.44
446.245	838.44
446.466	782.44
446.687	644.44
446.908	618.44
447.129	574.44
447.35	548.44
447.571	567.44
447.792	554.44
448.013	557.44
448.234	578.44
448.455	609.44
448.675	743.44
448.896	875.44
449.117	745.44
449.338	680.44
449.559	809.44
449.779	938.44
450	724.44
450.221	596.44
450.442	546.44
450.662	521.44
450.883	532.44
451.104	538.44
451.324	535.44
451.545	540.44
451.766	516.44
451.986	506.44
452.207	493.44
452.428	514.44
452.648	491.44
452.869	498.44
453.089	501.44
453.31	512.44
453.53	518.44
453.751	487.44
453.971	499.44
454.192	518.44
454.412	519.44
454.633	490.44
454.853	489.44
455.073	493.44
455.294	519.44
455.514	584.44
455.734	572.44
455.955	484.44
456.175	496.44
456.395	488.44
456.616	482.44
456.836	514.44
457.056	476.44
457.276	461.44
457.497	484.44
457.717	478.44
457.937	501.44
458.157	477.44
458.377	487.44
458.598	516.44
458.818	572.44
459.038	651.44
459.258	674.44
459.478	581.44
459.698	576.44
459.918	528.44
460.138	554.44
460.358	564.44
460.578	567.44
460.798	567.44
461.018	573.44
461.238	565.44
461.458	554.44
461.678	559.44
461.898	576.44
462.118	568.44
462.338	595.44
462.558	610.44
462.777	615.44
462.997	620.44
463.217	636.44
463.437	645.44
463.657	637.44
463.876	634.44
464.096	624.44
464.316	605.44
464.536	596.44
464.755	610.44
464.975	608.44
465.195	643.44
465.414	650.44
465.634	590.44
465.854	550.44
466.073	532.44
466.293	538.44
466.512	534.44
466.732	532.44
466.951	517.44
467.171	516.44
467.391	521.44
467.61	513.44
467.829	533.44
468.049	523.44
468.268	533.44
468.488	509.44
468.707	494.44
468.927	512.44
469.146	498.44
469.365	521.44
469.585	494.44
469.804	521.44
470.023	518.44
470.243	520.44
470.462	533.44
470.681	542.44
470.901	542.44
471.12	551.44
471.339	540.44
471.558	513.44
471.777	532.44
471.997	526.44
472.216	518.44
472.435	577.44
472.654	537.44
472.873	537.44
473.092	532.44
473.311	520.44
473.53	524.44
473.749	523.44
473.968	566.44
474.187	662.44
474.406	692.44
474.625	579.44
474.844	538.44
475.063	538.44
475.282	526.44
475.501	538.44
475.72	530.44
475.939	547.44
476.158	538.44
476.377	537.44
476.596	542.44
476.814	552.44
477.033	543.44
477.252	537.44
477.471	561.44
477.69	547.44
477.908	565.44
478.127	575.44
478.346	589.44
478.564	557.44
478.783	580.44
479.002	597.44
479.22	605.44
479.439	635.44
479.658	617.44
479.876	640.44
480.095	638.44
480.313	676.44
480.532	675.44
480.751	663.44
480.969	654.44
481.188	716.44
481.406	759.44
481.624	682.44
481.843	640.44
482.061	629.44
482.28	629.44
482.498	605.44
482.717	606.44
482.935	580.44
483.153	585.44
483.372	610.44
483.59	593.44
483.808	603.44
484.027	612.44
484.245	620.44
484.463	617.44
484.681	632.44
484.9	664.44
485.118	635.44
485.336	648.44
485.554	618.44
485.772	636.44
485.99	647.44
486.209	648.44
486.427	642.44
486.645	656.44
486.863	649.44
487.081	669.44
487.299	685.44
487.517	648.44
487.735	640.44
487.953	644.44
488.171	659.44
488.389	650.44
488.607	639.44
488.825	650.44
489.043	678.44
489.261	660.44
489.479	680.44
489.696	660.44
489.914	668.44
490.132	674.44
490.35	675.44
490.568	689.44
490.786	719.44
491.003	696.44
491.221	728.44
491.439	754.44
491.657	739.44
491.874	764.44
492.092	775.44
492.31	758.44
492.527	775.44
492.745	799.44
492.963	748.44
493.18	772.44
493.398	784.44
493.615	782.44
493.833	785.44
494.05	772.44
494.268	797.44
494.485	792.44
494.703	756.44
494.92	790.44
495.138	770.44
495.355	768.44
495.573	789.44
495.79	768.44
496.008	787.44
496.225	776.44
496.442	776.44
496.66	811.44
496.877	793.44
497.094	795.44
497.312	816.44
497.529	808.44
497.746	838.44
497.963	841.44
498.181	872.44
498.398	875.44
498.615	888.44
498.832	911.44
499.049	926.44
499.267	971.44
499.484	1011.44
499.701	1030.44
499.918	1082.44
500.135	1166.44
500.352	1231.44
500.569	1251.44
500.786	1233.44
501.003	1202.44
501.22	1156.44
501.437	1128.44
501.654	1090.44
