Data from 1975.PennyLincolnUp.Lamp.En5.5.200Scan.071719.P1.Changed Mount._HRD10591_15-55-44-858.txt Node
Date: Thu Jul 18 15:55:44 EDT 2019
User: cochatt
Spectrometer: HR+D1059
Trigger mode: 1
Integration Time (sec): 1.000000E-1
Scans to average: 1
Electric dark correction enabled: true
Nonlinearity correction enabled: false
Boxcar width: 0
XAxis mode: Wavelengths
Number of Pixels in Spectrum: 2048
>>>>>Begin Spectral Data<<<<<
223.165	-7.19
223.4	-7.19
223.635	-7.19
223.869	-11.19
224.104	-17.19
224.338	-20.19
224.573	-26.19
224.808	-13.19
225.042	2.81
225.277	-14.19
225.511	-3.19
225.746	-12.19
225.98	15.81
226.215	3.81
226.449	13.81
226.683	29.81
226.918	27.81
227.152	30.81
227.387	29.81
227.621	41.81
227.856	50.81
228.09	52.81
228.324	42.81
228.559	40.81
228.793	57.81
229.027	77.81
229.262	102.81
229.496	101.81
229.73	126.81
229.964	124.81
230.199	128.81
230.433	120.81
230.667	101.81
230.901	114.81
231.136	111.81
231.37	107.81
231.604	117.81
231.838	100.81
232.072	94.81
232.306	103.81
232.541	102.81
232.775	113.81
233.009	108.81
233.243	106.81
233.477	105.81
233.711	88.81
233.945	93.81
234.179	119.81
234.413	120.81
234.647	103.81
234.881	122.81
235.115	118.81
235.349	121.81
235.583	114.81
235.817	107.81
236.051	130.81
236.285	143.81
236.519	125.81
236.753	125.81
236.987	148.81
237.221	146.81
237.455	200.81
237.689	152.81
237.922	119.81
238.156	142.81
238.39	132.81
238.624	125.81
238.858	113.81
239.091	124.81
239.325	116.81
239.559	120.81
239.793	122.81
240.027	122.81
240.26	124.81
240.494	141.81
240.728	141.81
240.961	130.81
241.195	141.81
241.429	121.81
241.662	139.81
241.896	125.81
242.13	114.81
242.363	122.81
242.597	123.81
242.83	131.81
243.064	116.81
243.298	130.81
243.531	145.81
243.765	136.81
243.998	122.81
244.232	130.81
244.465	143.81
244.699	135.81
244.932	144.81
245.166	138.81
245.399	149.81
245.633	150.81
245.866	137.81
246.099	130.81
246.333	153.81
246.566	133.81
246.8	141.81
247.033	134.81
247.266	145.81
247.5	159.81
247.733	157.81
247.966	173.81
248.2	156.81
248.433	161.81
248.666	151.81
248.899	168.81
249.133	163.81
249.366	181.81
249.599	185.81
249.832	173.81
250.066	165.81
250.299	168.81
250.532	178.81
250.765	195.81
250.998	208.81
251.231	202.81
251.465	192.81
251.698	190.81
251.931	185.81
252.164	189.81
252.397	196.81
252.63	184.81
252.863	197.81
253.096	201.81
253.329	209.81
253.562	213.81
253.795	211.81
254.028	197.81
254.261	210.81
254.494	201.81
254.727	218.81
254.96	246.81
255.193	241.81
255.426	221.81
255.659	198.81
255.892	211.81
256.124	228.81
256.357	224.81
256.59	203.81
256.823	194.81
257.056	205.81
257.289	193.81
257.521	193.81
257.754	181.81
257.987	202.81
258.22	205.81
258.452	186.81
258.685	192.81
258.918	200.81
259.151	222.81
259.383	196.81
259.616	206.81
259.849	216.81
260.081	202.81
260.314	241.81
260.547	235.81
260.779	238.81
261.012	228.81
261.244	204.81
261.477	219.81
261.71	198.81
261.942	209.81
262.175	205.81
262.407	224.81
262.64	208.81
262.872	199.81
263.105	196.81
263.337	196.81
263.57	205.81
263.802	194.81
264.035	206.81
264.267	195.81
264.499	205.81
264.732	213.81
264.964	213.81
265.197	190.81
265.429	207.81
265.661	218.81
265.894	199.81
266.126	216.81
266.358	193.81
266.591	210.81
266.823	189.81
267.055	219.81
267.287	214.81
267.52	213.81
267.752	206.81
267.984	219.81
268.216	232.81
268.448	232.81
268.681	213.81
268.913	237.81
269.145	256.81
269.377	266.81
269.609	235.81
269.841	241.81
270.073	252.81
270.306	262.81
270.538	287.81
270.77	293.81
271.002	278.81
271.234	275.81
271.466	272.81
271.698	286.81
271.93	292.81
272.162	281.81
272.394	278.81
272.626	254.81
272.858	258.81
273.09	267.81
273.322	262.81
273.553	263.81
273.785	244.81
274.017	243.81
274.249	261.81
274.481	259.81
274.713	244.81
274.945	244.81
275.176	259.81
275.408	255.81
275.64	261.81
275.872	260.81
276.104	268.81
276.335	248.81
276.567	258.81
276.799	243.81
277.031	288.81
277.262	286.81
277.494	299.81
277.726	292.81
277.957	270.81
278.189	267.81
278.421	246.81
278.652	268.81
278.884	252.81
279.115	246.81
279.347	254.81
279.579	243.81
279.81	254.81
280.042	261.81
280.273	258.81
280.505	250.81
280.736	260.81
280.968	257.81
281.199	262.81
281.431	246.81
281.662	254.81
281.894	263.81
282.125	276.81
282.356	269.81
282.588	274.81
282.819	281.81
283.051	270.81
283.282	254.81
283.513	262.81
283.745	276.81
283.976	262.81
284.207	276.81
284.439	270.81
284.67	263.81
284.901	260.81
285.132	276.81
285.364	252.81
285.595	264.81
285.826	293.81
286.057	269.81
286.288	274.81
286.52	274.81
286.751	271.81
286.982	268.81
287.213	268.81
287.444	271.81
287.675	289.81
287.906	286.81
288.138	296.81
288.369	304.81
288.6	285.81
288.831	289.81
289.062	280.81
289.293	288.81
289.524	275.81
289.755	271.81
289.986	253.81
290.217	282.81
290.448	279.81
290.679	298.81
290.91	268.81
291.141	286.81
291.371	289.81
291.602	289.81
291.833	279.81
292.064	318.81
292.295	276.81
292.526	280.81
292.757	281.81
292.987	269.81
293.218	277.81
293.449	292.81
293.68	288.81
293.91	274.81
294.141	291.81
294.372	299.81
294.603	277.81
294.833	297.81
295.064	292.81
295.295	285.81
295.525	288.81
295.756	282.81
295.987	299.81
296.217	305.81
296.448	304.81
296.679	298.81
296.909	282.81
297.14	276.81
297.37	288.81
297.601	294.81
297.831	306.81
298.062	284.81
298.292	292.81
298.523	305.81
298.753	284.81
298.984	295.81
299.214	296.81
299.445	290.81
299.675	306.81
299.905	297.81
300.136	308.81
300.366	294.81
300.597	295.81
300.827	312.81
301.057	311.81
301.288	306.81
301.518	308.81
301.748	320.81
301.979	309.81
302.209	318.81
302.439	323.81
302.669	314.81
302.9	326.81
303.13	308.81
303.36	312.81
303.59	308.81
303.82	332.81
304.051	329.81
304.281	322.81
304.511	291.81
304.741	328.81
304.971	320.81
305.201	318.81
305.431	320.81
305.661	302.81
305.891	317.81
306.121	298.81
306.352	320.81
306.582	321.81
306.812	309.81
307.042	324.81
307.272	312.81
307.502	324.81
307.731	342.81
307.961	318.81
308.191	322.81
308.421	312.81
308.651	342.81
308.881	326.81
309.111	310.81
309.341	340.81
309.571	334.81
309.8	333.81
310.03	340.81
310.26	350.81
310.49	338.81
310.72	344.81
310.949	343.81
311.179	354.81
311.409	350.81
311.639	329.81
311.868	332.81
312.098	348.81
312.328	344.81
312.557	373.81
312.787	370.81
313.017	362.81
313.246	352.81
313.476	364.81
313.706	348.81
313.935	353.81
314.165	361.81
314.394	337.81
314.624	361.81
314.853	361.81
315.083	352.81
315.312	350.81
315.542	356.81
315.771	346.81
316.001	357.81
316.23	322.81
316.46	332.81
316.689	349.81
316.919	363.81
317.148	358.81
317.377	354.81
317.607	355.81
317.836	366.81
318.065	363.81
318.295	343.81
318.524	357.81
318.753	353.81
318.983	346.81
319.212	350.81
319.441	349.81
319.67	343.81
319.9	347.81
320.129	360.81
320.358	365.81
320.587	357.81
320.816	361.81
321.046	370.81
321.275	376.81
321.504	365.81
321.733	352.81
321.962	365.81
322.191	360.81
322.42	375.81
322.649	381.81
322.878	403.81
323.108	397.81
323.337	414.81
323.566	414.81
323.795	434.81
324.024	496.81
324.253	489.81
324.482	674.81
324.71	1048.81
324.939	1531.81
325.168	1372.81
325.397	670.81
325.626	480.81
325.855	447.81
326.084	420.81
326.313	407.81
326.542	418.81
326.77	445.81
326.999	501.81
327.228	639.81
327.457	942.81
327.686	1162.81
327.914	780.81
328.143	555.81
328.372	472.81
328.6	485.81
328.829	448.81
329.058	464.81
329.287	483.81
329.515	454.81
329.744	429.81
329.972	440.81
330.201	438.81
330.43	475.81
330.658	480.81
330.887	473.81
331.115	472.81
331.344	434.81
331.572	449.81
331.801	432.81
332.03	439.81
332.258	421.81
332.486	432.81
332.715	438.81
332.943	443.81
333.172	409.81
333.4	430.81
333.629	438.81
333.857	458.81
334.085	451.81
334.314	453.81
334.542	481.81
334.771	494.81
334.999	482.81
335.227	453.81
335.455	449.81
335.684	441.81
335.912	435.81
336.14	452.81
336.369	421.81
336.597	439.81
336.825	442.81
337.053	435.81
337.281	430.81
337.51	420.81
337.738	424.81
337.966	406.81
338.194	420.81
338.422	426.81
338.65	422.81
338.878	418.81
339.106	409.81
339.334	403.81
339.562	412.81
339.79	430.81
340.018	391.81
340.246	404.81
340.474	394.81
340.702	408.81
340.93	411.81
341.158	405.81
341.386	406.81
341.614	423.81
341.842	406.81
342.07	398.81
342.298	399.81
342.526	401.81
342.754	398.81
342.981	425.81
343.209	389.81
343.437	418.81
343.665	446.81
343.893	416.81
344.12	441.81
344.348	445.81
344.576	441.81
344.804	424.81
345.031	426.81
345.259	419.81
345.487	406.81
345.714	404.81
345.942	409.81
346.17	404.81
346.397	402.81
346.625	376.81
346.853	395.81
347.08	400.81
347.308	395.81
347.535	394.81
347.763	392.81
347.99	380.81
348.218	395.81
348.445	387.81
348.673	381.81
348.9	392.81
349.128	391.81
349.355	378.81
349.583	379.81
349.81	386.81
350.037	404.81
350.265	402.81
350.492	395.81
350.72	390.81
350.947	375.81
351.174	403.81
351.402	361.81
351.629	395.81
351.856	391.81
352.083	391.81
352.311	413.81
352.538	380.81
352.765	397.81
352.992	386.81
353.22	389.81
353.447	373.81
353.674	379.81
353.901	377.81
354.128	371.81
354.355	385.81
354.583	380.81
354.81	375.81
355.037	384.81
355.264	404.81
355.491	361.81
355.718	368.81
355.945	360.81
356.172	366.81
356.399	372.81
356.626	371.81
356.853	373.81
357.08	378.81
357.307	376.81
357.534	358.81
357.761	366.81
357.988	388.81
358.215	371.81
358.441	372.81
358.668	382.81
358.895	384.81
359.122	358.81
359.349	384.81
359.576	424.81
359.802	396.81
360.029	400.81
360.256	419.81
360.483	412.81
360.709	394.81
360.936	403.81
361.163	383.81
361.39	404.81
361.616	383.81
361.843	398.81
362.07	382.81
362.296	385.81
362.523	382.81
362.749	410.81
362.976	398.81
363.203	412.81
363.429	395.81
363.656	381.81
363.882	393.81
364.109	396.81
364.335	383.81
364.562	388.81
364.788	380.81
365.015	377.81
365.241	382.81
365.468	391.81
365.694	393.81
365.92	388.81
366.147	370.81
366.373	370.81
366.599	370.81
366.826	377.81
367.052	369.81
367.278	374.81
367.505	389.81
367.731	388.81
367.957	366.81
368.184	390.81
368.41	387.81
368.636	372.81
368.862	396.81
369.089	393.81
369.315	382.81
369.541	366.81
369.767	384.81
369.993	387.81
370.219	393.81
370.445	385.81
370.672	393.81
370.898	399.81
371.124	378.81
371.35	380.81
371.576	375.81
371.802	398.81
372.028	375.81
372.254	382.81
372.48	382.81
372.706	389.81
372.932	407.81
373.158	405.81
373.384	418.81
373.61	383.81
373.835	417.81
374.061	441.81
374.287	412.81
374.513	404.81
374.739	407.81
374.965	437.81
375.191	413.81
375.416	428.81
375.642	392.81
375.868	406.81
376.094	407.81
376.319	396.81
376.545	384.81
376.771	420.81
376.997	411.81
377.222	389.81
377.448	390.81
377.674	399.81
377.899	394.81
378.125	398.81
378.35	418.81
378.576	397.81
378.802	378.81
379.027	404.81
379.253	396.81
379.478	383.81
379.704	370.81
379.929	390.81
380.155	396.81
380.38	390.81
380.606	390.81
380.831	396.81
381.057	394.81
381.282	395.81
381.507	392.81
381.733	405.81
381.958	404.81
382.184	405.81
382.409	400.81
382.634	422.81
382.86	415.81
383.085	403.81
383.31	425.81
383.535	438.81
383.761	420.81
383.986	444.81
384.211	427.81
384.436	443.81
384.662	435.81
384.887	424.81
385.112	432.81
385.337	444.81
385.562	458.81
385.787	453.81
386.013	461.81
386.238	446.81
386.463	479.81
386.688	464.81
386.913	434.81
387.138	441.81
387.363	446.81
387.588	450.81
387.813	451.81
388.038	444.81
388.263	455.81
388.488	456.81
388.713	448.81
388.938	463.81
389.163	442.81
389.387	454.81
389.612	441.81
389.837	441.81
390.062	429.81
390.287	430.81
390.512	446.81
390.736	424.81
390.961	448.81
391.186	464.81
391.411	468.81
391.636	464.81
391.86	471.81
392.085	440.81
392.31	448.81
392.534	462.81
392.759	443.81
392.984	472.81
393.208	445.81
393.433	442.81
393.658	443.81
393.882	446.81
394.107	443.81
394.331	465.81
394.556	459.81
394.78	459.81
395.005	444.81
395.229	443.81
395.454	464.81
395.678	470.81
395.903	481.81
396.127	494.81
396.352	504.81
396.576	457.81
396.801	454.81
397.025	465.81
397.249	491.81
397.474	473.81
397.698	488.81
397.922	499.81
398.147	508.81
398.371	514.81
398.595	514.81
398.82	492.81
399.044	543.81
399.268	554.81
399.492	590.81
399.717	631.81
399.941	647.81
400.165	664.81
400.389	671.81
400.613	608.81
400.837	572.81
401.062	530.81
401.286	538.81
401.51	524.81
401.734	536.81
401.958	544.81
402.182	506.81
402.406	516.81
402.63	525.81
402.854	527.81
403.078	544.81
403.302	550.81
403.526	560.81
403.75	542.81
403.974	545.81
404.198	541.81
404.422	530.81
404.645	567.81
404.869	536.81
405.093	554.81
405.317	623.81
405.541	644.81
405.765	609.81
405.988	568.81
406.212	542.81
406.436	572.81
406.66	588.81
406.883	572.81
407.107	596.81
407.331	640.81
407.555	719.81
407.778	726.81
408.002	676.81
408.226	592.81
408.449	608.81
408.673	581.81
408.896	604.81
409.12	644.81
409.344	612.81
409.567	553.81
409.791	554.81
410.014	541.81
410.238	555.81
410.461	557.81
410.685	554.81
410.908	566.81
411.132	567.81
411.355	608.81
411.578	574.81
411.802	542.81
412.025	536.81
412.249	544.81
412.472	559.81
412.695	585.81
412.919	574.81
413.142	556.81
413.365	535.81
413.589	550.81
413.812	509.81
414.035	515.81
414.258	524.81
414.482	507.81
414.705	521.81
414.928	510.81
415.151	488.81
415.374	506.81
415.597	516.81
415.821	511.81
416.044	525.81
416.267	523.81
416.49	493.81
416.713	515.81
416.936	510.81
417.159	504.81
417.382	501.81
417.605	499.81
417.828	533.81
418.051	533.81
418.274	548.81
418.497	520.81
418.72	523.81
418.943	538.81
419.166	536.81
419.389	574.81
419.611	546.81
419.834	550.81
420.057	549.81
420.28	526.81
420.503	546.81
420.726	538.81
420.948	521.81
421.171	596.81
421.394	595.81
421.617	574.81
421.839	540.81
422.062	535.81
422.285	542.81
422.507	592.81
422.73	664.81
422.953	624.81
423.175	567.81
423.398	547.81
423.621	545.81
423.843	570.81
424.066	550.81
424.288	576.81
424.511	585.81
424.733	608.81
424.956	689.81
425.178	649.81
425.401	675.81
425.623	670.81
425.846	590.81
426.068	562.81
426.291	542.81
426.513	539.81
426.735	539.81
426.958	583.81
427.18	663.81
427.402	781.81
427.625	853.81
427.847	726.81
428.069	619.81
428.292	594.81
428.514	534.81
428.736	535.81
428.958	518.81
429.181	507.81
429.403	510.81
429.625	508.81
429.847	537.81
430.069	596.81
430.292	607.81
430.514	518.81
430.736	496.81
430.958	504.81
431.18	474.81
431.402	478.81
431.624	481.81
431.846	496.81
432.068	474.81
432.29	471.81
432.512	501.81
432.734	518.81
432.956	490.81
433.178	489.81
433.4	487.81
433.622	494.81
433.844	520.81
434.066	502.81
434.287	513.81
434.509	508.81
434.731	532.81
434.953	520.81
435.175	558.81
435.397	569.81
435.618	547.81
435.84	588.81
436.062	650.81
436.284	724.81
436.505	612.81
436.727	561.81
436.949	514.81
437.17	499.81
437.392	520.81
437.614	526.81
437.835	534.81
438.057	624.81
438.278	739.81
438.5	696.81
438.721	779.81
438.943	785.81
439.165	601.81
439.386	553.81
439.608	524.81
439.829	538.81
440.05	579.81
440.272	612.81
440.493	573.81
440.715	534.81
440.936	530.81
441.158	518.81
441.379	532.81
441.6	554.81
441.822	548.81
442.043	572.81
442.264	658.81
442.486	701.81
442.707	608.81
442.928	564.81
443.149	564.81
443.371	627.81
443.592	623.81
443.813	709.81
444.034	786.81
444.255	656.81
444.476	576.81
444.698	570.81
444.919	595.81
445.14	702.81
445.361	635.81
445.582	612.81
445.803	651.81
446.024	732.81
446.245	723.81
446.466	666.81
446.687	580.81
446.908	550.81
447.129	527.81
447.35	514.81
447.571	503.81
447.792	486.81
448.013	512.81
448.234	514.81
448.455	536.81
448.675	669.81
448.896	793.81
449.117	670.81
449.338	601.81
449.559	716.81
449.779	800.81
450	643.81
450.221	547.81
450.442	503.81
450.662	467.81
450.883	486.81
451.104	517.81
451.324	485.81
451.545	485.81
451.766	447.81
451.986	454.81
452.207	453.81
452.428	456.81
452.648	444.81
452.869	454.81
453.089	445.81
453.31	485.81
453.53	449.81
453.751	446.81
453.971	445.81
454.192	436.81
454.412	455.81
454.633	463.81
454.853	429.81
455.073	440.81
455.294	476.81
455.514	524.81
455.734	534.81
455.955	448.81
456.175	425.81
456.395	416.81
456.616	414.81
456.836	420.81
457.056	410.81
457.276	418.81
457.497	451.81
457.717	427.81
457.937	417.81
458.157	449.81
458.377	450.81
458.598	461.81
458.818	492.81
459.038	537.81
459.258	587.81
459.478	541.81
459.698	492.81
459.918	478.81
460.138	505.81
460.358	500.81
460.578	502.81
460.798	508.81
461.018	497.81
461.238	516.81
461.458	504.81
461.678	521.81
461.898	510.81
462.118	518.81
462.338	546.81
462.558	542.81
462.777	558.81
462.997	562.81
463.217	597.81
463.437	607.81
463.657	579.81
463.876	571.81
464.096	565.81
464.316	566.81
464.536	569.81
464.755	544.81
464.975	570.81
465.195	541.81
465.414	586.81
465.634	540.81
465.854	518.81
466.073	502.81
466.293	497.81
466.512	483.81
466.732	470.81
466.951	483.81
467.171	447.81
467.391	465.81
467.61	488.81
467.829	473.81
468.049	481.81
468.268	456.81
468.488	461.81
468.707	448.81
468.927	467.81
469.146	439.81
469.365	434.81
469.585	466.81
469.804	449.81
470.023	475.81
470.243	480.81
470.462	469.81
470.681	484.81
470.901	502.81
471.12	472.81
471.339	473.81
471.558	472.81
471.777	461.81
471.997	474.81
472.216	497.81
472.435	490.81
472.654	483.81
472.873	448.81
473.092	464.81
473.311	476.81
473.53	470.81
473.749	485.81
473.968	517.81
474.187	594.81
474.406	626.81
474.625	510.81
474.844	493.81
475.063	464.81
475.282	487.81
475.501	480.81
475.72	491.81
475.939	492.81
476.158	491.81
476.377	513.81
476.596	493.81
476.814	500.81
477.033	500.81
477.252	502.81
477.471	498.81
477.69	520.81
477.908	530.81
478.127	525.81
478.346	515.81
478.564	542.81
478.783	532.81
479.002	550.81
479.22	565.81
479.439	570.81
479.658	553.81
479.876	579.81
480.095	566.81
480.313	587.81
480.532	599.81
480.751	601.81
480.969	597.81
481.188	625.81
481.406	638.81
481.624	587.81
481.843	584.81
482.061	565.81
482.28	542.81
482.498	564.81
482.717	556.81
482.935	560.81
483.153	551.81
483.372	555.81
483.59	560.81
483.808	554.81
484.027	582.81
484.245	572.81
484.463	557.81
484.681	556.81
484.9	557.81
485.118	551.81
485.336	597.81
485.554	590.81
485.772	567.81
485.99	582.81
486.209	588.81
486.427	577.81
486.645	600.81
486.863	611.81
487.081	594.81
487.299	596.81
487.517	608.81
487.735	602.81
487.953	613.81
488.171	614.81
488.389	616.81
488.607	612.81
488.825	613.81
489.043	579.81
489.261	608.81
489.479	585.81
489.696	615.81
489.914	612.81
490.132	611.81
490.35	610.81
490.568	634.81
490.786	629.81
491.003	654.81
491.221	658.81
491.439	676.81
491.657	673.81
491.874	681.81
492.092	682.81
492.31	678.81
492.527	681.81
492.745	707.81
492.963	675.81
493.18	711.81
493.398	714.81
493.615	706.81
493.833	716.81
494.05	689.81
494.268	692.81
494.485	690.81
494.703	711.81
494.92	698.81
495.138	699.81
495.355	710.81
495.573	728.81
495.79	706.81
496.008	696.81
496.225	731.81
496.442	717.81
496.66	711.81
496.877	698.81
497.094	691.81
497.312	736.81
497.529	728.81
497.746	744.81
497.963	738.81
498.181	746.81
498.398	783.81
498.615	811.81
498.832	809.81
499.049	843.81
499.267	872.81
499.484	956.81
499.701	989.81
499.918	1036.81
500.135	1069.81
500.352	1115.81
500.569	1160.81
500.786	1158.81
501.003	1134.81
501.22	1092.81
501.437	1030.81
501.654	951.81
