Data from 1975.PennyLincolnUp.Lamp.En5.5.200Scan.071719.P1.Changed Mount._HRD10591_15-58-39-860.txt Node
Date: Thu Jul 18 15:58:39 EDT 2019
User: cochatt
Spectrometer: HR+D1059
Trigger mode: 1
Integration Time (sec): 1.000000E-1
Scans to average: 1
Electric dark correction enabled: true
Nonlinearity correction enabled: false
Boxcar width: 0
XAxis mode: Wavelengths
Number of Pixels in Spectrum: 2048
>>>>>Begin Spectral Data<<<<<
223.165	-13.06
223.4	-13.06
223.635	-13.06
223.869	-1.06
224.104	-7.06
224.338	-14.06
224.573	-30.06
224.808	-22.06
225.042	3.94
225.277	-20.06
225.511	-11.06
225.746	2.94
225.98	1.94
226.215	1.94
226.449	12.94
226.683	28.94
226.918	26.94
227.152	38.94
227.387	31.94
227.621	44.94
227.856	39.94
228.09	42.94
228.324	57.94
228.559	77.94
228.793	68.94
229.027	90.94
229.262	108.94
229.496	125.94
229.73	125.94
229.964	168.94
230.199	120.94
230.433	119.94
230.667	114.94
230.901	120.94
231.136	112.94
231.37	113.94
231.604	120.94
231.838	126.94
232.072	117.94
232.306	119.94
232.541	135.94
232.775	139.94
233.009	127.94
233.243	122.94
233.477	124.94
233.711	114.94
233.945	107.94
234.179	126.94
234.413	120.94
234.647	121.94
234.881	114.94
235.115	130.94
235.349	130.94
235.583	130.94
235.817	129.94
236.051	117.94
236.285	128.94
236.519	128.94
236.753	142.94
236.987	157.94
237.221	187.94
237.455	221.94
237.689	188.94
237.922	148.94
238.156	147.94
238.39	128.94
238.624	137.94
238.858	121.94
239.091	133.94
239.325	136.94
239.559	144.94
239.793	128.94
240.027	122.94
240.26	142.94
240.494	165.94
240.728	165.94
240.961	157.94
241.195	151.94
241.429	138.94
241.662	145.94
241.896	151.94
242.13	141.94
242.363	139.94
242.597	136.94
242.83	149.94
243.064	136.94
243.298	145.94
243.531	150.94
243.765	154.94
243.998	132.94
244.232	148.94
244.465	153.94
244.699	143.94
244.932	154.94
245.166	146.94
245.399	150.94
245.633	143.94
245.866	154.94
246.099	158.94
246.333	151.94
246.566	160.94
246.8	147.94
247.033	151.94
247.266	174.94
247.5	172.94
247.733	183.94
247.966	178.94
248.2	159.94
248.433	170.94
248.666	197.94
248.899	174.94
249.133	199.94
249.366	205.94
249.599	224.94
249.832	190.94
250.066	196.94
250.299	186.94
250.532	199.94
250.765	197.94
250.998	207.94
251.231	235.94
251.465	230.94
251.698	201.94
251.931	214.94
252.164	210.94
252.397	187.94
252.63	202.94
252.863	207.94
253.096	228.94
253.329	236.94
253.562	224.94
253.795	232.94
254.028	219.94
254.261	223.94
254.494	215.94
254.727	267.94
254.96	282.94
255.193	277.94
255.426	273.94
255.659	257.94
255.892	233.94
256.124	233.94
256.357	236.94
256.59	234.94
256.823	224.94
257.056	237.94
257.289	197.94
257.521	225.94
257.754	208.94
257.987	231.94
258.22	205.94
258.452	206.94
258.685	219.94
258.918	233.94
259.151	234.94
259.383	221.94
259.616	231.94
259.849	241.94
260.081	233.94
260.314	276.94
260.547	264.94
260.779	264.94
261.012	242.94
261.244	222.94
261.477	235.94
261.71	230.94
261.942	245.94
262.175	244.94
262.407	242.94
262.64	214.94
262.872	204.94
263.105	229.94
263.337	227.94
263.57	228.94
263.802	219.94
264.035	227.94
264.267	235.94
264.499	232.94
264.732	237.94
264.964	218.94
265.197	230.94
265.429	214.94
265.661	238.94
265.894	221.94
266.126	235.94
266.358	221.94
266.591	238.94
266.823	250.94
267.055	239.94
267.287	240.94
267.52	245.94
267.752	254.94
267.984	218.94
268.216	243.94
268.448	263.94
268.681	249.94
268.913	254.94
269.145	274.94
269.377	290.94
269.609	288.94
269.841	268.94
270.073	291.94
270.306	314.94
270.538	328.94
270.77	322.94
271.002	322.94
271.234	302.94
271.466	302.94
271.698	336.94
271.93	335.94
272.162	318.94
272.394	327.94
272.626	315.94
272.858	306.94
273.09	279.94
273.322	316.94
273.553	272.94
273.785	287.94
274.017	285.94
274.249	279.94
274.481	249.94
274.713	294.94
274.945	283.94
275.176	276.94
275.408	285.94
275.64	252.94
275.872	264.94
276.104	286.94
276.335	281.94
276.567	314.94
276.799	299.94
277.031	315.94
277.262	335.94
277.494	339.94
277.726	324.94
277.957	320.94
278.189	289.94
278.421	274.94
278.652	272.94
278.884	283.94
279.115	288.94
279.347	283.94
279.579	286.94
279.81	279.94
280.042	279.94
280.273	278.94
280.505	277.94
280.736	287.94
280.968	301.94
281.199	301.94
281.431	293.94
281.662	289.94
281.894	307.94
282.125	308.94
282.356	292.94
282.588	323.94
282.819	334.94
283.051	307.94
283.282	301.94
283.513	310.94
283.745	296.94
283.976	298.94
284.207	299.94
284.439	302.94
284.67	311.94
284.901	309.94
285.132	298.94
285.364	286.94
285.595	307.94
285.826	290.94
286.057	297.94
286.288	302.94
286.52	292.94
286.751	293.94
286.982	307.94
287.213	287.94
287.444	330.94
287.675	308.94
287.906	329.94
288.138	320.94
288.369	319.94
288.6	323.94
288.831	325.94
289.062	327.94
289.293	327.94
289.524	312.94
289.755	326.94
289.986	310.94
290.217	330.94
290.448	324.94
290.679	314.94
290.91	326.94
291.141	310.94
291.371	302.94
291.602	282.94
291.833	322.94
292.064	324.94
292.295	305.94
292.526	312.94
292.757	306.94
292.987	339.94
293.218	303.94
293.449	302.94
293.68	331.94
293.91	324.94
294.141	326.94
294.372	303.94
294.603	313.94
294.833	305.94
295.064	340.94
295.295	308.94
295.525	299.94
295.756	316.94
295.987	321.94
296.217	341.94
296.448	354.94
296.679	339.94
296.909	311.94
297.14	322.94
297.37	330.94
297.601	330.94
297.831	315.94
298.062	322.94
298.292	316.94
298.523	341.94
298.753	330.94
298.984	329.94
299.214	341.94
299.445	344.94
299.675	346.94
299.905	338.94
300.136	356.94
300.366	355.94
300.597	350.94
300.827	351.94
301.057	365.94
301.288	366.94
301.518	360.94
301.748	346.94
301.979	354.94
302.209	357.94
302.439	378.94
302.669	342.94
302.9	334.94
303.13	345.94
303.36	334.94
303.59	361.94
303.82	361.94
304.051	361.94
304.281	343.94
304.511	347.94
304.741	359.94
304.971	345.94
305.201	340.94
305.431	357.94
305.661	339.94
305.891	367.94
306.121	378.94
306.352	360.94
306.582	347.94
306.812	367.94
307.042	351.94
307.272	354.94
307.502	358.94
307.731	361.94
307.961	354.94
308.191	359.94
308.421	371.94
308.651	364.94
308.881	331.94
309.111	373.94
309.341	371.94
309.571	387.94
309.8	383.94
310.03	371.94
310.26	392.94
310.49	392.94
310.72	393.94
310.949	403.94
311.179	424.94
311.409	392.94
311.639	380.94
311.868	388.94
312.098	407.94
312.328	406.94
312.557	398.94
312.787	404.94
313.017	429.94
313.246	434.94
313.476	406.94
313.706	397.94
313.935	400.94
314.165	415.94
314.394	398.94
314.624	391.94
314.853	417.94
315.083	421.94
315.312	404.94
315.542	395.94
315.771	398.94
316.001	392.94
316.23	399.94
316.46	392.94
316.689	404.94
316.919	424.94
317.148	392.94
317.377	396.94
317.607	402.94
317.836	404.94
318.065	382.94
318.295	381.94
318.524	375.94
318.753	382.94
318.983	411.94
319.212	383.94
319.441	415.94
319.67	387.94
319.9	387.94
320.129	384.94
320.358	414.94
320.587	385.94
320.816	391.94
321.046	425.94
321.275	416.94
321.504	408.94
321.733	400.94
321.962	418.94
322.191	427.94
322.42	446.94
322.649	460.94
322.878	430.94
323.108	452.94
323.337	479.94
323.566	504.94
323.795	499.94
324.024	524.94
324.253	643.94
324.482	875.94
324.71	1342.94
324.939	1995.94
325.168	1744.94
325.397	898.94
325.626	619.94
325.855	546.94
326.084	483.94
326.313	480.94
326.542	482.94
326.77	542.94
326.999	605.94
327.228	830.94
327.457	1260.94
327.686	1540.94
327.914	988.94
328.143	678.94
328.372	596.94
328.6	557.94
328.829	552.94
329.058	556.94
329.287	564.94
329.515	520.94
329.744	511.94
329.972	496.94
330.201	546.94
330.43	550.94
330.658	571.94
330.887	613.94
331.115	594.94
331.344	525.94
331.572	503.94
331.801	518.94
332.03	505.94
332.258	484.94
332.486	469.94
332.715	470.94
332.943	482.94
333.172	503.94
333.4	503.94
333.629	517.94
333.857	488.94
334.085	534.94
334.314	536.94
334.542	574.94
334.771	591.94
334.999	538.94
335.227	501.94
335.455	500.94
335.684	491.94
335.912	502.94
336.14	484.94
336.369	487.94
336.597	486.94
336.825	488.94
337.053	477.94
337.281	474.94
337.51	487.94
337.738	454.94
337.966	462.94
338.194	482.94
338.422	468.94
338.65	486.94
338.878	487.94
339.106	471.94
339.334	474.94
339.562	460.94
339.79	446.94
340.018	451.94
340.246	444.94
340.474	480.94
340.702	451.94
340.93	456.94
341.158	452.94
341.386	452.94
341.614	451.94
341.842	463.94
342.07	466.94
342.298	451.94
342.526	456.94
342.754	460.94
342.981	440.94
343.209	455.94
343.437	430.94
343.665	485.94
343.893	486.94
344.12	493.94
344.348	482.94
344.576	478.94
344.804	473.94
345.031	489.94
345.259	478.94
345.487	454.94
345.714	470.94
345.942	449.94
346.17	450.94
346.397	438.94
346.625	436.94
346.853	435.94
347.08	474.94
347.308	456.94
347.535	443.94
347.763	447.94
347.99	447.94
348.218	452.94
348.445	448.94
348.673	457.94
348.9	426.94
349.128	442.94
349.355	431.94
349.583	428.94
349.81	421.94
350.037	426.94
350.265	422.94
350.492	428.94
350.72	438.94
350.947	426.94
351.174	438.94
351.402	419.94
351.629	426.94
351.856	429.94
352.083	470.94
352.311	453.94
352.538	451.94
352.765	459.94
352.992	441.94
353.22	432.94
353.447	426.94
353.674	424.94
353.901	422.94
354.128	423.94
354.355	422.94
354.583	416.94
354.81	410.94
355.037	425.94
355.264	429.94
355.491	421.94
355.718	428.94
355.945	407.94
356.172	423.94
356.399	397.94
356.626	404.94
356.853	408.94
357.08	410.94
357.307	423.94
357.534	427.94
357.761	434.94
357.988	440.94
358.215	421.94
358.441	432.94
358.668	414.94
358.895	424.94
359.122	424.94
359.349	426.94
359.576	442.94
359.802	459.94
360.029	467.94
360.256	494.94
360.483	456.94
360.709	458.94
360.936	486.94
361.163	438.94
361.39	445.94
361.616	454.94
361.843	439.94
362.07	434.94
362.296	447.94
362.523	428.94
362.749	448.94
362.976	470.94
363.203	441.94
363.429	418.94
363.656	430.94
363.882	427.94
364.109	422.94
364.335	441.94
364.562	435.94
364.788	429.94
365.015	431.94
365.241	442.94
365.468	431.94
365.694	426.94
365.92	445.94
366.147	428.94
366.373	434.94
366.599	404.94
366.826	457.94
367.052	450.94
367.278	447.94
367.505	431.94
367.731	430.94
367.957	432.94
368.184	453.94
368.41	443.94
368.636	434.94
368.862	440.94
369.089	431.94
369.315	436.94
369.541	450.94
369.767	447.94
369.993	435.94
370.219	436.94
370.445	442.94
370.672	428.94
370.898	439.94
371.124	434.94
371.35	438.94
371.576	443.94
371.802	423.94
372.028	452.94
372.254	420.94
372.48	446.94
372.706	427.94
372.932	443.94
373.158	455.94
373.384	436.94
373.61	461.94
373.835	440.94
374.061	440.94
374.287	428.94
374.513	452.94
374.739	457.94
374.965	455.94
375.191	439.94
375.416	440.94
375.642	434.94
375.868	445.94
376.094	442.94
376.319	437.94
376.545	460.94
376.771	436.94
376.997	430.94
377.222	427.94
377.448	440.94
377.674	451.94
377.899	438.94
378.125	438.94
378.35	448.94
378.576	444.94
378.802	441.94
379.027	437.94
379.253	429.94
379.478	435.94
379.704	440.94
379.929	445.94
380.155	424.94
380.38	437.94
380.606	454.94
380.831	423.94
381.057	448.94
381.282	417.94
381.507	455.94
381.733	436.94
381.958	439.94
382.184	441.94
382.409	438.94
382.634	460.94
382.86	453.94
383.085	435.94
383.31	451.94
383.535	454.94
383.761	439.94
383.986	451.94
384.211	491.94
384.436	463.94
384.662	451.94
384.887	492.94
385.112	493.94
385.337	463.94
385.562	491.94
385.787	493.94
386.013	504.94
386.238	483.94
386.463	470.94
386.688	510.94
386.913	494.94
387.138	499.94
387.363	481.94
387.588	479.94
387.813	490.94
388.038	476.94
388.263	500.94
388.488	483.94
388.713	493.94
388.938	486.94
389.163	496.94
389.387	480.94
389.612	494.94
389.837	488.94
390.062	464.94
390.287	501.94
390.512	497.94
390.736	491.94
390.961	488.94
391.186	493.94
391.411	506.94
391.636	486.94
391.86	503.94
392.085	512.94
392.31	521.94
392.534	503.94
392.759	521.94
392.984	499.94
393.208	486.94
393.433	498.94
393.658	516.94
393.882	496.94
394.107	504.94
394.331	494.94
394.556	506.94
394.78	503.94
395.005	505.94
395.229	507.94
395.454	536.94
395.678	518.94
395.903	536.94
396.127	549.94
396.352	542.94
396.576	509.94
396.801	524.94
397.025	511.94
397.249	510.94
397.474	534.94
397.698	557.94
397.922	551.94
398.147	558.94
398.371	568.94
398.595	552.94
398.82	566.94
399.044	580.94
399.268	605.94
399.492	660.94
399.717	674.94
399.941	712.94
400.165	713.94
400.389	719.94
400.613	648.94
400.837	612.94
401.062	598.94
401.286	590.94
401.51	579.94
401.734	569.94
401.958	568.94
402.182	587.94
402.406	593.94
402.63	574.94
402.854	596.94
403.078	592.94
403.302	599.94
403.526	620.94
403.75	589.94
403.974	584.94
404.198	592.94
404.422	621.94
404.645	614.94
404.869	620.94
405.093	656.94
405.317	685.94
405.541	718.94
405.765	662.94
405.988	637.94
406.212	636.94
406.436	638.94
406.66	666.94
406.883	635.94
407.107	670.94
407.331	700.94
407.555	791.94
407.778	811.94
408.002	722.94
408.226	691.94
408.449	666.94
408.673	678.94
408.896	715.94
409.12	716.94
409.344	687.94
409.567	625.94
409.791	602.94
410.014	616.94
410.238	608.94
410.461	618.94
410.685	604.94
410.908	617.94
411.132	656.94
411.355	696.94
411.578	642.94
411.802	633.94
412.025	586.94
412.249	615.94
412.472	634.94
412.695	671.94
412.919	680.94
413.142	619.94
413.365	598.94
413.589	591.94
413.812	557.94
414.035	571.94
414.258	560.94
414.482	560.94
414.705	547.94
414.928	560.94
415.151	542.94
415.374	544.94
415.597	564.94
415.821	538.94
416.044	572.94
416.267	595.94
416.49	571.94
416.713	566.94
416.936	550.94
417.159	530.94
417.382	563.94
417.605	583.94
417.828	578.94
418.051	597.94
418.274	601.94
418.497	561.94
418.72	582.94
418.943	569.94
419.166	590.94
419.389	616.94
419.611	624.94
419.834	606.94
420.057	604.94
420.28	615.94
420.503	582.94
420.726	590.94
420.948	587.94
421.171	651.94
421.394	655.94
421.617	620.94
421.839	596.94
422.062	589.94
422.285	603.94
422.507	669.94
422.73	751.94
422.953	692.94
423.175	643.94
423.398	632.94
423.621	611.94
423.843	640.94
424.066	641.94
424.288	637.94
424.511	676.94
424.733	712.94
424.956	811.94
425.178	761.94
425.401	727.94
425.623	775.94
425.846	668.94
426.068	632.94
426.291	623.94
426.513	617.94
426.735	645.94
426.958	681.94
427.18	757.94
427.402	926.94
427.625	976.94
427.847	842.94
428.069	742.94
428.292	666.94
428.514	618.94
428.736	606.94
428.958	587.94
429.181	579.94
429.403	571.94
429.625	580.94
429.847	591.94
430.069	673.94
430.292	644.94
430.514	612.94
430.736	590.94
430.958	545.94
431.18	552.94
431.402	563.94
431.624	557.94
431.846	553.94
432.068	541.94
432.29	533.94
432.512	568.94
432.734	561.94
432.956	561.94
433.178	561.94
433.4	549.94
433.622	558.94
433.844	570.94
434.066	530.94
434.287	557.94
434.509	557.94
434.731	566.94
434.953	576.94
435.175	608.94
435.397	632.94
435.618	602.94
435.84	628.94
436.062	746.94
436.284	840.94
436.505	699.94
436.727	634.94
436.949	586.94
437.17	584.94
437.392	565.94
437.614	586.94
437.835	591.94
438.057	690.94
438.278	803.94
438.5	826.94
438.721	898.94
438.943	882.94
439.165	675.94
439.386	653.94
439.608	609.94
439.829	600.94
440.05	651.94
440.272	686.94
440.493	666.94
440.715	614.94
440.936	572.94
441.158	591.94
441.379	583.94
441.6	608.94
441.822	612.94
442.043	649.94
442.264	768.94
442.486	809.94
442.707	666.94
442.928	640.94
443.149	640.94
443.371	675.94
443.592	694.94
443.813	824.94
444.034	901.94
444.255	736.94
444.476	676.94
444.698	663.94
444.919	632.94
445.14	766.94
445.361	703.94
445.582	676.94
445.803	730.94
446.024	838.94
446.245	829.94
446.466	784.94
446.687	667.94
446.908	615.94
447.129	580.94
447.35	582.94
447.571	572.94
447.792	572.94
448.013	562.94
448.234	591.94
448.455	635.94
448.675	739.94
448.896	870.94
449.117	731.94
449.338	711.94
449.559	810.94
449.779	954.94
450	749.94
450.221	608.94
450.442	587.94
450.662	547.94
450.883	557.94
451.104	546.94
451.324	547.94
451.545	537.94
451.766	517.94
451.986	529.94
452.207	506.94
452.428	502.94
452.648	501.94
452.869	533.94
453.089	518.94
453.31	523.94
453.53	534.94
453.751	491.94
453.971	502.94
454.192	528.94
454.412	521.94
454.633	496.94
454.853	486.94
455.073	501.94
455.294	526.94
455.514	582.94
455.734	571.94
455.955	503.94
456.175	490.94
456.395	484.94
456.616	459.94
456.836	473.94
457.056	472.94
457.276	479.94
457.497	474.94
457.717	471.94
457.937	468.94
458.157	491.94
458.377	481.94
458.598	519.94
458.818	568.94
459.038	636.94
459.258	678.94
459.478	601.94
459.698	560.94
459.918	545.94
460.138	542.94
460.358	589.94
460.578	581.94
460.798	571.94
461.018	578.94
461.238	574.94
461.458	567.94
461.678	563.94
461.898	549.94
462.118	577.94
462.338	586.94
462.558	590.94
462.777	595.94
462.997	605.94
463.217	655.94
463.437	640.94
463.657	630.94
463.876	629.94
464.096	612.94
464.316	602.94
464.536	607.94
464.755	611.94
464.975	623.94
465.195	613.94
465.414	683.94
465.634	594.94
465.854	586.94
466.073	559.94
466.293	540.94
466.512	512.94
466.732	506.94
466.951	532.94
467.171	526.94
467.391	528.94
467.61	556.94
467.829	544.94
468.049	544.94
468.268	517.94
468.488	516.94
468.707	504.94
468.927	493.94
469.146	522.94
469.365	528.94
469.585	517.94
469.804	511.94
470.023	521.94
470.243	528.94
470.462	534.94
470.681	538.94
470.901	555.94
471.12	540.94
471.339	526.94
471.558	538.94
471.777	519.94
471.997	528.94
472.216	511.94
472.435	561.94
472.654	555.94
472.873	538.94
473.092	502.94
473.311	495.94
473.53	546.94
473.749	520.94
473.968	566.94
474.187	678.94
474.406	702.94
474.625	564.94
474.844	530.94
475.063	514.94
475.282	522.94
475.501	523.94
475.72	535.94
475.939	529.94
476.158	552.94
476.377	549.94
476.596	549.94
476.814	565.94
477.033	563.94
477.252	563.94
477.471	565.94
477.69	560.94
477.908	603.94
478.127	585.94
478.346	586.94
478.564	586.94
478.783	612.94
479.002	601.94
479.22	596.94
479.439	614.94
479.658	637.94
479.876	642.94
480.095	647.94
480.313	666.94
480.532	687.94
480.751	649.94
480.969	685.94
481.188	706.94
481.406	753.94
481.624	669.94
481.843	640.94
482.061	619.94
482.28	621.94
482.498	603.94
482.717	605.94
482.935	634.94
483.153	614.94
483.372	638.94
483.59	608.94
483.808	612.94
484.027	602.94
484.245	613.94
484.463	617.94
484.681	661.94
484.9	640.94
485.118	610.94
485.336	628.94
485.554	672.94
485.772	657.94
485.99	638.94
486.209	662.94
486.427	616.94
486.645	637.94
486.863	678.94
487.081	679.94
487.299	673.94
487.517	635.94
487.735	661.94
487.953	680.94
488.171	656.94
488.389	675.94
488.607	670.94
488.825	670.94
489.043	657.94
489.261	657.94
489.479	657.94
489.696	662.94
489.914	687.94
490.132	708.94
490.35	690.94
490.568	694.94
490.786	724.94
491.003	710.94
491.221	736.94
491.439	740.94
491.657	738.94
491.874	763.94
492.092	783.94
492.31	787.94
492.527	766.94
492.745	769.94
492.963	742.94
493.18	799.94
493.398	776.94
493.615	783.94
493.833	793.94
494.05	814.94
494.268	798.94
494.485	754.94
494.703	799.94
494.92	806.94
495.138	808.94
495.355	759.94
495.573	798.94
495.79	800.94
496.008	797.94
496.225	789.94
496.442	812.94
496.66	779.94
496.877	800.94
497.094	802.94
497.312	774.94
497.529	820.94
497.746	813.94
497.963	852.94
498.181	874.94
498.398	907.94
498.615	906.94
498.832	905.94
499.049	949.94
499.267	979.94
499.484	1014.94
499.701	1068.94
499.918	1099.94
500.135	1184.94
500.352	1257.94
500.569	1292.94
500.786	1306.94
501.003	1244.94
501.22	1180.94
501.437	1160.94
501.654	1076.94
