Data from 1975.PennyLincolnUp.Lamp.En5.5.200Scan.071719.P1.Changed Mount._HRD10591_15-56-55-860.txt Node
Date: Thu Jul 18 15:56:55 EDT 2019
User: cochatt
Spectrometer: HR+D1059
Trigger mode: 1
Integration Time (sec): 1.000000E-1
Scans to average: 1
Electric dark correction enabled: true
Nonlinearity correction enabled: false
Boxcar width: 0
XAxis mode: Wavelengths
Number of Pixels in Spectrum: 2048
>>>>>Begin Spectral Data<<<<<
223.165	-21.75
223.4	-21.75
223.635	-21.75
223.869	-12.75
224.104	-13.75
224.338	-16.75
224.573	-10.75
224.808	-26.75
225.042	-6.75
225.277	5.25
225.511	-0.75
225.746	-7.75
225.98	5.25
226.215	5.25
226.449	22.25
226.683	24.25
226.918	23.25
227.152	32.25
227.387	23.25
227.621	29.25
227.856	58.25
228.09	41.25
228.324	42.25
228.559	51.25
228.793	71.25
229.027	93.25
229.262	110.25
229.496	103.25
229.73	123.25
229.964	136.25
230.199	120.25
230.433	118.25
230.667	104.25
230.901	105.25
231.136	94.25
231.37	120.25
231.604	110.25
231.838	141.25
232.072	129.25
232.306	95.25
232.541	113.25
232.775	100.25
233.009	106.25
233.243	118.25
233.477	101.25
233.711	118.25
233.945	113.25
234.179	128.25
234.413	127.25
234.647	126.25
234.881	119.25
235.115	121.25
235.349	124.25
235.583	128.25
235.817	123.25
236.051	120.25
236.285	107.25
236.519	125.25
236.753	121.25
236.987	128.25
237.221	168.25
237.455	198.25
237.689	169.25
237.922	144.25
238.156	139.25
238.39	131.25
238.624	135.25
238.858	140.25
239.091	122.25
239.325	124.25
239.559	115.25
239.793	130.25
240.027	113.25
240.26	136.25
240.494	161.25
240.728	147.25
240.961	142.25
241.195	143.25
241.429	138.25
241.662	133.25
241.896	135.25
242.13	141.25
242.363	133.25
242.597	140.25
242.83	135.25
243.064	148.25
243.298	116.25
243.531	142.25
243.765	134.25
243.998	129.25
244.232	138.25
244.465	133.25
244.699	146.25
244.932	146.25
245.166	130.25
245.399	141.25
245.633	152.25
245.866	155.25
246.099	163.25
246.333	138.25
246.566	147.25
246.8	158.25
247.033	157.25
247.266	166.25
247.5	170.25
247.733	178.25
247.966	174.25
248.2	185.25
248.433	166.25
248.666	177.25
248.899	190.25
249.133	192.25
249.366	214.25
249.599	204.25
249.832	189.25
250.066	185.25
250.299	191.25
250.532	177.25
250.765	190.25
250.998	217.25
251.231	231.25
251.465	208.25
251.698	194.25
251.931	195.25
252.164	203.25
252.397	212.25
252.63	201.25
252.863	205.25
253.096	226.25
253.329	206.25
253.562	216.25
253.795	205.25
254.028	225.25
254.261	207.25
254.494	209.25
254.727	234.25
254.96	285.25
255.193	251.25
255.426	234.25
255.659	231.25
255.892	220.25
256.124	211.25
256.357	221.25
256.59	211.25
256.823	217.25
257.056	229.25
257.289	219.25
257.521	214.25
257.754	214.25
257.987	192.25
258.22	201.25
258.452	200.25
258.685	209.25
258.918	204.25
259.151	202.25
259.383	218.25
259.616	227.25
259.849	236.25
260.081	232.25
260.314	269.25
260.547	251.25
260.779	231.25
261.012	241.25
261.244	220.25
261.477	228.25
261.71	230.25
261.942	226.25
262.175	227.25
262.407	229.25
262.64	215.25
262.872	193.25
263.105	194.25
263.337	209.25
263.57	204.25
263.802	221.25
264.035	202.25
264.267	218.25
264.499	216.25
264.732	215.25
264.964	194.25
265.197	217.25
265.429	205.25
265.661	209.25
265.894	202.25
266.126	234.25
266.358	215.25
266.591	223.25
266.823	219.25
267.055	212.25
267.287	223.25
267.52	239.25
267.752	220.25
267.984	228.25
268.216	222.25
268.448	227.25
268.681	233.25
268.913	254.25
269.145	257.25
269.377	262.25
269.609	259.25
269.841	271.25
270.073	266.25
270.306	293.25
270.538	309.25
270.77	295.25
271.002	285.25
271.234	268.25
271.466	295.25
271.698	314.25
271.93	309.25
272.162	311.25
272.394	292.25
272.626	298.25
272.858	274.25
273.09	268.25
273.322	277.25
273.553	279.25
273.785	262.25
274.017	258.25
274.249	270.25
274.481	260.25
274.713	275.25
274.945	260.25
275.176	252.25
275.408	255.25
275.64	286.25
275.872	248.25
276.104	275.25
276.335	278.25
276.567	282.25
276.799	291.25
277.031	297.25
277.262	301.25
277.494	305.25
277.726	303.25
277.957	282.25
278.189	285.25
278.421	290.25
278.652	283.25
278.884	281.25
279.115	275.25
279.347	294.25
279.579	282.25
279.81	275.25
280.042	276.25
280.273	265.25
280.505	281.25
280.736	292.25
280.968	272.25
281.199	292.25
281.431	267.25
281.662	309.25
281.894	265.25
282.125	264.25
282.356	275.25
282.588	289.25
282.819	303.25
283.051	277.25
283.282	276.25
283.513	265.25
283.745	296.25
283.976	292.25
284.207	272.25
284.439	286.25
284.67	306.25
284.901	292.25
285.132	287.25
285.364	301.25
285.595	285.25
285.826	270.25
286.057	294.25
286.288	282.25
286.52	283.25
286.751	300.25
286.982	282.25
287.213	288.25
287.444	295.25
287.675	298.25
287.906	297.25
288.138	317.25
288.369	327.25
288.6	301.25
288.831	298.25
289.062	311.25
289.293	316.25
289.524	296.25
289.755	317.25
289.986	299.25
290.217	295.25
290.448	286.25
290.679	307.25
290.91	300.25
291.141	315.25
291.371	297.25
291.602	309.25
291.833	275.25
292.064	298.25
292.295	302.25
292.526	283.25
292.757	281.25
292.987	285.25
293.218	283.25
293.449	301.25
293.68	313.25
293.91	305.25
294.141	293.25
294.372	289.25
294.603	280.25
294.833	312.25
295.064	287.25
295.295	316.25
295.525	303.25
295.756	307.25
295.987	329.25
296.217	314.25
296.448	341.25
296.679	325.25
296.909	302.25
297.14	318.25
297.37	308.25
297.601	307.25
297.831	307.25
298.062	302.25
298.292	305.25
298.523	325.25
298.753	314.25
298.984	322.25
299.214	321.25
299.445	310.25
299.675	320.25
299.905	341.25
300.136	319.25
300.366	313.25
300.597	325.25
300.827	338.25
301.057	329.25
301.288	331.25
301.518	323.25
301.748	334.25
301.979	334.25
302.209	355.25
302.439	335.25
302.669	340.25
302.9	332.25
303.13	335.25
303.36	343.25
303.59	338.25
303.82	333.25
304.051	355.25
304.281	329.25
304.511	333.25
304.741	345.25
304.971	337.25
305.201	319.25
305.431	344.25
305.661	357.25
305.891	342.25
306.121	342.25
306.352	308.25
306.582	334.25
306.812	339.25
307.042	329.25
307.272	333.25
307.502	328.25
307.731	334.25
307.961	343.25
308.191	333.25
308.421	348.25
308.651	349.25
308.881	329.25
309.111	340.25
309.341	347.25
309.571	361.25
309.8	356.25
310.03	354.25
310.26	369.25
310.49	364.25
310.72	373.25
310.949	362.25
311.179	397.25
311.409	352.25
311.639	358.25
311.868	366.25
312.098	363.25
312.328	363.25
312.557	362.25
312.787	395.25
313.017	379.25
313.246	386.25
313.476	379.25
313.706	374.25
313.935	371.25
314.165	403.25
314.394	380.25
314.624	397.25
314.853	384.25
315.083	381.25
315.312	377.25
315.542	370.25
315.771	366.25
316.001	350.25
316.23	372.25
316.46	373.25
316.689	374.25
316.919	386.25
317.148	389.25
317.377	386.25
317.607	388.25
317.836	378.25
318.065	383.25
318.295	357.25
318.524	382.25
318.753	383.25
318.983	371.25
319.212	384.25
319.441	384.25
319.67	390.25
319.9	373.25
320.129	369.25
320.358	377.25
320.587	387.25
320.816	367.25
321.046	387.25
321.275	412.25
321.504	380.25
321.733	388.25
321.962	370.25
322.191	383.25
322.42	399.25
322.649	413.25
322.878	433.25
323.108	428.25
323.337	443.25
323.566	459.25
323.795	475.25
324.024	481.25
324.253	551.25
324.482	775.25
324.71	1174.25
324.939	1716.25
325.168	1512.25
325.397	829.25
325.626	565.25
325.855	478.25
326.084	470.25
326.313	460.25
326.542	481.25
326.77	488.25
326.999	557.25
327.228	701.25
327.457	1068.25
327.686	1354.25
327.914	904.25
328.143	662.25
328.372	539.25
328.6	521.25
328.829	515.25
329.058	522.25
329.287	515.25
329.515	508.25
329.744	487.25
329.972	483.25
330.201	498.25
330.43	556.25
330.658	526.25
330.887	555.25
331.115	537.25
331.344	468.25
331.572	473.25
331.801	471.25
332.03	469.25
332.258	450.25
332.486	449.25
332.715	474.25
332.943	458.25
333.172	447.25
333.4	453.25
333.629	477.25
333.857	479.25
334.085	503.25
334.314	521.25
334.542	536.25
334.771	548.25
334.999	519.25
335.227	482.25
335.455	457.25
335.684	473.25
335.912	461.25
336.14	458.25
336.369	457.25
336.597	450.25
336.825	468.25
337.053	453.25
337.281	454.25
337.51	454.25
337.738	452.25
337.966	451.25
338.194	436.25
338.422	456.25
338.65	456.25
338.878	439.25
339.106	440.25
339.334	436.25
339.562	426.25
339.79	407.25
340.018	435.25
340.246	433.25
340.474	430.25
340.702	430.25
340.93	440.25
341.158	422.25
341.386	435.25
341.614	420.25
341.842	424.25
342.07	411.25
342.298	449.25
342.526	419.25
342.754	421.25
342.981	417.25
343.209	432.25
343.437	426.25
343.665	419.25
343.893	437.25
344.12	453.25
344.348	456.25
344.576	433.25
344.804	440.25
345.031	451.25
345.259	446.25
345.487	454.25
345.714	445.25
345.942	403.25
346.17	419.25
346.397	407.25
346.625	428.25
346.853	420.25
347.08	395.25
347.308	420.25
347.535	419.25
347.763	426.25
347.99	404.25
348.218	417.25
348.445	441.25
348.673	433.25
348.9	416.25
349.128	417.25
349.355	393.25
349.583	421.25
349.81	412.25
350.037	398.25
350.265	415.25
350.492	418.25
350.72	423.25
350.947	386.25
351.174	414.25
351.402	403.25
351.629	411.25
351.856	405.25
352.083	408.25
352.311	418.25
352.538	419.25
352.765	441.25
352.992	405.25
353.22	405.25
353.447	397.25
353.674	418.25
353.901	411.25
354.128	407.25
354.355	386.25
354.583	407.25
354.81	402.25
355.037	384.25
355.264	410.25
355.491	395.25
355.718	409.25
355.945	412.25
356.172	371.25
356.399	399.25
356.626	395.25
356.853	388.25
357.08	397.25
357.307	399.25
357.534	396.25
357.761	389.25
357.988	398.25
358.215	401.25
358.441	402.25
358.668	411.25
358.895	394.25
359.122	414.25
359.349	414.25
359.576	434.25
359.802	446.25
360.029	455.25
360.256	459.25
360.483	436.25
360.709	410.25
360.936	423.25
361.163	398.25
361.39	420.25
361.616	417.25
361.843	418.25
362.07	419.25
362.296	400.25
362.523	417.25
362.749	434.25
362.976	407.25
363.203	409.25
363.429	399.25
363.656	387.25
363.882	429.25
364.109	413.25
364.335	413.25
364.562	404.25
364.788	412.25
365.015	403.25
365.241	395.25
365.468	417.25
365.694	417.25
365.92	407.25
366.147	403.25
366.373	402.25
366.599	421.25
366.826	388.25
367.052	385.25
367.278	395.25
367.505	415.25
367.731	409.25
367.957	417.25
368.184	410.25
368.41	417.25
368.636	430.25
368.862	420.25
369.089	412.25
369.315	414.25
369.541	403.25
369.767	402.25
369.993	412.25
370.219	418.25
370.445	413.25
370.672	424.25
370.898	411.25
371.124	434.25
371.35	417.25
371.576	409.25
371.802	399.25
372.028	413.25
372.254	413.25
372.48	406.25
372.706	403.25
372.932	448.25
373.158	423.25
373.384	436.25
373.61	400.25
373.835	429.25
374.061	419.25
374.287	429.25
374.513	427.25
374.739	417.25
374.965	417.25
375.191	441.25
375.416	434.25
375.642	402.25
375.868	435.25
376.094	417.25
376.319	405.25
376.545	412.25
376.771	404.25
376.997	400.25
377.222	417.25
377.448	410.25
377.674	401.25
377.899	411.25
378.125	404.25
378.35	417.25
378.576	427.25
378.802	424.25
379.027	421.25
379.253	410.25
379.478	418.25
379.704	419.25
379.929	415.25
380.155	422.25
380.38	404.25
380.606	425.25
380.831	433.25
381.057	423.25
381.282	413.25
381.507	423.25
381.733	419.25
381.958	418.25
382.184	442.25
382.409	417.25
382.634	409.25
382.86	428.25
383.085	441.25
383.31	445.25
383.535	450.25
383.761	431.25
383.986	430.25
384.211	456.25
384.436	461.25
384.662	444.25
384.887	458.25
385.112	447.25
385.337	457.25
385.562	460.25
385.787	433.25
386.013	458.25
386.238	471.25
386.463	468.25
386.688	477.25
386.913	474.25
387.138	459.25
387.363	442.25
387.588	466.25
387.813	480.25
388.038	467.25
388.263	458.25
388.488	454.25
388.713	471.25
388.938	478.25
389.163	462.25
389.387	463.25
389.612	440.25
389.837	447.25
390.062	456.25
390.287	467.25
390.512	443.25
390.736	442.25
390.961	483.25
391.186	471.25
391.411	479.25
391.636	476.25
391.86	489.25
392.085	509.25
392.31	502.25
392.534	482.25
392.759	500.25
392.984	470.25
393.208	468.25
393.433	454.25
393.658	469.25
393.882	476.25
394.107	458.25
394.331	487.25
394.556	500.25
394.78	486.25
395.005	509.25
395.229	493.25
395.454	515.25
395.678	502.25
395.903	514.25
396.127	535.25
396.352	504.25
396.576	485.25
396.801	483.25
397.025	481.25
397.249	501.25
397.474	489.25
397.698	533.25
397.922	539.25
398.147	535.25
398.371	535.25
398.595	523.25
398.82	525.25
399.044	564.25
399.268	567.25
399.492	610.25
399.717	665.25
399.941	705.25
400.165	683.25
400.389	683.25
400.613	628.25
400.837	599.25
401.062	578.25
401.286	573.25
401.51	552.25
401.734	541.25
401.958	533.25
402.182	567.25
402.406	570.25
402.63	570.25
402.854	539.25
403.078	560.25
403.302	569.25
403.526	586.25
403.75	567.25
403.974	598.25
404.198	581.25
404.422	565.25
404.645	566.25
404.869	586.25
405.093	599.25
405.317	654.25
405.541	699.25
405.765	635.25
405.988	609.25
406.212	591.25
406.436	623.25
406.66	620.25
406.883	627.25
407.107	628.25
407.331	652.25
407.555	736.25
407.778	739.25
408.002	685.25
408.226	651.25
408.449	619.25
408.673	611.25
408.896	639.25
409.12	673.25
409.344	629.25
409.567	586.25
409.791	580.25
410.014	577.25
410.238	567.25
410.461	569.25
410.685	577.25
410.908	566.25
411.132	614.25
411.355	655.25
411.578	629.25
411.802	574.25
412.025	553.25
412.249	579.25
412.472	597.25
412.695	618.25
412.919	621.25
413.142	586.25
413.365	552.25
413.589	543.25
413.812	536.25
414.035	536.25
414.258	536.25
414.482	534.25
414.705	540.25
414.928	532.25
415.151	541.25
415.374	548.25
415.597	551.25
415.821	538.25
416.044	528.25
416.267	543.25
416.49	527.25
416.713	529.25
416.936	547.25
417.159	558.25
417.382	538.25
417.605	537.25
417.828	539.25
418.051	551.25
418.274	564.25
418.497	532.25
418.72	522.25
418.943	534.25
419.166	569.25
419.389	595.25
419.611	587.25
419.834	567.25
420.057	571.25
420.28	554.25
420.503	564.25
420.726	558.25
420.948	567.25
421.171	587.25
421.394	635.25
421.617	603.25
421.839	568.25
422.062	573.25
422.285	591.25
422.507	620.25
422.73	697.25
422.953	670.25
423.175	595.25
423.398	579.25
423.621	577.25
423.843	579.25
424.066	564.25
424.288	589.25
424.511	611.25
424.733	646.25
424.956	725.25
425.178	715.25
425.401	693.25
425.623	697.25
425.846	621.25
426.068	590.25
426.291	579.25
426.513	572.25
426.735	593.25
426.958	618.25
427.18	695.25
427.402	807.25
427.625	890.25
427.847	776.25
428.069	683.25
428.292	617.25
428.514	594.25
428.736	555.25
428.958	543.25
429.181	541.25
429.403	532.25
429.625	534.25
429.847	556.25
430.069	652.25
430.292	654.25
430.514	569.25
430.736	539.25
430.958	537.25
431.18	526.25
431.402	502.25
431.624	496.25
431.846	514.25
432.068	498.25
432.29	527.25
432.512	526.25
432.734	538.25
432.956	524.25
433.178	526.25
433.4	522.25
433.622	517.25
433.844	532.25
434.066	507.25
434.287	519.25
434.509	524.25
434.731	531.25
434.953	550.25
435.175	566.25
435.397	583.25
435.618	595.25
435.84	616.25
436.062	696.25
436.284	767.25
436.505	665.25
436.727	599.25
436.949	551.25
437.17	521.25
437.392	530.25
437.614	534.25
437.835	559.25
438.057	642.25
438.278	748.25
438.5	771.25
438.721	817.25
438.943	814.25
439.165	615.25
439.386	581.25
439.608	571.25
439.829	579.25
440.05	586.25
440.272	645.25
440.493	617.25
440.715	565.25
440.936	572.25
441.158	544.25
441.379	543.25
441.6	571.25
441.822	582.25
442.043	614.25
442.264	671.25
442.486	722.25
442.707	626.25
442.928	597.25
443.149	588.25
443.371	628.25
443.592	667.25
443.813	748.25
444.034	838.25
444.255	677.25
444.476	621.25
444.698	638.25
444.919	596.25
445.14	743.25
445.361	675.25
445.582	603.25
445.803	672.25
446.024	747.25
446.245	772.25
446.466	707.25
446.687	626.25
446.908	598.25
447.129	548.25
447.35	528.25
447.571	532.25
447.792	514.25
448.013	527.25
448.234	562.25
448.455	587.25
448.675	679.25
448.896	791.25
449.117	679.25
449.338	655.25
449.559	775.25
449.779	850.25
450	707.25
450.221	589.25
450.442	521.25
450.662	514.25
450.883	520.25
451.104	535.25
451.324	528.25
451.545	505.25
451.766	513.25
451.986	490.25
452.207	457.25
452.428	467.25
452.648	478.25
452.869	476.25
453.089	469.25
453.31	528.25
453.53	499.25
453.751	480.25
453.971	507.25
454.192	504.25
454.412	478.25
454.633	463.25
454.853	468.25
455.073	483.25
455.294	497.25
455.514	535.25
455.734	547.25
455.955	473.25
456.175	464.25
456.395	463.25
456.616	436.25
456.836	461.25
457.056	450.25
457.276	445.25
457.497	465.25
457.717	466.25
457.937	471.25
458.157	454.25
458.377	487.25
458.598	497.25
458.818	534.25
459.038	597.25
459.258	626.25
459.478	555.25
459.698	531.25
459.918	538.25
460.138	508.25
460.358	541.25
460.578	526.25
460.798	541.25
461.018	525.25
461.238	542.25
461.458	547.25
461.678	535.25
461.898	549.25
462.118	546.25
462.338	579.25
462.558	573.25
462.777	580.25
462.997	590.25
463.217	627.25
463.437	641.25
463.657	593.25
463.876	599.25
464.096	580.25
464.316	573.25
464.536	596.25
464.755	593.25
464.975	584.25
465.195	598.25
465.414	625.25
465.634	562.25
465.854	538.25
466.073	526.25
466.293	533.25
466.512	513.25
466.732	509.25
466.951	480.25
467.171	522.25
467.391	500.25
467.61	505.25
467.829	515.25
468.049	520.25
468.268	501.25
468.488	467.25
468.707	467.25
468.927	481.25
469.146	476.25
469.365	501.25
469.585	479.25
469.804	496.25
470.023	521.25
470.243	518.25
470.462	500.25
470.681	521.25
470.901	517.25
471.12	488.25
471.339	486.25
471.558	519.25
471.777	522.25
471.997	510.25
472.216	482.25
472.435	539.25
472.654	517.25
472.873	488.25
473.092	502.25
473.311	475.25
473.53	474.25
473.749	475.25
473.968	528.25
474.187	633.25
474.406	669.25
474.625	548.25
474.844	523.25
475.063	497.25
475.282	510.25
475.501	513.25
475.72	505.25
475.939	519.25
476.158	519.25
476.377	507.25
476.596	518.25
476.814	533.25
477.033	521.25
477.252	531.25
477.471	548.25
477.69	548.25
477.908	562.25
478.127	567.25
478.346	566.25
478.564	563.25
478.783	579.25
479.002	585.25
479.22	568.25
479.439	597.25
479.658	594.25
479.876	610.25
480.095	620.25
480.313	639.25
480.532	635.25
480.751	611.25
480.969	607.25
481.188	650.25
481.406	685.25
481.624	647.25
481.843	606.25
482.061	576.25
482.28	590.25
482.498	578.25
482.717	558.25
482.935	575.25
483.153	598.25
483.372	551.25
483.59	574.25
483.808	569.25
484.027	607.25
484.245	589.25
484.463	566.25
484.681	599.25
484.9	598.25
485.118	600.25
485.336	604.25
485.554	625.25
485.772	620.25
485.99	603.25
486.209	616.25
486.427	607.25
486.645	634.25
486.863	605.25
487.081	645.25
487.299	617.25
487.517	612.25
487.735	620.25
487.953	644.25
488.171	621.25
488.389	641.25
488.607	619.25
488.825	608.25
489.043	633.25
489.261	603.25
489.479	631.25
489.696	635.25
489.914	642.25
490.132	661.25
490.35	677.25
490.568	647.25
490.786	699.25
491.003	689.25
491.221	699.25
491.439	722.25
491.657	724.25
491.874	729.25
492.092	714.25
492.31	717.25
492.527	729.25
492.745	705.25
492.963	726.25
493.18	747.25
493.398	729.25
493.615	743.25
493.833	749.25
494.05	742.25
494.268	745.25
494.485	737.25
494.703	719.25
494.92	723.25
495.138	735.25
495.355	740.25
495.573	744.25
495.79	743.25
496.008	738.25
496.225	733.25
496.442	730.25
496.66	745.25
496.877	754.25
497.094	743.25
497.312	755.25
497.529	768.25
497.746	789.25
497.963	793.25
498.181	815.25
498.398	807.25
498.615	847.25
498.832	861.25
499.049	925.25
499.267	933.25
499.484	965.25
499.701	994.25
499.918	1062.25
500.135	1106.25
500.352	1180.25
500.569	1203.25
500.786	1232.25
501.003	1178.25
501.22	1144.25
501.437	1110.25
501.654	1037.25
