Data from 1975.PennyLincolnUp.Lamp.En5.5.200Scan.071719.P1.Changed Mount._HRD10591_15-56-14-858.txt Node
Date: Thu Jul 18 15:56:14 EDT 2019
User: cochatt
Spectrometer: HR+D1059
Trigger mode: 1
Integration Time (sec): 1.000000E-1
Scans to average: 1
Electric dark correction enabled: true
Nonlinearity correction enabled: false
Boxcar width: 0
XAxis mode: Wavelengths
Number of Pixels in Spectrum: 2048
>>>>>Begin Spectral Data<<<<<
223.165	-13.12
223.4	-13.12
223.635	-13.12
223.869	-14.12
224.104	-18.12
224.338	-10.12
224.573	-14.12
224.808	-17.12
225.042	-16.12
225.277	-8.12
225.511	-1.12
225.746	0.88
225.98	2.88
226.215	8.88
226.449	26.88
226.683	22.88
226.918	35.88
227.152	13.88
227.387	40.88
227.621	28.88
227.856	30.88
228.09	30.88
228.324	46.88
228.559	60.88
228.793	73.88
229.027	88.88
229.262	107.88
229.496	107.88
229.73	120.88
229.964	149.88
230.199	112.88
230.433	104.88
230.667	106.88
230.901	108.88
231.136	100.88
231.37	118.88
231.604	99.88
231.838	111.88
232.072	110.88
232.306	126.88
232.541	109.88
232.775	120.88
233.009	113.88
233.243	122.88
233.477	118.88
233.711	120.88
233.945	107.88
234.179	119.88
234.413	121.88
234.647	103.88
234.881	118.88
235.115	118.88
235.349	106.88
235.583	103.88
235.817	120.88
236.051	111.88
236.285	117.88
236.519	116.88
236.753	119.88
236.987	148.88
237.221	156.88
237.455	205.88
237.689	157.88
237.922	142.88
238.156	135.88
238.39	131.88
238.624	135.88
238.858	114.88
239.091	125.88
239.325	104.88
239.559	125.88
239.793	133.88
240.027	133.88
240.26	131.88
240.494	153.88
240.728	145.88
240.961	151.88
241.195	155.88
241.429	140.88
241.662	127.88
241.896	110.88
242.13	129.88
242.363	124.88
242.597	129.88
242.83	145.88
243.064	130.88
243.298	135.88
243.531	135.88
243.765	133.88
243.998	140.88
244.232	136.88
244.465	147.88
244.699	144.88
244.932	147.88
245.166	152.88
245.399	137.88
245.633	145.88
245.866	157.88
246.099	154.88
246.333	148.88
246.566	161.88
246.8	164.88
247.033	151.88
247.266	158.88
247.5	170.88
247.733	170.88
247.966	153.88
248.2	160.88
248.433	154.88
248.666	173.88
248.899	174.88
249.133	175.88
249.366	183.88
249.599	190.88
249.832	169.88
250.066	170.88
250.299	193.88
250.532	171.88
250.765	187.88
250.998	205.88
251.231	209.88
251.465	212.88
251.698	212.88
251.931	190.88
252.164	187.88
252.397	217.88
252.63	185.88
252.863	197.88
253.096	192.88
253.329	223.88
253.562	215.88
253.795	213.88
254.028	207.88
254.261	228.88
254.494	209.88
254.727	218.88
254.96	255.88
255.193	254.88
255.426	241.88
255.659	228.88
255.892	215.88
256.124	220.88
256.357	226.88
256.59	234.88
256.823	198.88
257.056	198.88
257.289	190.88
257.521	215.88
257.754	214.88
257.987	200.88
258.22	209.88
258.452	206.88
258.685	208.88
258.918	215.88
259.151	204.88
259.383	229.88
259.616	215.88
259.849	205.88
260.081	228.88
260.314	229.88
260.547	263.88
260.779	231.88
261.012	226.88
261.244	217.88
261.477	212.88
261.71	187.88
261.942	217.88
262.175	219.88
262.407	226.88
262.64	226.88
262.872	208.88
263.105	221.88
263.337	215.88
263.57	208.88
263.802	198.88
264.035	222.88
264.267	210.88
264.499	205.88
264.732	216.88
264.964	213.88
265.197	224.88
265.429	219.88
265.661	217.88
265.894	228.88
266.126	218.88
266.358	224.88
266.591	204.88
266.823	208.88
267.055	223.88
267.287	224.88
267.52	230.88
267.752	219.88
267.984	226.88
268.216	229.88
268.448	235.88
268.681	232.88
268.913	233.88
269.145	260.88
269.377	268.88
269.609	275.88
269.841	257.88
270.073	254.88
270.306	274.88
270.538	293.88
270.77	300.88
271.002	285.88
271.234	281.88
271.466	274.88
271.698	319.88
271.93	301.88
272.162	285.88
272.394	305.88
272.626	298.88
272.858	295.88
273.09	269.88
273.322	284.88
273.553	266.88
273.785	261.88
274.017	262.88
274.249	236.88
274.481	265.88
274.713	254.88
274.945	260.88
275.176	243.88
275.408	259.88
275.64	253.88
275.872	249.88
276.104	264.88
276.335	262.88
276.567	266.88
276.799	291.88
277.031	284.88
277.262	289.88
277.494	303.88
277.726	287.88
277.957	278.88
278.189	284.88
278.421	280.88
278.652	265.88
278.884	279.88
279.115	264.88
279.347	284.88
279.579	252.88
279.81	271.88
280.042	261.88
280.273	268.88
280.505	257.88
280.736	263.88
280.968	272.88
281.199	259.88
281.431	249.88
281.662	275.88
281.894	259.88
282.125	267.88
282.356	281.88
282.588	281.88
282.819	282.88
283.051	263.88
283.282	294.88
283.513	279.88
283.745	279.88
283.976	272.88
284.207	273.88
284.439	267.88
284.67	290.88
284.901	254.88
285.132	276.88
285.364	274.88
285.595	290.88
285.826	298.88
286.057	278.88
286.288	291.88
286.52	263.88
286.751	276.88
286.982	289.88
287.213	297.88
287.444	283.88
287.675	298.88
287.906	285.88
288.138	311.88
288.369	305.88
288.6	301.88
288.831	303.88
289.062	299.88
289.293	300.88
289.524	271.88
289.755	293.88
289.986	294.88
290.217	301.88
290.448	284.88
290.679	264.88
290.91	279.88
291.141	297.88
291.371	286.88
291.602	277.88
291.833	291.88
292.064	293.88
292.295	305.88
292.526	284.88
292.757	294.88
292.987	264.88
293.218	285.88
293.449	302.88
293.68	299.88
293.91	299.88
294.141	287.88
294.372	271.88
294.603	297.88
294.833	299.88
295.064	305.88
295.295	297.88
295.525	291.88
295.756	293.88
295.987	317.88
296.217	321.88
296.448	309.88
296.679	321.88
296.909	309.88
297.14	295.88
297.37	294.88
297.601	317.88
297.831	296.88
298.062	287.88
298.292	294.88
298.523	298.88
298.753	302.88
298.984	313.88
299.214	307.88
299.445	300.88
299.675	316.88
299.905	311.88
300.136	309.88
300.366	320.88
300.597	302.88
300.827	328.88
301.057	321.88
301.288	320.88
301.518	308.88
301.748	335.88
301.979	321.88
302.209	325.88
302.439	331.88
302.669	331.88
302.9	319.88
303.13	329.88
303.36	339.88
303.59	325.88
303.82	316.88
304.051	325.88
304.281	319.88
304.511	317.88
304.741	339.88
304.971	336.88
305.201	332.88
305.431	327.88
305.661	328.88
305.891	315.88
306.121	316.88
306.352	325.88
306.582	341.88
306.812	329.88
307.042	329.88
307.272	323.88
307.502	320.88
307.731	317.88
307.961	338.88
308.191	337.88
308.421	342.88
308.651	332.88
308.881	337.88
309.111	327.88
309.341	308.88
309.571	353.88
309.8	344.88
310.03	352.88
310.26	360.88
310.49	346.88
310.72	346.88
310.949	389.88
311.179	366.88
311.409	364.88
311.639	374.88
311.868	359.88
312.098	352.88
312.328	366.88
312.557	363.88
312.787	360.88
313.017	366.88
313.246	391.88
313.476	357.88
313.706	377.88
313.935	381.88
314.165	384.88
314.394	377.88
314.624	364.88
314.853	359.88
315.083	370.88
315.312	365.88
315.542	360.88
315.771	375.88
316.001	374.88
316.23	351.88
316.46	362.88
316.689	369.88
316.919	354.88
317.148	389.88
317.377	374.88
317.607	362.88
317.836	367.88
318.065	366.88
318.295	365.88
318.524	366.88
318.753	358.88
318.983	349.88
319.212	361.88
319.441	372.88
319.67	376.88
319.9	379.88
320.129	369.88
320.358	358.88
320.587	364.88
320.816	379.88
321.046	375.88
321.275	385.88
321.504	369.88
321.733	389.88
321.962	394.88
322.191	402.88
322.42	394.88
322.649	415.88
322.878	389.88
323.108	424.88
323.337	423.88
323.566	440.88
323.795	449.88
324.024	493.88
324.253	543.88
324.482	753.88
324.71	1132.88
324.939	1660.88
325.168	1417.88
325.397	746.88
325.626	538.88
325.855	485.88
326.084	460.88
326.313	440.88
326.542	446.88
326.77	474.88
326.999	520.88
327.228	708.88
327.457	1018.88
327.686	1265.88
327.914	851.88
328.143	570.88
328.372	527.88
328.6	517.88
328.829	491.88
329.058	505.88
329.287	507.88
329.515	485.88
329.744	453.88
329.972	482.88
330.201	469.88
330.43	501.88
330.658	535.88
330.887	553.88
331.115	513.88
331.344	458.88
331.572	436.88
331.801	444.88
332.03	448.88
332.258	429.88
332.486	426.88
332.715	411.88
332.943	442.88
333.172	458.88
333.4	461.88
333.629	473.88
333.857	468.88
334.085	471.88
334.314	487.88
334.542	542.88
334.771	523.88
334.999	499.88
335.227	457.88
335.455	480.88
335.684	450.88
335.912	464.88
336.14	464.88
336.369	461.88
336.597	457.88
336.825	450.88
337.053	421.88
337.281	435.88
337.51	415.88
337.738	417.88
337.966	443.88
338.194	453.88
338.422	455.88
338.65	438.88
338.878	420.88
339.106	424.88
339.334	425.88
339.562	422.88
339.79	436.88
340.018	414.88
340.246	425.88
340.474	411.88
340.702	420.88
340.93	414.88
341.158	421.88
341.386	430.88
341.614	427.88
341.842	417.88
342.07	421.88
342.298	409.88
342.526	413.88
342.754	408.88
342.981	405.88
343.209	419.88
343.437	441.88
343.665	435.88
343.893	414.88
344.12	468.88
344.348	448.88
344.576	438.88
344.804	451.88
345.031	443.88
345.259	455.88
345.487	442.88
345.714	423.88
345.942	400.88
346.17	410.88
346.397	394.88
346.625	417.88
346.853	405.88
347.08	419.88
347.308	394.88
347.535	414.88
347.763	424.88
347.99	397.88
348.218	425.88
348.445	392.88
348.673	427.88
348.9	402.88
349.128	400.88
349.355	395.88
349.583	395.88
349.81	405.88
350.037	407.88
350.265	389.88
350.492	412.88
350.72	413.88
350.947	399.88
351.174	427.88
351.402	426.88
351.629	404.88
351.856	425.88
352.083	392.88
352.311	415.88
352.538	418.88
352.765	409.88
352.992	417.88
353.22	413.88
353.447	411.88
353.674	401.88
353.901	410.88
354.128	386.88
354.355	399.88
354.583	395.88
354.81	409.88
355.037	375.88
355.264	389.88
355.491	408.88
355.718	384.88
355.945	376.88
356.172	373.88
356.399	380.88
356.626	392.88
356.853	397.88
357.08	407.88
357.307	393.88
357.534	393.88
357.761	380.88
357.988	389.88
358.215	395.88
358.441	390.88
358.668	393.88
358.895	401.88
359.122	409.88
359.349	389.88
359.576	379.88
359.802	409.88
360.029	429.88
360.256	439.88
360.483	419.88
360.709	400.88
360.936	407.88
361.163	417.88
361.39	383.88
361.616	399.88
361.843	388.88
362.07	400.88
362.296	396.88
362.523	413.88
362.749	420.88
362.976	401.88
363.203	396.88
363.429	398.88
363.656	390.88
363.882	390.88
364.109	380.88
364.335	401.88
364.562	390.88
364.788	411.88
365.015	410.88
365.241	401.88
365.468	383.88
365.694	397.88
365.92	405.88
366.147	383.88
366.373	407.88
366.599	370.88
366.826	393.88
367.052	399.88
367.278	415.88
367.505	387.88
367.731	407.88
367.957	403.88
368.184	383.88
368.41	422.88
368.636	428.88
368.862	419.88
369.089	407.88
369.315	410.88
369.541	425.88
369.767	391.88
369.993	401.88
370.219	396.88
370.445	401.88
370.672	397.88
370.898	395.88
371.124	402.88
371.35	392.88
371.576	410.88
371.802	400.88
372.028	414.88
372.254	403.88
372.48	419.88
372.706	418.88
372.932	431.88
373.158	396.88
373.384	409.88
373.61	416.88
373.835	422.88
374.061	433.88
374.287	417.88
374.513	426.88
374.739	427.88
374.965	429.88
375.191	420.88
375.416	416.88
375.642	431.88
375.868	435.88
376.094	410.88
376.319	421.88
376.545	429.88
376.771	408.88
376.997	412.88
377.222	412.88
377.448	428.88
377.674	394.88
377.899	403.88
378.125	397.88
378.35	405.88
378.576	392.88
378.802	397.88
379.027	415.88
379.253	420.88
379.478	400.88
379.704	409.88
379.929	397.88
380.155	402.88
380.38	398.88
380.606	439.88
380.831	398.88
381.057	423.88
381.282	417.88
381.507	417.88
381.733	418.88
381.958	411.88
382.184	422.88
382.409	424.88
382.634	423.88
382.86	420.88
383.085	405.88
383.31	424.88
383.535	420.88
383.761	429.88
383.986	443.88
384.211	434.88
384.436	452.88
384.662	459.88
384.887	460.88
385.112	453.88
385.337	473.88
385.562	462.88
385.787	454.88
386.013	458.88
386.238	472.88
386.463	454.88
386.688	430.88
386.913	463.88
387.138	439.88
387.363	472.88
387.588	445.88
387.813	463.88
388.038	463.88
388.263	472.88
388.488	474.88
388.713	449.88
388.938	448.88
389.163	438.88
389.387	467.88
389.612	467.88
389.837	468.88
390.062	470.88
390.287	471.88
390.512	474.88
390.736	445.88
390.961	454.88
391.186	441.88
391.411	475.88
391.636	478.88
391.86	461.88
392.085	482.88
392.31	486.88
392.534	482.88
392.759	480.88
392.984	473.88
393.208	456.88
393.433	449.88
393.658	471.88
393.882	470.88
394.107	467.88
394.331	475.88
394.556	461.88
394.78	472.88
395.005	467.88
395.229	483.88
395.454	485.88
395.678	474.88
395.903	487.88
396.127	525.88
396.352	512.88
396.576	511.88
396.801	501.88
397.025	469.88
397.249	499.88
397.474	491.88
397.698	505.88
397.922	511.88
398.147	511.88
398.371	528.88
398.595	529.88
398.82	538.88
399.044	539.88
399.268	537.88
399.492	605.88
399.717	654.88
399.941	679.88
400.165	679.88
400.389	667.88
400.613	610.88
400.837	569.88
401.062	559.88
401.286	561.88
401.51	541.88
401.734	513.88
401.958	546.88
402.182	546.88
402.406	570.88
402.63	580.88
402.854	559.88
403.078	556.88
403.302	579.88
403.526	565.88
403.75	574.88
403.974	558.88
404.198	529.88
404.422	564.88
404.645	556.88
404.869	571.88
405.093	595.88
405.317	599.88
405.541	678.88
405.765	634.88
405.988	604.88
406.212	587.88
406.436	617.88
406.66	610.88
406.883	607.88
407.107	599.88
407.331	670.88
407.555	730.88
407.778	728.88
408.002	674.88
408.226	626.88
408.449	618.88
408.673	599.88
408.896	661.88
409.12	676.88
409.344	638.88
409.567	593.88
409.791	579.88
410.014	571.88
410.238	554.88
410.461	569.88
410.685	547.88
410.908	575.88
411.132	609.88
411.355	645.88
411.578	617.88
411.802	574.88
412.025	575.88
412.249	582.88
412.472	604.88
412.695	629.88
412.919	606.88
413.142	569.88
413.365	545.88
413.589	542.88
413.812	529.88
414.035	555.88
414.258	568.88
414.482	549.88
414.705	547.88
414.928	537.88
415.151	530.88
415.374	534.88
415.597	516.88
415.821	533.88
416.044	539.88
416.267	543.88
416.49	549.88
416.713	519.88
416.936	547.88
417.159	515.88
417.382	521.88
417.605	536.88
417.828	550.88
418.051	557.88
418.274	546.88
418.497	519.88
418.72	532.88
418.943	545.88
419.166	560.88
419.389	593.88
419.611	579.88
419.834	572.88
420.057	562.88
420.28	586.88
420.503	545.88
420.726	563.88
420.948	557.88
421.171	606.88
421.394	619.88
421.617	573.88
421.839	565.88
422.062	531.88
422.285	553.88
422.507	611.88
422.73	703.88
422.953	633.88
423.175	569.88
423.398	595.88
423.621	579.88
423.843	596.88
424.066	605.88
424.288	595.88
424.511	613.88
424.733	645.88
424.956	727.88
425.178	683.88
425.401	693.88
425.623	710.88
425.846	604.88
426.068	575.88
426.291	593.88
426.513	574.88
426.735	576.88
426.958	608.88
427.18	671.88
427.402	815.88
427.625	913.88
427.847	759.88
428.069	660.88
428.292	605.88
428.514	550.88
428.736	559.88
428.958	552.88
429.181	527.88
429.403	517.88
429.625	533.88
429.847	562.88
430.069	617.88
430.292	626.88
430.514	552.88
430.736	518.88
430.958	542.88
431.18	509.88
431.402	528.88
431.624	512.88
431.846	531.88
432.068	536.88
432.29	505.88
432.512	490.88
432.734	499.88
432.956	523.88
433.178	514.88
433.4	520.88
433.622	486.88
433.844	512.88
434.066	514.88
434.287	502.88
434.509	520.88
434.731	512.88
434.953	537.88
435.175	563.88
435.397	577.88
435.618	582.88
435.84	597.88
436.062	703.88
436.284	805.88
436.505	649.88
436.727	579.88
436.949	543.88
437.17	501.88
437.392	523.88
437.614	557.88
437.835	553.88
438.057	627.88
438.278	739.88
438.5	741.88
438.721	805.88
438.943	800.88
439.165	636.88
439.386	593.88
439.608	574.88
439.829	558.88
440.05	583.88
440.272	664.88
440.493	569.88
440.715	572.88
440.936	544.88
441.158	539.88
441.379	540.88
441.6	533.88
441.822	578.88
442.043	602.88
442.264	692.88
442.486	743.88
442.707	621.88
442.928	587.88
443.149	603.88
443.371	607.88
443.592	636.88
443.813	719.88
444.034	821.88
444.255	674.88
444.476	612.88
444.698	602.88
444.919	619.88
445.14	693.88
445.361	635.88
445.582	614.88
445.803	664.88
446.024	740.88
446.245	780.88
446.466	691.88
446.687	602.88
446.908	580.88
447.129	547.88
447.35	531.88
447.571	537.88
447.792	523.88
448.013	525.88
448.234	536.88
448.455	575.88
448.675	714.88
448.896	809.88
449.117	672.88
449.338	638.88
449.559	758.88
449.779	856.88
450	667.88
450.221	560.88
450.442	549.88
450.662	509.88
450.883	527.88
451.104	541.88
451.324	480.88
451.545	487.88
451.766	497.88
451.986	449.88
452.207	477.88
452.428	460.88
452.648	457.88
452.869	484.88
453.089	462.88
453.31	481.88
453.53	472.88
453.751	466.88
453.971	434.88
454.192	472.88
454.412	469.88
454.633	450.88
454.853	481.88
455.073	465.88
455.294	461.88
455.514	540.88
455.734	537.88
455.955	472.88
456.175	457.88
456.395	463.88
456.616	453.88
456.836	447.88
457.056	422.88
457.276	450.88
457.497	433.88
457.717	433.88
457.937	455.88
458.157	459.88
458.377	443.88
458.598	482.88
458.818	522.88
459.038	582.88
459.258	619.88
459.478	555.88
459.698	517.88
459.918	515.88
460.138	502.88
460.358	521.88
460.578	526.88
460.798	535.88
461.018	553.88
461.238	528.88
461.458	550.88
461.678	534.88
461.898	557.88
462.118	534.88
462.338	551.88
462.558	555.88
462.777	554.88
462.997	594.88
463.217	619.88
463.437	600.88
463.657	591.88
463.876	601.88
464.096	583.88
464.316	577.88
464.536	578.88
464.755	580.88
464.975	567.88
465.195	587.88
465.414	629.88
465.634	554.88
465.854	526.88
466.073	520.88
466.293	500.88
466.512	497.88
466.732	465.88
466.951	501.88
467.171	495.88
467.391	483.88
467.61	489.88
467.829	481.88
468.049	488.88
468.268	474.88
468.488	472.88
468.707	485.88
468.927	467.88
469.146	478.88
469.365	469.88
469.585	484.88
469.804	469.88
470.023	508.88
470.243	491.88
470.462	490.88
470.681	509.88
470.901	481.88
471.12	495.88
471.339	499.88
471.558	494.88
471.777	496.88
471.997	500.88
472.216	498.88
472.435	526.88
472.654	522.88
472.873	509.88
473.092	471.88
473.311	489.88
473.53	483.88
473.749	490.88
473.968	497.88
474.187	621.88
474.406	630.88
474.625	537.88
474.844	493.88
475.063	499.88
475.282	499.88
475.501	465.88
475.72	513.88
475.939	501.88
476.158	515.88
476.377	533.88
476.596	487.88
476.814	507.88
477.033	515.88
477.252	553.88
477.471	503.88
477.69	525.88
477.908	546.88
478.127	549.88
478.346	551.88
478.564	554.88
478.783	544.88
479.002	572.88
479.22	563.88
479.439	556.88
479.658	589.88
479.876	581.88
480.095	569.88
480.313	630.88
480.532	603.88
480.751	605.88
480.969	617.88
481.188	666.88
481.406	692.88
481.624	609.88
481.843	615.88
482.061	567.88
482.28	580.88
482.498	596.88
482.717	568.88
482.935	572.88
483.153	577.88
483.372	568.88
483.59	573.88
483.808	568.88
484.027	561.88
484.245	597.88
484.463	568.88
484.681	598.88
484.9	601.88
485.118	596.88
485.336	590.88
485.554	580.88
485.772	611.88
485.99	611.88
486.209	607.88
486.427	594.88
486.645	598.88
486.863	625.88
487.081	614.88
487.299	603.88
487.517	621.88
487.735	630.88
487.953	600.88
488.171	605.88
488.389	610.88
488.607	599.88
488.825	614.88
489.043	600.88
489.261	629.88
489.479	641.88
489.696	627.88
489.914	627.88
490.132	642.88
490.35	653.88
490.568	637.88
490.786	675.88
491.003	643.88
491.221	682.88
491.439	678.88
491.657	684.88
491.874	699.88
492.092	708.88
492.31	737.88
492.527	732.88
492.745	709.88
492.963	724.88
493.18	738.88
493.398	756.88
493.615	724.88
493.833	730.88
494.05	723.88
494.268	710.88
494.485	701.88
494.703	705.88
494.92	716.88
495.138	737.88
495.355	715.88
495.573	727.88
495.79	725.88
496.008	729.88
496.225	734.88
496.442	757.88
496.66	743.88
496.877	721.88
497.094	749.88
497.312	734.88
497.529	764.88
497.746	776.88
497.963	781.88
498.181	781.88
498.398	811.88
498.615	843.88
498.832	876.88
499.049	889.88
499.267	888.88
499.484	939.88
499.701	1026.88
499.918	1027.88
500.135	1086.88
500.352	1128.88
500.569	1155.88
500.786	1192.88
501.003	1159.88
501.22	1137.88
501.437	1046.88
501.654	1015.88
