Data from 1975.PennyLincolnUp.Lamp.En5.5.200Scan.071719.P1.Changed Mount._HRD10591_15-57-00-859.txt Node
Date: Thu Jul 18 15:57:00 EDT 2019
User: cochatt
Spectrometer: HR+D1059
Trigger mode: 1
Integration Time (sec): 1.000000E-1
Scans to average: 1
Electric dark correction enabled: true
Nonlinearity correction enabled: false
Boxcar width: 0
XAxis mode: Wavelengths
Number of Pixels in Spectrum: 2048
>>>>>Begin Spectral Data<<<<<
223.165	-17.81
223.4	-17.81
223.635	-17.81
223.869	-12.81
224.104	-11.81
224.338	-19.81
224.573	-25.81
224.808	0.19
225.042	0.19
225.277	-5.81
225.511	0.19
225.746	-0.81
225.98	-6.81
226.215	10.19
226.449	5.19
226.683	24.19
226.918	28.19
227.152	33.19
227.387	16.19
227.621	38.19
227.856	52.19
228.09	62.19
228.324	42.19
228.559	50.19
228.793	73.19
229.027	91.19
229.262	98.19
229.496	115.19
229.73	116.19
229.964	141.19
230.199	116.19
230.433	110.19
230.667	116.19
230.901	112.19
231.136	102.19
231.37	127.19
231.604	100.19
231.838	101.19
232.072	124.19
232.306	127.19
232.541	100.19
232.775	120.19
233.009	114.19
233.243	113.19
233.477	120.19
233.711	117.19
233.945	118.19
234.179	123.19
234.413	121.19
234.647	114.19
234.881	134.19
235.115	113.19
235.349	138.19
235.583	111.19
235.817	116.19
236.051	115.19
236.285	121.19
236.519	124.19
236.753	134.19
236.987	132.19
237.221	180.19
237.455	240.19
237.689	185.19
237.922	159.19
238.156	145.19
238.39	120.19
238.624	127.19
238.858	128.19
239.091	108.19
239.325	132.19
239.559	130.19
239.793	123.19
240.027	126.19
240.26	145.19
240.494	161.19
240.728	156.19
240.961	148.19
241.195	151.19
241.429	118.19
241.662	138.19
241.896	131.19
242.13	140.19
242.363	139.19
242.597	130.19
242.83	149.19
243.064	140.19
243.298	152.19
243.531	146.19
243.765	158.19
243.998	148.19
244.232	139.19
244.465	150.19
244.699	146.19
244.932	166.19
245.166	129.19
245.399	133.19
245.633	155.19
245.866	144.19
246.099	156.19
246.333	138.19
246.566	150.19
246.8	145.19
247.033	163.19
247.266	154.19
247.5	174.19
247.733	172.19
247.966	189.19
248.2	176.19
248.433	171.19
248.666	176.19
248.899	185.19
249.133	200.19
249.366	212.19
249.599	196.19
249.832	184.19
250.066	169.19
250.299	176.19
250.532	175.19
250.765	217.19
250.998	204.19
251.231	237.19
251.465	221.19
251.698	211.19
251.931	203.19
252.164	193.19
252.397	200.19
252.63	194.19
252.863	221.19
253.096	206.19
253.329	222.19
253.562	221.19
253.795	220.19
254.028	210.19
254.261	228.19
254.494	201.19
254.727	245.19
254.96	275.19
255.193	275.19
255.426	252.19
255.659	240.19
255.892	238.19
256.124	234.19
256.357	246.19
256.59	230.19
256.823	227.19
257.056	215.19
257.289	221.19
257.521	227.19
257.754	202.19
257.987	203.19
258.22	220.19
258.452	206.19
258.685	217.19
258.918	226.19
259.151	221.19
259.383	220.19
259.616	217.19
259.849	212.19
260.081	234.19
260.314	242.19
260.547	237.19
260.779	249.19
261.012	247.19
261.244	221.19
261.477	231.19
261.71	211.19
261.942	229.19
262.175	226.19
262.407	218.19
262.64	227.19
262.872	212.19
263.105	231.19
263.337	214.19
263.57	227.19
263.802	219.19
264.035	226.19
264.267	214.19
264.499	214.19
264.732	221.19
264.964	206.19
265.197	208.19
265.429	210.19
265.661	221.19
265.894	211.19
266.126	220.19
266.358	216.19
266.591	203.19
266.823	226.19
267.055	221.19
267.287	225.19
267.52	234.19
267.752	245.19
267.984	243.19
268.216	237.19
268.448	243.19
268.681	250.19
268.913	253.19
269.145	263.19
269.377	302.19
269.609	285.19
269.841	274.19
270.073	283.19
270.306	286.19
270.538	298.19
270.77	316.19
271.002	301.19
271.234	286.19
271.466	299.19
271.698	304.19
271.93	316.19
272.162	313.19
272.394	305.19
272.626	304.19
272.858	295.19
273.09	288.19
273.322	272.19
273.553	274.19
273.785	276.19
274.017	269.19
274.249	285.19
274.481	274.19
274.713	265.19
274.945	291.19
275.176	269.19
275.408	284.19
275.64	261.19
275.872	269.19
276.104	257.19
276.335	276.19
276.567	266.19
276.799	280.19
277.031	312.19
277.262	316.19
277.494	320.19
277.726	299.19
277.957	278.19
278.189	291.19
278.421	308.19
278.652	280.19
278.884	276.19
279.115	266.19
279.347	280.19
279.579	264.19
279.81	264.19
280.042	281.19
280.273	288.19
280.505	281.19
280.736	284.19
280.968	274.19
281.199	282.19
281.431	292.19
281.662	281.19
281.894	285.19
282.125	271.19
282.356	276.19
282.588	308.19
282.819	295.19
283.051	300.19
283.282	277.19
283.513	286.19
283.745	289.19
283.976	298.19
284.207	289.19
284.439	285.19
284.67	299.19
284.901	285.19
285.132	283.19
285.364	280.19
285.595	289.19
285.826	284.19
286.057	291.19
286.288	276.19
286.52	292.19
286.751	270.19
286.982	278.19
287.213	291.19
287.444	309.19
287.675	300.19
287.906	301.19
288.138	310.19
288.369	313.19
288.6	317.19
288.831	310.19
289.062	299.19
289.293	316.19
289.524	301.19
289.755	304.19
289.986	317.19
290.217	322.19
290.448	315.19
290.679	316.19
290.91	310.19
291.141	296.19
291.371	304.19
291.602	300.19
291.833	300.19
292.064	287.19
292.295	290.19
292.526	314.19
292.757	310.19
292.987	304.19
293.218	295.19
293.449	312.19
293.68	324.19
293.91	312.19
294.141	314.19
294.372	287.19
294.603	294.19
294.833	310.19
295.064	296.19
295.295	311.19
295.525	323.19
295.756	309.19
295.987	323.19
296.217	310.19
296.448	329.19
296.679	316.19
296.909	311.19
297.14	310.19
297.37	316.19
297.601	313.19
297.831	306.19
298.062	321.19
298.292	312.19
298.523	322.19
298.753	329.19
298.984	317.19
299.214	313.19
299.445	314.19
299.675	315.19
299.905	327.19
300.136	318.19
300.366	321.19
300.597	346.19
300.827	325.19
301.057	334.19
301.288	342.19
301.518	358.19
301.748	332.19
301.979	343.19
302.209	342.19
302.439	352.19
302.669	338.19
302.9	329.19
303.13	340.19
303.36	345.19
303.59	346.19
303.82	354.19
304.051	352.19
304.281	326.19
304.511	344.19
304.741	341.19
304.971	331.19
305.201	340.19
305.431	347.19
305.661	333.19
305.891	333.19
306.121	354.19
306.352	363.19
306.582	349.19
306.812	343.19
307.042	331.19
307.272	336.19
307.502	356.19
307.731	339.19
307.961	340.19
308.191	337.19
308.421	349.19
308.651	329.19
308.881	354.19
309.111	343.19
309.341	344.19
309.571	361.19
309.8	365.19
310.03	342.19
310.26	378.19
310.49	363.19
310.72	363.19
310.949	379.19
311.179	389.19
311.409	381.19
311.639	364.19
311.868	376.19
312.098	391.19
312.328	375.19
312.557	395.19
312.787	399.19
313.017	381.19
313.246	385.19
313.476	388.19
313.706	397.19
313.935	368.19
314.165	389.19
314.394	416.19
314.624	405.19
314.853	398.19
315.083	379.19
315.312	380.19
315.542	379.19
315.771	380.19
316.001	369.19
316.23	370.19
316.46	361.19
316.689	386.19
316.919	398.19
317.148	363.19
317.377	402.19
317.607	386.19
317.836	386.19
318.065	397.19
318.295	370.19
318.524	368.19
318.753	389.19
318.983	366.19
319.212	380.19
319.441	379.19
319.67	388.19
319.9	382.19
320.129	381.19
320.358	376.19
320.587	403.19
320.816	402.19
321.046	374.19
321.275	384.19
321.504	399.19
321.733	399.19
321.962	414.19
322.191	420.19
322.42	429.19
322.649	405.19
322.878	414.19
323.108	419.19
323.337	448.19
323.566	482.19
323.795	491.19
324.024	517.19
324.253	596.19
324.482	829.19
324.71	1233.19
324.939	1831.19
325.168	1612.19
325.397	818.19
325.626	550.19
325.855	489.19
326.084	470.19
326.313	465.19
326.542	456.19
326.77	520.19
326.999	577.19
327.228	748.19
327.457	1120.19
327.686	1412.19
327.914	965.19
328.143	618.19
328.372	569.19
328.6	527.19
328.829	526.19
329.058	530.19
329.287	505.19
329.515	516.19
329.744	498.19
329.972	487.19
330.201	513.19
330.43	520.19
330.658	566.19
330.887	576.19
331.115	547.19
331.344	483.19
331.572	471.19
331.801	461.19
332.03	482.19
332.258	442.19
332.486	457.19
332.715	446.19
332.943	450.19
333.172	474.19
333.4	493.19
333.629	512.19
333.857	516.19
334.085	499.19
334.314	522.19
334.542	548.19
334.771	550.19
334.999	529.19
335.227	499.19
335.455	469.19
335.684	472.19
335.912	468.19
336.14	455.19
336.369	456.19
336.597	458.19
336.825	493.19
337.053	497.19
337.281	456.19
337.51	450.19
337.738	446.19
337.966	454.19
338.194	466.19
338.422	448.19
338.65	456.19
338.878	456.19
339.106	446.19
339.334	443.19
339.562	447.19
339.79	425.19
340.018	449.19
340.246	470.19
340.474	451.19
340.702	436.19
340.93	424.19
341.158	460.19
341.386	445.19
341.614	437.19
341.842	449.19
342.07	415.19
342.298	459.19
342.526	437.19
342.754	444.19
342.981	423.19
343.209	416.19
343.437	453.19
343.665	440.19
343.893	444.19
344.12	481.19
344.348	463.19
344.576	450.19
344.804	454.19
345.031	451.19
345.259	461.19
345.487	476.19
345.714	440.19
345.942	432.19
346.17	425.19
346.397	446.19
346.625	424.19
346.853	418.19
347.08	424.19
347.308	425.19
347.535	420.19
347.763	429.19
347.99	418.19
348.218	431.19
348.445	434.19
348.673	432.19
348.9	442.19
349.128	448.19
349.355	418.19
349.583	406.19
349.81	416.19
350.037	422.19
350.265	420.19
350.492	401.19
350.72	412.19
350.947	427.19
351.174	425.19
351.402	426.19
351.629	437.19
351.856	424.19
352.083	441.19
352.311	448.19
352.538	464.19
352.765	447.19
352.992	449.19
353.22	433.19
353.447	430.19
353.674	435.19
353.901	412.19
354.128	415.19
354.355	399.19
354.583	419.19
354.81	417.19
355.037	409.19
355.264	402.19
355.491	401.19
355.718	393.19
355.945	396.19
356.172	390.19
356.399	399.19
356.626	397.19
356.853	406.19
357.08	413.19
357.307	404.19
357.534	402.19
357.761	408.19
357.988	408.19
358.215	387.19
358.441	419.19
358.668	390.19
358.895	400.19
359.122	390.19
359.349	408.19
359.576	419.19
359.802	455.19
360.029	459.19
360.256	469.19
360.483	448.19
360.709	431.19
360.936	436.19
361.163	402.19
361.39	400.19
361.616	416.19
361.843	413.19
362.07	414.19
362.296	440.19
362.523	420.19
362.749	420.19
362.976	422.19
363.203	439.19
363.429	399.19
363.656	424.19
363.882	396.19
364.109	397.19
364.335	414.19
364.562	404.19
364.788	401.19
365.015	420.19
365.241	425.19
365.468	425.19
365.694	430.19
365.92	425.19
366.147	411.19
366.373	425.19
366.599	416.19
366.826	427.19
367.052	425.19
367.278	398.19
367.505	398.19
367.731	423.19
367.957	388.19
368.184	422.19
368.41	410.19
368.636	425.19
368.862	425.19
369.089	428.19
369.315	414.19
369.541	424.19
369.767	429.19
369.993	436.19
370.219	416.19
370.445	423.19
370.672	415.19
370.898	402.19
371.124	410.19
371.35	419.19
371.576	414.19
371.802	415.19
372.028	421.19
372.254	437.19
372.48	432.19
372.706	426.19
372.932	434.19
373.158	419.19
373.384	426.19
373.61	444.19
373.835	420.19
374.061	434.19
374.287	433.19
374.513	421.19
374.739	416.19
374.965	428.19
375.191	449.19
375.416	440.19
375.642	411.19
375.868	456.19
376.094	438.19
376.319	427.19
376.545	422.19
376.771	414.19
376.997	434.19
377.222	398.19
377.448	428.19
377.674	447.19
377.899	424.19
378.125	434.19
378.35	398.19
378.576	411.19
378.802	420.19
379.027	426.19
379.253	409.19
379.478	402.19
379.704	433.19
379.929	421.19
380.155	412.19
380.38	436.19
380.606	432.19
380.831	422.19
381.057	428.19
381.282	433.19
381.507	431.19
381.733	412.19
381.958	434.19
382.184	440.19
382.409	433.19
382.634	455.19
382.86	429.19
383.085	440.19
383.31	439.19
383.535	446.19
383.761	450.19
383.986	458.19
384.211	450.19
384.436	457.19
384.662	464.19
384.887	463.19
385.112	467.19
385.337	497.19
385.562	468.19
385.787	464.19
386.013	482.19
386.238	474.19
386.463	481.19
386.688	481.19
386.913	475.19
387.138	470.19
387.363	477.19
387.588	475.19
387.813	462.19
388.038	461.19
388.263	468.19
388.488	492.19
388.713	476.19
388.938	489.19
389.163	480.19
389.387	468.19
389.612	473.19
389.837	476.19
390.062	484.19
390.287	461.19
390.512	484.19
390.736	482.19
390.961	503.19
391.186	472.19
391.411	479.19
391.636	477.19
391.86	476.19
392.085	503.19
392.31	483.19
392.534	479.19
392.759	493.19
392.984	499.19
393.208	453.19
393.433	471.19
393.658	480.19
393.882	481.19
394.107	462.19
394.331	489.19
394.556	491.19
394.78	473.19
395.005	481.19
395.229	472.19
395.454	498.19
395.678	517.19
395.903	524.19
396.127	550.19
396.352	521.19
396.576	499.19
396.801	503.19
397.025	494.19
397.249	506.19
397.474	512.19
397.698	516.19
397.922	514.19
398.147	525.19
398.371	561.19
398.595	545.19
398.82	538.19
399.044	538.19
399.268	586.19
399.492	630.19
399.717	664.19
399.941	714.19
400.165	715.19
400.389	682.19
400.613	650.19
400.837	628.19
401.062	568.19
401.286	551.19
401.51	545.19
401.734	552.19
401.958	540.19
402.182	547.19
402.406	598.19
402.63	568.19
402.854	576.19
403.078	569.19
403.302	582.19
403.526	567.19
403.75	596.19
403.974	568.19
404.198	579.19
404.422	583.19
404.645	586.19
404.869	606.19
405.093	632.19
405.317	680.19
405.541	674.19
405.765	654.19
405.988	619.19
406.212	627.19
406.436	638.19
406.66	655.19
406.883	629.19
407.107	630.19
407.331	684.19
407.555	764.19
407.778	774.19
408.002	686.19
408.226	642.19
408.449	662.19
408.673	626.19
408.896	636.19
409.12	709.19
409.344	655.19
409.567	619.19
409.791	620.19
410.014	607.19
410.238	577.19
410.461	582.19
410.685	593.19
410.908	561.19
411.132	638.19
411.355	666.19
411.578	641.19
411.802	584.19
412.025	586.19
412.249	589.19
412.472	614.19
412.695	666.19
412.919	637.19
413.142	620.19
413.365	579.19
413.589	562.19
413.812	544.19
414.035	568.19
414.258	566.19
414.482	544.19
414.705	537.19
414.928	543.19
415.151	562.19
415.374	552.19
415.597	546.19
415.821	549.19
416.044	555.19
416.267	556.19
416.49	539.19
416.713	554.19
416.936	553.19
417.159	543.19
417.382	546.19
417.605	539.19
417.828	562.19
418.051	588.19
418.274	552.19
418.497	544.19
418.72	553.19
418.943	565.19
419.166	584.19
419.389	596.19
419.611	602.19
419.834	589.19
420.057	554.19
420.28	572.19
420.503	587.19
420.726	565.19
420.948	574.19
421.171	605.19
421.394	661.19
421.617	603.19
421.839	570.19
422.062	572.19
422.285	554.19
422.507	637.19
422.73	708.19
422.953	692.19
423.175	618.19
423.398	594.19
423.621	596.19
423.843	646.19
424.066	626.19
424.288	608.19
424.511	628.19
424.733	688.19
424.956	760.19
425.178	728.19
425.401	711.19
425.623	744.19
425.846	642.19
426.068	610.19
426.291	596.19
426.513	580.19
426.735	603.19
426.958	644.19
427.18	743.19
427.402	830.19
427.625	936.19
427.847	804.19
428.069	712.19
428.292	650.19
428.514	595.19
428.736	585.19
428.958	578.19
429.181	564.19
429.403	549.19
429.625	575.19
429.847	601.19
430.069	686.19
430.292	645.19
430.514	578.19
430.736	566.19
430.958	562.19
431.18	540.19
431.402	532.19
431.624	531.19
431.846	523.19
432.068	522.19
432.29	514.19
432.512	530.19
432.734	544.19
432.956	550.19
433.178	571.19
433.4	533.19
433.622	530.19
433.844	524.19
434.066	544.19
434.287	504.19
434.509	514.19
434.731	570.19
434.953	577.19
435.175	572.19
435.397	627.19
435.618	606.19
435.84	620.19
436.062	717.19
436.284	801.19
436.505	691.19
436.727	628.19
436.949	582.19
437.17	558.19
437.392	564.19
437.614	574.19
437.835	585.19
438.057	677.19
438.278	802.19
438.5	790.19
438.721	892.19
438.943	855.19
439.165	652.19
439.386	608.19
439.608	599.19
439.829	602.19
440.05	617.19
440.272	665.19
440.493	613.19
440.715	597.19
440.936	598.19
441.158	589.19
441.379	580.19
441.6	582.19
441.822	580.19
442.043	644.19
442.264	692.19
442.486	772.19
442.707	669.19
442.928	618.19
443.149	640.19
443.371	621.19
443.592	699.19
443.813	777.19
444.034	888.19
444.255	725.19
444.476	645.19
444.698	633.19
444.919	620.19
445.14	739.19
445.361	701.19
445.582	646.19
445.803	688.19
446.024	792.19
446.245	808.19
446.466	738.19
446.687	635.19
446.908	596.19
447.129	579.19
447.35	565.19
447.571	547.19
447.792	540.19
448.013	545.19
448.234	574.19
448.455	603.19
448.675	709.19
448.896	827.19
449.117	714.19
449.338	681.19
449.559	786.19
449.779	868.19
450	699.19
450.221	613.19
450.442	516.19
450.662	534.19
450.883	544.19
451.104	549.19
451.324	527.19
451.545	519.19
451.766	496.19
451.986	502.19
452.207	489.19
452.428	492.19
452.648	493.19
452.869	481.19
453.089	485.19
453.31	517.19
453.53	491.19
453.751	491.19
453.971	489.19
454.192	483.19
454.412	475.19
454.633	476.19
454.853	481.19
455.073	479.19
455.294	508.19
455.514	572.19
455.734	571.19
455.955	497.19
456.175	454.19
456.395	466.19
456.616	447.19
456.836	465.19
457.056	464.19
457.276	445.19
457.497	482.19
457.717	469.19
457.937	475.19
458.157	465.19
458.377	464.19
458.598	503.19
458.818	533.19
459.038	621.19
459.258	646.19
459.478	561.19
459.698	532.19
459.918	543.19
460.138	525.19
460.358	543.19
460.578	555.19
460.798	549.19
461.018	554.19
461.238	549.19
461.458	552.19
461.678	542.19
461.898	574.19
462.118	588.19
462.338	576.19
462.558	557.19
462.777	578.19
462.997	639.19
463.217	619.19
463.437	631.19
463.657	603.19
463.876	581.19
464.096	576.19
464.316	600.19
464.536	631.19
464.755	598.19
464.975	590.19
465.195	628.19
465.414	640.19
465.634	587.19
465.854	564.19
466.073	552.19
466.293	522.19
466.512	499.19
466.732	510.19
466.951	514.19
467.171	532.19
467.391	530.19
467.61	532.19
467.829	526.19
468.049	538.19
468.268	529.19
468.488	521.19
468.707	501.19
468.927	485.19
469.146	489.19
469.365	490.19
469.585	487.19
469.804	515.19
470.023	528.19
470.243	519.19
470.462	519.19
470.681	533.19
470.901	526.19
471.12	520.19
471.339	526.19
471.558	503.19
471.777	526.19
471.997	514.19
472.216	497.19
472.435	542.19
472.654	540.19
472.873	511.19
473.092	490.19
473.311	514.19
473.53	502.19
473.749	500.19
473.968	550.19
474.187	643.19
474.406	678.19
474.625	550.19
474.844	515.19
475.063	507.19
475.282	521.19
475.501	503.19
475.72	504.19
475.939	507.19
476.158	536.19
476.377	521.19
476.596	524.19
476.814	538.19
477.033	541.19
477.252	534.19
477.471	533.19
477.69	558.19
477.908	554.19
478.127	564.19
478.346	575.19
478.564	578.19
478.783	574.19
479.002	572.19
479.22	600.19
479.439	606.19
479.658	629.19
479.876	611.19
480.095	622.19
480.313	659.19
480.532	670.19
480.751	648.19
480.969	636.19
481.188	697.19
481.406	713.19
481.624	657.19
481.843	642.19
482.061	617.19
482.28	617.19
482.498	597.19
482.717	572.19
482.935	592.19
483.153	634.19
483.372	570.19
483.59	604.19
483.808	612.19
484.027	600.19
484.245	593.19
484.463	620.19
484.681	595.19
484.9	602.19
485.118	615.19
485.336	616.19
485.554	595.19
485.772	598.19
485.99	620.19
486.209	604.19
486.427	630.19
486.645	608.19
486.863	650.19
487.081	643.19
487.299	624.19
487.517	650.19
487.735	639.19
487.953	626.19
488.171	647.19
488.389	636.19
488.607	633.19
488.825	642.19
489.043	638.19
489.261	681.19
489.479	676.19
489.696	660.19
489.914	647.19
490.132	648.19
490.35	663.19
490.568	677.19
490.786	711.19
491.003	705.19
491.221	718.19
491.439	725.19
491.657	747.19
491.874	736.19
492.092	738.19
492.31	769.19
492.527	778.19
492.745	763.19
492.963	740.19
493.18	774.19
493.398	780.19
493.615	788.19
493.833	788.19
494.05	737.19
494.268	796.19
494.485	754.19
494.703	756.19
494.92	734.19
495.138	727.19
495.355	790.19
495.573	790.19
495.79	760.19
496.008	756.19
496.225	773.19
496.442	782.19
496.66	772.19
496.877	773.19
497.094	797.19
497.312	788.19
497.529	808.19
497.746	797.19
497.963	812.19
498.181	854.19
498.398	859.19
498.615	869.19
498.832	886.19
499.049	929.19
499.267	958.19
499.484	997.19
499.701	997.19
499.918	1075.19
500.135	1138.19
500.352	1188.19
500.569	1245.19
500.786	1234.19
501.003	1218.19
501.22	1136.19
501.437	1103.19
501.654	1049.19
