Data from 1975.PennyLincolnUp.Lamp.En5.5.200Scan.071719.P1.Changed Mount._HRD10591_15-58-27-860.txt Node
Date: Thu Jul 18 15:58:27 EDT 2019
User: cochatt
Spectrometer: HR+D1059
Trigger mode: 1
Integration Time (sec): 1.000000E-1
Scans to average: 1
Electric dark correction enabled: true
Nonlinearity correction enabled: false
Boxcar width: 0
XAxis mode: Wavelengths
Number of Pixels in Spectrum: 2048
>>>>>Begin Spectral Data<<<<<
223.165	-9.12
223.4	-9.12
223.635	-9.12
223.869	-13.12
224.104	-16.12
224.338	-26.12
224.573	-10.12
224.808	-2.12
225.042	-9.12
225.277	-14.12
225.511	-1.12
225.746	6.88
225.98	12.88
226.215	4.88
226.449	27.88
226.683	10.88
226.918	13.88
227.152	23.88
227.387	33.88
227.621	33.88
227.856	59.88
228.09	49.88
228.324	51.88
228.559	47.88
228.793	73.88
229.027	92.88
229.262	106.88
229.496	124.88
229.73	114.88
229.964	151.88
230.199	120.88
230.433	105.88
230.667	119.88
230.901	110.88
231.136	95.88
231.37	117.88
231.604	116.88
231.838	118.88
232.072	118.88
232.306	116.88
232.541	118.88
232.775	118.88
233.009	120.88
233.243	120.88
233.477	114.88
233.711	113.88
233.945	108.88
234.179	113.88
234.413	96.88
234.647	114.88
234.881	112.88
235.115	121.88
235.349	135.88
235.583	112.88
235.817	129.88
236.051	134.88
236.285	116.88
236.519	126.88
236.753	129.88
236.987	151.88
237.221	170.88
237.455	227.88
237.689	192.88
237.922	159.88
238.156	131.88
238.39	132.88
238.624	126.88
238.858	138.88
239.091	122.88
239.325	135.88
239.559	126.88
239.793	118.88
240.027	128.88
240.26	143.88
240.494	149.88
240.728	158.88
240.961	157.88
241.195	165.88
241.429	140.88
241.662	136.88
241.896	148.88
242.13	146.88
242.363	145.88
242.597	143.88
242.83	140.88
243.064	129.88
243.298	130.88
243.531	132.88
243.765	138.88
243.998	137.88
244.232	150.88
244.465	152.88
244.699	148.88
244.932	146.88
245.166	151.88
245.399	137.88
245.633	149.88
245.866	162.88
246.099	128.88
246.333	125.88
246.566	144.88
246.8	147.88
247.033	146.88
247.266	169.88
247.5	161.88
247.733	186.88
247.966	180.88
248.2	175.88
248.433	175.88
248.666	186.88
248.899	195.88
249.133	203.88
249.366	220.88
249.599	225.88
249.832	192.88
250.066	188.88
250.299	181.88
250.532	192.88
250.765	226.88
250.998	225.88
251.231	231.88
251.465	234.88
251.698	209.88
251.931	199.88
252.164	206.88
252.397	202.88
252.63	210.88
252.863	199.88
253.096	219.88
253.329	242.88
253.562	226.88
253.795	211.88
254.028	210.88
254.261	212.88
254.494	229.88
254.727	258.88
254.96	286.88
255.193	274.88
255.426	267.88
255.659	213.88
255.892	233.88
256.124	226.88
256.357	250.88
256.59	235.88
256.823	227.88
257.056	215.88
257.289	208.88
257.521	212.88
257.754	215.88
257.987	207.88
258.22	210.88
258.452	210.88
258.685	218.88
258.918	211.88
259.151	225.88
259.383	235.88
259.616	222.88
259.849	226.88
260.081	234.88
260.314	247.88
260.547	277.88
260.779	268.88
261.012	243.88
261.244	226.88
261.477	235.88
261.71	231.88
261.942	226.88
262.175	240.88
262.407	224.88
262.64	236.88
262.872	216.88
263.105	212.88
263.337	229.88
263.57	230.88
263.802	238.88
264.035	217.88
264.267	217.88
264.499	221.88
264.732	239.88
264.964	216.88
265.197	219.88
265.429	226.88
265.661	226.88
265.894	240.88
266.126	237.88
266.358	222.88
266.591	233.88
266.823	239.88
267.055	240.88
267.287	223.88
267.52	243.88
267.752	230.88
267.984	243.88
268.216	253.88
268.448	258.88
268.681	255.88
268.913	253.88
269.145	264.88
269.377	275.88
269.609	288.88
269.841	265.88
270.073	274.88
270.306	302.88
270.538	316.88
270.77	319.88
271.002	302.88
271.234	298.88
271.466	306.88
271.698	299.88
271.93	322.88
272.162	308.88
272.394	323.88
272.626	299.88
272.858	296.88
273.09	279.88
273.322	269.88
273.553	271.88
273.785	281.88
274.017	265.88
274.249	284.88
274.481	270.88
274.713	267.88
274.945	291.88
275.176	295.88
275.408	295.88
275.64	271.88
275.872	278.88
276.104	276.88
276.335	286.88
276.567	288.88
276.799	298.88
277.031	323.88
277.262	330.88
277.494	344.88
277.726	325.88
277.957	303.88
278.189	290.88
278.421	280.88
278.652	284.88
278.884	303.88
279.115	284.88
279.347	263.88
279.579	259.88
279.81	275.88
280.042	295.88
280.273	276.88
280.505	275.88
280.736	274.88
280.968	284.88
281.199	294.88
281.431	292.88
281.662	280.88
281.894	284.88
282.125	284.88
282.356	281.88
282.588	300.88
282.819	310.88
283.051	299.88
283.282	278.88
283.513	287.88
283.745	285.88
283.976	287.88
284.207	305.88
284.439	295.88
284.67	308.88
284.901	307.88
285.132	316.88
285.364	288.88
285.595	304.88
285.826	309.88
286.057	310.88
286.288	304.88
286.52	288.88
286.751	311.88
286.982	295.88
287.213	319.88
287.444	287.88
287.675	316.88
287.906	296.88
288.138	330.88
288.369	318.88
288.6	322.88
288.831	330.88
289.062	316.88
289.293	307.88
289.524	294.88
289.755	309.88
289.986	316.88
290.217	303.88
290.448	310.88
290.679	315.88
290.91	329.88
291.141	312.88
291.371	308.88
291.602	312.88
291.833	315.88
292.064	327.88
292.295	323.88
292.526	322.88
292.757	321.88
292.987	328.88
293.218	334.88
293.449	315.88
293.68	331.88
293.91	315.88
294.141	295.88
294.372	309.88
294.603	327.88
294.833	336.88
295.064	315.88
295.295	319.88
295.525	324.88
295.756	322.88
295.987	322.88
296.217	340.88
296.448	359.88
296.679	329.88
296.909	322.88
297.14	320.88
297.37	330.88
297.601	343.88
297.831	334.88
298.062	327.88
298.292	323.88
298.523	313.88
298.753	322.88
298.984	322.88
299.214	331.88
299.445	353.88
299.675	324.88
299.905	348.88
300.136	327.88
300.366	333.88
300.597	336.88
300.827	327.88
301.057	350.88
301.288	356.88
301.518	356.88
301.748	378.88
301.979	350.88
302.209	342.88
302.439	344.88
302.669	359.88
302.9	343.88
303.13	344.88
303.36	343.88
303.59	354.88
303.82	381.88
304.051	353.88
304.281	354.88
304.511	349.88
304.741	333.88
304.971	341.88
305.201	352.88
305.431	343.88
305.661	350.88
305.891	354.88
306.121	354.88
306.352	355.88
306.582	361.88
306.812	337.88
307.042	367.88
307.272	329.88
307.502	345.88
307.731	357.88
307.961	348.88
308.191	362.88
308.421	353.88
308.651	339.88
308.881	342.88
309.111	348.88
309.341	362.88
309.571	376.88
309.8	354.88
310.03	368.88
310.26	399.88
310.49	390.88
310.72	394.88
310.949	400.88
311.179	427.88
311.409	391.88
311.639	404.88
311.868	402.88
312.098	407.88
312.328	390.88
312.557	396.88
312.787	419.88
313.017	417.88
313.246	410.88
313.476	395.88
313.706	384.88
313.935	411.88
314.165	406.88
314.394	403.88
314.624	427.88
314.853	417.88
315.083	399.88
315.312	368.88
315.542	397.88
315.771	382.88
316.001	385.88
316.23	384.88
316.46	380.88
316.689	408.88
316.919	399.88
317.148	387.88
317.377	390.88
317.607	396.88
317.836	395.88
318.065	409.88
318.295	404.88
318.524	404.88
318.753	385.88
318.983	400.88
319.212	399.88
319.441	396.88
319.67	389.88
319.9	391.88
320.129	397.88
320.358	382.88
320.587	376.88
320.816	408.88
321.046	414.88
321.275	408.88
321.504	411.88
321.733	401.88
321.962	425.88
322.191	406.88
322.42	440.88
322.649	459.88
322.878	451.88
323.108	442.88
323.337	459.88
323.566	480.88
323.795	483.88
324.024	558.88
324.253	638.88
324.482	849.88
324.71	1346.88
324.939	1982.88
325.168	1737.88
325.397	890.88
325.626	628.88
325.855	530.88
326.084	497.88
326.313	491.88
326.542	498.88
326.77	531.88
326.999	603.88
327.228	815.88
327.457	1221.88
327.686	1523.88
327.914	1012.88
328.143	657.88
328.372	588.88
328.6	566.88
328.829	554.88
329.058	559.88
329.287	543.88
329.515	536.88
329.744	528.88
329.972	505.88
330.201	508.88
330.43	559.88
330.658	583.88
330.887	618.88
331.115	566.88
331.344	515.88
331.572	505.88
331.801	507.88
332.03	508.88
332.258	484.88
332.486	470.88
332.715	482.88
332.943	486.88
333.172	503.88
333.4	479.88
333.629	507.88
333.857	535.88
334.085	526.88
334.314	553.88
334.542	580.88
334.771	580.88
334.999	555.88
335.227	521.88
335.455	493.88
335.684	499.88
335.912	506.88
336.14	476.88
336.369	483.88
336.597	505.88
336.825	468.88
337.053	481.88
337.281	459.88
337.51	481.88
337.738	448.88
337.966	471.88
338.194	469.88
338.422	494.88
338.65	466.88
338.878	460.88
339.106	456.88
339.334	453.88
339.562	453.88
339.79	446.88
340.018	467.88
340.246	467.88
340.474	469.88
340.702	463.88
340.93	457.88
341.158	431.88
341.386	446.88
341.614	425.88
341.842	454.88
342.07	441.88
342.298	456.88
342.526	447.88
342.754	435.88
342.981	442.88
343.209	449.88
343.437	447.88
343.665	461.88
343.893	491.88
344.12	487.88
344.348	500.88
344.576	482.88
344.804	481.88
345.031	486.88
345.259	488.88
345.487	472.88
345.714	449.88
345.942	450.88
346.17	456.88
346.397	434.88
346.625	442.88
346.853	458.88
347.08	434.88
347.308	450.88
347.535	455.88
347.763	434.88
347.99	438.88
348.218	425.88
348.445	446.88
348.673	454.88
348.9	452.88
349.128	445.88
349.355	424.88
349.583	435.88
349.81	427.88
350.037	418.88
350.265	435.88
350.492	428.88
350.72	419.88
350.947	414.88
351.174	443.88
351.402	435.88
351.629	450.88
351.856	431.88
352.083	457.88
352.311	451.88
352.538	451.88
352.765	441.88
352.992	426.88
353.22	440.88
353.447	440.88
353.674	442.88
353.901	418.88
354.128	407.88
354.355	408.88
354.583	424.88
354.81	430.88
355.037	420.88
355.264	410.88
355.491	406.88
355.718	427.88
355.945	404.88
356.172	416.88
356.399	428.88
356.626	439.88
356.853	428.88
357.08	414.88
357.307	403.88
357.534	422.88
357.761	412.88
357.988	415.88
358.215	412.88
358.441	429.88
358.668	399.88
358.895	441.88
359.122	447.88
359.349	430.88
359.576	434.88
359.802	473.88
360.029	494.88
360.256	496.88
360.483	449.88
360.709	446.88
360.936	460.88
361.163	441.88
361.39	429.88
361.616	449.88
361.843	440.88
362.07	431.88
362.296	449.88
362.523	447.88
362.749	430.88
362.976	422.88
363.203	425.88
363.429	428.88
363.656	418.88
363.882	424.88
364.109	443.88
364.335	423.88
364.562	412.88
364.788	423.88
365.015	432.88
365.241	432.88
365.468	432.88
365.694	449.88
365.92	429.88
366.147	407.88
366.373	427.88
366.599	429.88
366.826	418.88
367.052	430.88
367.278	434.88
367.505	427.88
367.731	436.88
367.957	431.88
368.184	420.88
368.41	439.88
368.636	456.88
368.862	419.88
369.089	426.88
369.315	426.88
369.541	414.88
369.767	418.88
369.993	439.88
370.219	432.88
370.445	435.88
370.672	429.88
370.898	421.88
371.124	421.88
371.35	430.88
371.576	436.88
371.802	432.88
372.028	420.88
372.254	447.88
372.48	430.88
372.706	440.88
372.932	439.88
373.158	455.88
373.384	425.88
373.61	430.88
373.835	440.88
374.061	461.88
374.287	444.88
374.513	447.88
374.739	438.88
374.965	450.88
375.191	457.88
375.416	460.88
375.642	453.88
375.868	451.88
376.094	453.88
376.319	430.88
376.545	442.88
376.771	428.88
376.997	432.88
377.222	448.88
377.448	418.88
377.674	435.88
377.899	420.88
378.125	428.88
378.35	432.88
378.576	427.88
378.802	444.88
379.027	453.88
379.253	427.88
379.478	428.88
379.704	439.88
379.929	435.88
380.155	441.88
380.38	430.88
380.606	427.88
380.831	434.88
381.057	451.88
381.282	463.88
381.507	455.88
381.733	474.88
381.958	470.88
382.184	436.88
382.409	426.88
382.634	468.88
382.86	453.88
383.085	438.88
383.31	449.88
383.535	462.88
383.761	478.88
383.986	440.88
384.211	467.88
384.436	444.88
384.662	470.88
384.887	459.88
385.112	451.88
385.337	473.88
385.562	497.88
385.787	470.88
386.013	503.88
386.238	504.88
386.463	492.88
386.688	490.88
386.913	491.88
387.138	471.88
387.363	474.88
387.588	477.88
387.813	503.88
388.038	474.88
388.263	487.88
388.488	506.88
388.713	483.88
388.938	491.88
389.163	492.88
389.387	528.88
389.612	516.88
389.837	486.88
390.062	489.88
390.287	465.88
390.512	483.88
390.736	486.88
390.961	495.88
391.186	482.88
391.411	490.88
391.636	502.88
391.86	508.88
392.085	533.88
392.31	499.88
392.534	507.88
392.759	496.88
392.984	510.88
393.208	476.88
393.433	479.88
393.658	467.88
393.882	482.88
394.107	489.88
394.331	488.88
394.556	510.88
394.78	496.88
395.005	506.88
395.229	489.88
395.454	505.88
395.678	519.88
395.903	523.88
396.127	543.88
396.352	555.88
396.576	519.88
396.801	517.88
397.025	533.88
397.249	520.88
397.474	515.88
397.698	537.88
397.922	558.88
398.147	574.88
398.371	568.88
398.595	567.88
398.82	551.88
399.044	581.88
399.268	600.88
399.492	663.88
399.717	675.88
399.941	713.88
400.165	724.88
400.389	684.88
400.613	662.88
400.837	609.88
401.062	604.88
401.286	568.88
401.51	595.88
401.734	597.88
401.958	588.88
402.182	546.88
402.406	600.88
402.63	596.88
402.854	599.88
403.078	618.88
403.302	611.88
403.526	611.88
403.75	592.88
403.974	603.88
404.198	598.88
404.422	595.88
404.645	624.88
404.869	608.88
405.093	630.88
405.317	682.88
405.541	728.88
405.765	675.88
405.988	617.88
406.212	633.88
406.436	632.88
406.66	649.88
406.883	637.88
407.107	677.88
407.331	713.88
407.555	798.88
407.778	801.88
408.002	727.88
408.226	673.88
408.449	656.88
408.673	661.88
408.896	693.88
409.12	722.88
409.344	699.88
409.567	628.88
409.791	627.88
410.014	611.88
410.238	615.88
410.461	586.88
410.685	640.88
410.908	624.88
411.132	670.88
411.355	686.88
411.578	649.88
411.802	627.88
412.025	597.88
412.249	608.88
412.472	642.88
412.695	675.88
412.919	659.88
413.142	607.88
413.365	611.88
413.589	582.88
413.812	560.88
414.035	564.88
414.258	577.88
414.482	580.88
414.705	580.88
414.928	583.88
415.151	583.88
415.374	540.88
415.597	562.88
415.821	572.88
416.044	568.88
416.267	567.88
416.49	561.88
416.713	582.88
416.936	554.88
417.159	572.88
417.382	566.88
417.605	570.88
417.828	568.88
418.051	583.88
418.274	570.88
418.497	566.88
418.72	561.88
418.943	568.88
419.166	574.88
419.389	615.88
419.611	612.88
419.834	630.88
420.057	611.88
420.28	598.88
420.503	588.88
420.726	606.88
420.948	598.88
421.171	647.88
421.394	698.88
421.617	607.88
421.839	605.88
422.062	612.88
422.285	607.88
422.507	648.88
422.73	759.88
422.953	729.88
423.175	634.88
423.398	638.88
423.621	592.88
423.843	622.88
424.066	636.88
424.288	641.88
424.511	644.88
424.733	696.88
424.956	797.88
425.178	750.88
425.401	736.88
425.623	759.88
425.846	667.88
426.068	624.88
426.291	602.88
426.513	640.88
426.735	616.88
426.958	643.88
427.18	761.88
427.402	887.88
427.625	983.88
427.847	821.88
428.069	717.88
428.292	666.88
428.514	582.88
428.736	585.88
428.958	595.88
429.181	566.88
429.403	571.88
429.625	599.88
429.847	620.88
430.069	682.88
430.292	688.88
430.514	598.88
430.736	583.88
430.958	554.88
431.18	558.88
431.402	572.88
431.624	542.88
431.846	533.88
432.068	536.88
432.29	548.88
432.512	539.88
432.734	563.88
432.956	537.88
433.178	564.88
433.4	561.88
433.622	549.88
433.844	565.88
434.066	549.88
434.287	547.88
434.509	552.88
434.731	578.88
434.953	569.88
435.175	578.88
435.397	627.88
435.618	627.88
435.84	671.88
436.062	769.88
436.284	834.88
436.505	702.88
436.727	615.88
436.949	588.88
437.17	558.88
437.392	574.88
437.614	586.88
437.835	624.88
438.057	704.88
438.278	788.88
438.5	817.88
438.721	891.88
438.943	865.88
439.165	697.88
439.386	646.88
439.608	612.88
439.829	636.88
440.05	640.88
440.272	694.88
440.493	650.88
440.715	593.88
440.936	598.88
441.158	592.88
441.379	567.88
441.6	594.88
441.822	602.88
442.043	657.88
442.264	746.88
442.486	795.88
442.707	684.88
442.928	631.88
443.149	626.88
443.371	642.88
443.592	709.88
443.813	815.88
444.034	894.88
444.255	731.88
444.476	683.88
444.698	662.88
444.919	659.88
445.14	790.88
445.361	727.88
445.582	677.88
445.803	725.88
446.024	820.88
446.245	830.88
446.466	725.88
446.687	660.88
446.908	614.88
447.129	604.88
447.35	593.88
447.571	570.88
447.792	558.88
448.013	563.88
448.234	570.88
448.455	638.88
448.675	770.88
448.896	891.88
449.117	760.88
449.338	690.88
449.559	823.88
449.779	955.88
450	716.88
450.221	615.88
450.442	566.88
450.662	559.88
450.883	561.88
451.104	555.88
451.324	547.88
451.545	523.88
451.766	532.88
451.986	502.88
452.207	507.88
452.428	506.88
452.648	515.88
452.869	487.88
453.089	515.88
453.31	533.88
453.53	503.88
453.751	515.88
453.971	498.88
454.192	514.88
454.412	492.88
454.633	524.88
454.853	499.88
455.073	476.88
455.294	532.88
455.514	617.88
455.734	577.88
455.955	512.88
456.175	488.88
456.395	462.88
456.616	459.88
456.836	462.88
457.056	471.88
457.276	459.88
457.497	482.88
457.717	488.88
457.937	489.88
458.157	470.88
458.377	527.88
458.598	511.88
458.818	545.88
459.038	636.88
459.258	652.88
459.478	587.88
459.698	560.88
459.918	554.88
460.138	548.88
460.358	566.88
460.578	563.88
460.798	578.88
461.018	572.88
461.238	565.88
461.458	575.88
461.678	547.88
461.898	578.88
462.118	582.88
462.338	603.88
462.558	592.88
462.777	601.88
462.997	612.88
463.217	662.88
463.437	655.88
463.657	614.88
463.876	614.88
464.096	629.88
464.316	615.88
464.536	632.88
464.755	618.88
464.975	602.88
465.195	646.88
465.414	648.88
465.634	614.88
465.854	594.88
466.073	553.88
466.293	531.88
466.512	555.88
466.732	530.88
466.951	550.88
467.171	508.88
467.391	526.88
467.61	523.88
467.829	538.88
468.049	516.88
468.268	535.88
468.488	536.88
468.707	516.88
468.927	490.88
469.146	498.88
469.365	528.88
469.585	508.88
469.804	517.88
470.023	509.88
470.243	519.88
470.462	538.88
470.681	547.88
470.901	548.88
471.12	548.88
471.339	535.88
471.558	532.88
471.777	543.88
471.997	522.88
472.216	530.88
472.435	548.88
472.654	533.88
472.873	524.88
473.092	532.88
473.311	525.88
473.53	518.88
473.749	528.88
473.968	584.88
474.187	690.88
474.406	706.88
474.625	609.88
474.844	544.88
475.063	536.88
475.282	550.88
475.501	517.88
475.72	535.88
475.939	538.88
476.158	532.88
476.377	545.88
476.596	537.88
476.814	555.88
477.033	537.88
477.252	551.88
477.471	560.88
477.69	592.88
477.908	581.88
478.127	588.88
478.346	591.88
478.564	603.88
478.783	582.88
479.002	610.88
479.22	615.88
479.439	626.88
479.658	644.88
479.876	658.88
480.095	655.88
480.313	681.88
480.532	668.88
480.751	664.88
480.969	670.88
481.188	702.88
481.406	752.88
481.624	698.88
481.843	662.88
482.061	621.88
482.28	613.88
482.498	640.88
482.717	632.88
482.935	623.88
483.153	640.88
483.372	608.88
483.59	613.88
483.808	618.88
484.027	629.88
484.245	610.88
484.463	622.88
484.681	604.88
484.9	625.88
485.118	633.88
485.336	616.88
485.554	646.88
485.772	634.88
485.99	632.88
486.209	626.88
486.427	639.88
486.645	659.88
486.863	662.88
487.081	658.88
487.299	666.88
487.517	649.88
487.735	654.88
487.953	668.88
488.171	652.88
488.389	673.88
488.607	641.88
488.825	655.88
489.043	666.88
489.261	671.88
489.479	677.88
489.696	663.88
489.914	688.88
490.132	714.88
490.35	698.88
490.568	694.88
490.786	726.88
491.003	720.88
491.221	709.88
491.439	729.88
491.657	773.88
491.874	751.88
492.092	791.88
492.31	777.88
492.527	774.88
492.745	777.88
492.963	795.88
493.18	780.88
493.398	791.88
493.615	788.88
493.833	783.88
494.05	778.88
494.268	790.88
494.485	792.88
494.703	779.88
494.92	791.88
495.138	808.88
495.355	795.88
495.573	769.88
495.79	805.88
496.008	785.88
496.225	780.88
496.442	777.88
496.66	786.88
496.877	787.88
497.094	796.88
497.312	796.88
497.529	803.88
497.746	801.88
497.963	852.88
498.181	884.88
498.398	887.88
498.615	895.88
498.832	924.88
499.049	936.88
499.267	958.88
499.484	1031.88
499.701	1072.88
499.918	1070.88
500.135	1202.88
500.352	1246.88
500.569	1277.88
500.786	1295.88
501.003	1247.88
501.22	1179.88
501.437	1156.88
501.654	1106.88
