Data from 1975.PennyLincolnUp.Lamp.En5.5.200Scan.071719.P1.Changed Mount._HRD10591_15-56-51-859.txt Node
Date: Thu Jul 18 15:56:51 EDT 2019
User: cochatt
Spectrometer: HR+D1059
Trigger mode: 1
Integration Time (sec): 1.000000E-1
Scans to average: 1
Electric dark correction enabled: true
Nonlinearity correction enabled: false
Boxcar width: 0
XAxis mode: Wavelengths
Number of Pixels in Spectrum: 2048
>>>>>Begin Spectral Data<<<<<
223.165	-22.19
223.4	-22.19
223.635	-22.19
223.869	-25.19
224.104	-25.19
224.338	-1.19
224.573	-11.19
224.808	-16.19
225.042	-4.19
225.277	-9.19
225.511	4.81
225.746	-4.19
225.98	4.81
226.215	7.81
226.449	18.81
226.683	19.81
226.918	27.81
227.152	34.81
227.387	40.81
227.621	36.81
227.856	34.81
228.09	28.81
228.324	45.81
228.559	60.81
228.793	66.81
229.027	96.81
229.262	99.81
229.496	107.81
229.73	132.81
229.964	144.81
230.199	121.81
230.433	102.81
230.667	106.81
230.901	116.81
231.136	115.81
231.37	109.81
231.604	96.81
231.838	110.81
232.072	115.81
232.306	130.81
232.541	112.81
232.775	115.81
233.009	126.81
233.243	109.81
233.477	114.81
233.711	120.81
233.945	94.81
234.179	112.81
234.413	99.81
234.647	108.81
234.881	106.81
235.115	118.81
235.349	112.81
235.583	106.81
235.817	121.81
236.051	122.81
236.285	134.81
236.519	135.81
236.753	128.81
236.987	132.81
237.221	173.81
237.455	236.81
237.689	189.81
237.922	142.81
238.156	119.81
238.39	128.81
238.624	116.81
238.858	122.81
239.091	118.81
239.325	123.81
239.559	109.81
239.793	135.81
240.027	136.81
240.26	140.81
240.494	152.81
240.728	128.81
240.961	151.81
241.195	142.81
241.429	123.81
241.662	129.81
241.896	124.81
242.13	142.81
242.363	128.81
242.597	138.81
242.83	142.81
243.064	127.81
243.298	134.81
243.531	135.81
243.765	136.81
243.998	153.81
244.232	154.81
244.465	137.81
244.699	148.81
244.932	138.81
245.166	142.81
245.399	157.81
245.633	161.81
245.866	142.81
246.099	144.81
246.333	161.81
246.566	146.81
246.8	151.81
247.033	152.81
247.266	148.81
247.5	170.81
247.733	152.81
247.966	182.81
248.2	190.81
248.433	173.81
248.666	170.81
248.899	174.81
249.133	205.81
249.366	201.81
249.599	201.81
249.832	179.81
250.066	165.81
250.299	168.81
250.532	193.81
250.765	213.81
250.998	224.81
251.231	218.81
251.465	218.81
251.698	193.81
251.931	209.81
252.164	178.81
252.397	194.81
252.63	202.81
252.863	204.81
253.096	211.81
253.329	219.81
253.562	221.81
253.795	234.81
254.028	224.81
254.261	217.81
254.494	227.81
254.727	257.81
254.96	272.81
255.193	266.81
255.426	238.81
255.659	247.81
255.892	221.81
256.124	234.81
256.357	219.81
256.59	232.81
256.823	221.81
257.056	235.81
257.289	219.81
257.521	206.81
257.754	206.81
257.987	194.81
258.22	195.81
258.452	198.81
258.685	216.81
258.918	203.81
259.151	206.81
259.383	214.81
259.616	235.81
259.849	235.81
260.081	243.81
260.314	250.81
260.547	260.81
260.779	243.81
261.012	222.81
261.244	217.81
261.477	223.81
261.71	240.81
261.942	226.81
262.175	220.81
262.407	219.81
262.64	223.81
262.872	212.81
263.105	222.81
263.337	213.81
263.57	236.81
263.802	230.81
264.035	224.81
264.267	219.81
264.499	210.81
264.732	207.81
264.964	201.81
265.197	221.81
265.429	211.81
265.661	208.81
265.894	211.81
266.126	215.81
266.358	224.81
266.591	232.81
266.823	216.81
267.055	227.81
267.287	221.81
267.52	227.81
267.752	226.81
267.984	240.81
268.216	229.81
268.448	246.81
268.681	242.81
268.913	252.81
269.145	242.81
269.377	283.81
269.609	275.81
269.841	269.81
270.073	270.81
270.306	289.81
270.538	318.81
270.77	314.81
271.002	288.81
271.234	285.81
271.466	285.81
271.698	303.81
271.93	309.81
272.162	316.81
272.394	304.81
272.626	300.81
272.858	296.81
273.09	275.81
273.322	268.81
273.553	258.81
273.785	271.81
274.017	268.81
274.249	268.81
274.481	283.81
274.713	259.81
274.945	270.81
275.176	259.81
275.408	267.81
275.64	274.81
275.872	261.81
276.104	258.81
276.335	271.81
276.567	278.81
276.799	297.81
277.031	300.81
277.262	318.81
277.494	338.81
277.726	325.81
277.957	273.81
278.189	292.81
278.421	272.81
278.652	268.81
278.884	273.81
279.115	268.81
279.347	263.81
279.579	271.81
279.81	258.81
280.042	272.81
280.273	266.81
280.505	283.81
280.736	284.81
280.968	243.81
281.199	266.81
281.431	277.81
281.662	281.81
281.894	285.81
282.125	269.81
282.356	290.81
282.588	303.81
282.819	302.81
283.051	295.81
283.282	267.81
283.513	282.81
283.745	274.81
283.976	293.81
284.207	306.81
284.439	300.81
284.67	286.81
284.901	285.81
285.132	290.81
285.364	294.81
285.595	313.81
285.826	280.81
286.057	307.81
286.288	281.81
286.52	279.81
286.751	298.81
286.982	279.81
287.213	289.81
287.444	279.81
287.675	296.81
287.906	315.81
288.138	311.81
288.369	328.81
288.6	308.81
288.831	300.81
289.062	287.81
289.293	278.81
289.524	307.81
289.755	301.81
289.986	312.81
290.217	295.81
290.448	302.81
290.679	302.81
290.91	306.81
291.141	308.81
291.371	282.81
291.602	306.81
291.833	302.81
292.064	299.81
292.295	302.81
292.526	308.81
292.757	300.81
292.987	301.81
293.218	284.81
293.449	277.81
293.68	295.81
293.91	304.81
294.141	290.81
294.372	306.81
294.603	290.81
294.833	289.81
295.064	290.81
295.295	313.81
295.525	291.81
295.756	312.81
295.987	297.81
296.217	334.81
296.448	333.81
296.679	316.81
296.909	295.81
297.14	301.81
297.37	321.81
297.601	312.81
297.831	316.81
298.062	297.81
298.292	308.81
298.523	309.81
298.753	332.81
298.984	323.81
299.214	324.81
299.445	285.81
299.675	323.81
299.905	327.81
300.136	320.81
300.366	314.81
300.597	343.81
300.827	324.81
301.057	340.81
301.288	327.81
301.518	323.81
301.748	348.81
301.979	333.81
302.209	333.81
302.439	313.81
302.669	338.81
302.9	310.81
303.13	322.81
303.36	336.81
303.59	340.81
303.82	355.81
304.051	354.81
304.281	343.81
304.511	355.81
304.741	325.81
304.971	338.81
305.201	342.81
305.431	341.81
305.661	350.81
305.891	317.81
306.121	314.81
306.352	333.81
306.582	333.81
306.812	326.81
307.042	322.81
307.272	323.81
307.502	327.81
307.731	341.81
307.961	348.81
308.191	320.81
308.421	334.81
308.651	344.81
308.881	339.81
309.111	357.81
309.341	345.81
309.571	356.81
309.8	356.81
310.03	338.81
310.26	388.81
310.49	348.81
310.72	372.81
310.949	378.81
311.179	401.81
311.409	387.81
311.639	372.81
311.868	378.81
312.098	369.81
312.328	381.81
312.557	388.81
312.787	396.81
313.017	385.81
313.246	383.81
313.476	353.81
313.706	380.81
313.935	372.81
314.165	379.81
314.394	394.81
314.624	404.81
314.853	369.81
315.083	394.81
315.312	368.81
315.542	373.81
315.771	360.81
316.001	378.81
316.23	384.81
316.46	384.81
316.689	388.81
316.919	388.81
317.148	389.81
317.377	380.81
317.607	376.81
317.836	396.81
318.065	390.81
318.295	369.81
318.524	378.81
318.753	385.81
318.983	382.81
319.212	362.81
319.441	394.81
319.67	381.81
319.9	370.81
320.129	375.81
320.358	376.81
320.587	379.81
320.816	410.81
321.046	403.81
321.275	400.81
321.504	397.81
321.733	380.81
321.962	377.81
322.191	426.81
322.42	413.81
322.649	416.81
322.878	436.81
323.108	430.81
323.337	440.81
323.566	446.81
323.795	466.81
324.024	501.81
324.253	605.81
324.482	793.81
324.71	1244.81
324.939	1840.81
325.168	1660.81
325.397	824.81
325.626	558.81
325.855	492.81
326.084	483.81
326.313	452.81
326.542	476.81
326.77	506.81
326.999	580.81
327.228	764.81
327.457	1084.81
327.686	1399.81
327.914	960.81
328.143	619.81
328.372	548.81
328.6	500.81
328.829	526.81
329.058	521.81
329.287	520.81
329.515	526.81
329.744	492.81
329.972	497.81
330.201	524.81
330.43	538.81
330.658	564.81
330.887	569.81
331.115	536.81
331.344	480.81
331.572	464.81
331.801	484.81
332.03	490.81
332.258	461.81
332.486	455.81
332.715	449.81
332.943	454.81
333.172	458.81
333.4	466.81
333.629	461.81
333.857	490.81
334.085	497.81
334.314	522.81
334.542	549.81
334.771	552.81
334.999	512.81
335.227	487.81
335.455	484.81
335.684	483.81
335.912	457.81
336.14	458.81
336.369	467.81
336.597	470.81
336.825	444.81
337.053	467.81
337.281	454.81
337.51	438.81
337.738	458.81
337.966	432.81
338.194	441.81
338.422	457.81
338.65	437.81
338.878	452.81
339.106	442.81
339.334	452.81
339.562	439.81
339.79	452.81
340.018	458.81
340.246	431.81
340.474	448.81
340.702	431.81
340.93	429.81
341.158	425.81
341.386	433.81
341.614	436.81
341.842	460.81
342.07	438.81
342.298	436.81
342.526	435.81
342.754	418.81
342.981	421.81
343.209	410.81
343.437	419.81
343.665	435.81
343.893	443.81
344.12	456.81
344.348	437.81
344.576	468.81
344.804	452.81
345.031	436.81
345.259	439.81
345.487	442.81
345.714	455.81
345.942	425.81
346.17	417.81
346.397	424.81
346.625	421.81
346.853	413.81
347.08	418.81
347.308	411.81
347.535	438.81
347.763	433.81
347.99	412.81
348.218	422.81
348.445	452.81
348.673	416.81
348.9	410.81
349.128	418.81
349.355	420.81
349.583	395.81
349.81	397.81
350.037	396.81
350.265	390.81
350.492	413.81
350.72	399.81
350.947	419.81
351.174	401.81
351.402	398.81
351.629	429.81
351.856	421.81
352.083	410.81
352.311	408.81
352.538	422.81
352.765	427.81
352.992	424.81
353.22	429.81
353.447	402.81
353.674	405.81
353.901	410.81
354.128	408.81
354.355	394.81
354.583	402.81
354.81	388.81
355.037	402.81
355.264	380.81
355.491	396.81
355.718	385.81
355.945	392.81
356.172	386.81
356.399	390.81
356.626	372.81
356.853	385.81
357.08	378.81
357.307	379.81
357.534	396.81
357.761	399.81
357.988	425.81
358.215	390.81
358.441	408.81
358.668	400.81
358.895	409.81
359.122	404.81
359.349	418.81
359.576	406.81
359.802	419.81
360.029	442.81
360.256	444.81
360.483	428.81
360.709	432.81
360.936	417.81
361.163	412.81
361.39	428.81
361.616	417.81
361.843	424.81
362.07	421.81
362.296	410.81
362.523	419.81
362.749	420.81
362.976	401.81
363.203	419.81
363.429	411.81
363.656	424.81
363.882	411.81
364.109	426.81
364.335	409.81
364.562	405.81
364.788	429.81
365.015	408.81
365.241	404.81
365.468	422.81
365.694	426.81
365.92	417.81
366.147	408.81
366.373	415.81
366.599	405.81
366.826	416.81
367.052	390.81
367.278	388.81
367.505	394.81
367.731	429.81
367.957	410.81
368.184	397.81
368.41	407.81
368.636	434.81
368.862	426.81
369.089	430.81
369.315	424.81
369.541	411.81
369.767	422.81
369.993	394.81
370.219	428.81
370.445	430.81
370.672	410.81
370.898	425.81
371.124	411.81
371.35	419.81
371.576	426.81
371.802	425.81
372.028	407.81
372.254	406.81
372.48	424.81
372.706	412.81
372.932	417.81
373.158	429.81
373.384	419.81
373.61	424.81
373.835	452.81
374.061	409.81
374.287	418.81
374.513	408.81
374.739	431.81
374.965	435.81
375.191	440.81
375.416	426.81
375.642	440.81
375.868	428.81
376.094	426.81
376.319	426.81
376.545	426.81
376.771	412.81
376.997	414.81
377.222	386.81
377.448	420.81
377.674	427.81
377.899	402.81
378.125	404.81
378.35	397.81
378.576	413.81
378.802	434.81
379.027	420.81
379.253	415.81
379.478	421.81
379.704	421.81
379.929	419.81
380.155	409.81
380.38	422.81
380.606	411.81
380.831	420.81
381.057	414.81
381.282	414.81
381.507	432.81
381.733	429.81
381.958	413.81
382.184	433.81
382.409	428.81
382.634	429.81
382.86	417.81
383.085	419.81
383.31	451.81
383.535	461.81
383.761	434.81
383.986	428.81
384.211	451.81
384.436	457.81
384.662	450.81
384.887	453.81
385.112	459.81
385.337	455.81
385.562	454.81
385.787	469.81
386.013	482.81
386.238	476.81
386.463	460.81
386.688	460.81
386.913	473.81
387.138	439.81
387.363	477.81
387.588	472.81
387.813	468.81
388.038	478.81
388.263	472.81
388.488	460.81
388.713	468.81
388.938	461.81
389.163	475.81
389.387	446.81
389.612	457.81
389.837	456.81
390.062	460.81
390.287	466.81
390.512	473.81
390.736	448.81
390.961	483.81
391.186	463.81
391.411	484.81
391.636	484.81
391.86	486.81
392.085	472.81
392.31	496.81
392.534	493.81
392.759	498.81
392.984	480.81
393.208	476.81
393.433	482.81
393.658	474.81
393.882	460.81
394.107	457.81
394.331	477.81
394.556	452.81
394.78	467.81
395.005	487.81
395.229	493.81
395.454	492.81
395.678	488.81
395.903	514.81
396.127	522.81
396.352	536.81
396.576	506.81
396.801	481.81
397.025	503.81
397.249	491.81
397.474	512.81
397.698	531.81
397.922	528.81
398.147	530.81
398.371	514.81
398.595	520.81
398.82	532.81
399.044	554.81
399.268	574.81
399.492	619.81
399.717	649.81
399.941	679.81
400.165	687.81
400.389	656.81
400.613	613.81
400.837	586.81
401.062	558.81
401.286	556.81
401.51	543.81
401.734	541.81
401.958	566.81
402.182	536.81
402.406	562.81
402.63	565.81
402.854	552.81
403.078	570.81
403.302	564.81
403.526	607.81
403.75	586.81
403.974	570.81
404.198	582.81
404.422	583.81
404.645	580.81
404.869	592.81
405.093	618.81
405.317	636.81
405.541	717.81
405.765	652.81
405.988	594.81
406.212	605.81
406.436	605.81
406.66	648.81
406.883	630.81
407.107	669.81
407.331	689.81
407.555	752.81
407.778	756.81
408.002	691.81
408.226	651.81
408.449	627.81
408.673	614.81
408.896	645.81
409.12	683.81
409.344	652.81
409.567	612.81
409.791	577.81
410.014	580.81
410.238	555.81
410.461	576.81
410.685	580.81
410.908	600.81
411.132	619.81
411.355	669.81
411.578	617.81
411.802	577.81
412.025	563.81
412.249	576.81
412.472	598.81
412.695	619.81
412.919	649.81
413.142	576.81
413.365	562.81
413.589	557.81
413.812	558.81
414.035	527.81
414.258	568.81
414.482	557.81
414.705	557.81
414.928	537.81
415.151	538.81
415.374	536.81
415.597	550.81
415.821	549.81
416.044	565.81
416.267	546.81
416.49	543.81
416.713	531.81
416.936	546.81
417.159	519.81
417.382	520.81
417.605	571.81
417.828	545.81
418.051	581.81
418.274	553.81
418.497	547.81
418.72	532.81
418.943	526.81
419.166	567.81
419.389	586.81
419.611	596.81
419.834	579.81
420.057	564.81
420.28	573.81
420.503	564.81
420.726	566.81
420.948	578.81
421.171	622.81
421.394	649.81
421.617	592.81
421.839	594.81
422.062	553.81
422.285	551.81
422.507	619.81
422.73	692.81
422.953	684.81
423.175	616.81
423.398	578.81
423.621	590.81
423.843	611.81
424.066	588.81
424.288	593.81
424.511	634.81
424.733	666.81
424.956	735.81
425.178	719.81
425.401	692.81
425.623	744.81
425.846	645.81
426.068	600.81
426.291	583.81
426.513	608.81
426.735	589.81
426.958	614.81
427.18	710.81
427.402	836.81
427.625	924.81
427.847	797.81
428.069	693.81
428.292	605.81
428.514	596.81
428.736	582.81
428.958	561.81
429.181	532.81
429.403	537.81
429.625	539.81
429.847	578.81
430.069	637.81
430.292	654.81
430.514	557.81
430.736	527.81
430.958	527.81
431.18	526.81
431.402	514.81
431.624	509.81
431.846	501.81
432.068	505.81
432.29	522.81
432.512	518.81
432.734	519.81
432.956	523.81
433.178	525.81
433.4	537.81
433.622	527.81
433.844	523.81
434.066	512.81
434.287	528.81
434.509	561.81
434.731	564.81
434.953	550.81
435.175	546.81
435.397	583.81
435.618	591.81
435.84	622.81
436.062	724.81
436.284	775.81
436.505	666.81
436.727	596.81
436.949	548.81
437.17	539.81
437.392	538.81
437.614	560.81
437.835	585.81
438.057	678.81
438.278	768.81
438.5	770.81
438.721	859.81
438.943	807.81
439.165	679.81
439.386	590.81
439.608	600.81
439.829	571.81
440.05	616.81
440.272	668.81
440.493	615.81
440.715	580.81
440.936	547.81
441.158	545.81
441.379	562.81
441.6	571.81
441.822	615.81
442.043	619.81
442.264	710.81
442.486	757.81
442.707	628.81
442.928	609.81
443.149	598.81
443.371	630.81
443.592	702.81
443.813	767.81
444.034	836.81
444.255	690.81
444.476	611.81
444.698	636.81
444.919	624.81
445.14	739.81
445.361	668.81
445.582	652.81
445.803	681.81
446.024	806.81
446.245	799.81
446.466	729.81
446.687	624.81
446.908	584.81
447.129	564.81
447.35	558.81
447.571	540.81
447.792	539.81
448.013	523.81
448.234	577.81
448.455	590.81
448.675	699.81
448.896	843.81
449.117	702.81
449.338	655.81
449.559	786.81
449.779	886.81
450	696.81
450.221	584.81
450.442	540.81
450.662	550.81
450.883	516.81
451.104	544.81
451.324	515.81
451.545	507.81
451.766	469.81
451.986	474.81
452.207	468.81
452.428	473.81
452.648	494.81
452.869	486.81
453.089	503.81
453.31	497.81
453.53	478.81
453.751	476.81
453.971	480.81
454.192	487.81
454.412	501.81
454.633	451.81
454.853	458.81
455.073	471.81
455.294	508.81
455.514	584.81
455.734	572.81
455.955	492.81
456.175	456.81
456.395	445.81
456.616	444.81
456.836	456.81
457.056	462.81
457.276	430.81
457.497	470.81
457.717	457.81
457.937	476.81
458.157	498.81
458.377	467.81
458.598	482.81
458.818	537.81
459.038	626.81
459.258	616.81
459.478	538.81
459.698	517.81
459.918	523.81
460.138	537.81
460.358	520.81
460.578	513.81
460.798	556.81
461.018	560.81
461.238	549.81
461.458	549.81
461.678	533.81
461.898	532.81
462.118	525.81
462.338	531.81
462.558	563.81
462.777	579.81
462.997	594.81
463.217	628.81
463.437	603.81
463.657	580.81
463.876	585.81
464.096	604.81
464.316	584.81
464.536	589.81
464.755	577.81
464.975	608.81
465.195	586.81
465.414	640.81
465.634	570.81
465.854	583.81
466.073	536.81
466.293	536.81
466.512	493.81
466.732	508.81
466.951	520.81
467.171	507.81
467.391	498.81
467.61	525.81
467.829	520.81
468.049	534.81
468.268	521.81
468.488	500.81
468.707	500.81
468.927	496.81
469.146	468.81
469.365	488.81
469.585	478.81
469.804	514.81
470.023	519.81
470.243	512.81
470.462	488.81
470.681	532.81
470.901	512.81
471.12	498.81
471.339	506.81
471.558	508.81
471.777	499.81
471.997	513.81
472.216	519.81
472.435	554.81
472.654	543.81
472.873	510.81
473.092	488.81
473.311	516.81
473.53	487.81
473.749	496.81
473.968	550.81
474.187	645.81
474.406	681.81
474.625	555.81
474.844	515.81
475.063	512.81
475.282	502.81
475.501	514.81
475.72	520.81
475.939	502.81
476.158	518.81
476.377	529.81
476.596	516.81
476.814	525.81
477.033	540.81
477.252	533.81
477.471	536.81
477.69	566.81
477.908	538.81
478.127	553.81
478.346	568.81
478.564	579.81
478.783	571.81
479.002	584.81
479.22	578.81
479.439	589.81
479.658	586.81
479.876	603.81
480.095	592.81
480.313	632.81
480.532	608.81
480.751	635.81
480.969	656.81
481.188	685.81
481.406	710.81
481.624	624.81
481.843	617.81
482.061	610.81
482.28	603.81
482.498	592.81
482.717	594.81
482.935	570.81
483.153	590.81
483.372	597.81
483.59	592.81
483.808	583.81
484.027	582.81
484.245	586.81
484.463	604.81
484.681	592.81
484.9	607.81
485.118	604.81
485.336	601.81
485.554	611.81
485.772	611.81
485.99	616.81
486.209	603.81
486.427	631.81
486.645	606.81
486.863	648.81
487.081	664.81
487.299	642.81
487.517	627.81
487.735	624.81
487.953	635.81
488.171	642.81
488.389	621.81
488.607	636.81
488.825	642.81
489.043	651.81
489.261	661.81
489.479	638.81
489.696	641.81
489.914	660.81
490.132	654.81
490.35	668.81
490.568	694.81
490.786	696.81
491.003	690.81
491.221	696.81
491.439	716.81
491.657	716.81
491.874	725.81
492.092	720.81
492.31	742.81
492.527	751.81
492.745	740.81
492.963	724.81
493.18	756.81
493.398	747.81
493.615	778.81
493.833	746.81
494.05	764.81
494.268	779.81
494.485	764.81
494.703	761.81
494.92	742.81
495.138	734.81
495.355	755.81
495.573	758.81
495.79	763.81
496.008	762.81
496.225	739.81
496.442	757.81
496.66	746.81
496.877	774.81
497.094	728.81
497.312	793.81
497.529	804.81
497.746	806.81
497.963	809.81
498.181	836.81
498.398	866.81
498.615	885.81
498.832	888.81
499.049	888.81
499.267	907.81
499.484	950.81
499.701	1018.81
499.918	1076.81
500.135	1100.81
500.352	1173.81
500.569	1182.81
500.786	1209.81
501.003	1212.81
501.22	1112.81
501.437	1116.81
501.654	1014.81
