Data from 1975.PennyLincolnUp.Lamp.En5.5.200Scan.071719.P1.Changed Mount._HRD10591_15-57-41-859.txt Node
Date: Thu Jul 18 15:57:41 EDT 2019
User: cochatt
Spectrometer: HR+D1059
Trigger mode: 1
Integration Time (sec): 1.000000E-1
Scans to average: 1
Electric dark correction enabled: true
Nonlinearity correction enabled: false
Boxcar width: 0
XAxis mode: Wavelengths
Number of Pixels in Spectrum: 2048
>>>>>Begin Spectral Data<<<<<
223.165	-10.5
223.4	-10.5
223.635	-10.5
223.869	-16.5
224.104	-20.5
224.338	-21.5
224.573	-12.5
224.808	-20.5
225.042	-7.5
225.277	7.5
225.511	-8.5
225.746	2.5
225.98	1.5
226.215	14.5
226.449	12.5
226.683	16.5
226.918	24.5
227.152	38.5
227.387	34.5
227.621	27.5
227.856	40.5
228.09	48.5
228.324	48.5
228.559	64.5
228.793	76.5
229.027	97.5
229.262	80.5
229.496	111.5
229.73	123.5
229.964	151.5
230.199	131.5
230.433	126.5
230.667	122.5
230.901	100.5
231.136	107.5
231.37	119.5
231.604	97.5
231.838	119.5
232.072	119.5
232.306	109.5
232.541	121.5
232.775	118.5
233.009	117.5
233.243	121.5
233.477	116.5
233.711	92.5
233.945	114.5
234.179	97.5
234.413	115.5
234.647	111.5
234.881	105.5
235.115	111.5
235.349	119.5
235.583	113.5
235.817	115.5
236.051	130.5
236.285	112.5
236.519	105.5
236.753	131.5
236.987	143.5
237.221	164.5
237.455	236.5
237.689	168.5
237.922	127.5
238.156	133.5
238.39	132.5
238.624	133.5
238.858	127.5
239.091	127.5
239.325	124.5
239.559	121.5
239.793	120.5
240.027	129.5
240.26	141.5
240.494	156.5
240.728	150.5
240.961	159.5
241.195	153.5
241.429	137.5
241.662	133.5
241.896	127.5
242.13	143.5
242.363	135.5
242.597	137.5
242.83	135.5
243.064	129.5
243.298	123.5
243.531	148.5
243.765	141.5
243.998	156.5
244.232	149.5
244.465	149.5
244.699	160.5
244.932	160.5
245.166	147.5
245.399	149.5
245.633	137.5
245.866	148.5
246.099	164.5
246.333	161.5
246.566	150.5
246.8	163.5
247.033	161.5
247.266	173.5
247.5	162.5
247.733	156.5
247.966	179.5
248.2	168.5
248.433	169.5
248.666	180.5
248.899	181.5
249.133	213.5
249.366	200.5
249.599	185.5
249.832	163.5
250.066	180.5
250.299	187.5
250.532	203.5
250.765	215.5
250.998	221.5
251.231	241.5
251.465	206.5
251.698	211.5
251.931	197.5
252.164	214.5
252.397	215.5
252.63	211.5
252.863	205.5
253.096	228.5
253.329	240.5
253.562	227.5
253.795	215.5
254.028	228.5
254.261	199.5
254.494	233.5
254.727	267.5
254.96	264.5
255.193	275.5
255.426	248.5
255.659	249.5
255.892	218.5
256.124	262.5
256.357	245.5
256.59	227.5
256.823	218.5
257.056	215.5
257.289	202.5
257.521	210.5
257.754	209.5
257.987	211.5
258.22	207.5
258.452	204.5
258.685	213.5
258.918	210.5
259.151	209.5
259.383	224.5
259.616	237.5
259.849	228.5
260.081	232.5
260.314	238.5
260.547	245.5
260.779	238.5
261.012	227.5
261.244	228.5
261.477	219.5
261.71	232.5
261.942	241.5
262.175	240.5
262.407	224.5
262.64	229.5
262.872	214.5
263.105	222.5
263.337	223.5
263.57	210.5
263.802	222.5
264.035	214.5
264.267	216.5
264.499	209.5
264.732	233.5
264.964	229.5
265.197	223.5
265.429	211.5
265.661	240.5
265.894	217.5
266.126	219.5
266.358	216.5
266.591	234.5
266.823	234.5
267.055	244.5
267.287	244.5
267.52	221.5
267.752	235.5
267.984	228.5
268.216	243.5
268.448	226.5
268.681	243.5
268.913	245.5
269.145	254.5
269.377	279.5
269.609	275.5
269.841	276.5
270.073	275.5
270.306	288.5
270.538	320.5
270.77	300.5
271.002	308.5
271.234	300.5
271.466	301.5
271.698	305.5
271.93	328.5
272.162	325.5
272.394	309.5
272.626	299.5
272.858	283.5
273.09	275.5
273.322	274.5
273.553	267.5
273.785	260.5
274.017	267.5
274.249	272.5
274.481	263.5
274.713	267.5
274.945	284.5
275.176	265.5
275.408	268.5
275.64	253.5
275.872	277.5
276.104	275.5
276.335	262.5
276.567	265.5
276.799	295.5
277.031	310.5
277.262	308.5
277.494	308.5
277.726	284.5
277.957	303.5
278.189	285.5
278.421	288.5
278.652	277.5
278.884	293.5
279.115	286.5
279.347	271.5
279.579	287.5
279.81	261.5
280.042	284.5
280.273	284.5
280.505	292.5
280.736	274.5
280.968	259.5
281.199	291.5
281.431	297.5
281.662	293.5
281.894	277.5
282.125	284.5
282.356	284.5
282.588	315.5
282.819	295.5
283.051	292.5
283.282	268.5
283.513	269.5
283.745	296.5
283.976	304.5
284.207	296.5
284.439	296.5
284.67	324.5
284.901	309.5
285.132	308.5
285.364	289.5
285.595	283.5
285.826	305.5
286.057	304.5
286.288	282.5
286.52	289.5
286.751	297.5
286.982	293.5
287.213	295.5
287.444	311.5
287.675	316.5
287.906	321.5
288.138	327.5
288.369	305.5
288.6	315.5
288.831	317.5
289.062	299.5
289.293	297.5
289.524	298.5
289.755	315.5
289.986	314.5
290.217	312.5
290.448	290.5
290.679	312.5
290.91	310.5
291.141	309.5
291.371	309.5
291.602	318.5
291.833	304.5
292.064	314.5
292.295	311.5
292.526	307.5
292.757	319.5
292.987	306.5
293.218	315.5
293.449	312.5
293.68	306.5
293.91	321.5
294.141	311.5
294.372	298.5
294.603	301.5
294.833	309.5
295.064	320.5
295.295	316.5
295.525	310.5
295.756	299.5
295.987	316.5
296.217	318.5
296.448	328.5
296.679	320.5
296.909	315.5
297.14	310.5
297.37	312.5
297.601	313.5
297.831	320.5
298.062	307.5
298.292	324.5
298.523	324.5
298.753	326.5
298.984	339.5
299.214	329.5
299.445	301.5
299.675	327.5
299.905	330.5
300.136	316.5
300.366	331.5
300.597	339.5
300.827	348.5
301.057	337.5
301.288	345.5
301.518	345.5
301.748	336.5
301.979	343.5
302.209	344.5
302.439	343.5
302.669	356.5
302.9	340.5
303.13	345.5
303.36	349.5
303.59	348.5
303.82	343.5
304.051	333.5
304.281	346.5
304.511	333.5
304.741	353.5
304.971	343.5
305.201	345.5
305.431	340.5
305.661	338.5
305.891	369.5
306.121	344.5
306.352	367.5
306.582	342.5
306.812	340.5
307.042	347.5
307.272	351.5
307.502	350.5
307.731	354.5
307.961	357.5
308.191	342.5
308.421	354.5
308.651	339.5
308.881	345.5
309.111	361.5
309.341	340.5
309.571	361.5
309.8	372.5
310.03	357.5
310.26	379.5
310.49	368.5
310.72	374.5
310.949	392.5
311.179	402.5
311.409	392.5
311.639	371.5
311.868	387.5
312.098	372.5
312.328	381.5
312.557	388.5
312.787	413.5
313.017	396.5
313.246	413.5
313.476	393.5
313.706	382.5
313.935	396.5
314.165	409.5
314.394	411.5
314.624	405.5
314.853	396.5
315.083	395.5
315.312	370.5
315.542	383.5
315.771	373.5
316.001	364.5
316.23	389.5
316.46	388.5
316.689	383.5
316.919	393.5
317.148	392.5
317.377	388.5
317.607	419.5
317.836	408.5
318.065	391.5
318.295	388.5
318.524	384.5
318.753	389.5
318.983	387.5
319.212	386.5
319.441	394.5
319.67	401.5
319.9	380.5
320.129	395.5
320.358	384.5
320.587	386.5
320.816	388.5
321.046	398.5
321.275	412.5
321.504	401.5
321.733	440.5
321.962	434.5
322.191	439.5
322.42	419.5
322.649	415.5
322.878	435.5
323.108	460.5
323.337	459.5
323.566	469.5
323.795	500.5
324.024	561.5
324.253	625.5
324.482	845.5
324.71	1294.5
324.939	1907.5
325.168	1695.5
325.397	863.5
325.626	598.5
325.855	503.5
326.084	461.5
326.313	483.5
326.542	476.5
326.77	496.5
326.999	597.5
327.228	782.5
327.457	1143.5
327.686	1474.5
327.914	955.5
328.143	641.5
328.372	567.5
328.6	567.5
328.829	511.5
329.058	540.5
329.287	551.5
329.515	508.5
329.744	486.5
329.972	505.5
330.201	531.5
330.43	533.5
330.658	583.5
330.887	581.5
331.115	601.5
331.344	497.5
331.572	488.5
331.801	504.5
332.03	480.5
332.258	472.5
332.486	491.5
332.715	472.5
332.943	459.5
333.172	467.5
333.4	487.5
333.629	503.5
333.857	486.5
334.085	519.5
334.314	535.5
334.542	553.5
334.771	592.5
334.999	518.5
335.227	528.5
335.455	490.5
335.684	504.5
335.912	483.5
336.14	473.5
336.369	478.5
336.597	473.5
336.825	474.5
337.053	461.5
337.281	453.5
337.51	455.5
337.738	465.5
337.966	446.5
338.194	466.5
338.422	444.5
338.65	449.5
338.878	454.5
339.106	452.5
339.334	443.5
339.562	433.5
339.79	458.5
340.018	425.5
340.246	441.5
340.474	446.5
340.702	465.5
340.93	456.5
341.158	462.5
341.386	455.5
341.614	438.5
341.842	435.5
342.07	426.5
342.298	427.5
342.526	443.5
342.754	450.5
342.981	452.5
343.209	434.5
343.437	440.5
343.665	448.5
343.893	468.5
344.12	470.5
344.348	475.5
344.576	466.5
344.804	447.5
345.031	479.5
345.259	466.5
345.487	439.5
345.714	450.5
345.942	425.5
346.17	457.5
346.397	426.5
346.625	423.5
346.853	432.5
347.08	443.5
347.308	447.5
347.535	431.5
347.763	442.5
347.99	432.5
348.218	452.5
348.445	458.5
348.673	437.5
348.9	440.5
349.128	439.5
349.355	417.5
349.583	418.5
349.81	451.5
350.037	451.5
350.265	406.5
350.492	415.5
350.72	414.5
350.947	427.5
351.174	427.5
351.402	433.5
351.629	435.5
351.856	420.5
352.083	443.5
352.311	459.5
352.538	441.5
352.765	429.5
352.992	448.5
353.22	430.5
353.447	429.5
353.674	417.5
353.901	422.5
354.128	407.5
354.355	405.5
354.583	408.5
354.81	407.5
355.037	426.5
355.264	421.5
355.491	412.5
355.718	396.5
355.945	407.5
356.172	407.5
356.399	437.5
356.626	417.5
356.853	404.5
357.08	385.5
357.307	409.5
357.534	414.5
357.761	415.5
357.988	402.5
358.215	419.5
358.441	423.5
358.668	411.5
358.895	407.5
359.122	436.5
359.349	435.5
359.576	420.5
359.802	436.5
360.029	464.5
360.256	477.5
360.483	463.5
360.709	431.5
360.936	424.5
361.163	439.5
361.39	425.5
361.616	433.5
361.843	434.5
362.07	424.5
362.296	440.5
362.523	416.5
362.749	425.5
362.976	406.5
363.203	419.5
363.429	423.5
363.656	431.5
363.882	410.5
364.109	423.5
364.335	421.5
364.562	432.5
364.788	433.5
365.015	411.5
365.241	417.5
365.468	432.5
365.694	418.5
365.92	439.5
366.147	423.5
366.373	424.5
366.599	416.5
366.826	415.5
367.052	415.5
367.278	407.5
367.505	425.5
367.731	421.5
367.957	412.5
368.184	397.5
368.41	428.5
368.636	453.5
368.862	431.5
369.089	421.5
369.315	421.5
369.541	427.5
369.767	431.5
369.993	418.5
370.219	425.5
370.445	410.5
370.672	417.5
370.898	411.5
371.124	434.5
371.35	407.5
371.576	427.5
371.802	423.5
372.028	430.5
372.254	425.5
372.48	439.5
372.706	447.5
372.932	421.5
373.158	414.5
373.384	437.5
373.61	410.5
373.835	448.5
374.061	433.5
374.287	428.5
374.513	433.5
374.739	446.5
374.965	431.5
375.191	434.5
375.416	426.5
375.642	446.5
375.868	422.5
376.094	428.5
376.319	417.5
376.545	424.5
376.771	424.5
376.997	418.5
377.222	410.5
377.448	407.5
377.674	431.5
377.899	427.5
378.125	438.5
378.35	417.5
378.576	422.5
378.802	425.5
379.027	414.5
379.253	449.5
379.478	446.5
379.704	437.5
379.929	426.5
380.155	428.5
380.38	444.5
380.606	431.5
380.831	442.5
381.057	421.5
381.282	419.5
381.507	449.5
381.733	426.5
381.958	428.5
382.184	424.5
382.409	443.5
382.634	450.5
382.86	443.5
383.085	430.5
383.31	434.5
383.535	447.5
383.761	443.5
383.986	468.5
384.211	459.5
384.436	467.5
384.662	452.5
384.887	470.5
385.112	475.5
385.337	466.5
385.562	490.5
385.787	479.5
386.013	486.5
386.238	481.5
386.463	481.5
386.688	482.5
386.913	474.5
387.138	475.5
387.363	469.5
387.588	469.5
387.813	484.5
388.038	467.5
388.263	468.5
388.488	462.5
388.713	486.5
388.938	492.5
389.163	496.5
389.387	467.5
389.612	449.5
389.837	464.5
390.062	495.5
390.287	464.5
390.512	463.5
390.736	475.5
390.961	466.5
391.186	495.5
391.411	496.5
391.636	489.5
391.86	521.5
392.085	509.5
392.31	508.5
392.534	487.5
392.759	481.5
392.984	502.5
393.208	516.5
393.433	467.5
393.658	471.5
393.882	496.5
394.107	487.5
394.331	477.5
394.556	484.5
394.78	495.5
395.005	492.5
395.229	478.5
395.454	488.5
395.678	519.5
395.903	502.5
396.127	531.5
396.352	533.5
396.576	496.5
396.801	485.5
397.025	502.5
397.249	529.5
397.474	506.5
397.698	516.5
397.922	539.5
398.147	543.5
398.371	564.5
398.595	532.5
398.82	536.5
399.044	579.5
399.268	587.5
399.492	629.5
399.717	657.5
399.941	700.5
400.165	695.5
400.389	704.5
400.613	645.5
400.837	593.5
401.062	577.5
401.286	582.5
401.51	574.5
401.734	552.5
401.958	552.5
402.182	560.5
402.406	560.5
402.63	561.5
402.854	599.5
403.078	565.5
403.302	573.5
403.526	600.5
403.75	597.5
403.974	625.5
404.198	588.5
404.422	587.5
404.645	611.5
404.869	589.5
405.093	620.5
405.317	689.5
405.541	695.5
405.765	652.5
405.988	619.5
406.212	629.5
406.436	627.5
406.66	644.5
406.883	618.5
407.107	664.5
407.331	680.5
407.555	765.5
407.778	748.5
408.002	687.5
408.226	637.5
408.449	629.5
408.673	666.5
408.896	677.5
409.12	705.5
409.344	661.5
409.567	618.5
409.791	587.5
410.014	578.5
410.238	560.5
410.461	584.5
410.685	590.5
410.908	588.5
411.132	627.5
411.355	679.5
411.578	641.5
411.802	582.5
412.025	603.5
412.249	607.5
412.472	609.5
412.695	657.5
412.919	643.5
413.142	588.5
413.365	585.5
413.589	583.5
413.812	556.5
414.035	544.5
414.258	560.5
414.482	565.5
414.705	556.5
414.928	581.5
415.151	547.5
415.374	562.5
415.597	539.5
415.821	541.5
416.044	533.5
416.267	538.5
416.49	559.5
416.713	532.5
416.936	578.5
417.159	541.5
417.382	538.5
417.605	556.5
417.828	569.5
418.051	585.5
418.274	572.5
418.497	557.5
418.72	551.5
418.943	576.5
419.166	587.5
419.389	616.5
419.611	613.5
419.834	610.5
420.057	581.5
420.28	587.5
420.503	570.5
420.726	567.5
420.948	571.5
421.171	632.5
421.394	653.5
421.617	594.5
421.839	592.5
422.062	571.5
422.285	575.5
422.507	640.5
422.73	733.5
422.953	692.5
423.175	623.5
423.398	597.5
423.621	631.5
423.843	609.5
424.066	636.5
424.288	614.5
424.511	632.5
424.733	699.5
424.956	747.5
425.178	729.5
425.401	730.5
425.623	756.5
425.846	653.5
426.068	613.5
426.291	590.5
426.513	600.5
426.735	612.5
426.958	647.5
427.18	726.5
427.402	857.5
427.625	967.5
427.847	801.5
428.069	708.5
428.292	639.5
428.514	591.5
428.736	563.5
428.958	584.5
429.181	569.5
429.403	553.5
429.625	584.5
429.847	610.5
430.069	673.5
430.292	664.5
430.514	583.5
430.736	537.5
430.958	545.5
431.18	556.5
431.402	544.5
431.624	529.5
431.846	530.5
432.068	514.5
432.29	524.5
432.512	539.5
432.734	536.5
432.956	545.5
433.178	541.5
433.4	563.5
433.622	551.5
433.844	543.5
434.066	546.5
434.287	536.5
434.509	550.5
434.731	541.5
434.953	582.5
435.175	565.5
435.397	591.5
435.618	617.5
435.84	638.5
436.062	735.5
436.284	830.5
436.505	684.5
436.727	602.5
436.949	568.5
437.17	556.5
437.392	557.5
437.614	567.5
437.835	593.5
438.057	662.5
438.278	803.5
438.5	792.5
438.721	863.5
438.943	835.5
439.165	661.5
439.386	591.5
439.608	620.5
439.829	597.5
440.05	647.5
440.272	666.5
440.493	636.5
440.715	580.5
440.936	580.5
441.158	573.5
441.379	564.5
441.6	565.5
441.822	605.5
442.043	612.5
442.264	746.5
442.486	777.5
442.707	669.5
442.928	611.5
443.149	646.5
443.371	639.5
443.592	680.5
443.813	775.5
444.034	865.5
444.255	726.5
444.476	637.5
444.698	638.5
444.919	617.5
445.14	743.5
445.361	671.5
445.582	652.5
445.803	701.5
446.024	801.5
446.245	813.5
446.466	737.5
446.687	644.5
446.908	604.5
447.129	584.5
447.35	575.5
447.571	560.5
447.792	542.5
448.013	553.5
448.234	577.5
448.455	612.5
448.675	743.5
448.896	884.5
449.117	729.5
449.338	673.5
449.559	796.5
449.779	915.5
450	681.5
450.221	606.5
450.442	543.5
450.662	554.5
450.883	543.5
451.104	557.5
451.324	545.5
451.545	513.5
451.766	523.5
451.986	483.5
452.207	509.5
452.428	479.5
452.648	483.5
452.869	487.5
453.089	495.5
453.31	517.5
453.53	499.5
453.751	512.5
453.971	484.5
454.192	523.5
454.412	506.5
454.633	481.5
454.853	479.5
455.073	483.5
455.294	498.5
455.514	582.5
455.734	577.5
455.955	503.5
456.175	484.5
456.395	451.5
456.616	473.5
456.836	468.5
457.056	467.5
457.276	444.5
457.497	469.5
457.717	471.5
457.937	474.5
458.157	487.5
458.377	496.5
458.598	515.5
458.818	557.5
459.038	605.5
459.258	660.5
459.478	554.5
459.698	532.5
459.918	526.5
460.138	536.5
460.358	560.5
460.578	543.5
460.798	580.5
461.018	545.5
461.238	553.5
461.458	586.5
461.678	542.5
461.898	559.5
462.118	567.5
462.338	571.5
462.558	596.5
462.777	599.5
462.997	603.5
463.217	641.5
463.437	641.5
463.657	616.5
463.876	612.5
464.096	611.5
464.316	614.5
464.536	625.5
464.755	615.5
464.975	586.5
465.195	627.5
465.414	660.5
465.634	599.5
465.854	567.5
466.073	543.5
466.293	527.5
466.512	491.5
466.732	498.5
466.951	517.5
467.171	505.5
467.391	502.5
467.61	521.5
467.829	520.5
468.049	518.5
468.268	515.5
468.488	517.5
468.707	503.5
468.927	511.5
469.146	486.5
469.365	496.5
469.585	499.5
469.804	499.5
470.023	518.5
470.243	519.5
470.462	542.5
470.681	561.5
470.901	543.5
471.12	513.5
471.339	519.5
471.558	519.5
471.777	533.5
471.997	490.5
472.216	525.5
472.435	576.5
472.654	561.5
472.873	533.5
473.092	511.5
473.311	492.5
473.53	519.5
473.749	549.5
473.968	560.5
474.187	651.5
474.406	660.5
474.625	566.5
474.844	546.5
475.063	529.5
475.282	526.5
475.501	503.5
475.72	524.5
475.939	534.5
476.158	517.5
476.377	535.5
476.596	540.5
476.814	530.5
477.033	562.5
477.252	542.5
477.471	539.5
477.69	546.5
477.908	576.5
478.127	577.5
478.346	576.5
478.564	584.5
478.783	576.5
479.002	589.5
479.22	597.5
479.439	593.5
479.658	597.5
479.876	618.5
480.095	643.5
480.313	652.5
480.532	665.5
480.751	638.5
480.969	635.5
481.188	691.5
481.406	745.5
481.624	643.5
481.843	603.5
482.061	620.5
482.28	642.5
482.498	601.5
482.717	605.5
482.935	617.5
483.153	610.5
483.372	609.5
483.59	619.5
483.808	604.5
484.027	601.5
484.245	619.5
484.463	618.5
484.681	594.5
484.9	607.5
485.118	629.5
485.336	619.5
485.554	616.5
485.772	635.5
485.99	651.5
486.209	632.5
486.427	629.5
486.645	653.5
486.863	667.5
487.081	639.5
487.299	652.5
487.517	642.5
487.735	656.5
487.953	661.5
488.171	643.5
488.389	646.5
488.607	656.5
488.825	633.5
489.043	671.5
489.261	670.5
489.479	671.5
489.696	666.5
489.914	664.5
490.132	646.5
490.35	684.5
490.568	667.5
490.786	689.5
491.003	680.5
491.221	726.5
491.439	721.5
491.657	743.5
491.874	711.5
492.092	759.5
492.31	757.5
492.527	740.5
492.745	755.5
492.963	744.5
493.18	749.5
493.398	758.5
493.615	788.5
493.833	782.5
494.05	780.5
494.268	763.5
494.485	748.5
494.703	753.5
494.92	766.5
495.138	764.5
495.355	783.5
495.573	777.5
495.79	774.5
496.008	769.5
496.225	757.5
496.442	768.5
496.66	789.5
496.877	782.5
497.094	756.5
497.312	796.5
497.529	795.5
497.746	808.5
497.963	823.5
498.181	845.5
498.398	885.5
498.615	879.5
498.832	907.5
499.049	912.5
499.267	975.5
499.484	1004.5
499.701	1043.5
499.918	1079.5
500.135	1164.5
500.352	1226.5
500.569	1248.5
500.786	1277.5
501.003	1192.5
501.22	1150.5
501.437	1149.5
501.654	1092.5
501.871	1008.5
502.088	1015.5
502.305	956.5
502.522	892.5
502.739	894.5
502.956	861.5
503.172	817.5
503.389	791.5
503.606	817.5
503.823	804.5
504.04	800.5
504.256	806.5
504.473	785.5
504.69	783.5
504.907	781.5
505.123	771.5
505.34	752.5
505.557	739.5
505.773	746.5
505.99	706.5
506.207	740.5
506.423	713.5
506.64	716.5
506.856	717.5
507.073	703.5
507.289	684.5
507.506	699.5
507.722	687.5
507.939	708.5
508.155	693.5
508.372	698.5
508.588	679.5
508.805	683.5
509.021	682.5
509.238	680.5
509.454	686.5
509.67	678.5
509.887	677.5
510.103	652.5
510.319	679.5
510.536	743.5
510.752	1098.5
510.968	941.5
511.184	659.5
511.401	671.5
511.617	646.5
511.833	636.5
512.049	646.5
512.265	649.5
512.481	643.5
512.698	654.5
512.914	642.5
513.13	606.5
513.346	627.5
513.562	633.5
513.778	619.5
513.994	649.5
514.21	649.5
514.426	667.5
514.642	710.5
514.858	684.5
515.074	723.5
515.29	837.5
515.506	1099.5
515.721	939.5
515.937	735.5
516.153	676.5
516.369	669.5
516.585	675.5
516.801	670.5
517.016	649.5
517.232	711.5
517.448	678.5
517.664	701.5
517.879	710.5
518.095	688.5
518.311	699.5
518.527	675.5
518.742	674.5
518.958	668.5
519.173	654.5
519.389	665.5
519.605	651.5
