Data from 1975.PennyLincolnUp.Lamp.En5.5.200Scan.071719.P1.Changed Mount._HRD10591_15-57-28-859.txt Node
Date: Thu Jul 18 15:57:28 EDT 2019
User: cochatt
Spectrometer: HR+D1059
Trigger mode: 1
Integration Time (sec): 1.000000E-1
Scans to average: 1
Electric dark correction enabled: true
Nonlinearity correction enabled: false
Boxcar width: 0
XAxis mode: Wavelengths
Number of Pixels in Spectrum: 2048
>>>>>Begin Spectral Data<<<<<
223.165	-19
223.4	-19
223.635	-19
223.869	-6
224.104	-16
224.338	-20
224.573	-11
224.808	-11
225.042	-8
225.277	-4
225.511	1
225.746	-2
225.98	2
226.215	11
226.449	12
226.683	14
226.918	21
227.152	36
227.387	23
227.621	30
227.856	56
228.09	42
228.324	47
228.559	60
228.793	62
229.027	112
229.262	103
229.496	121
229.73	129
229.964	153
230.199	150
230.433	124
230.667	125
230.901	114
231.136	101
231.37	124
231.604	110
231.838	121
232.072	97
232.306	117
232.541	104
232.775	111
233.009	116
233.243	110
233.477	119
233.711	119
233.945	129
234.179	115
234.413	129
234.647	121
234.881	127
235.115	110
235.349	119
235.583	115
235.817	135
236.051	131
236.285	125
236.519	123
236.753	145
236.987	149
237.221	174
237.455	243
237.689	213
237.922	152
238.156	125
238.39	122
238.624	132
238.858	129
239.091	127
239.325	125
239.559	131
239.793	143
240.027	136
240.26	152
240.494	136
240.728	143
240.961	158
241.195	143
241.429	155
241.662	143
241.896	133
242.13	152
242.363	133
242.597	135
242.83	155
243.064	155
243.298	148
243.531	153
243.765	161
243.998	140
244.232	131
244.465	139
244.699	149
244.932	144
245.166	152
245.399	153
245.633	149
245.866	151
246.099	156
246.333	148
246.566	171
246.8	153
247.033	157
247.266	152
247.5	165
247.733	170
247.966	171
248.2	197
248.433	189
248.666	187
248.899	188
249.133	206
249.366	197
249.599	202
249.832	191
250.066	181
250.299	188
250.532	185
250.765	225
250.998	243
251.231	216
251.465	230
251.698	197
251.931	196
252.164	208
252.397	212
252.63	220
252.863	214
253.096	195
253.329	237
253.562	214
253.795	233
254.028	219
254.261	209
254.494	219
254.727	257
254.96	300
255.193	268
255.426	263
255.659	245
255.892	231
256.124	227
256.357	249
256.59	232
256.823	217
257.056	216
257.289	221
257.521	212
257.754	228
257.987	214
258.22	221
258.452	231
258.685	212
258.918	213
259.151	232
259.383	225
259.616	230
259.849	246
260.081	245
260.314	247
260.547	242
260.779	246
261.012	236
261.244	245
261.477	240
261.71	230
261.942	224
262.175	220
262.407	229
262.64	222
262.872	237
263.105	216
263.337	213
263.57	218
263.802	225
264.035	225
264.267	216
264.499	222
264.732	216
264.964	216
265.197	225
265.429	220
265.661	223
265.894	213
266.126	240
266.358	244
266.591	228
266.823	240
267.055	262
267.287	251
267.52	229
267.752	249
267.984	245
268.216	257
268.448	244
268.681	234
268.913	257
269.145	263
269.377	274
269.609	277
269.841	275
270.073	273
270.306	302
270.538	315
270.77	317
271.002	310
271.234	290
271.466	287
271.698	311
271.93	337
272.162	348
272.394	314
272.626	308
272.858	274
273.09	285
273.322	289
273.553	263
273.785	287
274.017	277
274.249	259
274.481	286
274.713	268
274.945	286
275.176	275
275.408	269
275.64	276
275.872	281
276.104	269
276.335	261
276.567	257
276.799	294
277.031	297
277.262	321
277.494	325
277.726	318
277.957	321
278.189	310
278.421	306
278.652	294
278.884	289
279.115	275
279.347	281
279.579	283
279.81	266
280.042	269
280.273	285
280.505	252
280.736	270
280.968	273
281.199	305
281.431	280
281.662	268
281.894	264
282.125	270
282.356	288
282.588	293
282.819	291
283.051	274
283.282	291
283.513	282
283.745	301
283.976	296
284.207	289
284.439	311
284.67	300
284.901	295
285.132	303
285.364	305
285.595	293
285.826	288
286.057	310
286.288	306
286.52	301
286.751	310
286.982	291
287.213	296
287.444	311
287.675	323
287.906	307
288.138	311
288.369	325
288.6	318
288.831	321
289.062	308
289.293	307
289.524	309
289.755	309
289.986	300
290.217	305
290.448	305
290.679	310
290.91	307
291.141	287
291.371	302
291.602	299
291.833	296
292.064	292
292.295	300
292.526	304
292.757	321
292.987	311
293.218	295
293.449	316
293.68	303
293.91	305
294.141	314
294.372	313
294.603	315
294.833	319
295.064	301
295.295	307
295.525	307
295.756	326
295.987	323
296.217	334
296.448	342
296.679	326
296.909	301
297.14	299
297.37	329
297.601	307
297.831	320
298.062	318
298.292	340
298.523	323
298.753	332
298.984	316
299.214	335
299.445	322
299.675	317
299.905	339
300.136	350
300.366	313
300.597	300
300.827	319
301.057	342
301.288	350
301.518	358
301.748	341
301.979	336
302.209	340
302.439	336
302.669	363
302.9	359
303.13	345
303.36	363
303.59	365
303.82	374
304.051	363
304.281	344
304.511	341
304.741	362
304.971	356
305.201	345
305.431	349
305.661	342
305.891	355
306.121	359
306.352	348
306.582	327
306.812	331
307.042	347
307.272	343
307.502	332
307.731	343
307.961	338
308.191	357
308.421	344
308.651	348
308.881	349
309.111	367
309.341	359
309.571	376
309.8	353
310.03	389
310.26	376
310.49	390
310.72	398
310.949	388
311.179	408
311.409	374
311.639	367
311.868	367
312.098	361
312.328	380
312.557	391
312.787	398
313.017	401
313.246	393
313.476	383
313.706	382
313.935	385
314.165	396
314.394	400
314.624	396
314.853	384
315.083	398
315.312	409
315.542	392
315.771	366
316.001	373
316.23	388
316.46	379
316.689	373
316.919	401
317.148	397
317.377	390
317.607	392
317.836	383
318.065	410
318.295	398
318.524	413
318.753	381
318.983	387
319.212	389
319.441	375
319.67	391
319.9	381
320.129	383
320.358	397
320.587	397
320.816	409
321.046	416
321.275	405
321.504	413
321.733	385
321.962	420
322.191	421
322.42	436
322.649	449
322.878	415
323.108	451
323.337	439
323.566	470
323.795	488
324.024	544
324.253	608
324.482	837
324.71	1275
324.939	1869
325.168	1709
325.397	850
325.626	576
325.855	518
326.084	478
326.313	484
326.542	488
326.77	508
326.999	579
327.228	806
327.457	1180
327.686	1434
327.914	959
328.143	644
328.372	593
328.6	546
328.829	529
329.058	535
329.287	571
329.515	549
329.744	503
329.972	500
330.201	520
330.43	556
330.658	571
330.887	579
331.115	564
331.344	521
331.572	515
331.801	489
332.03	479
332.258	491
332.486	485
332.715	475
332.943	456
333.172	485
333.4	491
333.629	483
333.857	491
334.085	514
334.314	518
334.542	564
334.771	563
334.999	536
335.227	497
335.455	480
335.684	490
335.912	462
336.14	487
336.369	477
336.597	473
336.825	480
337.053	453
337.281	451
337.51	439
337.738	464
337.966	485
338.194	448
338.422	452
338.65	445
338.878	440
339.106	445
339.334	473
339.562	447
339.79	441
340.018	445
340.246	448
340.474	462
340.702	445
340.93	449
341.158	448
341.386	428
341.614	435
341.842	436
342.07	439
342.298	447
342.526	459
342.754	443
342.981	437
343.209	443
343.437	448
343.665	449
343.893	449
344.12	466
344.348	467
344.576	456
344.804	483
345.031	485
345.259	461
345.487	440
345.714	438
345.942	433
346.17	454
346.397	448
346.625	444
346.853	426
347.08	413
347.308	440
347.535	434
347.763	428
347.99	424
348.218	420
348.445	458
348.673	449
348.9	429
349.128	437
349.355	424
349.583	417
349.81	427
350.037	418
350.265	427
350.492	417
350.72	402
350.947	429
351.174	456
351.402	447
351.629	441
351.856	416
352.083	427
352.311	428
352.538	414
352.765	446
352.992	438
353.22	419
353.447	438
353.674	435
353.901	423
354.128	412
354.355	395
354.583	398
354.81	441
355.037	425
355.264	405
355.491	410
355.718	407
355.945	373
356.172	405
356.399	423
356.626	411
356.853	399
357.08	408
357.307	413
357.534	410
357.761	424
357.988	409
358.215	418
358.441	409
358.668	418
358.895	411
359.122	415
359.349	414
359.576	424
359.802	455
360.029	481
360.256	483
360.483	482
360.709	442
360.936	434
361.163	414
361.39	447
361.616	433
361.843	451
362.07	421
362.296	428
362.523	440
362.749	442
362.976	426
363.203	422
363.429	422
363.656	417
363.882	407
364.109	433
364.335	421
364.562	422
364.788	416
365.015	418
365.241	413
365.468	411
365.694	420
365.92	417
366.147	432
366.373	418
366.599	425
366.826	424
367.052	422
367.278	417
367.505	427
367.731	429
367.957	414
368.184	418
368.41	420
368.636	444
368.862	440
369.089	456
369.315	406
369.541	437
369.767	434
369.993	406
370.219	439
370.445	437
370.672	458
370.898	439
371.124	435
371.35	429
371.576	431
371.802	436
372.028	437
372.254	436
372.48	432
372.706	430
372.932	417
373.158	443
373.384	447
373.61	435
373.835	411
374.061	424
374.287	448
374.513	433
374.739	449
374.965	456
375.191	443
375.416	421
375.642	439
375.868	455
376.094	424
376.319	420
376.545	446
376.771	432
376.997	419
377.222	444
377.448	420
377.674	420
377.899	436
378.125	448
378.35	413
378.576	435
378.802	421
379.027	435
379.253	457
379.478	431
379.704	423
379.929	421
380.155	426
380.38	432
380.606	420
380.831	414
381.057	439
381.282	436
381.507	447
381.733	429
381.958	451
382.184	437
382.409	457
382.634	447
382.86	440
383.085	455
383.31	430
383.535	453
383.761	435
383.986	465
384.211	445
384.436	468
384.662	457
384.887	480
385.112	473
385.337	478
385.562	483
385.787	450
386.013	490
386.238	481
386.463	500
386.688	491
386.913	484
387.138	476
387.363	478
387.588	482
387.813	484
388.038	463
388.263	500
388.488	463
388.713	501
388.938	508
389.163	498
389.387	493
389.612	466
389.837	479
390.062	472
390.287	488
390.512	475
390.736	484
390.961	495
391.186	486
391.411	487
391.636	503
391.86	515
392.085	519
392.31	502
392.534	479
392.759	495
392.984	476
393.208	475
393.433	493
393.658	474
393.882	496
394.107	497
394.331	470
394.556	489
394.78	488
395.005	469
395.229	506
395.454	519
395.678	496
395.903	535
396.127	535
396.352	549
396.576	509
396.801	496
397.025	503
397.249	509
397.474	519
397.698	522
397.922	539
398.147	540
398.371	560
398.595	540
398.82	520
399.044	573
399.268	579
399.492	637
399.717	638
399.941	696
400.165	710
400.389	702
400.613	656
400.837	595
401.062	582
401.286	571
401.51	561
401.734	556
401.958	559
402.182	549
402.406	579
402.63	590
402.854	568
403.078	585
403.302	609
403.526	591
403.75	576
403.974	584
404.198	584
404.422	607
404.645	599
404.869	586
405.093	631
405.317	679
405.541	728
405.765	649
405.988	603
406.212	628
406.436	655
406.66	631
406.883	628
407.107	654
407.331	695
407.555	770
407.778	761
408.002	701
408.226	667
408.449	625
408.673	665
408.896	662
409.12	716
409.344	699
409.567	637
409.791	608
410.014	599
410.238	598
410.461	570
410.685	583
410.908	619
411.132	632
411.355	685
411.578	615
411.802	621
412.025	582
412.249	586
412.472	623
412.695	669
412.919	673
413.142	632
413.365	578
413.589	592
413.812	590
414.035	563
414.258	567
414.482	560
414.705	567
414.928	559
415.151	541
415.374	555
415.597	544
415.821	564
416.044	569
416.267	556
416.49	557
416.713	548
416.936	555
417.159	537
417.382	533
417.605	562
417.828	581
418.051	582
418.274	557
418.497	560
418.72	574
418.943	547
419.166	591
419.389	613
419.611	624
419.834	614
420.057	595
420.28	592
420.503	590
420.726	597
420.948	604
421.171	614
421.394	674
421.617	596
421.839	587
422.062	577
422.285	592
422.507	655
422.73	707
422.953	725
423.175	643
423.398	607
423.621	587
423.843	635
424.066	656
424.288	623
424.511	636
424.733	703
424.956	782
425.178	744
425.401	739
425.623	732
425.846	653
426.068	608
426.291	611
426.513	601
426.735	617
426.958	630
427.18	728
427.402	864
427.625	939
427.847	791
428.069	732
428.292	666
428.514	579
428.736	559
428.958	555
429.181	553
429.403	565
429.625	579
429.847	592
430.069	673
430.292	650
430.514	591
430.736	555
430.958	560
431.18	548
431.402	552
431.624	533
431.846	540
432.068	543
432.29	535
432.512	540
432.734	558
432.956	548
433.178	551
433.4	568
433.622	538
433.844	552
434.066	553
434.287	537
434.509	549
434.731	546
434.953	581
435.175	595
435.397	597
435.618	598
435.84	652
436.062	707
436.284	804
436.505	672
436.727	615
436.949	589
437.17	574
437.392	549
437.614	583
437.835	592
438.057	681
438.278	791
438.5	820
438.721	884
438.943	859
439.165	667
439.386	604
439.608	636
439.829	599
440.05	633
440.272	672
440.493	645
440.715	581
440.936	578
441.158	578
441.379	556
441.6	604
441.822	602
442.043	643
442.264	744
442.486	805
442.707	657
442.928	632
443.149	597
443.371	625
443.592	684
443.813	797
444.034	855
444.255	726
444.476	644
444.698	642
444.919	604
445.14	734
445.361	669
445.582	643
445.803	702
446.024	817
446.245	823
446.466	751
446.687	649
446.908	604
447.129	577
447.35	537
447.571	549
447.792	537
448.013	542
448.234	570
448.455	630
448.675	752
448.896	892
449.117	745
449.338	680
449.559	796
449.779	908
450	739
450.221	611
450.442	566
450.662	544
450.883	531
451.104	555
451.324	551
451.545	538
451.766	516
451.986	471
452.207	476
452.428	496
452.648	487
452.869	473
453.089	492
453.31	493
453.53	500
453.751	508
453.971	482
454.192	508
454.412	489
454.633	491
454.853	487
455.073	486
455.294	521
455.514	582
455.734	551
455.955	506
456.175	477
456.395	484
456.616	470
456.836	480
457.056	475
457.276	465
457.497	469
457.717	473
457.937	484
458.157	486
458.377	472
458.598	523
458.818	569
459.038	604
459.258	661
459.478	605
459.698	521
459.918	529
460.138	530
460.358	547
460.578	556
460.798	565
461.018	556
461.238	565
461.458	563
461.678	550
461.898	558
462.118	559
462.338	580
462.558	586
462.777	609
462.997	638
463.217	625
463.437	640
463.657	623
463.876	603
464.096	592
464.316	591
464.536	599
464.755	612
464.975	587
465.195	615
465.414	665
465.634	615
465.854	562
466.073	527
466.293	519
466.512	507
466.732	483
466.951	519
467.171	515
467.391	516
467.61	527
467.829	535
468.049	524
468.268	520
468.488	520
468.707	506
468.927	503
469.146	494
469.365	525
469.585	496
469.804	503
470.023	501
470.243	555
470.462	523
470.681	527
470.901	540
471.12	520
471.339	507
471.558	530
471.777	524
471.997	511
472.216	507
472.435	554
472.654	542
472.873	509
473.092	501
473.311	520
473.53	496
473.749	519
473.968	559
474.187	647
474.406	700
474.625	558
474.844	535
475.063	524
475.282	521
475.501	541
475.72	535
475.939	519
476.158	556
476.377	535
476.596	513
476.814	538
477.033	554
477.252	547
477.471	536
477.69	548
477.908	568
478.127	578
478.346	577
478.564	591
478.783	606
479.002	601
479.22	597
479.439	617
479.658	620
479.876	654
480.095	623
480.313	675
480.532	661
480.751	647
480.969	649
481.188	719
481.406	732
481.624	654
481.843	605
482.061	621
482.28	607
482.498	601
482.717	611
482.935	587
483.153	621
483.372	594
483.59	612
483.808	623
484.027	602
484.245	607
484.463	632
484.681	635
484.9	618
485.118	610
485.336	639
485.554	635
485.772	627
485.99	597
486.209	628
486.427	631
486.645	635
486.863	637
487.081	664
487.299	653
487.517	645
487.735	647
487.953	647
488.171	654
488.389	641
488.607	654
488.825	666
489.043	641
489.261	638
489.479	651
489.696	693
489.914	675
490.132	682
490.35	667
490.568	679
490.786	687
491.003	691
491.221	719
491.439	730
491.657	765
491.874	734
492.092	728
492.31	735
492.527	755
492.745	749
492.963	757
493.18	774
493.398	771
493.615	791
493.833	764
494.05	774
494.268	777
494.485	751
494.703	734
494.92	768
495.138	781
495.355	772
495.573	786
495.79	758
496.008	773
496.225	782
496.442	787
496.66	768
496.877	792
497.094	754
497.312	790
497.529	796
497.746	810
497.963	841
498.181	854
498.398	881
498.615	881
498.832	893
499.049	919
499.267	952
499.484	1015
499.701	1042
499.918	1055
500.135	1172
500.352	1208
500.569	1211
500.786	1196
501.003	1182
501.22	1194
501.437	1101
501.654	1035
501.871	1015
502.088	981
502.305	925
502.522	906
502.739	895
502.956	875
503.172	826
503.389	805
503.606	827
503.823	824
504.04	789
504.256	788
504.473	772
504.69	780
504.907	793
505.123	786
505.34	758
505.557	741
505.773	748
505.99	715
506.207	712
506.423	733
506.64	703
506.856	725
507.073	731
507.289	696
507.506	706
507.722	702
507.939	703
508.155	714
508.372	677
508.588	675
508.805	681
509.021	686
509.238	695
509.454	716
509.67	668
509.887	695
510.103	678
510.319	672
510.536	729
510.752	1054
510.968	901
511.184	675
511.401	648
511.617	665
511.833	654
512.049	639
512.265	637
512.481	640
512.698	623
512.914	641
513.13	633
513.346	639
513.562	627
513.778	622
513.994	629
514.21	624
514.426	661
514.642	700
514.858	711
515.074	720
515.29	812
515.506	1088
515.721	942
515.937	731
516.153	687
516.369	682
516.585	681
516.801	658
517.016	672
517.232	655
517.448	697
517.664	696
517.879	704
518.095	696
518.311	685
518.527	680
518.742	679
518.958	667
519.173	652
519.389	668
519.605	641
519.82	637
520.036	639
520.251	668
520.467	671
520.682	671
520.898	671
521.113	681
521.329	713
521.544	746
521.76	891
521.975	1339
522.19	1315
522.406	832
522.621	689
522.836	638
523.052	595
523.267	569
523.482	581
523.698	588
523.913	603
524.128	565
524.343	564
524.559	559
524.774	557
524.989	568
525.204	555
525.419	570
525.634	547
525.849	555
526.064	554
526.28	554
526.495	542
526.71	560
526.925	507
527.14	492
527.355	525
527.57	525
527.785	543
527.999	547
528.214	501
528.429	536
528.644	524
528.859	533
529.074	533
529.289	562
529.503	599
529.718	593
529.933	565
530.148	541
530.363	536
530.577	518
530.792	514
531.007	523
531.221	510
531.436	508
531.651	531
531.865	521
532.08	523
532.295	508
532.509	523
532.724	509
532.938	526
533.153	486
533.367	504
533.582	520
533.796	523
534.011	515
534.225	515
534.44	502
534.654	520
534.868	504
535.083	519
535.297	481
535.511	515
535.726	497
535.94	526
536.154	532
536.369	497
536.583	505
536.797	480
537.011	490
537.225	514
537.44	497
537.654	481
537.868	500
538.082	492
538.296	497
538.51	515
538.724	489
538.938	492
539.153	464
539.367	485
539.581	497
539.795	496
540.009	499
540.222	473
540.436	500
540.65	470
540.864	477
541.078	480
541.292	511
541.506	495
541.72	477
541.934	513
542.147	507
542.361	477
542.575	470
542.789	491
543.002	482
543.216	459
543.43	488
543.644	468
543.857	473
544.071	480
544.285	491
544.498	484
544.712	503
544.925	492
545.139	479
545.352	459
545.566	468
545.779	481
545.993	482
546.206	476
546.42	484
546.633	492
546.847	476
547.06	468
547.274	485
547.487	473
547.7	494
547.914	474
548.127	477
548.34	475
548.554	480
548.767	504
548.98	473
549.193	477
549.407	491
549.62	480
549.833	490
550.046	467
550.259	478
550.473	448
550.686	480
550.899	473
551.112	491
551.325	471
551.538	470
551.751	465
551.964	463
552.177	470
552.39	477
552.603	480
552.816	492
553.029	494
553.242	468
553.455	494
553.667	509
553.88	475
554.093	487
554.306	509
554.519	493
554.732	481
554.944	469
555.157	460
555.37	456
555.583	463
555.795	451
556.008	448
556.221	435
556.433	441
556.646	442
556.859	441
557.071	431
557.284	427
557.496	449
557.709	440
557.921	423
558.134	415
558.346	432
558.559	422
558.771	431
558.984	430
559.196	445
559.409	416
559.621	432
559.833	421
560.046	419
560.258	414
560.47	406
560.683	422
560.895	431
561.107	426
561.32	394
561.532	439
561.744	426
561.956	433
562.168	430
562.381	413
562.593	413
562.805	434
563.017	430
563.229	424
