Data from 1975.PennyLincolnUp.Lamp.En5.5.200Scan.071719.P1.Changed Mount._HRD10591_15-55-48-858.txt Node
Date: Thu Jul 18 15:55:48 EDT 2019
User: cochatt
Spectrometer: HR+D1059
Trigger mode: 1
Integration Time (sec): 1.000000E-1
Scans to average: 1
Electric dark correction enabled: true
Nonlinearity correction enabled: false
Boxcar width: 0
XAxis mode: Wavelengths
Number of Pixels in Spectrum: 2048
>>>>>Begin Spectral Data<<<<<
223.165	-15.88
223.4	-15.88
223.635	-15.88
223.869	-20.88
224.104	-6.88
224.338	-7.88
224.573	-12.88
224.808	-18.88
225.042	-1.88
225.277	-5.88
225.511	-2.88
225.746	-0.88
225.98	2.12
226.215	11.12
226.449	23.12
226.683	5.12
226.918	13.12
227.152	40.12
227.387	40.12
227.621	36.12
227.856	46.12
228.09	53.12
228.324	51.12
228.559	59.12
228.793	68.12
229.027	87.12
229.262	95.12
229.496	100.12
229.73	129.12
229.964	143.12
230.199	127.12
230.433	104.12
230.667	109.12
230.901	113.12
231.136	115.12
231.37	96.12
231.604	113.12
231.838	114.12
232.072	118.12
232.306	105.12
232.541	118.12
232.775	115.12
233.009	128.12
233.243	121.12
233.477	122.12
233.711	116.12
233.945	113.12
234.179	117.12
234.413	125.12
234.647	117.12
234.881	115.12
235.115	123.12
235.349	126.12
235.583	122.12
235.817	114.12
236.051	125.12
236.285	118.12
236.519	119.12
236.753	140.12
236.987	131.12
237.221	160.12
237.455	206.12
237.689	157.12
237.922	137.12
238.156	147.12
238.39	121.12
238.624	120.12
238.858	133.12
239.091	120.12
239.325	124.12
239.559	144.12
239.793	135.12
240.027	131.12
240.26	140.12
240.494	151.12
240.728	166.12
240.961	160.12
241.195	150.12
241.429	133.12
241.662	145.12
241.896	131.12
242.13	131.12
242.363	145.12
242.597	119.12
242.83	133.12
243.064	137.12
243.298	147.12
243.531	135.12
243.765	142.12
243.998	142.12
244.232	134.12
244.465	130.12
244.699	140.12
244.932	142.12
245.166	158.12
245.399	144.12
245.633	156.12
245.866	146.12
246.099	153.12
246.333	138.12
246.566	147.12
246.8	145.12
247.033	151.12
247.266	158.12
247.5	147.12
247.733	171.12
247.966	176.12
248.2	176.12
248.433	171.12
248.666	165.12
248.899	180.12
249.133	186.12
249.366	188.12
249.599	184.12
249.832	177.12
250.066	182.12
250.299	164.12
250.532	187.12
250.765	188.12
250.998	198.12
251.231	209.12
251.465	187.12
251.698	190.12
251.931	197.12
252.164	181.12
252.397	171.12
252.63	186.12
252.863	191.12
253.096	202.12
253.329	219.12
253.562	202.12
253.795	199.12
254.028	196.12
254.261	206.12
254.494	221.12
254.727	239.12
254.96	254.12
255.193	235.12
255.426	224.12
255.659	220.12
255.892	215.12
256.124	222.12
256.357	224.12
256.59	222.12
256.823	215.12
257.056	201.12
257.289	201.12
257.521	213.12
257.754	189.12
257.987	212.12
258.22	202.12
258.452	213.12
258.685	193.12
258.918	218.12
259.151	188.12
259.383	209.12
259.616	212.12
259.849	209.12
260.081	203.12
260.314	221.12
260.547	239.12
260.779	224.12
261.012	231.12
261.244	222.12
261.477	208.12
261.71	207.12
261.942	202.12
262.175	200.12
262.407	209.12
262.64	211.12
262.872	210.12
263.105	193.12
263.337	223.12
263.57	203.12
263.802	204.12
264.035	204.12
264.267	209.12
264.499	191.12
264.732	217.12
264.964	201.12
265.197	210.12
265.429	192.12
265.661	190.12
265.894	209.12
266.126	226.12
266.358	210.12
266.591	218.12
266.823	202.12
267.055	235.12
267.287	213.12
267.52	211.12
267.752	214.12
267.984	227.12
268.216	214.12
268.448	229.12
268.681	234.12
268.913	224.12
269.145	240.12
269.377	263.12
269.609	264.12
269.841	267.12
270.073	252.12
270.306	263.12
270.538	275.12
270.77	285.12
271.002	272.12
271.234	282.12
271.466	266.12
271.698	278.12
271.93	294.12
272.162	284.12
272.394	292.12
272.626	278.12
272.858	267.12
273.09	261.12
273.322	270.12
273.553	247.12
273.785	255.12
274.017	248.12
274.249	238.12
274.481	252.12
274.713	255.12
274.945	255.12
275.176	257.12
275.408	269.12
275.64	251.12
275.872	251.12
276.104	251.12
276.335	266.12
276.567	246.12
276.799	272.12
277.031	303.12
277.262	281.12
277.494	288.12
277.726	300.12
277.957	256.12
278.189	264.12
278.421	269.12
278.652	255.12
278.884	259.12
279.115	260.12
279.347	272.12
279.579	266.12
279.81	270.12
280.042	252.12
280.273	263.12
280.505	251.12
280.736	262.12
280.968	273.12
281.199	255.12
281.431	263.12
281.662	268.12
281.894	253.12
282.125	245.12
282.356	259.12
282.588	272.12
282.819	285.12
283.051	268.12
283.282	267.12
283.513	272.12
283.745	270.12
283.976	278.12
284.207	287.12
284.439	262.12
284.67	271.12
284.901	281.12
285.132	265.12
285.364	263.12
285.595	261.12
285.826	268.12
286.057	268.12
286.288	268.12
286.52	276.12
286.751	288.12
286.982	277.12
287.213	291.12
287.444	277.12
287.675	296.12
287.906	292.12
288.138	303.12
288.369	290.12
288.6	292.12
288.831	281.12
289.062	301.12
289.293	259.12
289.524	284.12
289.755	288.12
289.986	280.12
290.217	278.12
290.448	275.12
290.679	276.12
290.91	289.12
291.141	279.12
291.371	279.12
291.602	270.12
291.833	284.12
292.064	286.12
292.295	295.12
292.526	279.12
292.757	282.12
292.987	285.12
293.218	292.12
293.449	279.12
293.68	270.12
293.91	285.12
294.141	278.12
294.372	283.12
294.603	295.12
294.833	304.12
295.064	279.12
295.295	303.12
295.525	288.12
295.756	297.12
295.987	273.12
296.217	316.12
296.448	303.12
296.679	285.12
296.909	305.12
297.14	286.12
297.37	301.12
297.601	285.12
297.831	301.12
298.062	291.12
298.292	303.12
298.523	296.12
298.753	294.12
298.984	297.12
299.214	311.12
299.445	304.12
299.675	295.12
299.905	309.12
300.136	311.12
300.366	300.12
300.597	309.12
300.827	325.12
301.057	299.12
301.288	302.12
301.518	302.12
301.748	317.12
301.979	307.12
302.209	294.12
302.439	313.12
302.669	325.12
302.9	324.12
303.13	315.12
303.36	323.12
303.59	329.12
303.82	315.12
304.051	341.12
304.281	309.12
304.511	308.12
304.741	329.12
304.971	307.12
305.201	327.12
305.431	315.12
305.661	314.12
305.891	336.12
306.121	325.12
306.352	323.12
306.582	314.12
306.812	318.12
307.042	335.12
307.272	326.12
307.502	315.12
307.731	317.12
307.961	317.12
308.191	323.12
308.421	325.12
308.651	329.12
308.881	330.12
309.111	328.12
309.341	317.12
309.571	315.12
309.8	330.12
310.03	339.12
310.26	363.12
310.49	344.12
310.72	356.12
310.949	372.12
311.179	357.12
311.409	359.12
311.639	348.12
311.868	318.12
312.098	331.12
312.328	355.12
312.557	349.12
312.787	364.12
313.017	362.12
313.246	362.12
313.476	349.12
313.706	354.12
313.935	344.12
314.165	362.12
314.394	375.12
314.624	350.12
314.853	366.12
315.083	357.12
315.312	377.12
315.542	339.12
315.771	351.12
316.001	338.12
316.23	335.12
316.46	356.12
316.689	359.12
316.919	353.12
317.148	372.12
317.377	373.12
317.607	344.12
317.836	375.12
318.065	355.12
318.295	343.12
318.524	365.12
318.753	355.12
318.983	365.12
319.212	355.12
319.441	357.12
319.67	365.12
319.9	378.12
320.129	354.12
320.358	356.12
320.587	348.12
320.816	360.12
321.046	364.12
321.275	377.12
321.504	351.12
321.733	358.12
321.962	385.12
322.191	395.12
322.42	384.12
322.649	384.12
322.878	394.12
323.108	406.12
323.337	404.12
323.566	411.12
323.795	412.12
324.024	444.12
324.253	523.12
324.482	711.12
324.71	1062.12
324.939	1567.12
325.168	1411.12
325.397	675.12
325.626	496.12
325.855	456.12
326.084	425.12
326.313	413.12
326.542	436.12
326.77	465.12
326.999	511.12
327.228	651.12
327.457	961.12
327.686	1189.12
327.914	815.12
328.143	536.12
328.372	483.12
328.6	466.12
328.829	438.12
329.058	477.12
329.287	456.12
329.515	475.12
329.744	435.12
329.972	431.12
330.201	442.12
330.43	465.12
330.658	487.12
330.887	489.12
331.115	477.12
331.344	444.12
331.572	447.12
331.801	442.12
332.03	447.12
332.258	435.12
332.486	427.12
332.715	429.12
332.943	420.12
333.172	411.12
333.4	430.12
333.629	440.12
333.857	441.12
334.085	462.12
334.314	492.12
334.542	478.12
334.771	484.12
334.999	471.12
335.227	469.12
335.455	419.12
335.684	428.12
335.912	424.12
336.14	436.12
336.369	428.12
336.597	401.12
336.825	426.12
337.053	453.12
337.281	405.12
337.51	424.12
337.738	440.12
337.966	414.12
338.194	412.12
338.422	389.12
338.65	423.12
338.878	409.12
339.106	422.12
339.334	409.12
339.562	406.12
339.79	408.12
340.018	397.12
340.246	417.12
340.474	404.12
340.702	420.12
340.93	433.12
341.158	409.12
341.386	419.12
341.614	391.12
341.842	391.12
342.07	394.12
342.298	398.12
342.526	399.12
342.754	406.12
342.981	385.12
343.209	407.12
343.437	387.12
343.665	405.12
343.893	428.12
344.12	447.12
344.348	444.12
344.576	425.12
344.804	420.12
345.031	441.12
345.259	415.12
345.487	407.12
345.714	381.12
345.942	400.12
346.17	380.12
346.397	391.12
346.625	383.12
346.853	381.12
347.08	395.12
347.308	394.12
347.535	398.12
347.763	408.12
347.99	395.12
348.218	385.12
348.445	398.12
348.673	397.12
348.9	396.12
349.128	392.12
349.355	374.12
349.583	366.12
349.81	369.12
350.037	388.12
350.265	382.12
350.492	406.12
350.72	392.12
350.947	371.12
351.174	395.12
351.402	379.12
351.629	409.12
351.856	403.12
352.083	411.12
352.311	401.12
352.538	388.12
352.765	394.12
352.992	383.12
353.22	394.12
353.447	370.12
353.674	371.12
353.901	382.12
354.128	363.12
354.355	379.12
354.583	392.12
354.81	387.12
355.037	366.12
355.264	358.12
355.491	381.12
355.718	364.12
355.945	358.12
356.172	369.12
356.399	377.12
356.626	373.12
356.853	377.12
357.08	380.12
357.307	363.12
357.534	367.12
357.761	362.12
357.988	359.12
358.215	374.12
358.441	367.12
358.668	392.12
358.895	378.12
359.122	391.12
359.349	387.12
359.576	385.12
359.802	420.12
360.029	429.12
360.256	410.12
360.483	412.12
360.709	419.12
360.936	406.12
361.163	394.12
361.39	373.12
361.616	387.12
361.843	393.12
362.07	388.12
362.296	382.12
362.523	399.12
362.749	390.12
362.976	402.12
363.203	382.12
363.429	380.12
363.656	377.12
363.882	379.12
364.109	368.12
364.335	377.12
364.562	386.12
364.788	377.12
365.015	392.12
365.241	388.12
365.468	385.12
365.694	413.12
365.92	370.12
366.147	389.12
366.373	375.12
366.599	370.12
366.826	382.12
367.052	389.12
367.278	377.12
367.505	383.12
367.731	402.12
367.957	378.12
368.184	394.12
368.41	385.12
368.636	394.12
368.862	392.12
369.089	389.12
369.315	366.12
369.541	361.12
369.767	377.12
369.993	401.12
370.219	379.12
370.445	384.12
370.672	376.12
370.898	404.12
371.124	390.12
371.35	392.12
371.576	383.12
371.802	398.12
372.028	395.12
372.254	400.12
372.48	417.12
372.706	394.12
372.932	403.12
373.158	397.12
373.384	393.12
373.61	400.12
373.835	392.12
374.061	394.12
374.287	412.12
374.513	404.12
374.739	403.12
374.965	415.12
375.191	412.12
375.416	404.12
375.642	408.12
375.868	408.12
376.094	414.12
376.319	402.12
376.545	406.12
376.771	391.12
376.997	388.12
377.222	391.12
377.448	415.12
377.674	392.12
377.899	387.12
378.125	387.12
378.35	394.12
378.576	379.12
378.802	378.12
379.027	384.12
379.253	398.12
379.478	400.12
379.704	400.12
379.929	402.12
380.155	404.12
380.38	396.12
380.606	407.12
380.831	421.12
381.057	432.12
381.282	405.12
381.507	398.12
381.733	403.12
381.958	407.12
382.184	425.12
382.409	419.12
382.634	411.12
382.86	405.12
383.085	416.12
383.31	408.12
383.535	406.12
383.761	417.12
383.986	404.12
384.211	431.12
384.436	437.12
384.662	437.12
384.887	431.12
385.112	431.12
385.337	420.12
385.562	455.12
385.787	466.12
386.013	443.12
386.238	469.12
386.463	460.12
386.688	457.12
386.913	423.12
387.138	456.12
387.363	462.12
387.588	443.12
387.813	420.12
388.038	443.12
388.263	455.12
388.488	471.12
388.713	435.12
388.938	450.12
389.163	457.12
389.387	441.12
389.612	451.12
389.837	454.12
390.062	448.12
390.287	455.12
390.512	451.12
390.736	441.12
390.961	443.12
391.186	439.12
391.411	451.12
391.636	457.12
391.86	471.12
392.085	439.12
392.31	477.12
392.534	457.12
392.759	449.12
392.984	462.12
393.208	447.12
393.433	441.12
393.658	455.12
393.882	433.12
394.107	455.12
394.331	457.12
394.556	460.12
394.78	464.12
395.005	437.12
395.229	451.12
395.454	466.12
395.678	488.12
395.903	488.12
396.127	493.12
396.352	492.12
396.576	475.12
396.801	479.12
397.025	485.12
397.249	461.12
397.474	480.12
397.698	489.12
397.922	480.12
398.147	492.12
398.371	507.12
398.595	505.12
398.82	531.12
399.044	520.12
399.268	556.12
399.492	563.12
399.717	606.12
399.941	641.12
400.165	655.12
400.389	656.12
400.613	607.12
400.837	550.12
401.062	552.12
401.286	539.12
401.51	511.12
401.734	501.12
401.958	503.12
402.182	499.12
402.406	537.12
402.63	519.12
402.854	519.12
403.078	504.12
403.302	539.12
403.526	540.12
403.75	553.12
403.974	557.12
404.198	526.12
404.422	555.12
404.645	551.12
404.869	535.12
405.093	581.12
405.317	619.12
405.541	632.12
405.765	603.12
405.988	581.12
406.212	563.12
406.436	545.12
406.66	571.12
406.883	578.12
407.107	600.12
407.331	621.12
407.555	719.12
407.778	690.12
408.002	640.12
408.226	607.12
408.449	585.12
408.673	570.12
408.896	606.12
409.12	668.12
409.344	606.12
409.567	574.12
409.791	564.12
410.014	561.12
410.238	545.12
410.461	538.12
410.685	535.12
410.908	567.12
411.132	555.12
411.355	591.12
411.578	582.12
411.802	542.12
412.025	523.12
412.249	547.12
412.472	570.12
412.695	632.12
412.919	614.12
413.142	565.12
413.365	524.12
413.589	504.12
413.812	524.12
414.035	495.12
414.258	527.12
414.482	516.12
414.705	513.12
414.928	492.12
415.151	513.12
415.374	508.12
415.597	495.12
415.821	509.12
416.044	514.12
416.267	500.12
416.49	501.12
416.713	506.12
416.936	500.12
417.159	507.12
417.382	513.12
417.605	523.12
417.828	513.12
418.051	552.12
418.274	527.12
418.497	515.12
418.72	502.12
418.943	511.12
419.166	540.12
419.389	557.12
419.611	556.12
419.834	558.12
420.057	575.12
420.28	548.12
420.503	524.12
420.726	512.12
420.948	540.12
421.171	585.12
421.394	599.12
421.617	543.12
421.839	532.12
422.062	538.12
422.285	536.12
422.507	603.12
422.73	695.12
422.953	667.12
423.175	569.12
423.398	525.12
423.621	526.12
423.843	559.12
424.066	555.12
424.288	566.12
424.511	579.12
424.733	610.12
424.956	695.12
425.178	641.12
425.401	656.12
425.623	668.12
425.846	594.12
426.068	562.12
426.291	550.12
426.513	569.12
426.735	570.12
426.958	587.12
427.18	677.12
427.402	795.12
427.625	839.12
427.847	709.12
428.069	628.12
428.292	574.12
428.514	516.12
428.736	501.12
428.958	506.12
429.181	493.12
429.403	519.12
429.625	542.12
429.847	568.12
430.069	597.12
430.292	594.12
430.514	528.12
430.736	525.12
430.958	512.12
431.18	488.12
431.402	491.12
431.624	497.12
431.846	468.12
432.068	480.12
432.29	488.12
432.512	481.12
432.734	492.12
432.956	488.12
433.178	500.12
433.4	502.12
433.622	487.12
433.844	505.12
434.066	496.12
434.287	500.12
434.509	499.12
434.731	504.12
434.953	528.12
435.175	528.12
435.397	544.12
435.618	553.12
435.84	601.12
436.062	680.12
436.284	751.12
436.505	611.12
436.727	561.12
436.949	541.12
437.17	512.12
437.392	523.12
437.614	528.12
437.835	540.12
438.057	624.12
438.278	733.12
438.5	700.12
438.721	791.12
438.943	759.12
439.165	629.12
439.386	560.12
439.608	587.12
439.829	551.12
440.05	585.12
440.272	593.12
440.493	558.12
440.715	555.12
440.936	539.12
441.158	525.12
441.379	517.12
441.6	536.12
441.822	552.12
442.043	580.12
442.264	645.12
442.486	692.12
442.707	616.12
442.928	556.12
443.149	569.12
443.371	581.12
443.592	612.12
443.813	707.12
444.034	777.12
444.255	657.12
444.476	588.12
444.698	569.12
444.919	584.12
445.14	683.12
445.361	610.12
445.582	559.12
445.803	624.12
446.024	733.12
446.245	735.12
446.466	651.12
446.687	603.12
446.908	545.12
447.129	523.12
447.35	515.12
447.571	501.12
447.792	513.12
448.013	506.12
448.234	521.12
448.455	558.12
448.675	660.12
448.896	767.12
449.117	658.12
449.338	630.12
449.559	736.12
449.779	863.12
450	659.12
450.221	553.12
450.442	503.12
450.662	484.12
450.883	479.12
451.104	510.12
451.324	497.12
451.545	473.12
451.766	472.12
451.986	457.12
452.207	449.12
452.428	468.12
452.648	477.12
452.869	445.12
453.089	458.12
453.31	448.12
453.53	459.12
453.751	447.12
453.971	453.12
454.192	469.12
454.412	448.12
454.633	439.12
454.853	427.12
455.073	440.12
455.294	463.12
455.514	526.12
455.734	521.12
455.955	472.12
456.175	435.12
456.395	423.12
456.616	431.12
456.836	421.12
457.056	419.12
457.276	405.12
457.497	414.12
457.717	410.12
457.937	442.12
458.157	456.12
458.377	447.12
458.598	472.12
458.818	482.12
459.038	551.12
459.258	581.12
459.478	504.12
459.698	494.12
459.918	495.12
460.138	503.12
460.358	505.12
460.578	497.12
460.798	531.12
461.018	546.12
461.238	505.12
461.458	519.12
461.678	528.12
461.898	527.12
462.118	501.12
462.338	547.12
462.558	559.12
462.777	542.12
462.997	569.12
463.217	600.12
463.437	599.12
463.657	550.12
463.876	580.12
464.096	556.12
464.316	551.12
464.536	555.12
464.755	547.12
464.975	544.12
465.195	553.12
465.414	586.12
465.634	541.12
465.854	509.12
466.073	478.12
466.293	479.12
466.512	485.12
466.732	468.12
466.951	479.12
467.171	465.12
467.391	481.12
467.61	485.12
467.829	473.12
468.049	485.12
468.268	473.12
468.488	477.12
468.707	465.12
468.927	468.12
469.146	462.12
469.365	476.12
469.585	469.12
469.804	479.12
470.023	479.12
470.243	485.12
470.462	466.12
470.681	492.12
470.901	481.12
471.12	492.12
471.339	459.12
471.558	483.12
471.777	471.12
471.997	472.12
472.216	468.12
472.435	500.12
472.654	485.12
472.873	475.12
473.092	447.12
473.311	449.12
473.53	472.12
473.749	485.12
473.968	517.12
474.187	589.12
474.406	605.12
474.625	509.12
474.844	497.12
475.063	472.12
475.282	473.12
475.501	480.12
475.72	483.12
475.939	464.12
476.158	495.12
476.377	500.12
476.596	495.12
476.814	485.12
477.033	511.12
477.252	509.12
477.471	505.12
477.69	546.12
477.908	530.12
478.127	547.12
478.346	527.12
478.564	535.12
478.783	519.12
479.002	545.12
479.22	571.12
479.439	544.12
479.658	554.12
479.876	577.12
480.095	583.12
480.313	601.12
480.532	593.12
480.751	599.12
480.969	587.12
481.188	630.12
481.406	653.12
481.624	581.12
481.843	576.12
482.061	554.12
482.28	552.12
482.498	538.12
482.717	570.12
482.935	559.12
483.153	558.12
483.372	547.12
483.59	556.12
483.808	546.12
484.027	564.12
484.245	558.12
484.463	560.12
484.681	582.12
484.9	574.12
485.118	580.12
485.336	571.12
485.554	588.12
485.772	595.12
485.99	565.12
486.209	577.12
486.427	593.12
486.645	615.12
486.863	613.12
487.081	594.12
487.299	582.12
487.517	587.12
487.735	595.12
487.953	595.12
488.171	606.12
488.389	617.12
488.607	584.12
488.825	590.12
489.043	589.12
489.261	589.12
489.479	607.12
489.696	599.12
489.914	594.12
490.132	622.12
490.35	609.12
490.568	632.12
490.786	638.12
491.003	646.12
491.221	678.12
491.439	676.12
491.657	656.12
491.874	665.12
492.092	670.12
492.31	689.12
492.527	676.12
492.745	678.12
492.963	691.12
493.18	711.12
493.398	696.12
493.615	680.12
493.833	707.12
494.05	689.12
494.268	709.12
494.485	679.12
494.703	719.12
494.92	711.12
495.138	702.12
495.355	693.12
495.573	687.12
495.79	683.12
496.008	730.12
496.225	714.12
496.442	695.12
496.66	705.12
496.877	695.12
497.094	726.12
497.312	724.12
497.529	718.12
497.746	738.12
497.963	774.12
498.181	759.12
498.398	759.12
498.615	796.12
498.832	832.12
499.049	853.12
499.267	874.12
499.484	897.12
499.701	958.12
499.918	1016.12
500.135	1047.12
500.352	1120.12
500.569	1111.12
500.786	1156.12
501.003	1111.12
501.22	1077.12
501.437	1003.12
501.654	971.12
