Data from 1975.PennyLincolnUp.Lamp.En5.5.200Scan.071719.P1.Changed Mount._HRD10591_15-55-47-859.txt Node
Date: Thu Jul 18 15:55:47 EDT 2019
User: cochatt
Spectrometer: HR+D1059
Trigger mode: 1
Integration Time (sec): 1.000000E-1
Scans to average: 1
Electric dark correction enabled: true
Nonlinearity correction enabled: false
Boxcar width: 0
XAxis mode: Wavelengths
Number of Pixels in Spectrum: 2048
>>>>>Begin Spectral Data<<<<<
223.165	-13.88
223.4	-13.88
223.635	-13.88
223.869	-15.88
224.104	-9.88
224.338	-20.88
224.573	-24.88
224.808	-13.88
225.042	0.12
225.277	1.12
225.511	-1.88
225.746	8.12
225.98	2.12
226.215	0.12
226.449	10.12
226.683	21.12
226.918	26.12
227.152	32.12
227.387	29.12
227.621	43.12
227.856	35.12
228.09	49.12
228.324	41.12
228.559	60.12
228.793	62.12
229.027	81.12
229.262	95.12
229.496	114.12
229.73	119.12
229.964	129.12
230.199	128.12
230.433	96.12
230.667	107.12
230.901	117.12
231.136	106.12
231.37	114.12
231.604	104.12
231.838	108.12
232.072	100.12
232.306	104.12
232.541	107.12
232.775	97.12
233.009	118.12
233.243	112.12
233.477	99.12
233.711	107.12
233.945	107.12
234.179	103.12
234.413	109.12
234.647	108.12
234.881	115.12
235.115	114.12
235.349	116.12
235.583	107.12
235.817	121.12
236.051	120.12
236.285	125.12
236.519	124.12
236.753	121.12
236.987	129.12
237.221	159.12
237.455	204.12
237.689	167.12
237.922	139.12
238.156	123.12
238.39	123.12
238.624	111.12
238.858	122.12
239.091	130.12
239.325	124.12
239.559	117.12
239.793	133.12
240.027	114.12
240.26	133.12
240.494	140.12
240.728	152.12
240.961	138.12
241.195	140.12
241.429	128.12
241.662	126.12
241.896	132.12
242.13	120.12
242.363	136.12
242.597	130.12
242.83	134.12
243.064	123.12
243.298	147.12
243.531	133.12
243.765	154.12
243.998	141.12
244.232	138.12
244.465	128.12
244.699	130.12
244.932	156.12
245.166	160.12
245.399	149.12
245.633	144.12
245.866	142.12
246.099	155.12
246.333	145.12
246.566	150.12
246.8	142.12
247.033	146.12
247.266	154.12
247.5	143.12
247.733	171.12
247.966	155.12
248.2	171.12
248.433	160.12
248.666	171.12
248.899	189.12
249.133	185.12
249.366	198.12
249.599	182.12
249.832	181.12
250.066	182.12
250.299	168.12
250.532	183.12
250.765	186.12
250.998	228.12
251.231	225.12
251.465	189.12
251.698	190.12
251.931	183.12
252.164	181.12
252.397	162.12
252.63	190.12
252.863	187.12
253.096	199.12
253.329	203.12
253.562	218.12
253.795	225.12
254.028	190.12
254.261	206.12
254.494	202.12
254.727	247.12
254.96	265.12
255.193	254.12
255.426	226.12
255.659	230.12
255.892	238.12
256.124	208.12
256.357	235.12
256.59	215.12
256.823	208.12
257.056	210.12
257.289	198.12
257.521	186.12
257.754	200.12
257.987	176.12
258.22	182.12
258.452	193.12
258.685	196.12
258.918	210.12
259.151	194.12
259.383	193.12
259.616	201.12
259.849	229.12
260.081	220.12
260.314	227.12
260.547	260.12
260.779	227.12
261.012	207.12
261.244	185.12
261.477	213.12
261.71	216.12
261.942	216.12
262.175	223.12
262.407	215.12
262.64	222.12
262.872	208.12
263.105	186.12
263.337	218.12
263.57	201.12
263.802	199.12
264.035	191.12
264.267	216.12
264.499	206.12
264.732	222.12
264.964	200.12
265.197	212.12
265.429	203.12
265.661	217.12
265.894	189.12
266.126	200.12
266.358	208.12
266.591	228.12
266.823	211.12
267.055	230.12
267.287	212.12
267.52	221.12
267.752	222.12
267.984	206.12
268.216	219.12
268.448	235.12
268.681	241.12
268.913	244.12
269.145	245.12
269.377	253.12
269.609	250.12
269.841	252.12
270.073	242.12
270.306	274.12
270.538	291.12
270.77	287.12
271.002	276.12
271.234	268.12
271.466	270.12
271.698	292.12
271.93	283.12
272.162	294.12
272.394	286.12
272.626	270.12
272.858	261.12
273.09	282.12
273.322	262.12
273.553	252.12
273.785	258.12
274.017	240.12
274.249	254.12
274.481	243.12
274.713	254.12
274.945	248.12
275.176	261.12
275.408	248.12
275.64	270.12
275.872	252.12
276.104	257.12
276.335	248.12
276.567	268.12
276.799	277.12
277.031	279.12
277.262	280.12
277.494	297.12
277.726	279.12
277.957	286.12
278.189	251.12
278.421	241.12
278.652	264.12
278.884	256.12
279.115	263.12
279.347	279.12
279.579	245.12
279.81	260.12
280.042	250.12
280.273	269.12
280.505	272.12
280.736	264.12
280.968	255.12
281.199	246.12
281.431	261.12
281.662	256.12
281.894	268.12
282.125	269.12
282.356	278.12
282.588	287.12
282.819	270.12
283.051	258.12
283.282	244.12
283.513	258.12
283.745	270.12
283.976	265.12
284.207	264.12
284.439	272.12
284.67	275.12
284.901	282.12
285.132	275.12
285.364	270.12
285.595	276.12
285.826	271.12
286.057	260.12
286.288	271.12
286.52	283.12
286.751	269.12
286.982	279.12
287.213	290.12
287.444	278.12
287.675	268.12
287.906	295.12
288.138	280.12
288.369	290.12
288.6	304.12
288.831	301.12
289.062	281.12
289.293	297.12
289.524	287.12
289.755	301.12
289.986	305.12
290.217	291.12
290.448	273.12
290.679	284.12
290.91	274.12
291.141	277.12
291.371	277.12
291.602	273.12
291.833	286.12
292.064	296.12
292.295	278.12
292.526	291.12
292.757	293.12
292.987	289.12
293.218	297.12
293.449	300.12
293.68	300.12
293.91	273.12
294.141	279.12
294.372	284.12
294.603	292.12
294.833	289.12
295.064	299.12
295.295	284.12
295.525	282.12
295.756	304.12
295.987	277.12
296.217	323.12
296.448	320.12
296.679	308.12
296.909	281.12
297.14	286.12
297.37	290.12
297.601	296.12
297.831	295.12
298.062	315.12
298.292	288.12
298.523	283.12
298.753	300.12
298.984	305.12
299.214	328.12
299.445	272.12
299.675	314.12
299.905	293.12
300.136	292.12
300.366	294.12
300.597	301.12
300.827	307.12
301.057	324.12
301.288	316.12
301.518	326.12
301.748	309.12
301.979	310.12
302.209	313.12
302.439	329.12
302.669	325.12
302.9	335.12
303.13	333.12
303.36	314.12
303.59	306.12
303.82	322.12
304.051	336.12
304.281	337.12
304.511	315.12
304.741	321.12
304.971	325.12
305.201	310.12
305.431	324.12
305.661	328.12
305.891	320.12
306.121	319.12
306.352	332.12
306.582	310.12
306.812	331.12
307.042	335.12
307.272	322.12
307.502	330.12
307.731	322.12
307.961	313.12
308.191	329.12
308.421	330.12
308.651	325.12
308.881	331.12
309.111	326.12
309.341	322.12
309.571	312.12
309.8	336.12
310.03	345.12
310.26	369.12
310.49	340.12
310.72	336.12
310.949	362.12
311.179	371.12
311.409	362.12
311.639	333.12
311.868	350.12
312.098	353.12
312.328	366.12
312.557	378.12
312.787	370.12
313.017	377.12
313.246	366.12
313.476	342.12
313.706	363.12
313.935	350.12
314.165	350.12
314.394	384.12
314.624	365.12
314.853	340.12
315.083	370.12
315.312	374.12
315.542	354.12
315.771	380.12
316.001	352.12
316.23	357.12
316.46	361.12
316.689	334.12
316.919	338.12
317.148	337.12
317.377	378.12
317.607	378.12
317.836	352.12
318.065	350.12
318.295	358.12
318.524	370.12
318.753	361.12
318.983	375.12
319.212	350.12
319.441	338.12
319.67	376.12
319.9	344.12
320.129	356.12
320.358	366.12
320.587	362.12
320.816	364.12
321.046	376.12
321.275	374.12
321.504	378.12
321.733	377.12
321.962	370.12
322.191	377.12
322.42	377.12
322.649	404.12
322.878	393.12
323.108	406.12
323.337	429.12
323.566	437.12
323.795	442.12
324.024	455.12
324.253	537.12
324.482	709.12
324.71	1098.12
324.939	1592.12
325.168	1410.12
325.397	707.12
325.626	489.12
325.855	442.12
326.084	420.12
326.313	413.12
326.542	437.12
326.77	471.12
326.999	532.12
327.228	672.12
327.457	963.12
327.686	1202.12
327.914	818.12
328.143	553.12
328.372	500.12
328.6	484.12
328.829	486.12
329.058	478.12
329.287	473.12
329.515	462.12
329.744	447.12
329.972	446.12
330.201	450.12
330.43	474.12
330.658	506.12
330.887	509.12
331.115	502.12
331.344	453.12
331.572	436.12
331.801	450.12
332.03	437.12
332.258	442.12
332.486	453.12
332.715	418.12
332.943	427.12
333.172	446.12
333.4	459.12
333.629	460.12
333.857	467.12
334.085	469.12
334.314	483.12
334.542	493.12
334.771	507.12
334.999	500.12
335.227	459.12
335.455	441.12
335.684	458.12
335.912	432.12
336.14	427.12
336.369	414.12
336.597	450.12
336.825	449.12
337.053	439.12
337.281	426.12
337.51	442.12
337.738	431.12
337.966	418.12
338.194	421.12
338.422	417.12
338.65	414.12
338.878	426.12
339.106	410.12
339.334	438.12
339.562	420.12
339.79	409.12
340.018	408.12
340.246	415.12
340.474	408.12
340.702	404.12
340.93	402.12
341.158	404.12
341.386	394.12
341.614	412.12
341.842	394.12
342.07	419.12
342.298	412.12
342.526	425.12
342.754	396.12
342.981	413.12
343.209	377.12
343.437	401.12
343.665	417.12
343.893	429.12
344.12	460.12
344.348	429.12
344.576	429.12
344.804	450.12
345.031	416.12
345.259	429.12
345.487	438.12
345.714	409.12
345.942	400.12
346.17	418.12
346.397	393.12
346.625	377.12
346.853	399.12
347.08	374.12
347.308	400.12
347.535	390.12
347.763	397.12
347.99	404.12
348.218	401.12
348.445	402.12
348.673	410.12
348.9	401.12
349.128	397.12
349.355	393.12
349.583	403.12
349.81	375.12
350.037	397.12
350.265	384.12
350.492	395.12
350.72	403.12
350.947	406.12
351.174	409.12
351.402	406.12
351.629	409.12
351.856	411.12
352.083	393.12
352.311	384.12
352.538	378.12
352.765	393.12
352.992	385.12
353.22	397.12
353.447	373.12
353.674	391.12
353.901	402.12
354.128	375.12
354.355	380.12
354.583	394.12
354.81	373.12
355.037	393.12
355.264	368.12
355.491	403.12
355.718	389.12
355.945	386.12
356.172	372.12
356.399	362.12
356.626	373.12
356.853	384.12
357.08	384.12
357.307	392.12
357.534	352.12
357.761	398.12
357.988	416.12
358.215	386.12
358.441	397.12
358.668	377.12
358.895	386.12
359.122	390.12
359.349	392.12
359.576	382.12
359.802	395.12
360.029	425.12
360.256	426.12
360.483	422.12
360.709	400.12
360.936	410.12
361.163	405.12
361.39	376.12
361.616	408.12
361.843	394.12
362.07	392.12
362.296	397.12
362.523	410.12
362.749	398.12
362.976	407.12
363.203	393.12
363.429	378.12
363.656	386.12
363.882	407.12
364.109	425.12
364.335	385.12
364.562	404.12
364.788	400.12
365.015	392.12
365.241	405.12
365.468	393.12
365.694	401.12
365.92	387.12
366.147	368.12
366.373	402.12
366.599	412.12
366.826	398.12
367.052	390.12
367.278	385.12
367.505	375.12
367.731	392.12
367.957	383.12
368.184	398.12
368.41	407.12
368.636	408.12
368.862	407.12
369.089	417.12
369.315	390.12
369.541	388.12
369.767	398.12
369.993	412.12
370.219	397.12
370.445	389.12
370.672	392.12
370.898	404.12
371.124	408.12
371.35	410.12
371.576	391.12
371.802	392.12
372.028	395.12
372.254	388.12
372.48	416.12
372.706	412.12
372.932	404.12
373.158	406.12
373.384	402.12
373.61	408.12
373.835	402.12
374.061	392.12
374.287	421.12
374.513	402.12
374.739	443.12
374.965	417.12
375.191	423.12
375.416	396.12
375.642	434.12
375.868	429.12
376.094	429.12
376.319	421.12
376.545	398.12
376.771	409.12
376.997	418.12
377.222	380.12
377.448	402.12
377.674	415.12
377.899	415.12
378.125	402.12
378.35	394.12
378.576	398.12
378.802	418.12
379.027	408.12
379.253	399.12
379.478	390.12
379.704	391.12
379.929	388.12
380.155	396.12
380.38	412.12
380.606	402.12
380.831	410.12
381.057	398.12
381.282	388.12
381.507	402.12
381.733	414.12
381.958	400.12
382.184	421.12
382.409	427.12
382.634	425.12
382.86	417.12
383.085	428.12
383.31	434.12
383.535	446.12
383.761	432.12
383.986	448.12
384.211	425.12
384.436	433.12
384.662	460.12
384.887	430.12
385.112	456.12
385.337	452.12
385.562	447.12
385.787	438.12
386.013	452.12
386.238	454.12
386.463	465.12
386.688	470.12
386.913	445.12
387.138	464.12
387.363	465.12
387.588	455.12
387.813	452.12
388.038	482.12
388.263	456.12
388.488	460.12
388.713	471.12
388.938	450.12
389.163	450.12
389.387	456.12
389.612	450.12
389.837	457.12
390.062	470.12
390.287	445.12
390.512	442.12
390.736	435.12
390.961	465.12
391.186	452.12
391.411	462.12
391.636	472.12
391.86	468.12
392.085	489.12
392.31	467.12
392.534	472.12
392.759	461.12
392.984	452.12
393.208	483.12
393.433	464.12
393.658	471.12
393.882	464.12
394.107	455.12
394.331	448.12
394.556	459.12
394.78	476.12
395.005	477.12
395.229	454.12
395.454	462.12
395.678	492.12
395.903	491.12
396.127	516.12
396.352	505.12
396.576	458.12
396.801	451.12
397.025	482.12
397.249	491.12
397.474	503.12
397.698	488.12
397.922	502.12
398.147	484.12
398.371	513.12
398.595	512.12
398.82	499.12
399.044	505.12
399.268	556.12
399.492	603.12
399.717	644.12
399.941	676.12
400.165	682.12
400.389	662.12
400.613	600.12
400.837	542.12
401.062	544.12
401.286	552.12
401.51	525.12
401.734	540.12
401.958	532.12
402.182	559.12
402.406	544.12
402.63	539.12
402.854	541.12
403.078	538.12
403.302	548.12
403.526	581.12
403.75	576.12
403.974	531.12
404.198	570.12
404.422	546.12
404.645	561.12
404.869	566.12
405.093	601.12
405.317	630.12
405.541	646.12
405.765	598.12
405.988	570.12
406.212	577.12
406.436	588.12
406.66	591.12
406.883	605.12
407.107	613.12
407.331	642.12
407.555	714.12
407.778	724.12
408.002	673.12
408.226	612.12
408.449	628.12
408.673	612.12
408.896	618.12
409.12	644.12
409.344	611.12
409.567	568.12
409.791	561.12
410.014	560.12
410.238	551.12
410.461	557.12
410.685	574.12
410.908	554.12
411.132	609.12
411.355	639.12
411.578	613.12
411.802	538.12
412.025	544.12
412.249	532.12
412.472	590.12
412.695	636.12
412.919	624.12
413.142	587.12
413.365	549.12
413.589	536.12
413.812	537.12
414.035	522.12
414.258	518.12
414.482	521.12
414.705	518.12
414.928	540.12
415.151	518.12
415.374	525.12
415.597	520.12
415.821	514.12
416.044	542.12
416.267	527.12
416.49	504.12
416.713	503.12
416.936	527.12
417.159	514.12
417.382	518.12
417.605	500.12
417.828	505.12
418.051	565.12
418.274	533.12
418.497	530.12
418.72	519.12
418.943	518.12
419.166	548.12
419.389	578.12
419.611	571.12
419.834	540.12
420.057	565.12
420.28	566.12
420.503	571.12
420.726	542.12
420.948	543.12
421.171	597.12
421.394	588.12
421.617	566.12
421.839	540.12
422.062	559.12
422.285	556.12
422.507	616.12
422.73	666.12
422.953	656.12
423.175	584.12
423.398	564.12
423.621	563.12
423.843	602.12
424.066	568.12
424.288	565.12
424.511	594.12
424.733	649.12
424.956	716.12
425.178	686.12
425.401	692.12
425.623	704.12
425.846	617.12
426.068	550.12
426.291	546.12
426.513	546.12
426.735	572.12
426.958	597.12
427.18	692.12
427.402	802.12
427.625	882.12
427.847	749.12
428.069	646.12
428.292	598.12
428.514	560.12
428.736	531.12
428.958	539.12
429.181	523.12
429.403	521.12
429.625	537.12
429.847	561.12
430.069	618.12
430.292	620.12
430.514	526.12
430.736	520.12
430.958	509.12
431.18	503.12
431.402	500.12
431.624	486.12
431.846	488.12
432.068	512.12
432.29	498.12
432.512	487.12
432.734	512.12
432.956	540.12
433.178	550.12
433.4	516.12
433.622	491.12
433.844	510.12
434.066	505.12
434.287	519.12
434.509	502.12
434.731	509.12
434.953	517.12
435.175	552.12
435.397	567.12
435.618	574.12
435.84	603.12
436.062	681.12
436.284	746.12
436.505	618.12
436.727	580.12
436.949	544.12
437.17	523.12
437.392	532.12
437.614	527.12
437.835	549.12
438.057	618.12
438.278	721.12
438.5	728.12
438.721	812.12
438.943	807.12
439.165	627.12
439.386	556.12
439.608	584.12
439.829	559.12
440.05	582.12
440.272	611.12
440.493	570.12
440.715	548.12
440.936	549.12
441.158	522.12
441.379	538.12
441.6	580.12
441.822	541.12
442.043	573.12
442.264	693.12
442.486	729.12
442.707	645.12
442.928	580.12
443.149	586.12
443.371	612.12
443.592	656.12
443.813	724.12
444.034	796.12
444.255	670.12
444.476	606.12
444.698	601.12
444.919	600.12
445.14	702.12
445.361	655.12
445.582	608.12
445.803	640.12
446.024	735.12
446.245	753.12
446.466	694.12
446.687	590.12
446.908	577.12
447.129	536.12
447.35	524.12
447.571	534.12
447.792	477.12
448.013	495.12
448.234	522.12
448.455	543.12
448.675	657.12
448.896	775.12
449.117	651.12
449.338	627.12
449.559	748.12
449.779	853.12
450	705.12
450.221	558.12
450.442	529.12
450.662	499.12
450.883	499.12
451.104	498.12
451.324	489.12
451.545	488.12
451.766	479.12
451.986	450.12
452.207	446.12
452.428	463.12
452.648	466.12
452.869	447.12
453.089	489.12
453.31	465.12
453.53	478.12
453.751	480.12
453.971	457.12
454.192	483.12
454.412	445.12
454.633	453.12
454.853	456.12
455.073	457.12
455.294	482.12
455.514	534.12
455.734	533.12
455.955	454.12
456.175	444.12
456.395	433.12
456.616	426.12
456.836	465.12
457.056	443.12
457.276	434.12
457.497	444.12
457.717	435.12
457.937	450.12
458.157	456.12
458.377	459.12
458.598	491.12
458.818	505.12
459.038	558.12
459.258	592.12
459.478	532.12
459.698	525.12
459.918	503.12
460.138	496.12
460.358	520.12
460.578	519.12
460.798	512.12
461.018	521.12
461.238	535.12
461.458	531.12
461.678	513.12
461.898	517.12
462.118	525.12
462.338	552.12
462.558	562.12
462.777	544.12
462.997	584.12
463.217	581.12
463.437	603.12
463.657	580.12
463.876	576.12
464.096	554.12
464.316	572.12
464.536	558.12
464.755	575.12
464.975	553.12
465.195	593.12
465.414	599.12
465.634	569.12
465.854	526.12
466.073	505.12
466.293	511.12
466.512	487.12
466.732	494.12
466.951	482.12
467.171	477.12
467.391	473.12
467.61	481.12
467.829	478.12
468.049	474.12
468.268	485.12
468.488	472.12
468.707	464.12
468.927	465.12
469.146	463.12
469.365	473.12
469.585	484.12
469.804	512.12
470.023	476.12
470.243	491.12
470.462	491.12
470.681	512.12
470.901	506.12
471.12	507.12
471.339	497.12
471.558	509.12
471.777	500.12
471.997	489.12
472.216	498.12
472.435	487.12
472.654	507.12
472.873	477.12
473.092	467.12
473.311	466.12
473.53	466.12
473.749	487.12
473.968	524.12
474.187	598.12
474.406	641.12
474.625	517.12
474.844	484.12
475.063	477.12
475.282	462.12
475.501	503.12
475.72	490.12
475.939	505.12
476.158	480.12
476.377	492.12
476.596	503.12
476.814	508.12
477.033	519.12
477.252	510.12
477.471	518.12
477.69	529.12
477.908	552.12
478.127	554.12
478.346	529.12
478.564	551.12
478.783	570.12
479.002	564.12
479.22	557.12
479.439	590.12
479.658	598.12
479.876	587.12
480.095	598.12
480.313	612.12
480.532	611.12
480.751	605.12
480.969	614.12
481.188	666.12
481.406	660.12
481.624	614.12
481.843	582.12
482.061	583.12
482.28	582.12
482.498	553.12
482.717	568.12
482.935	567.12
483.153	568.12
483.372	569.12
483.59	582.12
483.808	580.12
484.027	563.12
484.245	556.12
484.463	586.12
484.681	587.12
484.9	572.12
485.118	590.12
485.336	563.12
485.554	596.12
485.772	602.12
485.99	600.12
486.209	601.12
486.427	605.12
486.645	601.12
486.863	608.12
487.081	608.12
487.299	604.12
487.517	626.12
487.735	620.12
487.953	614.12
488.171	628.12
488.389	612.12
488.607	588.12
488.825	604.12
489.043	628.12
489.261	604.12
489.479	627.12
489.696	637.12
489.914	636.12
490.132	639.12
490.35	662.12
490.568	642.12
490.786	649.12
491.003	668.12
491.221	678.12
491.439	678.12
491.657	667.12
491.874	691.12
492.092	680.12
492.31	701.12
492.527	698.12
492.745	702.12
492.963	712.12
493.18	715.12
493.398	705.12
493.615	714.12
493.833	713.12
494.05	724.12
494.268	707.12
494.485	681.12
494.703	706.12
494.92	698.12
495.138	717.12
495.355	712.12
495.573	720.12
495.79	724.12
496.008	704.12
496.225	725.12
496.442	731.12
496.66	720.12
496.877	736.12
497.094	746.12
497.312	771.12
497.529	736.12
497.746	760.12
497.963	757.12
498.181	808.12
498.398	800.12
498.615	846.12
498.832	834.12
499.049	867.12
499.267	915.12
499.484	931.12
499.701	975.12
499.918	1049.12
500.135	1093.12
500.352	1109.12
500.569	1178.12
500.786	1184.12
501.003	1144.12
501.22	1095.12
501.437	1059.12
501.654	984.12
