Data from 1975.PennyLincolnUp.Lamp.En5.5.200Scan.071719.P1.Changed Mount._HRD10591_15-57-14-859.txt Node
Date: Thu Jul 18 15:57:14 EDT 2019
User: cochatt
Spectrometer: HR+D1059
Trigger mode: 1
Integration Time (sec): 1.000000E-1
Scans to average: 1
Electric dark correction enabled: true
Nonlinearity correction enabled: false
Boxcar width: 0
XAxis mode: Wavelengths
Number of Pixels in Spectrum: 2048
>>>>>Begin Spectral Data<<<<<
223.165	-14.88
223.4	-14.88
223.635	-14.88
223.869	-21.88
224.104	-26.88
224.338	-18.88
224.573	-14.88
224.808	-20.88
225.042	-2.88
225.277	4.12
225.511	-0.88
225.746	8.12
225.98	7.12
226.215	16.12
226.449	11.12
226.683	14.12
226.918	33.12
227.152	28.12
227.387	28.12
227.621	33.12
227.856	49.12
228.09	40.12
228.324	50.12
228.559	47.12
228.793	64.12
229.027	113.12
229.262	106.12
229.496	118.12
229.73	129.12
229.964	145.12
230.199	115.12
230.433	111.12
230.667	105.12
230.901	111.12
231.136	125.12
231.37	112.12
231.604	102.12
231.838	117.12
232.072	106.12
232.306	101.12
232.541	112.12
232.775	113.12
233.009	109.12
233.243	118.12
233.477	102.12
233.711	106.12
233.945	124.12
234.179	115.12
234.413	111.12
234.647	132.12
234.881	125.12
235.115	124.12
235.349	100.12
235.583	114.12
235.817	127.12
236.051	119.12
236.285	118.12
236.519	137.12
236.753	133.12
236.987	152.12
237.221	181.12
237.455	233.12
237.689	181.12
237.922	142.12
238.156	136.12
238.39	125.12
238.624	117.12
238.858	129.12
239.091	125.12
239.325	129.12
239.559	113.12
239.793	118.12
240.027	120.12
240.26	137.12
240.494	153.12
240.728	160.12
240.961	156.12
241.195	138.12
241.429	131.12
241.662	145.12
241.896	149.12
242.13	128.12
242.363	133.12
242.597	143.12
242.83	150.12
243.064	144.12
243.298	135.12
243.531	141.12
243.765	136.12
243.998	144.12
244.232	141.12
244.465	154.12
244.699	150.12
244.932	147.12
245.166	148.12
245.399	153.12
245.633	142.12
245.866	147.12
246.099	143.12
246.333	140.12
246.566	151.12
246.8	147.12
247.033	168.12
247.266	166.12
247.5	180.12
247.733	167.12
247.966	178.12
248.2	165.12
248.433	175.12
248.666	161.12
248.899	180.12
249.133	205.12
249.366	204.12
249.599	182.12
249.832	190.12
250.066	183.12
250.299	172.12
250.532	200.12
250.765	212.12
250.998	232.12
251.231	238.12
251.465	221.12
251.698	193.12
251.931	194.12
252.164	212.12
252.397	207.12
252.63	204.12
252.863	202.12
253.096	216.12
253.329	226.12
253.562	225.12
253.795	231.12
254.028	218.12
254.261	208.12
254.494	217.12
254.727	244.12
254.96	272.12
255.193	257.12
255.426	247.12
255.659	217.12
255.892	245.12
256.124	228.12
256.357	248.12
256.59	229.12
256.823	208.12
257.056	198.12
257.289	210.12
257.521	214.12
257.754	226.12
257.987	206.12
258.22	220.12
258.452	202.12
258.685	205.12
258.918	227.12
259.151	204.12
259.383	228.12
259.616	224.12
259.849	232.12
260.081	231.12
260.314	258.12
260.547	251.12
260.779	254.12
261.012	240.12
261.244	228.12
261.477	232.12
261.71	235.12
261.942	234.12
262.175	214.12
262.407	229.12
262.64	211.12
262.872	203.12
263.105	194.12
263.337	213.12
263.57	233.12
263.802	225.12
264.035	203.12
264.267	209.12
264.499	209.12
264.732	225.12
264.964	205.12
265.197	215.12
265.429	220.12
265.661	219.12
265.894	226.12
266.126	219.12
266.358	227.12
266.591	231.12
266.823	230.12
267.055	218.12
267.287	223.12
267.52	242.12
267.752	225.12
267.984	242.12
268.216	235.12
268.448	218.12
268.681	233.12
268.913	252.12
269.145	275.12
269.377	277.12
269.609	268.12
269.841	259.12
270.073	286.12
270.306	313.12
270.538	315.12
270.77	331.12
271.002	326.12
271.234	290.12
271.466	281.12
271.698	297.12
271.93	333.12
272.162	322.12
272.394	313.12
272.626	291.12
272.858	277.12
273.09	276.12
273.322	276.12
273.553	276.12
273.785	274.12
274.017	248.12
274.249	271.12
274.481	274.12
274.713	260.12
274.945	273.12
275.176	273.12
275.408	264.12
275.64	273.12
275.872	249.12
276.104	282.12
276.335	276.12
276.567	277.12
276.799	288.12
277.031	305.12
277.262	303.12
277.494	297.12
277.726	308.12
277.957	316.12
278.189	297.12
278.421	283.12
278.652	297.12
278.884	280.12
279.115	274.12
279.347	278.12
279.579	273.12
279.81	271.12
280.042	283.12
280.273	282.12
280.505	261.12
280.736	266.12
280.968	262.12
281.199	268.12
281.431	268.12
281.662	276.12
281.894	273.12
282.125	283.12
282.356	299.12
282.588	306.12
282.819	321.12
283.051	303.12
283.282	301.12
283.513	282.12
283.745	273.12
283.976	294.12
284.207	297.12
284.439	300.12
284.67	292.12
284.901	294.12
285.132	277.12
285.364	282.12
285.595	275.12
285.826	307.12
286.057	295.12
286.288	273.12
286.52	281.12
286.751	289.12
286.982	297.12
287.213	297.12
287.444	292.12
287.675	295.12
287.906	297.12
288.138	321.12
288.369	331.12
288.6	327.12
288.831	310.12
289.062	299.12
289.293	321.12
289.524	303.12
289.755	292.12
289.986	292.12
290.217	312.12
290.448	292.12
290.679	288.12
290.91	323.12
291.141	324.12
291.371	305.12
291.602	304.12
291.833	285.12
292.064	293.12
292.295	296.12
292.526	312.12
292.757	313.12
292.987	327.12
293.218	303.12
293.449	307.12
293.68	297.12
293.91	308.12
294.141	308.12
294.372	320.12
294.603	312.12
294.833	280.12
295.064	313.12
295.295	312.12
295.525	305.12
295.756	322.12
295.987	321.12
296.217	335.12
296.448	323.12
296.679	325.12
296.909	315.12
297.14	312.12
297.37	324.12
297.601	324.12
297.831	312.12
298.062	317.12
298.292	328.12
298.523	325.12
298.753	333.12
298.984	315.12
299.214	317.12
299.445	325.12
299.675	342.12
299.905	340.12
300.136	321.12
300.366	318.12
300.597	308.12
300.827	309.12
301.057	346.12
301.288	345.12
301.518	343.12
301.748	330.12
301.979	348.12
302.209	349.12
302.439	358.12
302.669	345.12
302.9	327.12
303.13	317.12
303.36	349.12
303.59	351.12
303.82	334.12
304.051	342.12
304.281	367.12
304.511	332.12
304.741	337.12
304.971	322.12
305.201	337.12
305.431	344.12
305.661	336.12
305.891	341.12
306.121	355.12
306.352	326.12
306.582	340.12
306.812	346.12
307.042	343.12
307.272	336.12
307.502	335.12
307.731	337.12
307.961	351.12
308.191	338.12
308.421	350.12
308.651	357.12
308.881	351.12
309.111	340.12
309.341	367.12
309.571	359.12
309.8	357.12
310.03	368.12
310.26	375.12
310.49	371.12
310.72	381.12
310.949	392.12
311.179	396.12
311.409	396.12
311.639	376.12
311.868	373.12
312.098	404.12
312.328	389.12
312.557	400.12
312.787	405.12
313.017	406.12
313.246	385.12
313.476	393.12
313.706	387.12
313.935	385.12
314.165	385.12
314.394	417.12
314.624	405.12
314.853	417.12
315.083	387.12
315.312	385.12
315.542	373.12
315.771	373.12
316.001	365.12
316.23	371.12
316.46	377.12
316.689	391.12
316.919	395.12
317.148	386.12
317.377	384.12
317.607	403.12
317.836	388.12
318.065	393.12
318.295	397.12
318.524	385.12
318.753	384.12
318.983	371.12
319.212	384.12
319.441	390.12
319.67	382.12
319.9	383.12
320.129	390.12
320.358	396.12
320.587	364.12
320.816	387.12
321.046	394.12
321.275	407.12
321.504	397.12
321.733	402.12
321.962	395.12
322.191	418.12
322.42	421.12
322.649	433.12
322.878	425.12
323.108	440.12
323.337	462.12
323.566	467.12
323.795	507.12
324.024	533.12
324.253	627.12
324.482	794.12
324.71	1238.12
324.939	1845.12
325.168	1633.12
325.397	826.12
325.626	601.12
325.855	519.12
326.084	485.12
326.313	468.12
326.542	491.12
326.77	521.12
326.999	593.12
327.228	739.12
327.457	1128.12
327.686	1405.12
327.914	947.12
328.143	626.12
328.372	564.12
328.6	534.12
328.829	532.12
329.058	519.12
329.287	557.12
329.515	497.12
329.744	481.12
329.972	522.12
330.201	490.12
330.43	533.12
330.658	537.12
330.887	576.12
331.115	575.12
331.344	504.12
331.572	487.12
331.801	494.12
332.03	496.12
332.258	476.12
332.486	478.12
332.715	462.12
332.943	465.12
333.172	475.12
333.4	482.12
333.629	487.12
333.857	503.12
334.085	513.12
334.314	533.12
334.542	557.12
334.771	575.12
334.999	528.12
335.227	484.12
335.455	487.12
335.684	486.12
335.912	473.12
336.14	462.12
336.369	474.12
336.597	472.12
336.825	479.12
337.053	461.12
337.281	464.12
337.51	471.12
337.738	441.12
337.966	464.12
338.194	457.12
338.422	453.12
338.65	444.12
338.878	448.12
339.106	432.12
339.334	424.12
339.562	455.12
339.79	435.12
340.018	452.12
340.246	438.12
340.474	468.12
340.702	439.12
340.93	447.12
341.158	441.12
341.386	445.12
341.614	442.12
341.842	457.12
342.07	420.12
342.298	433.12
342.526	444.12
342.754	436.12
342.981	446.12
343.209	433.12
343.437	448.12
343.665	449.12
343.893	460.12
344.12	480.12
344.348	491.12
344.576	427.12
344.804	450.12
345.031	455.12
345.259	461.12
345.487	452.12
345.714	451.12
345.942	423.12
346.17	430.12
346.397	449.12
346.625	434.12
346.853	417.12
347.08	425.12
347.308	408.12
347.535	441.12
347.763	419.12
347.99	436.12
348.218	433.12
348.445	431.12
348.673	428.12
348.9	423.12
349.128	431.12
349.355	403.12
349.583	428.12
349.81	387.12
350.037	415.12
350.265	427.12
350.492	428.12
350.72	427.12
350.947	441.12
351.174	436.12
351.402	424.12
351.629	424.12
351.856	422.12
352.083	454.12
352.311	449.12
352.538	456.12
352.765	452.12
352.992	421.12
353.22	444.12
353.447	418.12
353.674	404.12
353.901	441.12
354.128	416.12
354.355	415.12
354.583	400.12
354.81	395.12
355.037	398.12
355.264	407.12
355.491	395.12
355.718	409.12
355.945	394.12
356.172	400.12
356.399	393.12
356.626	405.12
356.853	394.12
357.08	399.12
357.307	406.12
357.534	427.12
357.761	426.12
357.988	410.12
358.215	408.12
358.441	405.12
358.668	391.12
358.895	410.12
359.122	405.12
359.349	422.12
359.576	432.12
359.802	440.12
360.029	449.12
360.256	443.12
360.483	461.12
360.709	437.12
360.936	428.12
361.163	415.12
361.39	429.12
361.616	438.12
361.843	437.12
362.07	449.12
362.296	441.12
362.523	418.12
362.749	433.12
362.976	429.12
363.203	418.12
363.429	424.12
363.656	420.12
363.882	424.12
364.109	417.12
364.335	440.12
364.562	407.12
364.788	413.12
365.015	421.12
365.241	405.12
365.468	419.12
365.694	431.12
365.92	401.12
366.147	417.12
366.373	406.12
366.599	413.12
366.826	401.12
367.052	397.12
367.278	414.12
367.505	398.12
367.731	398.12
367.957	426.12
368.184	425.12
368.41	429.12
368.636	445.12
368.862	435.12
369.089	423.12
369.315	415.12
369.541	422.12
369.767	450.12
369.993	417.12
370.219	423.12
370.445	424.12
370.672	438.12
370.898	426.12
371.124	411.12
371.35	427.12
371.576	425.12
371.802	438.12
372.028	416.12
372.254	419.12
372.48	424.12
372.706	437.12
372.932	439.12
373.158	437.12
373.384	435.12
373.61	434.12
373.835	427.12
374.061	425.12
374.287	433.12
374.513	445.12
374.739	441.12
374.965	443.12
375.191	464.12
375.416	453.12
375.642	438.12
375.868	405.12
376.094	437.12
376.319	420.12
376.545	443.12
376.771	449.12
376.997	426.12
377.222	447.12
377.448	423.12
377.674	422.12
377.899	415.12
378.125	406.12
378.35	428.12
378.576	438.12
378.802	425.12
379.027	432.12
379.253	406.12
379.478	446.12
379.704	402.12
379.929	432.12
380.155	424.12
380.38	409.12
380.606	429.12
380.831	435.12
381.057	425.12
381.282	426.12
381.507	435.12
381.733	413.12
381.958	428.12
382.184	447.12
382.409	447.12
382.634	436.12
382.86	445.12
383.085	455.12
383.31	451.12
383.535	449.12
383.761	476.12
383.986	462.12
384.211	455.12
384.436	460.12
384.662	449.12
384.887	475.12
385.112	471.12
385.337	465.12
385.562	478.12
385.787	476.12
386.013	486.12
386.238	465.12
386.463	481.12
386.688	465.12
386.913	464.12
387.138	475.12
387.363	464.12
387.588	473.12
387.813	478.12
388.038	473.12
388.263	492.12
388.488	467.12
388.713	473.12
388.938	492.12
389.163	461.12
389.387	487.12
389.612	479.12
389.837	469.12
390.062	461.12
390.287	466.12
390.512	458.12
390.736	474.12
390.961	474.12
391.186	473.12
391.411	471.12
391.636	477.12
391.86	497.12
392.085	508.12
392.31	492.12
392.534	509.12
392.759	517.12
392.984	500.12
393.208	488.12
393.433	471.12
393.658	471.12
393.882	485.12
394.107	450.12
394.331	467.12
394.556	488.12
394.78	483.12
395.005	486.12
395.229	507.12
395.454	500.12
395.678	502.12
395.903	511.12
396.127	518.12
396.352	541.12
396.576	507.12
396.801	527.12
397.025	503.12
397.249	511.12
397.474	514.12
397.698	508.12
397.922	530.12
398.147	537.12
398.371	552.12
398.595	534.12
398.82	563.12
399.044	589.12
399.268	603.12
399.492	631.12
399.717	680.12
399.941	717.12
400.165	715.12
400.389	718.12
400.613	639.12
400.837	601.12
401.062	573.12
401.286	557.12
401.51	577.12
401.734	545.12
401.958	555.12
402.182	553.12
402.406	582.12
402.63	570.12
402.854	572.12
403.078	597.12
403.302	568.12
403.526	596.12
403.75	613.12
403.974	555.12
404.198	589.12
404.422	599.12
404.645	628.12
404.869	594.12
405.093	645.12
405.317	659.12
405.541	712.12
405.765	651.12
405.988	623.12
406.212	609.12
406.436	612.12
406.66	618.12
406.883	625.12
407.107	649.12
407.331	699.12
407.555	771.12
407.778	786.12
408.002	713.12
408.226	643.12
408.449	629.12
408.673	635.12
408.896	663.12
409.12	694.12
409.344	682.12
409.567	617.12
409.791	614.12
410.014	593.12
410.238	608.12
410.461	586.12
410.685	598.12
410.908	593.12
411.132	643.12
411.355	657.12
411.578	648.12
411.802	596.12
412.025	580.12
412.249	625.12
412.472	616.12
412.695	657.12
412.919	671.12
413.142	581.12
413.365	580.12
413.589	584.12
413.812	564.12
414.035	575.12
414.258	563.12
414.482	546.12
414.705	568.12
414.928	544.12
415.151	555.12
415.374	545.12
415.597	525.12
415.821	560.12
416.044	556.12
416.267	549.12
416.49	539.12
416.713	544.12
416.936	553.12
417.159	555.12
417.382	534.12
417.605	543.12
417.828	561.12
418.051	559.12
418.274	566.12
418.497	566.12
418.72	575.12
418.943	552.12
419.166	591.12
419.389	606.12
419.611	623.12
419.834	573.12
420.057	584.12
420.28	587.12
420.503	538.12
420.726	568.12
420.948	586.12
421.171	628.12
421.394	640.12
421.617	590.12
421.839	571.12
422.062	578.12
422.285	585.12
422.507	635.12
422.73	707.12
422.953	684.12
423.175	623.12
423.398	603.12
423.621	605.12
423.843	625.12
424.066	638.12
424.288	589.12
424.511	597.12
424.733	679.12
424.956	781.12
425.178	739.12
425.401	752.12
425.623	757.12
425.846	672.12
426.068	607.12
426.291	611.12
426.513	594.12
426.735	620.12
426.958	638.12
427.18	725.12
427.402	874.12
427.625	935.12
427.847	791.12
428.069	698.12
428.292	617.12
428.514	595.12
428.736	577.12
428.958	563.12
429.181	539.12
429.403	541.12
429.625	569.12
429.847	593.12
430.069	669.12
430.292	662.12
430.514	585.12
430.736	556.12
430.958	569.12
431.18	539.12
431.402	534.12
431.624	517.12
431.846	525.12
432.068	527.12
432.29	530.12
432.512	544.12
432.734	555.12
432.956	519.12
433.178	550.12
433.4	545.12
433.622	553.12
433.844	534.12
434.066	540.12
434.287	539.12
434.509	526.12
434.731	562.12
434.953	578.12
435.175	574.12
435.397	611.12
435.618	618.12
435.84	636.12
436.062	732.12
436.284	819.12
436.505	674.12
436.727	594.12
436.949	570.12
437.17	579.12
437.392	547.12
437.614	574.12
437.835	599.12
438.057	697.12
438.278	781.12
438.5	791.12
438.721	868.12
438.943	841.12
439.165	654.12
439.386	604.12
439.608	604.12
439.829	592.12
440.05	612.12
440.272	650.12
440.493	653.12
440.715	597.12
440.936	576.12
441.158	557.12
441.379	561.12
441.6	567.12
441.822	600.12
442.043	643.12
442.264	739.12
442.486	757.12
442.707	663.12
442.928	606.12
443.149	616.12
443.371	642.12
443.592	681.12
443.813	777.12
444.034	896.12
444.255	726.12
444.476	649.12
444.698	639.12
444.919	629.12
445.14	744.12
445.361	673.12
445.582	663.12
445.803	715.12
446.024	798.12
446.245	808.12
446.466	722.12
446.687	657.12
446.908	599.12
447.129	565.12
447.35	549.12
447.571	567.12
447.792	523.12
448.013	560.12
448.234	554.12
448.455	619.12
448.675	714.12
448.896	848.12
449.117	731.12
449.338	692.12
449.559	797.12
449.779	894.12
450	741.12
450.221	602.12
450.442	584.12
450.662	532.12
450.883	547.12
451.104	560.12
451.324	559.12
451.545	501.12
451.766	483.12
451.986	502.12
452.207	502.12
452.428	480.12
452.648	503.12
452.869	499.12
453.089	493.12
453.31	533.12
453.53	479.12
453.751	472.12
453.971	479.12
454.192	499.12
454.412	492.12
454.633	493.12
454.853	499.12
455.073	487.12
455.294	511.12
455.514	601.12
455.734	555.12
455.955	502.12
456.175	473.12
456.395	465.12
456.616	465.12
456.836	455.12
457.056	469.12
457.276	452.12
457.497	474.12
457.717	460.12
457.937	474.12
458.157	492.12
458.377	476.12
458.598	497.12
458.818	567.12
459.038	585.12
459.258	660.12
459.478	589.12
459.698	546.12
459.918	520.12
460.138	553.12
460.358	551.12
460.578	557.12
460.798	566.12
461.018	556.12
461.238	562.12
461.458	558.12
461.678	545.12
461.898	546.12
462.118	572.12
462.338	574.12
462.558	580.12
462.777	603.12
462.997	604.12
463.217	619.12
463.437	640.12
463.657	608.12
463.876	617.12
464.096	596.12
464.316	613.12
464.536	604.12
464.755	592.12
464.975	593.12
465.195	611.12
465.414	662.12
465.634	586.12
465.854	582.12
466.073	545.12
466.293	524.12
466.512	511.12
466.732	537.12
466.951	508.12
467.171	509.12
467.391	500.12
467.61	506.12
467.829	527.12
468.049	511.12
468.268	497.12
468.488	500.12
468.707	492.12
468.927	509.12
469.146	485.12
469.365	499.12
469.585	495.12
469.804	529.12
470.023	530.12
470.243	545.12
470.462	522.12
470.681	554.12
470.901	537.12
471.12	523.12
471.339	517.12
471.558	514.12
471.777	520.12
471.997	511.12
472.216	522.12
472.435	536.12
472.654	537.12
472.873	509.12
473.092	538.12
473.311	511.12
473.53	499.12
473.749	522.12
473.968	551.12
474.187	637.12
474.406	669.12
474.625	562.12
474.844	525.12
475.063	515.12
475.282	515.12
475.501	523.12
475.72	537.12
475.939	515.12
476.158	523.12
476.377	522.12
476.596	524.12
476.814	553.12
477.033	556.12
477.252	567.12
477.471	554.12
477.69	551.12
477.908	541.12
478.127	568.12
478.346	582.12
478.564	586.12
478.783	596.12
479.002	592.12
479.22	603.12
479.439	586.12
479.658	630.12
479.876	625.12
480.095	641.12
480.313	657.12
480.532	663.12
480.751	645.12
480.969	647.12
481.188	684.12
481.406	727.12
481.624	648.12
481.843	631.12
482.061	637.12
482.28	622.12
482.498	615.12
482.717	605.12
482.935	611.12
483.153	608.12
483.372	589.12
483.59	601.12
483.808	594.12
484.027	576.12
484.245	601.12
484.463	590.12
484.681	605.12
484.9	618.12
485.118	613.12
485.336	629.12
485.554	634.12
485.772	599.12
485.99	601.12
486.209	634.12
486.427	627.12
486.645	650.12
486.863	659.12
487.081	643.12
487.299	642.12
487.517	657.12
487.735	665.12
487.953	656.12
488.171	629.12
488.389	660.12
488.607	636.12
488.825	642.12
489.043	656.12
489.261	654.12
489.479	657.12
489.696	643.12
489.914	653.12
490.132	662.12
490.35	683.12
490.568	669.12
490.786	680.12
491.003	686.12
491.221	726.12
491.439	729.12
491.657	746.12
491.874	755.12
492.092	740.12
492.31	743.12
492.527	761.12
492.745	738.12
492.963	755.12
493.18	775.12
493.398	780.12
493.615	797.12
493.833	760.12
494.05	747.12
494.268	754.12
494.485	762.12
494.703	753.12
494.92	759.12
495.138	751.12
495.355	781.12
495.573	769.12
495.79	789.12
496.008	777.12
496.225	762.12
496.442	786.12
496.66	767.12
496.877	740.12
497.094	800.12
497.312	811.12
497.529	807.12
497.746	815.12
497.963	833.12
498.181	845.12
498.398	880.12
498.615	899.12
498.832	907.12
499.049	935.12
499.267	945.12
499.484	972.12
499.701	1051.12
499.918	1087.12
500.135	1127.12
500.352	1200.12
500.569	1236.12
500.786	1252.12
501.003	1225.12
501.22	1165.12
501.437	1138.12
501.654	1057.12
