Data from 1975.PennyLincolnUp.Lamp.En5.5.200Scan.071719.P1.Changed Mount._HRD10591_15-57-30-859.txt Node
Date: Thu Jul 18 15:57:30 EDT 2019
User: cochatt
Spectrometer: HR+D1059
Trigger mode: 1
Integration Time (sec): 1.000000E-1
Scans to average: 1
Electric dark correction enabled: true
Nonlinearity correction enabled: false
Boxcar width: 0
XAxis mode: Wavelengths
Number of Pixels in Spectrum: 2048
>>>>>Begin Spectral Data<<<<<
223.165	-3.44
223.4	-3.44
223.635	-3.44
223.869	-22.44
224.104	-36.44
224.338	-14.44
224.573	-15.44
224.808	-12.44
225.042	-6.44
225.277	-2.44
225.511	-6.44
225.746	4.56
225.98	3.56
226.215	5.56
226.449	22.56
226.683	14.56
226.918	34.56
227.152	34.56
227.387	39.56
227.621	34.56
227.856	33.56
228.09	33.56
228.324	43.56
228.559	51.56
228.793	64.56
229.027	90.56
229.262	104.56
229.496	129.56
229.73	128.56
229.964	158.56
230.199	121.56
230.433	99.56
230.667	106.56
230.901	113.56
231.136	106.56
231.37	117.56
231.604	104.56
231.838	122.56
232.072	124.56
232.306	107.56
232.541	120.56
232.775	103.56
233.009	106.56
233.243	109.56
233.477	120.56
233.711	113.56
233.945	114.56
234.179	113.56
234.413	124.56
234.647	101.56
234.881	130.56
235.115	118.56
235.349	126.56
235.583	126.56
235.817	133.56
236.051	125.56
236.285	130.56
236.519	130.56
236.753	130.56
236.987	146.56
237.221	180.56
237.455	216.56
237.689	182.56
237.922	150.56
238.156	137.56
238.39	142.56
238.624	138.56
238.858	132.56
239.091	126.56
239.325	122.56
239.559	130.56
239.793	140.56
240.027	140.56
240.26	133.56
240.494	148.56
240.728	148.56
240.961	149.56
241.195	147.56
241.429	133.56
241.662	142.56
241.896	154.56
242.13	122.56
242.363	132.56
242.597	138.56
242.83	148.56
243.064	166.56
243.298	144.56
243.531	139.56
243.765	134.56
243.998	140.56
244.232	133.56
244.465	157.56
244.699	160.56
244.932	154.56
245.166	160.56
245.399	148.56
245.633	153.56
245.866	156.56
246.099	166.56
246.333	165.56
246.566	162.56
246.8	158.56
247.033	167.56
247.266	158.56
247.5	167.56
247.733	183.56
247.966	165.56
248.2	167.56
248.433	169.56
248.666	184.56
248.899	181.56
249.133	202.56
249.366	209.56
249.599	203.56
249.832	191.56
250.066	197.56
250.299	199.56
250.532	205.56
250.765	206.56
250.998	224.56
251.231	251.56
251.465	224.56
251.698	216.56
251.931	200.56
252.164	196.56
252.397	215.56
252.63	213.56
252.863	204.56
253.096	206.56
253.329	220.56
253.562	232.56
253.795	227.56
254.028	216.56
254.261	223.56
254.494	222.56
254.727	241.56
254.96	284.56
255.193	281.56
255.426	258.56
255.659	214.56
255.892	241.56
256.124	218.56
256.357	255.56
256.59	220.56
256.823	219.56
257.056	211.56
257.289	242.56
257.521	216.56
257.754	222.56
257.987	207.56
258.22	216.56
258.452	212.56
258.685	206.56
258.918	219.56
259.151	213.56
259.383	216.56
259.616	219.56
259.849	217.56
260.081	234.56
260.314	255.56
260.547	256.56
260.779	247.56
261.012	224.56
261.244	240.56
261.477	222.56
261.71	231.56
261.942	215.56
262.175	233.56
262.407	235.56
262.64	240.56
262.872	206.56
263.105	225.56
263.337	218.56
263.57	229.56
263.802	226.56
264.035	220.56
264.267	218.56
264.499	224.56
264.732	200.56
264.964	227.56
265.197	219.56
265.429	216.56
265.661	226.56
265.894	224.56
266.126	213.56
266.358	214.56
266.591	227.56
266.823	225.56
267.055	219.56
267.287	243.56
267.52	228.56
267.752	234.56
267.984	239.56
268.216	252.56
268.448	268.56
268.681	254.56
268.913	278.56
269.145	283.56
269.377	285.56
269.609	286.56
269.841	274.56
270.073	295.56
270.306	284.56
270.538	317.56
270.77	318.56
271.002	308.56
271.234	306.56
271.466	299.56
271.698	324.56
271.93	319.56
272.162	320.56
272.394	317.56
272.626	317.56
272.858	296.56
273.09	279.56
273.322	271.56
273.553	264.56
273.785	267.56
274.017	264.56
274.249	279.56
274.481	272.56
274.713	270.56
274.945	279.56
275.176	268.56
275.408	282.56
275.64	292.56
275.872	272.56
276.104	280.56
276.335	275.56
276.567	296.56
276.799	309.56
277.031	308.56
277.262	329.56
277.494	330.56
277.726	313.56
277.957	311.56
278.189	308.56
278.421	282.56
278.652	276.56
278.884	281.56
279.115	284.56
279.347	274.56
279.579	277.56
279.81	276.56
280.042	287.56
280.273	278.56
280.505	289.56
280.736	284.56
280.968	282.56
281.199	277.56
281.431	280.56
281.662	280.56
281.894	275.56
282.125	289.56
282.356	283.56
282.588	321.56
282.819	308.56
283.051	296.56
283.282	289.56
283.513	274.56
283.745	287.56
283.976	298.56
284.207	279.56
284.439	282.56
284.67	294.56
284.901	301.56
285.132	297.56
285.364	323.56
285.595	302.56
285.826	294.56
286.057	301.56
286.288	288.56
286.52	306.56
286.751	299.56
286.982	304.56
287.213	311.56
287.444	297.56
287.675	309.56
287.906	310.56
288.138	326.56
288.369	337.56
288.6	318.56
288.831	317.56
289.062	316.56
289.293	336.56
289.524	307.56
289.755	318.56
289.986	314.56
290.217	311.56
290.448	292.56
290.679	304.56
290.91	309.56
291.141	311.56
291.371	317.56
291.602	299.56
291.833	310.56
292.064	319.56
292.295	313.56
292.526	329.56
292.757	294.56
292.987	308.56
293.218	298.56
293.449	325.56
293.68	324.56
293.91	325.56
294.141	321.56
294.372	306.56
294.603	317.56
294.833	319.56
295.064	324.56
295.295	332.56
295.525	307.56
295.756	294.56
295.987	318.56
296.217	338.56
296.448	345.56
296.679	324.56
296.909	318.56
297.14	333.56
297.37	331.56
297.601	320.56
297.831	315.56
298.062	338.56
298.292	322.56
298.523	318.56
298.753	314.56
298.984	326.56
299.214	318.56
299.445	347.56
299.675	322.56
299.905	346.56
300.136	326.56
300.366	332.56
300.597	318.56
300.827	334.56
301.057	353.56
301.288	341.56
301.518	333.56
301.748	346.56
301.979	330.56
302.209	339.56
302.439	359.56
302.669	345.56
302.9	330.56
303.13	354.56
303.36	348.56
303.59	352.56
303.82	349.56
304.051	353.56
304.281	336.56
304.511	344.56
304.741	345.56
304.971	354.56
305.201	337.56
305.431	344.56
305.661	361.56
305.891	336.56
306.121	348.56
306.352	358.56
306.582	350.56
306.812	353.56
307.042	333.56
307.272	334.56
307.502	357.56
307.731	341.56
307.961	362.56
308.191	371.56
308.421	349.56
308.651	368.56
308.881	354.56
309.111	351.56
309.341	361.56
309.571	353.56
309.8	374.56
310.03	392.56
310.26	391.56
310.49	393.56
310.72	383.56
310.949	387.56
311.179	401.56
311.409	397.56
311.639	384.56
311.868	384.56
312.098	373.56
312.328	396.56
312.557	395.56
312.787	421.56
313.017	402.56
313.246	380.56
313.476	390.56
313.706	382.56
313.935	403.56
314.165	400.56
314.394	382.56
314.624	414.56
314.853	393.56
315.083	399.56
315.312	388.56
315.542	400.56
315.771	390.56
316.001	398.56
316.23	389.56
316.46	378.56
316.689	394.56
316.919	400.56
317.148	411.56
317.377	414.56
317.607	380.56
317.836	373.56
318.065	403.56
318.295	382.56
318.524	382.56
318.753	398.56
318.983	386.56
319.212	388.56
319.441	407.56
319.67	411.56
319.9	390.56
320.129	394.56
320.358	407.56
320.587	402.56
320.816	390.56
321.046	407.56
321.275	395.56
321.504	389.56
321.733	437.56
321.962	394.56
322.191	402.56
322.42	419.56
322.649	455.56
322.878	428.56
323.108	430.56
323.337	457.56
323.566	491.56
323.795	512.56
324.024	536.56
324.253	618.56
324.482	842.56
324.71	1284.56
324.939	1900.56
325.168	1701.56
325.397	869.56
325.626	602.56
325.855	520.56
326.084	477.56
326.313	498.56
326.542	468.56
326.77	525.56
326.999	600.56
327.228	813.56
327.457	1183.56
327.686	1503.56
327.914	985.56
328.143	670.56
328.372	590.56
328.6	578.56
328.829	515.56
329.058	536.56
329.287	556.56
329.515	532.56
329.744	518.56
329.972	502.56
330.201	523.56
330.43	553.56
330.658	587.56
330.887	595.56
331.115	573.56
331.344	510.56
331.572	491.56
331.801	486.56
332.03	507.56
332.258	508.56
332.486	497.56
332.715	464.56
332.943	483.56
333.172	477.56
333.4	489.56
333.629	503.56
333.857	523.56
334.085	525.56
334.314	537.56
334.542	601.56
334.771	577.56
334.999	530.56
335.227	514.56
335.455	488.56
335.684	466.56
335.912	480.56
336.14	474.56
336.369	472.56
336.597	479.56
336.825	465.56
337.053	488.56
337.281	465.56
337.51	460.56
337.738	445.56
337.966	462.56
338.194	449.56
338.422	473.56
338.65	437.56
338.878	480.56
339.106	462.56
339.334	479.56
339.562	459.56
339.79	472.56
340.018	439.56
340.246	430.56
340.474	456.56
340.702	446.56
340.93	444.56
341.158	437.56
341.386	453.56
341.614	469.56
341.842	460.56
342.07	436.56
342.298	441.56
342.526	452.56
342.754	426.56
342.981	428.56
343.209	437.56
343.437	451.56
343.665	477.56
343.893	458.56
344.12	453.56
344.348	500.56
344.576	466.56
344.804	446.56
345.031	480.56
345.259	470.56
345.487	458.56
345.714	456.56
345.942	442.56
346.17	450.56
346.397	427.56
346.625	448.56
346.853	438.56
347.08	430.56
347.308	441.56
347.535	454.56
347.763	442.56
347.99	446.56
348.218	445.56
348.445	436.56
348.673	437.56
348.9	433.56
349.128	422.56
349.355	410.56
349.583	433.56
349.81	417.56
350.037	402.56
350.265	419.56
350.492	420.56
350.72	414.56
350.947	406.56
351.174	450.56
351.402	462.56
351.629	431.56
351.856	456.56
352.083	446.56
352.311	465.56
352.538	446.56
352.765	456.56
352.992	437.56
353.22	430.56
353.447	432.56
353.674	416.56
353.901	418.56
354.128	411.56
354.355	433.56
354.583	434.56
354.81	418.56
355.037	402.56
355.264	420.56
355.491	406.56
355.718	404.56
355.945	402.56
356.172	385.56
356.399	421.56
356.626	423.56
356.853	412.56
357.08	412.56
357.307	422.56
357.534	396.56
357.761	418.56
357.988	436.56
358.215	388.56
358.441	415.56
358.668	416.56
358.895	443.56
359.122	419.56
359.349	436.56
359.576	454.56
359.802	472.56
360.029	468.56
360.256	481.56
360.483	446.56
360.709	444.56
360.936	429.56
361.163	432.56
361.39	460.56
361.616	438.56
361.843	419.56
362.07	436.56
362.296	448.56
362.523	444.56
362.749	405.56
362.976	422.56
363.203	425.56
363.429	408.56
363.656	409.56
363.882	430.56
364.109	437.56
364.335	412.56
364.562	402.56
364.788	411.56
365.015	414.56
365.241	417.56
365.468	421.56
365.694	426.56
365.92	436.56
366.147	409.56
366.373	439.56
366.599	436.56
366.826	419.56
367.052	409.56
367.278	422.56
367.505	421.56
367.731	425.56
367.957	420.56
368.184	430.56
368.41	396.56
368.636	428.56
368.862	421.56
369.089	417.56
369.315	425.56
369.541	424.56
369.767	424.56
369.993	418.56
370.219	432.56
370.445	432.56
370.672	430.56
370.898	413.56
371.124	442.56
371.35	406.56
371.576	417.56
371.802	416.56
372.028	432.56
372.254	430.56
372.48	438.56
372.706	462.56
372.932	446.56
373.158	444.56
373.384	450.56
373.61	430.56
373.835	427.56
374.061	428.56
374.287	442.56
374.513	438.56
374.739	439.56
374.965	467.56
375.191	453.56
375.416	425.56
375.642	449.56
375.868	438.56
376.094	450.56
376.319	432.56
376.545	433.56
376.771	417.56
376.997	436.56
377.222	421.56
377.448	410.56
377.674	431.56
377.899	439.56
378.125	414.56
378.35	428.56
378.576	414.56
378.802	424.56
379.027	428.56
379.253	430.56
379.478	405.56
379.704	430.56
379.929	434.56
380.155	427.56
380.38	424.56
380.606	435.56
380.831	434.56
381.057	452.56
381.282	430.56
381.507	429.56
381.733	467.56
381.958	440.56
382.184	460.56
382.409	440.56
382.634	451.56
382.86	454.56
383.085	455.56
383.31	425.56
383.535	461.56
383.761	455.56
383.986	440.56
384.211	485.56
384.436	482.56
384.662	458.56
384.887	457.56
385.112	445.56
385.337	469.56
385.562	475.56
385.787	475.56
386.013	493.56
386.238	489.56
386.463	479.56
386.688	492.56
386.913	460.56
387.138	473.56
387.363	486.56
387.588	477.56
387.813	473.56
388.038	478.56
388.263	462.56
388.488	484.56
388.713	501.56
388.938	494.56
389.163	467.56
389.387	483.56
389.612	477.56
389.837	473.56
390.062	484.56
390.287	485.56
390.512	483.56
390.736	480.56
390.961	481.56
391.186	468.56
391.411	483.56
391.636	489.56
391.86	500.56
392.085	507.56
392.31	500.56
392.534	500.56
392.759	511.56
392.984	502.56
393.208	492.56
393.433	496.56
393.658	472.56
393.882	491.56
394.107	501.56
394.331	491.56
394.556	502.56
394.78	510.56
395.005	516.56
395.229	493.56
395.454	487.56
395.678	520.56
395.903	527.56
396.127	539.56
396.352	548.56
396.576	521.56
396.801	522.56
397.025	500.56
397.249	514.56
397.474	508.56
397.698	530.56
397.922	539.56
398.147	550.56
398.371	549.56
398.595	568.56
398.82	552.56
399.044	589.56
399.268	580.56
399.492	650.56
399.717	676.56
399.941	712.56
400.165	740.56
400.389	696.56
400.613	644.56
400.837	628.56
401.062	594.56
401.286	566.56
401.51	566.56
401.734	557.56
401.958	584.56
402.182	583.56
402.406	587.56
402.63	592.56
402.854	566.56
403.078	588.56
403.302	583.56
403.526	586.56
403.75	591.56
403.974	606.56
404.198	590.56
404.422	607.56
404.645	598.56
404.869	619.56
405.093	636.56
405.317	666.56
405.541	746.56
405.765	655.56
405.988	606.56
406.212	622.56
406.436	644.56
406.66	632.56
406.883	634.56
407.107	645.56
407.331	712.56
407.555	793.56
407.778	771.56
408.002	697.56
408.226	669.56
408.449	670.56
408.673	650.56
408.896	664.56
409.12	707.56
409.344	673.56
409.567	617.56
409.791	594.56
410.014	601.56
410.238	598.56
410.461	609.56
410.685	581.56
410.908	627.56
411.132	604.56
411.355	673.56
411.578	646.56
411.802	577.56
412.025	589.56
412.249	594.56
412.472	619.56
412.695	671.56
412.919	661.56
413.142	603.56
413.365	581.56
413.589	565.56
413.812	540.56
414.035	541.56
414.258	554.56
414.482	574.56
414.705	567.56
414.928	564.56
415.151	557.56
415.374	549.56
415.597	541.56
415.821	541.56
416.044	560.56
416.267	556.56
416.49	552.56
416.713	548.56
416.936	558.56
417.159	562.56
417.382	530.56
417.605	576.56
417.828	559.56
418.051	582.56
418.274	588.56
418.497	556.56
418.72	560.56
418.943	586.56
419.166	594.56
419.389	630.56
419.611	619.56
419.834	596.56
420.057	620.56
420.28	588.56
420.503	589.56
420.726	569.56
420.948	587.56
421.171	644.56
421.394	667.56
421.617	603.56
421.839	583.56
422.062	582.56
422.285	584.56
422.507	640.56
422.73	745.56
422.953	718.56
423.175	619.56
423.398	616.56
423.621	603.56
423.843	608.56
424.066	639.56
424.288	632.56
424.511	641.56
424.733	704.56
424.956	765.56
425.178	743.56
425.401	734.56
425.623	788.56
425.846	642.56
426.068	618.56
426.291	619.56
426.513	605.56
426.735	632.56
426.958	662.56
427.18	734.56
427.402	880.56
427.625	931.56
427.847	839.56
428.069	733.56
428.292	658.56
428.514	598.56
428.736	589.56
428.958	574.56
429.181	560.56
429.403	548.56
429.625	573.56
429.847	586.56
430.069	678.56
430.292	692.56
430.514	581.56
430.736	570.56
430.958	560.56
431.18	555.56
431.402	534.56
431.624	528.56
431.846	516.56
432.068	512.56
432.29	539.56
432.512	523.56
432.734	547.56
432.956	531.56
433.178	548.56
433.4	547.56
433.622	555.56
433.844	550.56
434.066	538.56
434.287	552.56
434.509	567.56
434.731	587.56
434.953	565.56
435.175	618.56
435.397	614.56
435.618	616.56
435.84	645.56
436.062	731.56
436.284	830.56
436.505	674.56
436.727	637.56
436.949	585.56
437.17	571.56
437.392	552.56
437.614	576.56
437.835	594.56
438.057	667.56
438.278	820.56
438.5	808.56
438.721	867.56
438.943	859.56
439.165	684.56
439.386	624.56
439.608	632.56
439.829	603.56
440.05	650.56
440.272	667.56
440.493	628.56
440.715	598.56
440.936	571.56
441.158	582.56
441.379	569.56
441.6	604.56
441.822	592.56
442.043	674.56
442.264	752.56
442.486	772.56
442.707	659.56
442.928	633.56
443.149	624.56
443.371	612.56
443.592	676.56
443.813	818.56
444.034	871.56
444.255	752.56
444.476	661.56
444.698	636.56
444.919	656.56
445.14	755.56
445.361	688.56
445.582	644.56
445.803	699.56
446.024	821.56
446.245	841.56
446.466	740.56
446.687	646.56
446.908	598.56
447.129	587.56
447.35	573.56
447.571	564.56
447.792	539.56
448.013	567.56
448.234	561.56
448.455	609.56
448.675	738.56
448.896	869.56
449.117	703.56
449.338	700.56
449.559	780.56
449.779	933.56
450	748.56
450.221	594.56
450.442	554.56
450.662	568.56
450.883	568.56
451.104	564.56
451.324	547.56
451.545	531.56
451.766	511.56
451.986	511.56
452.207	492.56
452.428	496.56
452.648	508.56
452.869	500.56
453.089	481.56
453.31	508.56
453.53	496.56
453.751	508.56
453.971	486.56
454.192	518.56
454.412	501.56
454.633	514.56
454.853	479.56
455.073	500.56
455.294	536.56
455.514	599.56
455.734	580.56
455.955	493.56
456.175	499.56
456.395	450.56
456.616	444.56
456.836	474.56
457.056	464.56
457.276	490.56
457.497	481.56
457.717	467.56
457.937	475.56
458.157	489.56
458.377	489.56
458.598	488.56
458.818	542.56
459.038	640.56
459.258	665.56
459.478	565.56
459.698	538.56
459.918	536.56
460.138	534.56
460.358	547.56
460.578	551.56
460.798	574.56
461.018	566.56
461.238	552.56
461.458	576.56
461.678	534.56
461.898	555.56
462.118	566.56
462.338	594.56
462.558	603.56
462.777	613.56
462.997	630.56
463.217	642.56
463.437	637.56
463.657	618.56
463.876	615.56
464.096	610.56
464.316	600.56
464.536	620.56
464.755	593.56
464.975	608.56
465.195	624.56
465.414	666.56
465.634	601.56
465.854	562.56
466.073	550.56
466.293	537.56
466.512	532.56
466.732	512.56
466.951	506.56
467.171	512.56
467.391	522.56
467.61	517.56
467.829	518.56
468.049	524.56
468.268	524.56
468.488	517.56
468.707	503.56
468.927	519.56
469.146	487.56
469.365	508.56
469.585	521.56
469.804	530.56
470.023	553.56
470.243	526.56
470.462	538.56
470.681	529.56
470.901	544.56
471.12	529.56
471.339	514.56
471.558	532.56
471.777	507.56
471.997	516.56
472.216	527.56
472.435	552.56
472.654	551.56
472.873	517.56
473.092	502.56
473.311	508.56
473.53	529.56
473.749	530.56
473.968	560.56
474.187	648.56
474.406	706.56
474.625	562.56
474.844	537.56
475.063	520.56
475.282	520.56
475.501	519.56
475.72	548.56
475.939	528.56
476.158	526.56
476.377	547.56
476.596	534.56
476.814	545.56
477.033	570.56
477.252	535.56
477.471	561.56
477.69	560.56
477.908	576.56
478.127	579.56
478.346	582.56
478.564	594.56
478.783	568.56
479.002	631.56
479.22	580.56
479.439	622.56
479.658	628.56
479.876	615.56
480.095	621.56
480.313	658.56
480.532	657.56
480.751	649.56
480.969	674.56
481.188	674.56
481.406	739.56
481.624	674.56
481.843	605.56
482.061	626.56
482.28	620.56
482.498	616.56
482.717	601.56
482.935	616.56
483.153	628.56
483.372	603.56
483.59	605.56
483.808	596.56
484.027	620.56
484.245	606.56
484.463	612.56
484.681	644.56
484.9	630.56
485.118	617.56
485.336	607.56
485.554	617.56
485.772	633.56
485.99	648.56
486.209	631.56
486.427	629.56
486.645	650.56
486.863	652.56
487.081	648.56
487.299	625.56
487.517	654.56
487.735	676.56
487.953	656.56
488.171	649.56
488.389	673.56
488.607	644.56
488.825	658.56
489.043	676.56
489.261	675.56
489.479	655.56
489.696	660.56
489.914	648.56
490.132	686.56
490.35	672.56
490.568	673.56
490.786	699.56
491.003	727.56
491.221	713.56
491.439	711.56
491.657	746.56
491.874	745.56
492.092	763.56
492.31	765.56
492.527	762.56
492.745	745.56
492.963	774.56
493.18	763.56
493.398	776.56
493.615	795.56
493.833	774.56
494.05	776.56
494.268	753.56
494.485	756.56
494.703	745.56
494.92	784.56
495.138	786.56
495.355	789.56
495.573	777.56
495.79	787.56
496.008	777.56
496.225	789.56
496.442	786.56
496.66	776.56
496.877	788.56
497.094	808.56
497.312	801.56
497.529	796.56
497.746	841.56
497.963	828.56
498.181	872.56
498.398	871.56
498.615	900.56
498.832	903.56
499.049	935.56
499.267	952.56
499.484	983.56
499.701	1048.56
499.918	1125.56
500.135	1166.56
500.352	1211.56
500.569	1241.56
500.786	1254.56
501.003	1258.56
501.22	1188.56
501.437	1113.56
501.654	1074.56
