Data from 1975.PennyLincolnUp.Lamp.En5.5.200Scan.071719.P1.Changed Mount._HRD10591_15-58-24-859.txt Node
Date: Thu Jul 18 15:58:24 EDT 2019
User: cochatt
Spectrometer: HR+D1059
Trigger mode: 1
Integration Time (sec): 1.000000E-1
Scans to average: 1
Electric dark correction enabled: true
Nonlinearity correction enabled: false
Boxcar width: 0
XAxis mode: Wavelengths
Number of Pixels in Spectrum: 2048
>>>>>Begin Spectral Data<<<<<
223.165	-14.25
223.4	-14.25
223.635	-14.25
223.869	-27.25
224.104	-16.25
224.338	-20.25
224.573	-9.25
224.808	-17.25
225.042	-12.25
225.277	1.75
225.511	11.75
225.746	-5.25
225.98	-4.25
226.215	5.75
226.449	14.75
226.683	30.75
226.918	32.75
227.152	28.75
227.387	33.75
227.621	27.75
227.856	63.75
228.09	35.75
228.324	45.75
228.559	65.75
228.793	65.75
229.027	99.75
229.262	90.75
229.496	105.75
229.73	137.75
229.964	151.75
230.199	133.75
230.433	103.75
230.667	116.75
230.901	120.75
231.136	110.75
231.37	115.75
231.604	108.75
231.838	122.75
232.072	118.75
232.306	117.75
232.541	111.75
232.775	104.75
233.009	110.75
233.243	114.75
233.477	114.75
233.711	126.75
233.945	131.75
234.179	120.75
234.413	110.75
234.647	102.75
234.881	117.75
235.115	125.75
235.349	128.75
235.583	119.75
235.817	112.75
236.051	120.75
236.285	126.75
236.519	110.75
236.753	133.75
236.987	153.75
237.221	193.75
237.455	237.75
237.689	174.75
237.922	162.75
238.156	139.75
238.39	126.75
238.624	123.75
238.858	133.75
239.091	133.75
239.325	141.75
239.559	135.75
239.793	138.75
240.027	143.75
240.26	147.75
240.494	153.75
240.728	168.75
240.961	162.75
241.195	144.75
241.429	141.75
241.662	137.75
241.896	149.75
242.13	137.75
242.363	138.75
242.597	142.75
242.83	144.75
243.064	144.75
243.298	150.75
243.531	149.75
243.765	147.75
243.998	147.75
244.232	140.75
244.465	149.75
244.699	142.75
244.932	151.75
245.166	145.75
245.399	159.75
245.633	150.75
245.866	147.75
246.099	164.75
246.333	166.75
246.566	176.75
246.8	179.75
247.033	163.75
247.266	162.75
247.5	158.75
247.733	185.75
247.966	169.75
248.2	173.75
248.433	169.75
248.666	177.75
248.899	187.75
249.133	211.75
249.366	222.75
249.599	203.75
249.832	202.75
250.066	185.75
250.299	197.75
250.532	199.75
250.765	203.75
250.998	230.75
251.231	241.75
251.465	236.75
251.698	241.75
251.931	207.75
252.164	203.75
252.397	189.75
252.63	212.75
252.863	210.75
253.096	216.75
253.329	235.75
253.562	245.75
253.795	226.75
254.028	203.75
254.261	232.75
254.494	222.75
254.727	265.75
254.96	279.75
255.193	277.75
255.426	254.75
255.659	235.75
255.892	248.75
256.124	233.75
256.357	265.75
256.59	217.75
256.823	218.75
257.056	231.75
257.289	228.75
257.521	218.75
257.754	242.75
257.987	208.75
258.22	229.75
258.452	227.75
258.685	206.75
258.918	219.75
259.151	205.75
259.383	246.75
259.616	225.75
259.849	257.75
260.081	269.75
260.314	265.75
260.547	278.75
260.779	263.75
261.012	250.75
261.244	234.75
261.477	237.75
261.71	218.75
261.942	241.75
262.175	227.75
262.407	244.75
262.64	235.75
262.872	218.75
263.105	236.75
263.337	235.75
263.57	221.75
263.802	218.75
264.035	213.75
264.267	218.75
264.499	211.75
264.732	220.75
264.964	220.75
265.197	227.75
265.429	227.75
265.661	230.75
265.894	229.75
266.126	234.75
266.358	240.75
266.591	240.75
266.823	221.75
267.055	255.75
267.287	245.75
267.52	241.75
267.752	243.75
267.984	241.75
268.216	250.75
268.448	231.75
268.681	237.75
268.913	259.75
269.145	284.75
269.377	284.75
269.609	272.75
269.841	288.75
270.073	286.75
270.306	303.75
270.538	321.75
270.77	343.75
271.002	313.75
271.234	309.75
271.466	305.75
271.698	323.75
271.93	336.75
272.162	314.75
272.394	320.75
272.626	301.75
272.858	295.75
273.09	298.75
273.322	299.75
273.553	273.75
273.785	276.75
274.017	275.75
274.249	287.75
274.481	291.75
274.713	280.75
274.945	291.75
275.176	285.75
275.408	278.75
275.64	285.75
275.872	280.75
276.104	268.75
276.335	280.75
276.567	289.75
276.799	296.75
277.031	312.75
277.262	321.75
277.494	330.75
277.726	308.75
277.957	322.75
278.189	293.75
278.421	267.75
278.652	293.75
278.884	293.75
279.115	303.75
279.347	298.75
279.579	294.75
279.81	291.75
280.042	274.75
280.273	295.75
280.505	307.75
280.736	285.75
280.968	292.75
281.199	300.75
281.431	296.75
281.662	270.75
281.894	285.75
282.125	286.75
282.356	311.75
282.588	301.75
282.819	304.75
283.051	307.75
283.282	297.75
283.513	290.75
283.745	282.75
283.976	310.75
284.207	296.75
284.439	301.75
284.67	290.75
284.901	322.75
285.132	310.75
285.364	306.75
285.595	308.75
285.826	306.75
286.057	317.75
286.288	304.75
286.52	305.75
286.751	306.75
286.982	323.75
287.213	324.75
287.444	297.75
287.675	327.75
287.906	325.75
288.138	327.75
288.369	316.75
288.6	322.75
288.831	333.75
289.062	336.75
289.293	313.75
289.524	323.75
289.755	302.75
289.986	289.75
290.217	317.75
290.448	312.75
290.679	295.75
290.91	300.75
291.141	308.75
291.371	296.75
291.602	315.75
291.833	297.75
292.064	323.75
292.295	310.75
292.526	318.75
292.757	312.75
292.987	317.75
293.218	321.75
293.449	314.75
293.68	291.75
293.91	314.75
294.141	323.75
294.372	314.75
294.603	308.75
294.833	306.75
295.064	324.75
295.295	331.75
295.525	319.75
295.756	330.75
295.987	303.75
296.217	354.75
296.448	345.75
296.679	332.75
296.909	333.75
297.14	325.75
297.37	309.75
297.601	328.75
297.831	323.75
298.062	328.75
298.292	321.75
298.523	336.75
298.753	333.75
298.984	314.75
299.214	325.75
299.445	340.75
299.675	343.75
299.905	333.75
300.136	346.75
300.366	330.75
300.597	342.75
300.827	323.75
301.057	350.75
301.288	358.75
301.518	363.75
301.748	348.75
301.979	359.75
302.209	361.75
302.439	350.75
302.669	359.75
302.9	362.75
303.13	332.75
303.36	350.75
303.59	365.75
303.82	364.75
304.051	366.75
304.281	354.75
304.511	351.75
304.741	351.75
304.971	351.75
305.201	346.75
305.431	361.75
305.661	358.75
305.891	346.75
306.121	353.75
306.352	352.75
306.582	341.75
306.812	334.75
307.042	341.75
307.272	347.75
307.502	357.75
307.731	363.75
307.961	361.75
308.191	375.75
308.421	357.75
308.651	367.75
308.881	340.75
309.111	356.75
309.341	365.75
309.571	360.75
309.8	372.75
310.03	373.75
310.26	375.75
310.49	377.75
310.72	380.75
310.949	391.75
311.179	417.75
311.409	396.75
311.639	397.75
311.868	386.75
312.098	388.75
312.328	399.75
312.557	417.75
312.787	435.75
313.017	426.75
313.246	391.75
313.476	375.75
313.706	378.75
313.935	407.75
314.165	390.75
314.394	410.75
314.624	426.75
314.853	415.75
315.083	398.75
315.312	389.75
315.542	383.75
315.771	386.75
316.001	383.75
316.23	397.75
316.46	396.75
316.689	421.75
316.919	384.75
317.148	407.75
317.377	393.75
317.607	420.75
317.836	406.75
318.065	399.75
318.295	403.75
318.524	386.75
318.753	394.75
318.983	395.75
319.212	389.75
319.441	393.75
319.67	410.75
319.9	393.75
320.129	389.75
320.358	397.75
320.587	397.75
320.816	405.75
321.046	403.75
321.275	417.75
321.504	425.75
321.733	421.75
321.962	445.75
322.191	421.75
322.42	410.75
322.649	445.75
322.878	469.75
323.108	436.75
323.337	470.75
323.566	497.75
323.795	511.75
324.024	541.75
324.253	627.75
324.482	828.75
324.71	1336.75
324.939	1931.75
325.168	1719.75
325.397	871.75
325.626	606.75
325.855	521.75
326.084	500.75
326.313	491.75
326.542	505.75
326.77	517.75
326.999	617.75
327.228	818.75
327.457	1185.75
327.686	1499.75
327.914	985.75
328.143	638.75
328.372	598.75
328.6	531.75
328.829	568.75
329.058	570.75
329.287	567.75
329.515	567.75
329.744	507.75
329.972	498.75
330.201	537.75
330.43	581.75
330.658	579.75
330.887	592.75
331.115	591.75
331.344	511.75
331.572	491.75
331.801	495.75
332.03	503.75
332.258	507.75
332.486	498.75
332.715	489.75
332.943	477.75
333.172	480.75
333.4	502.75
333.629	528.75
333.857	520.75
334.085	531.75
334.314	542.75
334.542	568.75
334.771	578.75
334.999	536.75
335.227	520.75
335.455	491.75
335.684	473.75
335.912	482.75
336.14	490.75
336.369	482.75
336.597	476.75
336.825	492.75
337.053	464.75
337.281	451.75
337.51	473.75
337.738	447.75
337.966	470.75
338.194	473.75
338.422	492.75
338.65	476.75
338.878	460.75
339.106	444.75
339.334	457.75
339.562	441.75
339.79	451.75
340.018	456.75
340.246	450.75
340.474	456.75
340.702	463.75
340.93	419.75
341.158	457.75
341.386	470.75
341.614	456.75
341.842	444.75
342.07	453.75
342.298	453.75
342.526	458.75
342.754	454.75
342.981	448.75
343.209	419.75
343.437	453.75
343.665	455.75
343.893	471.75
344.12	499.75
344.348	475.75
344.576	453.75
344.804	487.75
345.031	467.75
345.259	478.75
345.487	458.75
345.714	449.75
345.942	447.75
346.17	452.75
346.397	449.75
346.625	437.75
346.853	447.75
347.08	442.75
347.308	429.75
347.535	425.75
347.763	449.75
347.99	452.75
348.218	461.75
348.445	450.75
348.673	441.75
348.9	456.75
349.128	442.75
349.355	425.75
349.583	433.75
349.81	417.75
350.037	436.75
350.265	420.75
350.492	435.75
350.72	439.75
350.947	428.75
351.174	431.75
351.402	444.75
351.629	440.75
351.856	433.75
352.083	460.75
352.311	452.75
352.538	453.75
352.765	438.75
352.992	429.75
353.22	434.75
353.447	431.75
353.674	409.75
353.901	421.75
354.128	428.75
354.355	433.75
354.583	419.75
354.81	426.75
355.037	398.75
355.264	418.75
355.491	415.75
355.718	414.75
355.945	415.75
356.172	408.75
356.399	430.75
356.626	409.75
356.853	423.75
357.08	381.75
357.307	413.75
357.534	439.75
357.761	408.75
357.988	419.75
358.215	418.75
358.441	399.75
358.668	422.75
358.895	447.75
359.122	411.75
359.349	420.75
359.576	428.75
359.802	471.75
360.029	479.75
360.256	486.75
360.483	478.75
360.709	459.75
360.936	441.75
361.163	458.75
361.39	439.75
361.616	421.75
361.843	430.75
362.07	444.75
362.296	453.75
362.523	429.75
362.749	439.75
362.976	439.75
363.203	424.75
363.429	405.75
363.656	434.75
363.882	405.75
364.109	425.75
364.335	453.75
364.562	435.75
364.788	434.75
365.015	428.75
365.241	437.75
365.468	424.75
365.694	441.75
365.92	440.75
366.147	435.75
366.373	421.75
366.599	413.75
366.826	431.75
367.052	413.75
367.278	437.75
367.505	424.75
367.731	431.75
367.957	427.75
368.184	432.75
368.41	431.75
368.636	445.75
368.862	431.75
369.089	429.75
369.315	437.75
369.541	430.75
369.767	416.75
369.993	443.75
370.219	419.75
370.445	422.75
370.672	425.75
370.898	414.75
371.124	414.75
371.35	448.75
371.576	439.75
371.802	429.75
372.028	447.75
372.254	444.75
372.48	432.75
372.706	435.75
372.932	446.75
373.158	448.75
373.384	429.75
373.61	419.75
373.835	431.75
374.061	442.75
374.287	438.75
374.513	445.75
374.739	449.75
374.965	469.75
375.191	457.75
375.416	444.75
375.642	434.75
375.868	444.75
376.094	441.75
376.319	454.75
376.545	443.75
376.771	413.75
376.997	438.75
377.222	428.75
377.448	441.75
377.674	439.75
377.899	426.75
378.125	425.75
378.35	437.75
378.576	440.75
378.802	426.75
379.027	435.75
379.253	423.75
379.478	439.75
379.704	436.75
379.929	447.75
380.155	434.75
380.38	435.75
380.606	420.75
380.831	457.75
381.057	437.75
381.282	437.75
381.507	425.75
381.733	425.75
381.958	446.75
382.184	451.75
382.409	458.75
382.634	467.75
382.86	452.75
383.085	444.75
383.31	454.75
383.535	474.75
383.761	430.75
383.986	470.75
384.211	453.75
384.436	477.75
384.662	477.75
384.887	480.75
385.112	473.75
385.337	465.75
385.562	476.75
385.787	487.75
386.013	486.75
386.238	506.75
386.463	512.75
386.688	481.75
386.913	469.75
387.138	487.75
387.363	486.75
387.588	476.75
387.813	501.75
388.038	485.75
388.263	499.75
388.488	490.75
388.713	489.75
388.938	492.75
389.163	500.75
389.387	502.75
389.612	466.75
389.837	484.75
390.062	488.75
390.287	496.75
390.512	492.75
390.736	453.75
390.961	497.75
391.186	483.75
391.411	498.75
391.636	515.75
391.86	523.75
392.085	522.75
392.31	495.75
392.534	510.75
392.759	492.75
392.984	513.75
393.208	489.75
393.433	478.75
393.658	509.75
393.882	474.75
394.107	488.75
394.331	509.75
394.556	513.75
394.78	492.75
395.005	507.75
395.229	513.75
395.454	527.75
395.678	527.75
395.903	532.75
396.127	518.75
396.352	553.75
396.576	511.75
396.801	497.75
397.025	541.75
397.249	523.75
397.474	547.75
397.698	525.75
397.922	559.75
398.147	549.75
398.371	547.75
398.595	567.75
398.82	570.75
399.044	553.75
399.268	605.75
399.492	653.75
399.717	683.75
399.941	734.75
400.165	747.75
400.389	712.75
400.613	667.75
400.837	616.75
401.062	609.75
401.286	547.75
401.51	589.75
401.734	573.75
401.958	566.75
402.182	551.75
402.406	591.75
402.63	601.75
402.854	599.75
403.078	578.75
403.302	595.75
403.526	583.75
403.75	604.75
403.974	613.75
404.198	584.75
404.422	613.75
404.645	586.75
404.869	627.75
405.093	654.75
405.317	702.75
405.541	753.75
405.765	680.75
405.988	632.75
406.212	623.75
406.436	645.75
406.66	656.75
406.883	644.75
407.107	645.75
407.331	719.75
407.555	789.75
407.778	799.75
408.002	730.75
408.226	655.75
408.449	646.75
408.673	669.75
408.896	677.75
409.12	727.75
409.344	681.75
409.567	613.75
409.791	616.75
410.014	600.75
410.238	589.75
410.461	604.75
410.685	596.75
410.908	627.75
411.132	631.75
411.355	694.75
411.578	640.75
411.802	609.75
412.025	583.75
412.249	629.75
412.472	617.75
412.695	676.75
412.919	677.75
413.142	621.75
413.365	617.75
413.589	573.75
413.812	570.75
414.035	558.75
414.258	581.75
414.482	594.75
414.705	578.75
414.928	574.75
415.151	563.75
415.374	577.75
415.597	589.75
415.821	558.75
416.044	573.75
416.267	568.75
416.49	576.75
416.713	562.75
416.936	545.75
417.159	530.75
417.382	559.75
417.605	545.75
417.828	591.75
418.051	594.75
418.274	537.75
418.497	571.75
418.72	574.75
418.943	556.75
419.166	621.75
419.389	627.75
419.611	599.75
419.834	591.75
420.057	613.75
420.28	616.75
420.503	611.75
420.726	590.75
420.948	598.75
421.171	638.75
421.394	661.75
421.617	589.75
421.839	603.75
422.062	583.75
422.285	584.75
422.507	682.75
422.73	750.75
422.953	717.75
423.175	641.75
423.398	585.75
423.621	613.75
423.843	623.75
424.066	620.75
424.288	608.75
424.511	637.75
424.733	709.75
424.956	766.75
425.178	762.75
425.401	787.75
425.623	780.75
425.846	673.75
426.068	593.75
426.291	615.75
426.513	612.75
426.735	635.75
426.958	689.75
427.18	755.75
427.402	885.75
427.625	969.75
427.847	827.75
428.069	737.75
428.292	649.75
428.514	587.75
428.736	587.75
428.958	583.75
429.181	564.75
429.403	565.75
429.625	571.75
429.847	612.75
430.069	659.75
430.292	689.75
430.514	571.75
430.736	563.75
430.958	575.75
431.18	562.75
431.402	541.75
431.624	555.75
431.846	549.75
432.068	577.75
432.29	539.75
432.512	550.75
432.734	551.75
432.956	549.75
433.178	558.75
433.4	558.75
433.622	552.75
433.844	560.75
434.066	561.75
434.287	548.75
434.509	549.75
434.731	568.75
434.953	568.75
435.175	601.75
435.397	606.75
435.618	613.75
435.84	674.75
436.062	737.75
436.284	805.75
436.505	674.75
436.727	619.75
436.949	572.75
437.17	589.75
437.392	578.75
437.614	586.75
437.835	626.75
438.057	693.75
438.278	793.75
438.5	800.75
438.721	888.75
438.943	849.75
439.165	663.75
439.386	626.75
439.608	605.75
439.829	614.75
440.05	615.75
440.272	666.75
440.493	647.75
440.715	610.75
440.936	597.75
441.158	569.75
441.379	583.75
441.6	584.75
441.822	614.75
442.043	666.75
442.264	747.75
442.486	819.75
442.707	681.75
442.928	636.75
443.149	623.75
443.371	643.75
443.592	696.75
443.813	795.75
444.034	876.75
444.255	742.75
444.476	646.75
444.698	659.75
444.919	650.75
445.14	779.75
445.361	718.75
445.582	677.75
445.803	735.75
446.024	812.75
446.245	809.75
446.466	779.75
446.687	656.75
446.908	641.75
447.129	583.75
447.35	580.75
447.571	550.75
447.792	561.75
448.013	561.75
448.234	590.75
448.455	627.75
448.675	742.75
448.896	853.75
449.117	746.75
449.338	702.75
449.559	817.75
449.779	927.75
450	730.75
450.221	612.75
450.442	551.75
450.662	572.75
450.883	559.75
451.104	572.75
451.324	523.75
451.545	525.75
451.766	515.75
451.986	533.75
452.207	520.75
452.428	517.75
452.648	507.75
452.869	497.75
453.089	514.75
453.31	534.75
453.53	510.75
453.751	503.75
453.971	507.75
454.192	521.75
454.412	525.75
454.633	514.75
454.853	501.75
455.073	494.75
455.294	531.75
455.514	583.75
455.734	581.75
455.955	495.75
456.175	493.75
456.395	469.75
456.616	459.75
456.836	473.75
457.056	491.75
457.276	474.75
457.497	495.75
457.717	481.75
457.937	481.75
458.157	499.75
458.377	498.75
458.598	515.75
458.818	553.75
459.038	633.75
459.258	671.75
459.478	572.75
459.698	541.75
459.918	535.75
460.138	543.75
460.358	559.75
460.578	556.75
460.798	572.75
461.018	577.75
461.238	571.75
461.458	577.75
461.678	540.75
461.898	593.75
462.118	581.75
462.338	598.75
462.558	612.75
462.777	602.75
462.997	634.75
463.217	619.75
463.437	667.75
463.657	641.75
463.876	604.75
464.096	615.75
464.316	611.75
464.536	616.75
464.755	614.75
464.975	607.75
465.195	650.75
465.414	683.75
465.634	617.75
465.854	558.75
466.073	564.75
466.293	549.75
466.512	528.75
466.732	522.75
466.951	521.75
467.171	522.75
467.391	532.75
467.61	536.75
467.829	535.75
468.049	523.75
468.268	539.75
468.488	533.75
468.707	531.75
468.927	501.75
469.146	489.75
469.365	515.75
469.585	513.75
469.804	535.75
470.023	531.75
470.243	517.75
470.462	543.75
470.681	558.75
470.901	556.75
471.12	540.75
471.339	534.75
471.558	554.75
471.777	536.75
471.997	522.75
472.216	558.75
472.435	549.75
472.654	548.75
472.873	516.75
473.092	553.75
473.311	529.75
473.53	527.75
473.749	529.75
473.968	580.75
474.187	673.75
474.406	695.75
474.625	569.75
474.844	545.75
475.063	526.75
475.282	538.75
475.501	541.75
475.72	547.75
475.939	541.75
476.158	532.75
476.377	554.75
476.596	525.75
476.814	562.75
477.033	550.75
477.252	557.75
477.471	564.75
477.69	559.75
477.908	577.75
478.127	570.75
478.346	592.75
478.564	584.75
478.783	592.75
479.002	607.75
479.22	637.75
479.439	614.75
479.658	636.75
479.876	647.75
480.095	644.75
480.313	682.75
480.532	670.75
480.751	654.75
480.969	660.75
481.188	709.75
481.406	731.75
481.624	673.75
481.843	625.75
482.061	634.75
482.28	637.75
482.498	628.75
482.717	629.75
482.935	597.75
483.153	612.75
483.372	630.75
483.59	616.75
483.808	631.75
484.027	615.75
484.245	612.75
484.463	616.75
484.681	633.75
484.9	649.75
485.118	639.75
485.336	626.75
485.554	641.75
485.772	663.75
485.99	634.75
486.209	650.75
486.427	657.75
486.645	643.75
486.863	664.75
487.081	659.75
487.299	653.75
487.517	673.75
487.735	654.75
487.953	656.75
488.171	657.75
488.389	663.75
488.607	657.75
488.825	652.75
489.043	670.75
489.261	644.75
489.479	683.75
489.696	673.75
489.914	656.75
490.132	679.75
490.35	683.75
490.568	693.75
490.786	711.75
491.003	692.75
491.221	745.75
491.439	742.75
491.657	718.75
491.874	750.75
492.092	764.75
492.31	775.75
492.527	766.75
492.745	753.75
492.963	759.75
493.18	777.75
493.398	784.75
493.615	804.75
493.833	801.75
494.05	805.75
494.268	795.75
494.485	789.75
494.703	795.75
494.92	783.75
495.138	760.75
495.355	781.75
495.573	792.75
495.79	793.75
496.008	798.75
496.225	772.75
496.442	806.75
496.66	780.75
496.877	798.75
497.094	803.75
497.312	811.75
497.529	800.75
497.746	834.75
497.963	837.75
498.181	865.75
498.398	877.75
498.615	883.75
498.832	912.75
499.049	953.75
499.267	967.75
499.484	1024.75
499.701	1052.75
499.918	1078.75
500.135	1164.75
500.352	1231.75
500.569	1282.75
500.786	1286.75
501.003	1246.75
501.22	1188.75
501.437	1128.75
501.654	1089.75
