Data from 1975.PennyLincolnUp.Lamp.En5.5.200Scan.071719.P1.Changed Mount._HRD10591_15-57-32-859.txt Node
Date: Thu Jul 18 15:57:32 EDT 2019
User: cochatt
Spectrometer: HR+D1059
Trigger mode: 1
Integration Time (sec): 1.000000E-1
Scans to average: 1
Electric dark correction enabled: true
Nonlinearity correction enabled: false
Boxcar width: 0
XAxis mode: Wavelengths
Number of Pixels in Spectrum: 2048
>>>>>Begin Spectral Data<<<<<
223.165	-16.12
223.4	-16.12
223.635	-16.12
223.869	-15.12
224.104	-20.12
224.338	-7.12
224.573	-17.12
224.808	-22.12
225.042	13.88
225.277	2.88
225.511	-10.12
225.746	19.88
225.98	1.88
226.215	14.88
226.449	3.88
226.683	12.88
226.918	-2.12
227.152	39.88
227.387	19.88
227.621	30.88
227.856	49.88
228.09	36.88
228.324	45.88
228.559	57.88
228.793	51.88
229.027	91.88
229.262	96.88
229.496	116.88
229.73	112.88
229.964	147.88
230.199	127.88
230.433	110.88
230.667	108.88
230.901	121.88
231.136	103.88
231.37	109.88
231.604	99.88
231.838	115.88
232.072	121.88
232.306	120.88
232.541	109.88
232.775	128.88
233.009	107.88
233.243	114.88
233.477	105.88
233.711	113.88
233.945	118.88
234.179	126.88
234.413	113.88
234.647	116.88
234.881	118.88
235.115	118.88
235.349	126.88
235.583	135.88
235.817	116.88
236.051	119.88
236.285	115.88
236.519	115.88
236.753	136.88
236.987	145.88
237.221	164.88
237.455	228.88
237.689	173.88
237.922	148.88
238.156	131.88
238.39	128.88
238.624	120.88
238.858	115.88
239.091	131.88
239.325	111.88
239.559	120.88
239.793	123.88
240.027	131.88
240.26	137.88
240.494	135.88
240.728	149.88
240.961	146.88
241.195	153.88
241.429	151.88
241.662	140.88
241.896	133.88
242.13	145.88
242.363	145.88
242.597	143.88
242.83	152.88
243.064	138.88
243.298	138.88
243.531	140.88
243.765	144.88
243.998	150.88
244.232	134.88
244.465	160.88
244.699	143.88
244.932	142.88
245.166	151.88
245.399	138.88
245.633	143.88
245.866	138.88
246.099	163.88
246.333	152.88
246.566	156.88
246.8	151.88
247.033	155.88
247.266	159.88
247.5	159.88
247.733	172.88
247.966	179.88
248.2	177.88
248.433	185.88
248.666	178.88
248.899	179.88
249.133	175.88
249.366	214.88
249.599	207.88
249.832	177.88
250.066	177.88
250.299	171.88
250.532	194.88
250.765	202.88
250.998	217.88
251.231	239.88
251.465	210.88
251.698	205.88
251.931	212.88
252.164	178.88
252.397	194.88
252.63	211.88
252.863	205.88
253.096	213.88
253.329	215.88
253.562	221.88
253.795	209.88
254.028	224.88
254.261	212.88
254.494	208.88
254.727	245.88
254.96	281.88
255.193	275.88
255.426	243.88
255.659	220.88
255.892	230.88
256.124	226.88
256.357	230.88
256.59	223.88
256.823	223.88
257.056	224.88
257.289	221.88
257.521	203.88
257.754	207.88
257.987	220.88
258.22	212.88
258.452	211.88
258.685	196.88
258.918	201.88
259.151	221.88
259.383	236.88
259.616	232.88
259.849	225.88
260.081	224.88
260.314	241.88
260.547	264.88
260.779	233.88
261.012	230.88
261.244	229.88
261.477	216.88
261.71	205.88
261.942	221.88
262.175	238.88
262.407	215.88
262.64	237.88
262.872	211.88
263.105	209.88
263.337	220.88
263.57	241.88
263.802	223.88
264.035	218.88
264.267	216.88
264.499	214.88
264.732	240.88
264.964	219.88
265.197	223.88
265.429	216.88
265.661	226.88
265.894	217.88
266.126	224.88
266.358	224.88
266.591	235.88
266.823	228.88
267.055	219.88
267.287	233.88
267.52	233.88
267.752	234.88
267.984	221.88
268.216	231.88
268.448	219.88
268.681	259.88
268.913	253.88
269.145	262.88
269.377	289.88
269.609	285.88
269.841	272.88
270.073	290.88
270.306	289.88
270.538	294.88
270.77	317.88
271.002	314.88
271.234	296.88
271.466	283.88
271.698	315.88
271.93	303.88
272.162	319.88
272.394	306.88
272.626	318.88
272.858	284.88
273.09	289.88
273.322	279.88
273.553	275.88
273.785	268.88
274.017	265.88
274.249	275.88
274.481	267.88
274.713	268.88
274.945	265.88
275.176	279.88
275.408	282.88
275.64	272.88
275.872	265.88
276.104	260.88
276.335	273.88
276.567	268.88
276.799	324.88
277.031	322.88
277.262	310.88
277.494	321.88
277.726	323.88
277.957	268.88
278.189	285.88
278.421	268.88
278.652	289.88
278.884	277.88
279.115	277.88
279.347	273.88
279.579	281.88
279.81	262.88
280.042	288.88
280.273	262.88
280.505	276.88
280.736	282.88
280.968	270.88
281.199	261.88
281.431	284.88
281.662	272.88
281.894	249.88
282.125	291.88
282.356	278.88
282.588	300.88
282.819	295.88
283.051	283.88
283.282	291.88
283.513	291.88
283.745	287.88
283.976	279.88
284.207	323.88
284.439	296.88
284.67	300.88
284.901	305.88
285.132	277.88
285.364	300.88
285.595	306.88
285.826	303.88
286.057	289.88
286.288	296.88
286.52	291.88
286.751	299.88
286.982	298.88
287.213	276.88
287.444	291.88
287.675	283.88
287.906	309.88
288.138	319.88
288.369	329.88
288.6	312.88
288.831	324.88
289.062	325.88
289.293	304.88
289.524	320.88
289.755	312.88
289.986	308.88
290.217	287.88
290.448	283.88
290.679	315.88
290.91	310.88
291.141	298.88
291.371	310.88
291.602	300.88
291.833	289.88
292.064	303.88
292.295	301.88
292.526	293.88
292.757	307.88
292.987	306.88
293.218	291.88
293.449	310.88
293.68	315.88
293.91	284.88
294.141	299.88
294.372	299.88
294.603	296.88
294.833	311.88
295.064	310.88
295.295	313.88
295.525	322.88
295.756	309.88
295.987	323.88
296.217	328.88
296.448	329.88
296.679	326.88
296.909	311.88
297.14	320.88
297.37	317.88
297.601	315.88
297.831	321.88
298.062	324.88
298.292	307.88
298.523	334.88
298.753	331.88
298.984	331.88
299.214	315.88
299.445	338.88
299.675	315.88
299.905	324.88
300.136	327.88
300.366	331.88
300.597	333.88
300.827	328.88
301.057	327.88
301.288	325.88
301.518	331.88
301.748	362.88
301.979	320.88
302.209	355.88
302.439	353.88
302.669	350.88
302.9	339.88
303.13	323.88
303.36	344.88
303.59	339.88
303.82	336.88
304.051	354.88
304.281	332.88
304.511	361.88
304.741	332.88
304.971	339.88
305.201	347.88
305.431	340.88
305.661	328.88
305.891	341.88
306.121	332.88
306.352	343.88
306.582	347.88
306.812	333.88
307.042	331.88
307.272	344.88
307.502	353.88
307.731	343.88
307.961	342.88
308.191	351.88
308.421	335.88
308.651	367.88
308.881	356.88
309.111	356.88
309.341	370.88
309.571	350.88
309.8	371.88
310.03	375.88
310.26	365.88
310.49	375.88
310.72	357.88
310.949	378.88
311.179	401.88
311.409	369.88
311.639	376.88
311.868	394.88
312.098	374.88
312.328	369.88
312.557	396.88
312.787	416.88
313.017	384.88
313.246	378.88
313.476	379.88
313.706	395.88
313.935	392.88
314.165	396.88
314.394	417.88
314.624	384.88
314.853	380.88
315.083	383.88
315.312	366.88
315.542	372.88
315.771	399.88
316.001	369.88
316.23	373.88
316.46	381.88
316.689	390.88
316.919	381.88
317.148	385.88
317.377	404.88
317.607	396.88
317.836	394.88
318.065	401.88
318.295	364.88
318.524	377.88
318.753	383.88
318.983	407.88
319.212	371.88
319.441	383.88
319.67	417.88
319.9	387.88
320.129	394.88
320.358	390.88
320.587	403.88
320.816	410.88
321.046	400.88
321.275	419.88
321.504	398.88
321.733	423.88
321.962	403.88
322.191	406.88
322.42	419.88
322.649	436.88
322.878	439.88
323.108	435.88
323.337	467.88
323.566	486.88
323.795	503.88
324.024	526.88
324.253	603.88
324.482	815.88
324.71	1236.88
324.939	1946.88
325.168	1657.88
325.397	833.88
325.626	572.88
325.855	521.88
326.084	479.88
326.313	463.88
326.542	482.88
326.77	526.88
326.999	592.88
327.228	762.88
327.457	1165.88
327.686	1438.88
327.914	979.88
328.143	650.88
328.372	572.88
328.6	540.88
328.829	502.88
329.058	540.88
329.287	561.88
329.515	523.88
329.744	490.88
329.972	503.88
330.201	509.88
330.43	547.88
330.658	548.88
330.887	578.88
331.115	587.88
331.344	499.88
331.572	488.88
331.801	499.88
332.03	503.88
332.258	475.88
332.486	475.88
332.715	492.88
332.943	459.88
333.172	491.88
333.4	480.88
333.629	480.88
333.857	491.88
334.085	503.88
334.314	535.88
334.542	547.88
334.771	552.88
334.999	527.88
335.227	504.88
335.455	491.88
335.684	472.88
335.912	479.88
336.14	471.88
336.369	482.88
336.597	475.88
336.825	483.88
337.053	467.88
337.281	476.88
337.51	454.88
337.738	443.88
337.966	453.88
338.194	451.88
338.422	479.88
338.65	450.88
338.878	441.88
339.106	447.88
339.334	439.88
339.562	434.88
339.79	438.88
340.018	444.88
340.246	456.88
340.474	460.88
340.702	457.88
340.93	434.88
341.158	449.88
341.386	426.88
341.614	426.88
341.842	454.88
342.07	452.88
342.298	431.88
342.526	443.88
342.754	442.88
342.981	461.88
343.209	439.88
343.437	425.88
343.665	458.88
343.893	474.88
344.12	470.88
344.348	467.88
344.576	460.88
344.804	466.88
345.031	458.88
345.259	458.88
345.487	452.88
345.714	465.88
345.942	423.88
346.17	430.88
346.397	443.88
346.625	428.88
346.853	408.88
347.08	409.88
347.308	428.88
347.535	428.88
347.763	443.88
347.99	435.88
348.218	443.88
348.445	465.88
348.673	422.88
348.9	428.88
349.128	434.88
349.355	415.88
349.583	417.88
349.81	407.88
350.037	415.88
350.265	418.88
350.492	418.88
350.72	420.88
350.947	431.88
351.174	427.88
351.402	441.88
351.629	435.88
351.856	456.88
352.083	447.88
352.311	427.88
352.538	424.88
352.765	416.88
352.992	450.88
353.22	417.88
353.447	426.88
353.674	406.88
353.901	420.88
354.128	406.88
354.355	399.88
354.583	423.88
354.81	422.88
355.037	413.88
355.264	415.88
355.491	381.88
355.718	375.88
355.945	404.88
356.172	427.88
356.399	385.88
356.626	385.88
356.853	400.88
357.08	401.88
357.307	431.88
357.534	396.88
357.761	399.88
357.988	443.88
358.215	408.88
358.441	395.88
358.668	413.88
358.895	402.88
359.122	399.88
359.349	407.88
359.576	433.88
359.802	453.88
360.029	452.88
360.256	461.88
360.483	454.88
360.709	435.88
360.936	436.88
361.163	429.88
361.39	439.88
361.616	443.88
361.843	435.88
362.07	423.88
362.296	446.88
362.523	407.88
362.749	438.88
362.976	422.88
363.203	438.88
363.429	406.88
363.656	433.88
363.882	408.88
364.109	403.88
364.335	424.88
364.562	403.88
364.788	408.88
365.015	426.88
365.241	407.88
365.468	425.88
365.694	423.88
365.92	431.88
366.147	409.88
366.373	417.88
366.599	404.88
366.826	407.88
367.052	425.88
367.278	407.88
367.505	413.88
367.731	405.88
367.957	421.88
368.184	424.88
368.41	425.88
368.636	404.88
368.862	439.88
369.089	418.88
369.315	425.88
369.541	425.88
369.767	451.88
369.993	414.88
370.219	406.88
370.445	417.88
370.672	410.88
370.898	403.88
371.124	426.88
371.35	424.88
371.576	424.88
371.802	423.88
372.028	428.88
372.254	435.88
372.48	415.88
372.706	418.88
372.932	441.88
373.158	427.88
373.384	432.88
373.61	416.88
373.835	436.88
374.061	406.88
374.287	416.88
374.513	432.88
374.739	447.88
374.965	446.88
375.191	427.88
375.416	431.88
375.642	437.88
375.868	422.88
376.094	424.88
376.319	420.88
376.545	419.88
376.771	426.88
376.997	419.88
377.222	423.88
377.448	427.88
377.674	415.88
377.899	415.88
378.125	428.88
378.35	427.88
378.576	435.88
378.802	435.88
379.027	426.88
379.253	419.88
379.478	406.88
379.704	417.88
379.929	420.88
380.155	423.88
380.38	428.88
380.606	432.88
380.831	433.88
381.057	456.88
381.282	443.88
381.507	424.88
381.733	438.88
381.958	417.88
382.184	405.88
382.409	446.88
382.634	447.88
382.86	432.88
383.085	432.88
383.31	453.88
383.535	461.88
383.761	453.88
383.986	454.88
384.211	456.88
384.436	455.88
384.662	462.88
384.887	486.88
385.112	469.88
385.337	485.88
385.562	480.88
385.787	478.88
386.013	506.88
386.238	485.88
386.463	482.88
386.688	457.88
386.913	457.88
387.138	479.88
387.363	471.88
387.588	479.88
387.813	465.88
388.038	453.88
388.263	485.88
388.488	502.88
388.713	485.88
388.938	486.88
389.163	479.88
389.387	459.88
389.612	472.88
389.837	491.88
390.062	467.88
390.287	461.88
390.512	459.88
390.736	464.88
390.961	464.88
391.186	498.88
391.411	475.88
391.636	484.88
391.86	479.88
392.085	494.88
392.31	497.88
392.534	501.88
392.759	482.88
392.984	487.88
393.208	456.88
393.433	471.88
393.658	478.88
393.882	501.88
394.107	492.88
394.331	492.88
394.556	460.88
394.78	472.88
395.005	478.88
395.229	494.88
395.454	500.88
395.678	488.88
395.903	522.88
396.127	523.88
396.352	533.88
396.576	522.88
396.801	500.88
397.025	482.88
397.249	521.88
397.474	525.88
397.698	513.88
397.922	523.88
398.147	532.88
398.371	537.88
398.595	547.88
398.82	531.88
399.044	594.88
399.268	590.88
399.492	619.88
399.717	676.88
399.941	695.88
400.165	701.88
400.389	705.88
400.613	650.88
400.837	596.88
401.062	581.88
401.286	561.88
401.51	554.88
401.734	548.88
401.958	541.88
402.182	592.88
402.406	569.88
402.63	567.88
402.854	590.88
403.078	583.88
403.302	583.88
403.526	604.88
403.75	607.88
403.974	608.88
404.198	577.88
404.422	579.88
404.645	597.88
404.869	584.88
405.093	632.88
405.317	666.88
405.541	706.88
405.765	639.88
405.988	592.88
406.212	637.88
406.436	635.88
406.66	611.88
406.883	627.88
407.107	649.88
407.331	715.88
407.555	790.88
407.778	756.88
408.002	681.88
408.226	663.88
408.449	620.88
408.673	615.88
408.896	647.88
409.12	706.88
409.344	671.88
409.567	623.88
409.791	608.88
410.014	586.88
410.238	596.88
410.461	595.88
410.685	582.88
410.908	620.88
411.132	629.88
411.355	655.88
411.578	639.88
411.802	599.88
412.025	582.88
412.249	598.88
412.472	618.88
412.695	665.88
412.919	643.88
413.142	596.88
413.365	595.88
413.589	555.88
413.812	552.88
414.035	573.88
414.258	542.88
414.482	541.88
414.705	573.88
414.928	545.88
415.151	535.88
415.374	553.88
415.597	558.88
415.821	549.88
416.044	549.88
416.267	564.88
416.49	533.88
416.713	552.88
416.936	557.88
417.159	559.88
417.382	540.88
417.605	546.88
417.828	557.88
418.051	597.88
418.274	566.88
418.497	549.88
418.72	566.88
418.943	552.88
419.166	591.88
419.389	596.88
419.611	604.88
419.834	560.88
420.057	598.88
420.28	560.88
420.503	600.88
420.726	594.88
420.948	581.88
421.171	615.88
421.394	663.88
421.617	601.88
421.839	568.88
422.062	536.88
422.285	573.88
422.507	645.88
422.73	721.88
422.953	689.88
423.175	621.88
423.398	602.88
423.621	593.88
423.843	620.88
424.066	611.88
424.288	594.88
424.511	626.88
424.733	699.88
424.956	753.88
425.178	745.88
425.401	737.88
425.623	751.88
425.846	675.88
426.068	603.88
426.291	593.88
426.513	600.88
426.735	598.88
426.958	634.88
427.18	730.88
427.402	853.88
427.625	958.88
427.847	789.88
428.069	721.88
428.292	642.88
428.514	579.88
428.736	561.88
428.958	578.88
429.181	554.88
429.403	542.88
429.625	567.88
429.847	595.88
430.069	674.88
430.292	651.88
430.514	581.88
430.736	569.88
430.958	565.88
431.18	554.88
431.402	517.88
431.624	521.88
431.846	514.88
432.068	518.88
432.29	527.88
432.512	525.88
432.734	561.88
432.956	531.88
433.178	528.88
433.4	559.88
433.622	535.88
433.844	551.88
434.066	525.88
434.287	553.88
434.509	562.88
434.731	561.88
434.953	564.88
435.175	586.88
435.397	603.88
435.618	604.88
435.84	636.88
436.062	723.88
436.284	812.88
436.505	686.88
436.727	619.88
436.949	568.88
437.17	563.88
437.392	553.88
437.614	585.88
437.835	591.88
438.057	679.88
438.278	787.88
438.5	782.88
438.721	895.88
438.943	866.88
439.165	664.88
439.386	617.88
439.608	608.88
439.829	627.88
440.05	609.88
440.272	666.88
440.493	613.88
440.715	591.88
440.936	569.88
441.158	559.88
441.379	557.88
441.6	590.88
441.822	589.88
442.043	631.88
442.264	742.88
442.486	778.88
442.707	662.88
442.928	608.88
443.149	615.88
443.371	645.88
443.592	706.88
443.813	769.88
444.034	844.88
444.255	713.88
444.476	640.88
444.698	651.88
444.919	610.88
445.14	747.88
445.361	682.88
445.582	633.88
445.803	703.88
446.024	823.88
446.245	809.88
446.466	752.88
446.687	632.88
446.908	602.88
447.129	553.88
447.35	559.88
447.571	516.88
447.792	555.88
448.013	544.88
448.234	570.88
448.455	607.88
448.675	712.88
448.896	865.88
449.117	719.88
449.338	665.88
449.559	761.88
449.779	899.88
450	703.88
450.221	582.88
450.442	562.88
450.662	535.88
450.883	529.88
451.104	559.88
451.324	564.88
451.545	550.88
451.766	524.88
451.986	489.88
452.207	490.88
452.428	521.88
452.648	479.88
452.869	508.88
453.089	487.88
453.31	521.88
453.53	469.88
453.751	507.88
453.971	476.88
454.192	498.88
454.412	512.88
454.633	469.88
454.853	471.88
455.073	483.88
455.294	499.88
455.514	561.88
455.734	561.88
455.955	466.88
456.175	479.88
456.395	452.88
456.616	471.88
456.836	478.88
457.056	457.88
457.276	428.88
457.497	438.88
457.717	449.88
457.937	459.88
458.157	473.88
458.377	479.88
458.598	513.88
458.818	536.88
459.038	608.88
459.258	666.88
459.478	573.88
459.698	539.88
459.918	529.88
460.138	541.88
460.358	566.88
460.578	543.88
460.798	552.88
461.018	558.88
461.238	561.88
461.458	563.88
461.678	544.88
461.898	557.88
462.118	551.88
462.338	560.88
462.558	575.88
462.777	578.88
462.997	594.88
463.217	635.88
463.437	631.88
463.657	625.88
463.876	604.88
464.096	607.88
464.316	584.88
464.536	601.88
464.755	595.88
464.975	585.88
465.195	589.88
465.414	634.88
465.634	569.88
465.854	561.88
466.073	546.88
466.293	508.88
466.512	502.88
466.732	525.88
466.951	496.88
467.171	535.88
467.391	529.88
467.61	507.88
467.829	528.88
468.049	509.88
468.268	516.88
468.488	507.88
468.707	498.88
468.927	498.88
469.146	511.88
469.365	511.88
469.585	499.88
469.804	484.88
470.023	507.88
470.243	510.88
470.462	543.88
470.681	527.88
470.901	516.88
471.12	501.88
471.339	522.88
471.558	505.88
471.777	525.88
471.997	522.88
472.216	482.88
472.435	547.88
472.654	531.88
472.873	506.88
473.092	500.88
473.311	523.88
473.53	521.88
473.749	531.88
473.968	552.88
474.187	640.88
474.406	673.88
474.625	570.88
474.844	525.88
475.063	524.88
475.282	519.88
475.501	516.88
475.72	525.88
475.939	504.88
476.158	538.88
476.377	525.88
476.596	527.88
476.814	521.88
477.033	537.88
477.252	544.88
477.471	535.88
477.69	556.88
477.908	560.88
478.127	569.88
478.346	569.88
478.564	582.88
478.783	570.88
479.002	589.88
479.22	571.88
479.439	606.88
479.658	608.88
479.876	618.88
480.095	635.88
480.313	641.88
480.532	639.88
480.751	643.88
480.969	648.88
481.188	699.88
481.406	735.88
481.624	657.88
481.843	620.88
482.061	596.88
482.28	589.88
482.498	605.88
482.717	600.88
482.935	594.88
483.153	610.88
483.372	573.88
483.59	587.88
483.808	595.88
484.027	594.88
484.245	599.88
484.463	598.88
484.681	584.88
484.9	631.88
485.118	618.88
485.336	609.88
485.554	611.88
485.772	615.88
485.99	623.88
486.209	622.88
486.427	602.88
486.645	641.88
486.863	659.88
487.081	658.88
487.299	620.88
487.517	646.88
487.735	631.88
487.953	645.88
488.171	659.88
488.389	667.88
488.607	642.88
488.825	658.88
489.043	664.88
489.261	648.88
489.479	665.88
489.696	648.88
489.914	657.88
490.132	674.88
490.35	673.88
490.568	676.88
490.786	693.88
491.003	713.88
491.221	717.88
491.439	731.88
491.657	733.88
491.874	740.88
492.092	741.88
492.31	763.88
492.527	753.88
492.745	748.88
492.963	767.88
493.18	749.88
493.398	765.88
493.615	776.88
493.833	787.88
494.05	759.88
494.268	744.88
494.485	767.88
494.703	787.88
494.92	766.88
495.138	743.88
495.355	772.88
495.573	771.88
495.79	779.88
496.008	758.88
496.225	773.88
496.442	757.88
496.66	767.88
496.877	779.88
497.094	782.88
497.312	798.88
497.529	811.88
497.746	807.88
497.963	824.88
498.181	866.88
498.398	863.88
498.615	871.88
498.832	891.88
499.049	909.88
499.267	980.88
499.484	996.88
499.701	997.88
499.918	1050.88
500.135	1132.88
500.352	1192.88
500.569	1249.88
500.786	1251.88
501.003	1195.88
501.22	1153.88
501.437	1128.88
501.654	1091.88
