Data from 1975.PennyLincolnUp.Lamp.En5.5.200Scan.071719.P1.Changed Mount._HRD10591_15-58-42-860.txt Node
Date: Thu Jul 18 15:58:42 EDT 2019
User: cochatt
Spectrometer: HR+D1059
Trigger mode: 1
Integration Time (sec): 1.000000E-1
Scans to average: 1
Electric dark correction enabled: true
Nonlinearity correction enabled: false
Boxcar width: 0
XAxis mode: Wavelengths
Number of Pixels in Spectrum: 2048
>>>>>Begin Spectral Data<<<<<
223.165	-24.94
223.4	-24.94
223.635	-24.94
223.869	-18.94
224.104	-6.94
224.338	-5.94
224.573	5.06
224.808	-9.94
225.042	-7.94
225.277	-20.94
225.511	-9.94
225.746	4.06
225.98	11.06
226.215	-2.94
226.449	15.06
226.683	22.06
226.918	14.06
227.152	37.06
227.387	43.06
227.621	36.06
227.856	40.06
228.09	58.06
228.324	37.06
228.559	60.06
228.793	70.06
229.027	96.06
229.262	97.06
229.496	108.06
229.73	126.06
229.964	156.06
230.199	130.06
230.433	120.06
230.667	118.06
230.901	104.06
231.136	112.06
231.37	115.06
231.604	115.06
231.838	107.06
232.072	123.06
232.306	110.06
232.541	122.06
232.775	106.06
233.009	121.06
233.243	117.06
233.477	119.06
233.711	117.06
233.945	115.06
234.179	110.06
234.413	106.06
234.647	126.06
234.881	122.06
235.115	126.06
235.349	133.06
235.583	126.06
235.817	115.06
236.051	134.06
236.285	120.06
236.519	129.06
236.753	132.06
236.987	138.06
237.221	175.06
237.455	253.06
237.689	170.06
237.922	151.06
238.156	138.06
238.39	124.06
238.624	117.06
238.858	130.06
239.091	127.06
239.325	119.06
239.559	113.06
239.793	144.06
240.027	148.06
240.26	137.06
240.494	165.06
240.728	158.06
240.961	157.06
241.195	149.06
241.429	142.06
241.662	139.06
241.896	134.06
242.13	137.06
242.363	143.06
242.597	149.06
242.83	156.06
243.064	156.06
243.298	139.06
243.531	130.06
243.765	143.06
243.998	154.06
244.232	141.06
244.465	150.06
244.699	150.06
244.932	155.06
245.166	149.06
245.399	159.06
245.633	140.06
245.866	166.06
246.099	158.06
246.333	151.06
246.566	169.06
246.8	170.06
247.033	160.06
247.266	154.06
247.5	168.06
247.733	168.06
247.966	172.06
248.2	181.06
248.433	155.06
248.666	182.06
248.899	188.06
249.133	201.06
249.366	218.06
249.599	215.06
249.832	207.06
250.066	183.06
250.299	173.06
250.532	207.06
250.765	205.06
250.998	226.06
251.231	223.06
251.465	214.06
251.698	219.06
251.931	207.06
252.164	192.06
252.397	204.06
252.63	210.06
252.863	212.06
253.096	217.06
253.329	226.06
253.562	234.06
253.795	229.06
254.028	223.06
254.261	222.06
254.494	251.06
254.727	253.06
254.96	272.06
255.193	280.06
255.426	248.06
255.659	215.06
255.892	239.06
256.124	242.06
256.357	242.06
256.59	226.06
256.823	230.06
257.056	234.06
257.289	212.06
257.521	215.06
257.754	217.06
257.987	216.06
258.22	210.06
258.452	213.06
258.685	220.06
258.918	213.06
259.151	228.06
259.383	232.06
259.616	219.06
259.849	235.06
260.081	227.06
260.314	235.06
260.547	269.06
260.779	247.06
261.012	244.06
261.244	242.06
261.477	231.06
261.71	234.06
261.942	220.06
262.175	212.06
262.407	227.06
262.64	225.06
262.872	206.06
263.105	230.06
263.337	232.06
263.57	224.06
263.802	215.06
264.035	226.06
264.267	215.06
264.499	222.06
264.732	208.06
264.964	228.06
265.197	222.06
265.429	224.06
265.661	208.06
265.894	226.06
266.126	207.06
266.358	216.06
266.591	231.06
266.823	243.06
267.055	246.06
267.287	236.06
267.52	229.06
267.752	251.06
267.984	248.06
268.216	229.06
268.448	232.06
268.681	236.06
268.913	262.06
269.145	278.06
269.377	276.06
269.609	290.06
269.841	293.06
270.073	283.06
270.306	288.06
270.538	314.06
270.77	329.06
271.002	311.06
271.234	292.06
271.466	300.06
271.698	296.06
271.93	304.06
272.162	330.06
272.394	334.06
272.626	311.06
272.858	294.06
273.09	291.06
273.322	283.06
273.553	269.06
273.785	239.06
274.017	258.06
274.249	254.06
274.481	279.06
274.713	289.06
274.945	284.06
275.176	282.06
275.408	260.06
275.64	278.06
275.872	283.06
276.104	267.06
276.335	270.06
276.567	290.06
276.799	290.06
277.031	316.06
277.262	337.06
277.494	335.06
277.726	322.06
277.957	315.06
278.189	287.06
278.421	284.06
278.652	290.06
278.884	266.06
279.115	272.06
279.347	260.06
279.579	280.06
279.81	284.06
280.042	279.06
280.273	271.06
280.505	284.06
280.736	293.06
280.968	274.06
281.199	295.06
281.431	267.06
281.662	295.06
281.894	295.06
282.125	286.06
282.356	315.06
282.588	326.06
282.819	324.06
283.051	294.06
283.282	287.06
283.513	300.06
283.745	299.06
283.976	312.06
284.207	291.06
284.439	287.06
284.67	301.06
284.901	296.06
285.132	285.06
285.364	314.06
285.595	294.06
285.826	302.06
286.057	300.06
286.288	297.06
286.52	296.06
286.751	289.06
286.982	288.06
287.213	294.06
287.444	281.06
287.675	293.06
287.906	320.06
288.138	326.06
288.369	318.06
288.6	326.06
288.831	307.06
289.062	322.06
289.293	303.06
289.524	298.06
289.755	293.06
289.986	318.06
290.217	288.06
290.448	318.06
290.679	314.06
290.91	314.06
291.141	292.06
291.371	319.06
291.602	305.06
291.833	324.06
292.064	323.06
292.295	294.06
292.526	300.06
292.757	316.06
292.987	303.06
293.218	314.06
293.449	317.06
293.68	329.06
293.91	325.06
294.141	311.06
294.372	307.06
294.603	317.06
294.833	298.06
295.064	313.06
295.295	333.06
295.525	312.06
295.756	320.06
295.987	326.06
296.217	318.06
296.448	333.06
296.679	319.06
296.909	301.06
297.14	304.06
297.37	334.06
297.601	320.06
297.831	315.06
298.062	320.06
298.292	342.06
298.523	332.06
298.753	348.06
298.984	327.06
299.214	330.06
299.445	308.06
299.675	341.06
299.905	336.06
300.136	342.06
300.366	325.06
300.597	330.06
300.827	322.06
301.057	350.06
301.288	341.06
301.518	350.06
301.748	354.06
301.979	318.06
302.209	368.06
302.439	358.06
302.669	340.06
302.9	356.06
303.13	344.06
303.36	347.06
303.59	352.06
303.82	352.06
304.051	356.06
304.281	345.06
304.511	346.06
304.741	351.06
304.971	342.06
305.201	355.06
305.431	342.06
305.661	339.06
305.891	356.06
306.121	341.06
306.352	357.06
306.582	349.06
306.812	347.06
307.042	342.06
307.272	340.06
307.502	358.06
307.731	350.06
307.961	366.06
308.191	344.06
308.421	349.06
308.651	370.06
308.881	346.06
309.111	351.06
309.341	359.06
309.571	377.06
309.8	365.06
310.03	368.06
310.26	379.06
310.49	392.06
310.72	361.06
310.949	398.06
311.179	396.06
311.409	395.06
311.639	377.06
311.868	376.06
312.098	389.06
312.328	371.06
312.557	402.06
312.787	413.06
313.017	422.06
313.246	394.06
313.476	386.06
313.706	390.06
313.935	391.06
314.165	395.06
314.394	401.06
314.624	431.06
314.853	387.06
315.083	391.06
315.312	400.06
315.542	379.06
315.771	384.06
316.001	386.06
316.23	392.06
316.46	388.06
316.689	407.06
316.919	383.06
317.148	404.06
317.377	406.06
317.607	396.06
317.836	402.06
318.065	376.06
318.295	388.06
318.524	397.06
318.753	383.06
318.983	389.06
319.212	398.06
319.441	422.06
319.67	398.06
319.9	406.06
320.129	395.06
320.358	422.06
320.587	397.06
320.816	406.06
321.046	408.06
321.275	397.06
321.504	390.06
321.733	418.06
321.962	416.06
322.191	414.06
322.42	442.06
322.649	439.06
322.878	436.06
323.108	457.06
323.337	468.06
323.566	458.06
323.795	504.06
324.024	510.06
324.253	604.06
324.482	812.06
324.71	1279.06
324.939	1886.06
325.168	1668.06
325.397	864.06
325.626	602.06
325.855	523.06
326.084	498.06
326.313	488.06
326.542	487.06
326.77	506.06
326.999	600.06
327.228	795.06
327.457	1170.06
327.686	1477.06
327.914	968.06
328.143	661.06
328.372	578.06
328.6	538.06
328.829	527.06
329.058	552.06
329.287	558.06
329.515	517.06
329.744	477.06
329.972	504.06
330.201	521.06
330.43	574.06
330.658	565.06
330.887	599.06
331.115	568.06
331.344	515.06
331.572	482.06
331.801	507.06
332.03	506.06
332.258	504.06
332.486	476.06
332.715	485.06
332.943	484.06
333.172	491.06
333.4	506.06
333.629	510.06
333.857	512.06
334.085	549.06
334.314	551.06
334.542	565.06
334.771	588.06
334.999	529.06
335.227	516.06
335.455	503.06
335.684	485.06
335.912	495.06
336.14	481.06
336.369	469.06
336.597	481.06
336.825	464.06
337.053	474.06
337.281	475.06
337.51	449.06
337.738	477.06
337.966	460.06
338.194	466.06
338.422	474.06
338.65	455.06
338.878	443.06
339.106	440.06
339.334	434.06
339.562	452.06
339.79	438.06
340.018	441.06
340.246	454.06
340.474	468.06
340.702	444.06
340.93	428.06
341.158	454.06
341.386	438.06
341.614	446.06
341.842	463.06
342.07	444.06
342.298	444.06
342.526	427.06
342.754	417.06
342.981	424.06
343.209	457.06
343.437	447.06
343.665	456.06
343.893	461.06
344.12	468.06
344.348	481.06
344.576	471.06
344.804	468.06
345.031	464.06
345.259	456.06
345.487	446.06
345.714	463.06
345.942	442.06
346.17	440.06
346.397	435.06
346.625	436.06
346.853	434.06
347.08	428.06
347.308	436.06
347.535	420.06
347.763	454.06
347.99	446.06
348.218	443.06
348.445	439.06
348.673	462.06
348.9	446.06
349.128	447.06
349.355	412.06
349.583	428.06
349.81	416.06
350.037	429.06
350.265	417.06
350.492	418.06
350.72	441.06
350.947	423.06
351.174	435.06
351.402	432.06
351.629	446.06
351.856	434.06
352.083	450.06
352.311	450.06
352.538	435.06
352.765	450.06
352.992	436.06
353.22	446.06
353.447	422.06
353.674	424.06
353.901	413.06
354.128	420.06
354.355	417.06
354.583	413.06
354.81	422.06
355.037	421.06
355.264	396.06
355.491	410.06
355.718	397.06
355.945	422.06
356.172	424.06
356.399	418.06
356.626	398.06
356.853	416.06
357.08	435.06
357.307	406.06
357.534	406.06
357.761	405.06
357.988	428.06
358.215	419.06
358.441	430.06
358.668	409.06
358.895	409.06
359.122	413.06
359.349	423.06
359.576	427.06
359.802	447.06
360.029	450.06
360.256	462.06
360.483	462.06
360.709	430.06
360.936	436.06
361.163	432.06
361.39	448.06
361.616	448.06
361.843	419.06
362.07	415.06
362.296	430.06
362.523	430.06
362.749	419.06
362.976	442.06
363.203	438.06
363.429	425.06
363.656	445.06
363.882	423.06
364.109	401.06
364.335	436.06
364.562	420.06
364.788	416.06
365.015	415.06
365.241	418.06
365.468	443.06
365.694	447.06
365.92	420.06
366.147	439.06
366.373	423.06
366.599	442.06
366.826	429.06
367.052	408.06
367.278	427.06
367.505	432.06
367.731	409.06
367.957	437.06
368.184	443.06
368.41	405.06
368.636	438.06
368.862	427.06
369.089	440.06
369.315	440.06
369.541	415.06
369.767	401.06
369.993	419.06
370.219	427.06
370.445	436.06
370.672	435.06
370.898	424.06
371.124	444.06
371.35	403.06
371.576	423.06
371.802	430.06
372.028	437.06
372.254	438.06
372.48	434.06
372.706	442.06
372.932	453.06
373.158	440.06
373.384	419.06
373.61	457.06
373.835	452.06
374.061	423.06
374.287	434.06
374.513	430.06
374.739	430.06
374.965	448.06
375.191	454.06
375.416	456.06
375.642	431.06
375.868	447.06
376.094	432.06
376.319	427.06
376.545	444.06
376.771	430.06
376.997	436.06
377.222	456.06
377.448	431.06
377.674	426.06
377.899	426.06
378.125	436.06
378.35	426.06
378.576	434.06
378.802	405.06
379.027	439.06
379.253	452.06
379.478	432.06
379.704	426.06
379.929	427.06
380.155	429.06
380.38	431.06
380.606	430.06
380.831	435.06
381.057	457.06
381.282	430.06
381.507	430.06
381.733	440.06
381.958	431.06
382.184	429.06
382.409	443.06
382.634	441.06
382.86	441.06
383.085	443.06
383.31	447.06
383.535	454.06
383.761	467.06
383.986	459.06
384.211	483.06
384.436	467.06
384.662	467.06
384.887	496.06
385.112	470.06
385.337	487.06
385.562	471.06
385.787	483.06
386.013	486.06
386.238	514.06
386.463	504.06
386.688	479.06
386.913	472.06
387.138	480.06
387.363	494.06
387.588	477.06
387.813	480.06
388.038	487.06
388.263	493.06
388.488	500.06
388.713	514.06
388.938	502.06
389.163	483.06
389.387	486.06
389.612	500.06
389.837	487.06
390.062	487.06
390.287	486.06
390.512	466.06
390.736	466.06
390.961	479.06
391.186	507.06
391.411	489.06
391.636	516.06
391.86	520.06
392.085	524.06
392.31	516.06
392.534	499.06
392.759	514.06
392.984	490.06
393.208	486.06
393.433	478.06
393.658	494.06
393.882	479.06
394.107	511.06
394.331	520.06
394.556	488.06
394.78	476.06
395.005	509.06
395.229	500.06
395.454	512.06
395.678	520.06
395.903	527.06
396.127	524.06
396.352	552.06
396.576	526.06
396.801	529.06
397.025	498.06
397.249	512.06
397.474	533.06
397.698	516.06
397.922	518.06
398.147	546.06
398.371	544.06
398.595	545.06
398.82	577.06
399.044	562.06
399.268	606.06
399.492	645.06
399.717	712.06
399.941	717.06
400.165	724.06
400.389	721.06
400.613	646.06
400.837	618.06
401.062	598.06
401.286	565.06
401.51	573.06
401.734	579.06
401.958	549.06
402.182	572.06
402.406	562.06
402.63	589.06
402.854	577.06
403.078	604.06
403.302	585.06
403.526	597.06
403.75	599.06
403.974	587.06
404.198	581.06
404.422	607.06
404.645	604.06
404.869	596.06
405.093	653.06
405.317	679.06
405.541	714.06
405.765	668.06
405.988	613.06
406.212	609.06
406.436	627.06
406.66	661.06
406.883	640.06
407.107	647.06
407.331	681.06
407.555	774.06
407.778	783.06
408.002	694.06
408.226	655.06
408.449	622.06
408.673	664.06
408.896	673.06
409.12	695.06
409.344	672.06
409.567	619.06
409.791	588.06
410.014	594.06
410.238	595.06
410.461	599.06
410.685	596.06
410.908	616.06
411.132	626.06
411.355	673.06
411.578	662.06
411.802	592.06
412.025	555.06
412.249	596.06
412.472	618.06
412.695	657.06
412.919	636.06
413.142	607.06
413.365	569.06
413.589	585.06
413.812	565.06
414.035	578.06
414.258	569.06
414.482	568.06
414.705	575.06
414.928	568.06
415.151	568.06
415.374	568.06
415.597	540.06
415.821	526.06
416.044	571.06
416.267	581.06
416.49	555.06
416.713	546.06
416.936	554.06
417.159	555.06
417.382	583.06
417.605	541.06
417.828	574.06
418.051	570.06
418.274	567.06
418.497	561.06
418.72	572.06
418.943	548.06
419.166	595.06
419.389	624.06
419.611	608.06
419.834	608.06
420.057	580.06
420.28	595.06
420.503	585.06
420.726	597.06
420.948	614.06
421.171	626.06
421.394	670.06
421.617	600.06
421.839	601.06
422.062	592.06
422.285	607.06
422.507	626.06
422.73	722.06
422.953	681.06
423.175	630.06
423.398	628.06
423.621	611.06
423.843	617.06
424.066	627.06
424.288	631.06
424.511	642.06
424.733	678.06
424.956	755.06
425.178	743.06
425.401	737.06
425.623	778.06
425.846	675.06
426.068	612.06
426.291	614.06
426.513	620.06
426.735	606.06
426.958	653.06
427.18	733.06
427.402	850.06
427.625	928.06
427.847	791.06
428.069	723.06
428.292	663.06
428.514	595.06
428.736	596.06
428.958	583.06
429.181	564.06
429.403	567.06
429.625	580.06
429.847	600.06
430.069	673.06
430.292	680.06
430.514	599.06
430.736	564.06
430.958	557.06
431.18	572.06
431.402	558.06
431.624	522.06
431.846	528.06
432.068	529.06
432.29	526.06
432.512	533.06
432.734	535.06
432.956	542.06
433.178	557.06
433.4	567.06
433.622	535.06
433.844	567.06
434.066	549.06
434.287	560.06
434.509	555.06
434.731	570.06
434.953	561.06
435.175	575.06
435.397	612.06
435.618	617.06
435.84	654.06
436.062	755.06
436.284	818.06
436.505	724.06
436.727	605.06
436.949	605.06
437.17	573.06
437.392	565.06
437.614	572.06
437.835	594.06
438.057	664.06
438.278	813.06
438.5	793.06
438.721	873.06
438.943	836.06
439.165	660.06
439.386	626.06
439.608	604.06
439.829	604.06
440.05	646.06
440.272	676.06
440.493	631.06
440.715	614.06
440.936	572.06
441.158	573.06
441.379	578.06
441.6	600.06
441.822	590.06
442.043	634.06
442.264	736.06
442.486	799.06
442.707	671.06
442.928	613.06
443.149	640.06
443.371	668.06
443.592	694.06
443.813	802.06
444.034	868.06
444.255	727.06
444.476	637.06
444.698	642.06
444.919	602.06
445.14	755.06
445.361	690.06
445.582	662.06
445.803	680.06
446.024	828.06
446.245	844.06
446.466	765.06
446.687	651.06
446.908	595.06
447.129	583.06
447.35	572.06
447.571	548.06
447.792	560.06
448.013	540.06
448.234	581.06
448.455	631.06
448.675	726.06
448.896	848.06
449.117	731.06
449.338	690.06
449.559	799.06
449.779	904.06
450	730.06
450.221	608.06
450.442	558.06
450.662	566.06
450.883	545.06
451.104	552.06
451.324	548.06
451.545	530.06
451.766	522.06
451.986	498.06
452.207	517.06
452.428	498.06
452.648	536.06
452.869	502.06
453.089	495.06
453.31	500.06
453.53	515.06
453.751	515.06
453.971	492.06
454.192	520.06
454.412	486.06
454.633	498.06
454.853	496.06
455.073	503.06
455.294	535.06
455.514	580.06
455.734	574.06
455.955	498.06
456.175	479.06
456.395	498.06
456.616	458.06
456.836	462.06
457.056	469.06
457.276	455.06
457.497	459.06
457.717	506.06
457.937	470.06
458.157	485.06
458.377	513.06
458.598	532.06
458.818	543.06
459.038	627.06
459.258	634.06
459.478	561.06
459.698	538.06
459.918	533.06
460.138	549.06
460.358	536.06
460.578	551.06
460.798	537.06
461.018	565.06
461.238	573.06
461.458	548.06
461.678	570.06
461.898	569.06
462.118	576.06
462.338	610.06
462.558	603.06
462.777	608.06
462.997	655.06
463.217	642.06
463.437	650.06
463.657	610.06
463.876	604.06
464.096	619.06
464.316	631.06
464.536	611.06
464.755	622.06
464.975	593.06
465.195	602.06
465.414	660.06
465.634	610.06
465.854	566.06
466.073	557.06
466.293	568.06
466.512	487.06
466.732	534.06
466.951	518.06
467.171	493.06
467.391	528.06
467.61	516.06
467.829	518.06
468.049	528.06
468.268	511.06
468.488	515.06
468.707	499.06
468.927	516.06
469.146	488.06
469.365	510.06
469.585	504.06
469.804	524.06
470.023	537.06
470.243	522.06
470.462	529.06
470.681	548.06
470.901	538.06
471.12	514.06
471.339	504.06
471.558	529.06
471.777	537.06
471.997	509.06
472.216	512.06
472.435	556.06
472.654	565.06
472.873	546.06
473.092	502.06
473.311	511.06
473.53	519.06
473.749	538.06
473.968	564.06
474.187	654.06
474.406	687.06
474.625	566.06
474.844	530.06
475.063	519.06
475.282	514.06
475.501	516.06
475.72	534.06
475.939	536.06
476.158	530.06
476.377	536.06
476.596	533.06
476.814	547.06
477.033	547.06
477.252	579.06
477.471	545.06
477.69	576.06
477.908	556.06
478.127	586.06
478.346	564.06
478.564	590.06
478.783	602.06
479.002	585.06
479.22	616.06
479.439	598.06
479.658	614.06
479.876	644.06
480.095	638.06
480.313	672.06
480.532	664.06
480.751	670.06
480.969	678.06
481.188	699.06
481.406	724.06
481.624	672.06
481.843	656.06
482.061	634.06
482.28	612.06
482.498	612.06
482.717	617.06
482.935	627.06
483.153	623.06
483.372	600.06
483.59	636.06
483.808	616.06
484.027	617.06
484.245	612.06
484.463	618.06
484.681	618.06
484.9	618.06
485.118	620.06
485.336	643.06
485.554	626.06
485.772	644.06
485.99	668.06
486.209	630.06
486.427	638.06
486.645	661.06
486.863	686.06
487.081	647.06
487.299	650.06
487.517	653.06
487.735	632.06
487.953	664.06
488.171	649.06
488.389	662.06
488.607	636.06
488.825	670.06
489.043	638.06
489.261	644.06
489.479	655.06
489.696	694.06
489.914	683.06
490.132	678.06
490.35	682.06
490.568	701.06
490.786	681.06
491.003	698.06
491.221	723.06
491.439	721.06
491.657	748.06
491.874	756.06
492.092	754.06
492.31	767.06
492.527	752.06
492.745	781.06
492.963	760.06
493.18	768.06
493.398	774.06
493.615	767.06
493.833	778.06
494.05	772.06
494.268	798.06
494.485	765.06
494.703	767.06
494.92	782.06
495.138	789.06
495.355	766.06
495.573	783.06
495.79	796.06
496.008	780.06
496.225	811.06
496.442	782.06
496.66	785.06
496.877	782.06
497.094	807.06
497.312	802.06
497.529	792.06
497.746	820.06
497.963	810.06
498.181	859.06
498.398	869.06
498.615	876.06
498.832	895.06
499.049	936.06
499.267	951.06
499.484	991.06
499.701	1016.06
499.918	1101.06
500.135	1141.06
500.352	1229.06
500.569	1276.06
500.786	1266.06
501.003	1259.06
501.22	1189.06
501.437	1146.06
501.654	1058.06
