Data from 1975.PennyLincolnUp.Lamp.En5.5.200Scan.071719.P1.Changed Mount._HRD10591_15-56-54-859.txt Node
Date: Thu Jul 18 15:56:54 EDT 2019
User: cochatt
Spectrometer: HR+D1059
Trigger mode: 1
Integration Time (sec): 1.000000E-1
Scans to average: 1
Electric dark correction enabled: true
Nonlinearity correction enabled: false
Boxcar width: 0
XAxis mode: Wavelengths
Number of Pixels in Spectrum: 2048
>>>>>Begin Spectral Data<<<<<
223.165	-27.62
223.4	-27.62
223.635	-27.62
223.869	-15.62
224.104	-0.62
224.338	-31.62
224.573	3.38
224.808	-10.62
225.042	-2.62
225.277	-14.62
225.511	-3.62
225.746	-0.62
225.98	6.38
226.215	16.38
226.449	12.38
226.683	26.38
226.918	20.38
227.152	22.38
227.387	25.38
227.621	35.38
227.856	35.38
228.09	43.38
228.324	58.38
228.559	54.38
228.793	69.38
229.027	92.38
229.262	105.38
229.496	113.38
229.73	126.38
229.964	157.38
230.199	132.38
230.433	115.38
230.667	116.38
230.901	116.38
231.136	112.38
231.37	110.38
231.604	126.38
231.838	125.38
232.072	115.38
232.306	104.38
232.541	106.38
232.775	111.38
233.009	120.38
233.243	114.38
233.477	116.38
233.711	122.38
233.945	108.38
234.179	129.38
234.413	107.38
234.647	120.38
234.881	126.38
235.115	124.38
235.349	109.38
235.583	122.38
235.817	120.38
236.051	125.38
236.285	130.38
236.519	133.38
236.753	147.38
236.987	142.38
237.221	180.38
237.455	244.38
237.689	199.38
237.922	150.38
238.156	145.38
238.39	130.38
238.624	126.38
238.858	132.38
239.091	130.38
239.325	122.38
239.559	128.38
239.793	123.38
240.027	127.38
240.26	143.38
240.494	161.38
240.728	152.38
240.961	143.38
241.195	143.38
241.429	133.38
241.662	136.38
241.896	129.38
242.13	136.38
242.363	134.38
242.597	135.38
242.83	145.38
243.064	141.38
243.298	130.38
243.531	136.38
243.765	141.38
243.998	148.38
244.232	134.38
244.465	134.38
244.699	139.38
244.932	148.38
245.166	146.38
245.399	155.38
245.633	134.38
245.866	144.38
246.099	158.38
246.333	158.38
246.566	150.38
246.8	148.38
247.033	147.38
247.266	147.38
247.5	152.38
247.733	172.38
247.966	185.38
248.2	198.38
248.433	174.38
248.666	172.38
248.899	192.38
249.133	208.38
249.366	195.38
249.599	198.38
249.832	200.38
250.066	178.38
250.299	185.38
250.532	200.38
250.765	214.38
250.998	228.38
251.231	223.38
251.465	228.38
251.698	211.38
251.931	197.38
252.164	213.38
252.397	201.38
252.63	210.38
252.863	220.38
253.096	218.38
253.329	250.38
253.562	233.38
253.795	228.38
254.028	220.38
254.261	207.38
254.494	223.38
254.727	261.38
254.96	278.38
255.193	278.38
255.426	229.38
255.659	232.38
255.892	240.38
256.124	231.38
256.357	242.38
256.59	230.38
256.823	235.38
257.056	200.38
257.289	211.38
257.521	205.38
257.754	220.38
257.987	202.38
258.22	215.38
258.452	220.38
258.685	212.38
258.918	200.38
259.151	219.38
259.383	214.38
259.616	226.38
259.849	238.38
260.081	249.38
260.314	253.38
260.547	263.38
260.779	255.38
261.012	230.38
261.244	233.38
261.477	208.38
261.71	220.38
261.942	231.38
262.175	240.38
262.407	249.38
262.64	222.38
262.872	225.38
263.105	219.38
263.337	221.38
263.57	227.38
263.802	231.38
264.035	216.38
264.267	218.38
264.499	218.38
264.732	220.38
264.964	227.38
265.197	221.38
265.429	235.38
265.661	221.38
265.894	203.38
266.126	236.38
266.358	222.38
266.591	217.38
266.823	238.38
267.055	253.38
267.287	222.38
267.52	219.38
267.752	252.38
267.984	236.38
268.216	237.38
268.448	236.38
268.681	242.38
268.913	278.38
269.145	266.38
269.377	285.38
269.609	288.38
269.841	281.38
270.073	292.38
270.306	300.38
270.538	293.38
270.77	331.38
271.002	301.38
271.234	296.38
271.466	313.38
271.698	314.38
271.93	322.38
272.162	325.38
272.394	315.38
272.626	293.38
272.858	295.38
273.09	283.38
273.322	274.38
273.553	285.38
273.785	278.38
274.017	280.38
274.249	268.38
274.481	263.38
274.713	286.38
274.945	288.38
275.176	264.38
275.408	284.38
275.64	273.38
275.872	265.38
276.104	256.38
276.335	271.38
276.567	287.38
276.799	294.38
277.031	321.38
277.262	331.38
277.494	326.38
277.726	312.38
277.957	284.38
278.189	276.38
278.421	282.38
278.652	274.38
278.884	271.38
279.115	293.38
279.347	274.38
279.579	297.38
279.81	264.38
280.042	266.38
280.273	292.38
280.505	291.38
280.736	285.38
280.968	280.38
281.199	282.38
281.431	287.38
281.662	279.38
281.894	266.38
282.125	290.38
282.356	309.38
282.588	313.38
282.819	314.38
283.051	279.38
283.282	275.38
283.513	296.38
283.745	292.38
283.976	284.38
284.207	291.38
284.439	298.38
284.67	298.38
284.901	297.38
285.132	279.38
285.364	292.38
285.595	290.38
285.826	292.38
286.057	289.38
286.288	301.38
286.52	290.38
286.751	299.38
286.982	283.38
287.213	312.38
287.444	307.38
287.675	314.38
287.906	306.38
288.138	329.38
288.369	310.38
288.6	325.38
288.831	303.38
289.062	313.38
289.293	317.38
289.524	326.38
289.755	304.38
289.986	309.38
290.217	304.38
290.448	281.38
290.679	303.38
290.91	297.38
291.141	308.38
291.371	316.38
291.602	305.38
291.833	308.38
292.064	307.38
292.295	322.38
292.526	302.38
292.757	317.38
292.987	303.38
293.218	295.38
293.449	318.38
293.68	310.38
293.91	317.38
294.141	290.38
294.372	303.38
294.603	306.38
294.833	315.38
295.064	321.38
295.295	317.38
295.525	321.38
295.756	329.38
295.987	323.38
296.217	346.38
296.448	338.38
296.679	306.38
296.909	313.38
297.14	307.38
297.37	310.38
297.601	303.38
297.831	320.38
298.062	318.38
298.292	319.38
298.523	314.38
298.753	326.38
298.984	323.38
299.214	314.38
299.445	323.38
299.675	310.38
299.905	330.38
300.136	329.38
300.366	319.38
300.597	301.38
300.827	328.38
301.057	338.38
301.288	340.38
301.518	320.38
301.748	328.38
301.979	343.38
302.209	334.38
302.439	325.38
302.669	338.38
302.9	325.38
303.13	335.38
303.36	347.38
303.59	342.38
303.82	348.38
304.051	364.38
304.281	354.38
304.511	346.38
304.741	369.38
304.971	336.38
305.201	333.38
305.431	333.38
305.661	359.38
305.891	345.38
306.121	341.38
306.352	378.38
306.582	340.38
306.812	332.38
307.042	339.38
307.272	361.38
307.502	367.38
307.731	334.38
307.961	342.38
308.191	326.38
308.421	358.38
308.651	356.38
308.881	354.38
309.111	368.38
309.341	347.38
309.571	367.38
309.8	347.38
310.03	373.38
310.26	372.38
310.49	386.38
310.72	382.38
310.949	379.38
311.179	395.38
311.409	378.38
311.639	386.38
311.868	383.38
312.098	406.38
312.328	390.38
312.557	393.38
312.787	398.38
313.017	391.38
313.246	409.38
313.476	384.38
313.706	404.38
313.935	383.38
314.165	396.38
314.394	413.38
314.624	408.38
314.853	398.38
315.083	393.38
315.312	390.38
315.542	392.38
315.771	378.38
316.001	374.38
316.23	360.38
316.46	380.38
316.689	381.38
316.919	376.38
317.148	388.38
317.377	390.38
317.607	386.38
317.836	404.38
318.065	381.38
318.295	381.38
318.524	389.38
318.753	388.38
318.983	377.38
319.212	373.38
319.441	382.38
319.67	401.38
319.9	381.38
320.129	383.38
320.358	382.38
320.587	378.38
320.816	377.38
321.046	381.38
321.275	416.38
321.504	420.38
321.733	412.38
321.962	427.38
322.191	422.38
322.42	417.38
322.649	443.38
322.878	444.38
323.108	457.38
323.337	467.38
323.566	470.38
323.795	498.38
324.024	554.38
324.253	639.38
324.482	865.38
324.71	1312.38
324.939	1986.38
325.168	1744.38
325.397	902.38
325.626	614.38
325.855	519.38
326.084	482.38
326.313	466.38
326.542	482.38
326.77	512.38
326.999	606.38
327.228	791.38
327.457	1190.38
327.686	1530.38
327.914	999.38
328.143	678.38
328.372	624.38
328.6	551.38
328.829	524.38
329.058	543.38
329.287	550.38
329.515	532.38
329.744	508.38
329.972	478.38
330.201	518.38
330.43	551.38
330.658	566.38
330.887	598.38
331.115	592.38
331.344	508.38
331.572	466.38
331.801	498.38
332.03	504.38
332.258	486.38
332.486	457.38
332.715	458.38
332.943	486.38
333.172	478.38
333.4	446.38
333.629	487.38
333.857	505.38
334.085	507.38
334.314	540.38
334.542	565.38
334.771	585.38
334.999	519.38
335.227	518.38
335.455	493.38
335.684	479.38
335.912	465.38
336.14	489.38
336.369	456.38
336.597	469.38
336.825	462.38
337.053	470.38
337.281	463.38
337.51	464.38
337.738	452.38
337.966	460.38
338.194	461.38
338.422	443.38
338.65	461.38
338.878	445.38
339.106	460.38
339.334	455.38
339.562	456.38
339.79	437.38
340.018	458.38
340.246	464.38
340.474	467.38
340.702	438.38
340.93	437.38
341.158	417.38
341.386	434.38
341.614	447.38
341.842	458.38
342.07	431.38
342.298	440.38
342.526	451.38
342.754	444.38
342.981	426.38
343.209	408.38
343.437	422.38
343.665	429.38
343.893	458.38
344.12	460.38
344.348	458.38
344.576	450.38
344.804	456.38
345.031	456.38
345.259	446.38
345.487	471.38
345.714	434.38
345.942	435.38
346.17	434.38
346.397	437.38
346.625	426.38
346.853	441.38
347.08	432.38
347.308	428.38
347.535	425.38
347.763	436.38
347.99	432.38
348.218	440.38
348.445	444.38
348.673	438.38
348.9	432.38
349.128	419.38
349.355	445.38
349.583	420.38
349.81	401.38
350.037	419.38
350.265	394.38
350.492	399.38
350.72	405.38
350.947	423.38
351.174	442.38
351.402	439.38
351.629	440.38
351.856	438.38
352.083	439.38
352.311	442.38
352.538	452.38
352.765	458.38
352.992	420.38
353.22	420.38
353.447	406.38
353.674	420.38
353.901	433.38
354.128	416.38
354.355	418.38
354.583	412.38
354.81	411.38
355.037	415.38
355.264	414.38
355.491	400.38
355.718	414.38
355.945	406.38
356.172	405.38
356.399	394.38
356.626	392.38
356.853	399.38
357.08	392.38
357.307	404.38
357.534	412.38
357.761	412.38
357.988	403.38
358.215	397.38
358.441	414.38
358.668	423.38
358.895	401.38
359.122	422.38
359.349	410.38
359.576	452.38
359.802	412.38
360.029	449.38
360.256	458.38
360.483	479.38
360.709	426.38
360.936	428.38
361.163	423.38
361.39	436.38
361.616	426.38
361.843	418.38
362.07	445.38
362.296	428.38
362.523	437.38
362.749	418.38
362.976	406.38
363.203	406.38
363.429	409.38
363.656	418.38
363.882	403.38
364.109	423.38
364.335	410.38
364.562	406.38
364.788	403.38
365.015	406.38
365.241	420.38
365.468	416.38
365.694	420.38
365.92	412.38
366.147	424.38
366.373	419.38
366.599	415.38
366.826	411.38
367.052	380.38
367.278	382.38
367.505	384.38
367.731	416.38
367.957	410.38
368.184	420.38
368.41	423.38
368.636	435.38
368.862	423.38
369.089	424.38
369.315	440.38
369.541	442.38
369.767	420.38
369.993	408.38
370.219	417.38
370.445	422.38
370.672	425.38
370.898	426.38
371.124	415.38
371.35	409.38
371.576	439.38
371.802	418.38
372.028	422.38
372.254	402.38
372.48	418.38
372.706	411.38
372.932	436.38
373.158	415.38
373.384	396.38
373.61	424.38
373.835	416.38
374.061	408.38
374.287	430.38
374.513	423.38
374.739	441.38
374.965	442.38
375.191	439.38
375.416	438.38
375.642	440.38
375.868	462.38
376.094	427.38
376.319	436.38
376.545	422.38
376.771	410.38
376.997	416.38
377.222	427.38
377.448	418.38
377.674	405.38
377.899	410.38
378.125	418.38
378.35	427.38
378.576	415.38
378.802	428.38
379.027	422.38
379.253	427.38
379.478	420.38
379.704	392.38
379.929	410.38
380.155	434.38
380.38	430.38
380.606	444.38
380.831	414.38
381.057	418.38
381.282	428.38
381.507	421.38
381.733	434.38
381.958	436.38
382.184	430.38
382.409	447.38
382.634	430.38
382.86	436.38
383.085	428.38
383.31	445.38
383.535	451.38
383.761	430.38
383.986	436.38
384.211	442.38
384.436	439.38
384.662	447.38
384.887	478.38
385.112	432.38
385.337	461.38
385.562	477.38
385.787	466.38
386.013	489.38
386.238	468.38
386.463	495.38
386.688	456.38
386.913	459.38
387.138	463.38
387.363	473.38
387.588	476.38
387.813	459.38
388.038	470.38
388.263	453.38
388.488	467.38
388.713	446.38
388.938	485.38
389.163	477.38
389.387	450.38
389.612	480.38
389.837	484.38
390.062	479.38
390.287	450.38
390.512	483.38
390.736	475.38
390.961	472.38
391.186	476.38
391.411	471.38
391.636	482.38
391.86	502.38
392.085	502.38
392.31	501.38
392.534	502.38
392.759	465.38
392.984	480.38
393.208	480.38
393.433	478.38
393.658	480.38
393.882	479.38
394.107	486.38
394.331	465.38
394.556	479.38
394.78	471.38
395.005	477.38
395.229	476.38
395.454	518.38
395.678	490.38
395.903	509.38
396.127	534.38
396.352	509.38
396.576	499.38
396.801	486.38
397.025	502.38
397.249	520.38
397.474	501.38
397.698	514.38
397.922	524.38
398.147	525.38
398.371	544.38
398.595	519.38
398.82	551.38
399.044	567.38
399.268	560.38
399.492	608.38
399.717	646.38
399.941	694.38
400.165	686.38
400.389	678.38
400.613	622.38
400.837	593.38
401.062	559.38
401.286	570.38
401.51	547.38
401.734	550.38
401.958	542.38
402.182	561.38
402.406	563.38
402.63	568.38
402.854	559.38
403.078	557.38
403.302	585.38
403.526	570.38
403.75	594.38
403.974	563.38
404.198	576.38
404.422	590.38
404.645	601.38
404.869	564.38
405.093	618.38
405.317	650.38
405.541	679.38
405.765	642.38
405.988	591.38
406.212	600.38
406.436	614.38
406.66	630.38
406.883	630.38
407.107	635.38
407.331	660.38
407.555	736.38
407.778	761.38
408.002	680.38
408.226	657.38
408.449	644.38
408.673	638.38
408.896	661.38
409.12	734.38
409.344	648.38
409.567	589.38
409.791	586.38
410.014	569.38
410.238	586.38
410.461	597.38
410.685	572.38
410.908	612.38
411.132	605.38
411.355	682.38
411.578	624.38
411.802	591.38
412.025	575.38
412.249	583.38
412.472	611.38
412.695	638.38
412.919	630.38
413.142	587.38
413.365	576.38
413.589	585.38
413.812	553.38
414.035	569.38
414.258	555.38
414.482	519.38
414.705	532.38
414.928	532.38
415.151	570.38
415.374	538.38
415.597	552.38
415.821	542.38
416.044	562.38
416.267	533.38
416.49	531.38
416.713	513.38
416.936	539.38
417.159	537.38
417.382	564.38
417.605	562.38
417.828	575.38
418.051	579.38
418.274	564.38
418.497	540.38
418.72	541.38
418.943	556.38
419.166	578.38
419.389	594.38
419.611	577.38
419.834	567.38
420.057	559.38
420.28	583.38
420.503	580.38
420.726	601.38
420.948	594.38
421.171	629.38
421.394	652.38
421.617	598.38
421.839	544.38
422.062	542.38
422.285	588.38
422.507	664.38
422.73	724.38
422.953	687.38
423.175	616.38
423.398	596.38
423.621	581.38
423.843	594.38
424.066	586.38
424.288	608.38
424.511	616.38
424.733	660.38
424.956	764.38
425.178	727.38
425.401	731.38
425.623	748.38
425.846	645.38
426.068	584.38
426.291	584.38
426.513	583.38
426.735	614.38
426.958	637.38
427.18	728.38
427.402	859.38
427.625	970.38
427.847	845.38
428.069	702.38
428.292	645.38
428.514	563.38
428.736	550.38
428.958	555.38
429.181	551.38
429.403	550.38
429.625	570.38
429.847	596.38
430.069	654.38
430.292	675.38
430.514	574.38
430.736	551.38
430.958	551.38
431.18	521.38
431.402	534.38
431.624	542.38
431.846	516.38
432.068	516.38
432.29	527.38
432.512	532.38
432.734	542.38
432.956	520.38
433.178	542.38
433.4	549.38
433.622	534.38
433.844	550.38
434.066	538.38
434.287	520.38
434.509	536.38
434.731	504.38
434.953	559.38
435.175	558.38
435.397	591.38
435.618	612.38
435.84	628.38
436.062	708.38
436.284	779.38
436.505	672.38
436.727	600.38
436.949	577.38
437.17	544.38
437.392	552.38
437.614	539.38
437.835	575.38
438.057	653.38
438.278	780.38
438.5	794.38
438.721	872.38
438.943	830.38
439.165	666.38
439.386	638.38
439.608	592.38
439.829	580.38
440.05	629.38
440.272	682.38
440.493	604.38
440.715	592.38
440.936	560.38
441.158	576.38
441.379	554.38
441.6	578.38
441.822	559.38
442.043	636.38
442.264	715.38
442.486	785.38
442.707	648.38
442.928	601.38
443.149	623.38
443.371	651.38
443.592	692.38
443.813	788.38
444.034	856.38
444.255	712.38
444.476	651.38
444.698	624.38
444.919	638.38
445.14	767.38
445.361	695.38
445.582	627.38
445.803	698.38
446.024	792.38
446.245	800.38
446.466	774.38
446.687	639.38
446.908	606.38
447.129	560.38
447.35	572.38
447.571	540.38
447.792	544.38
448.013	531.38
448.234	563.38
448.455	622.38
448.675	722.38
448.896	856.38
449.117	721.38
449.338	678.38
449.559	765.38
449.779	892.38
450	698.38
450.221	589.38
450.442	556.38
450.662	528.38
450.883	522.38
451.104	548.38
451.324	522.38
451.545	498.38
451.766	528.38
451.986	518.38
452.207	494.38
452.428	487.38
452.648	491.38
452.869	467.38
453.089	490.38
453.31	513.38
453.53	501.38
453.751	487.38
453.971	504.38
454.192	482.38
454.412	490.38
454.633	486.38
454.853	484.38
455.073	479.38
455.294	476.38
455.514	576.38
455.734	563.38
455.955	472.38
456.175	468.38
456.395	468.38
456.616	471.38
456.836	468.38
457.056	461.38
457.276	450.38
457.497	453.38
457.717	453.38
457.937	479.38
458.157	472.38
458.377	462.38
458.598	484.38
458.818	536.38
459.038	640.38
459.258	645.38
459.478	566.38
459.698	539.38
459.918	520.38
460.138	532.38
460.358	545.38
460.578	535.38
460.798	555.38
461.018	557.38
461.238	541.38
461.458	523.38
461.678	538.38
461.898	561.38
462.118	554.38
462.338	597.38
462.558	567.38
462.777	580.38
462.997	610.38
463.217	594.38
463.437	620.38
463.657	586.38
463.876	620.38
464.096	588.38
464.316	588.38
464.536	588.38
464.755	606.38
464.975	585.38
465.195	597.38
465.414	651.38
465.634	614.38
465.854	588.38
466.073	536.38
466.293	536.38
466.512	515.38
466.732	501.38
466.951	510.38
467.171	486.38
467.391	509.38
467.61	524.38
467.829	518.38
468.049	501.38
468.268	513.38
468.488	495.38
468.707	486.38
468.927	502.38
469.146	502.38
469.365	505.38
469.585	491.38
469.804	478.38
470.023	507.38
470.243	520.38
470.462	506.38
470.681	529.38
470.901	528.38
471.12	523.38
471.339	502.38
471.558	509.38
471.777	514.38
471.997	499.38
472.216	509.38
472.435	542.38
472.654	534.38
472.873	480.38
473.092	512.38
473.311	492.38
473.53	494.38
473.749	506.38
473.968	549.38
474.187	654.38
474.406	660.38
474.625	584.38
474.844	521.38
475.063	501.38
475.282	500.38
475.501	516.38
475.72	520.38
475.939	529.38
476.158	550.38
476.377	503.38
476.596	510.38
476.814	514.38
477.033	526.38
477.252	535.38
477.471	556.38
477.69	564.38
477.908	549.38
478.127	564.38
478.346	543.38
478.564	574.38
478.783	603.38
479.002	605.38
479.22	585.38
479.439	590.38
479.658	611.38
479.876	599.38
480.095	599.38
480.313	661.38
480.532	647.38
480.751	622.38
480.969	650.38
481.188	687.38
481.406	731.38
481.624	659.38
481.843	647.38
482.061	607.38
482.28	602.38
482.498	590.38
482.717	598.38
482.935	611.38
483.153	602.38
483.372	602.38
483.59	590.38
483.808	575.38
484.027	572.38
484.245	590.38
484.463	615.38
484.681	609.38
484.9	598.38
485.118	595.38
485.336	601.38
485.554	633.38
485.772	636.38
485.99	612.38
486.209	634.38
486.427	635.38
486.645	612.38
486.863	638.38
487.081	624.38
487.299	638.38
487.517	661.38
487.735	648.38
487.953	639.38
488.171	657.38
488.389	620.38
488.607	641.38
488.825	646.38
489.043	643.38
489.261	637.38
489.479	648.38
489.696	649.38
489.914	652.38
490.132	667.38
490.35	655.38
490.568	666.38
490.786	687.38
491.003	698.38
491.221	697.38
491.439	712.38
491.657	736.38
491.874	728.38
492.092	737.38
492.31	734.38
492.527	723.38
492.745	739.38
492.963	744.38
493.18	768.38
493.398	773.38
493.615	797.38
493.833	752.38
494.05	785.38
494.268	761.38
494.485	766.38
494.703	741.38
494.92	758.38
495.138	740.38
495.355	764.38
495.573	768.38
495.79	751.38
496.008	766.38
496.225	757.38
496.442	747.38
496.66	774.38
496.877	788.38
497.094	773.38
497.312	772.38
497.529	810.38
497.746	784.38
497.963	814.38
498.181	820.38
498.398	838.38
498.615	890.38
498.832	872.38
499.049	901.38
499.267	916.38
499.484	977.38
499.701	1059.38
499.918	1030.38
500.135	1083.38
500.352	1187.38
500.569	1216.38
500.786	1196.38
501.003	1184.38
501.22	1134.38
501.437	1087.38
501.654	1033.38
