Data from 1975.PennyLincolnUp.Lamp.En5.5.200Scan.071719.P1.Changed Mount._HRD10591_15-58-26-860.txt Node
Date: Thu Jul 18 15:58:26 EDT 2019
User: cochatt
Spectrometer: HR+D1059
Trigger mode: 1
Integration Time (sec): 1.000000E-1
Scans to average: 1
Electric dark correction enabled: true
Nonlinearity correction enabled: false
Boxcar width: 0
XAxis mode: Wavelengths
Number of Pixels in Spectrum: 2048
>>>>>Begin Spectral Data<<<<<
223.165	-13.44
223.4	-13.44
223.635	-13.44
223.869	-13.44
224.104	-23.44
224.338	-32.44
224.573	-11.44
224.808	-15.44
225.042	-10.44
225.277	-3.44
225.511	5.56
225.746	-1.44
225.98	6.56
226.215	20.56
226.449	6.56
226.683	19.56
226.918	35.56
227.152	30.56
227.387	45.56
227.621	44.56
227.856	45.56
228.09	32.56
228.324	48.56
228.559	56.56
228.793	66.56
229.027	100.56
229.262	108.56
229.496	122.56
229.73	164.56
229.964	152.56
230.199	142.56
230.433	124.56
230.667	101.56
230.901	92.56
231.136	117.56
231.37	106.56
231.604	97.56
231.838	121.56
232.072	108.56
232.306	116.56
232.541	115.56
232.775	124.56
233.009	115.56
233.243	120.56
233.477	109.56
233.711	125.56
233.945	118.56
234.179	121.56
234.413	125.56
234.647	104.56
234.881	114.56
235.115	105.56
235.349	118.56
235.583	139.56
235.817	129.56
236.051	120.56
236.285	117.56
236.519	139.56
236.753	141.56
236.987	144.56
237.221	168.56
237.455	229.56
237.689	198.56
237.922	138.56
238.156	148.56
238.39	138.56
238.624	126.56
238.858	134.56
239.091	130.56
239.325	142.56
239.559	114.56
239.793	129.56
240.027	134.56
240.26	150.56
240.494	165.56
240.728	166.56
240.961	162.56
241.195	125.56
241.429	137.56
241.662	130.56
241.896	134.56
242.13	147.56
242.363	127.56
242.597	137.56
242.83	135.56
243.064	134.56
243.298	142.56
243.531	155.56
243.765	151.56
243.998	153.56
244.232	148.56
244.465	151.56
244.699	168.56
244.932	156.56
245.166	157.56
245.399	150.56
245.633	148.56
245.866	161.56
246.099	138.56
246.333	161.56
246.566	153.56
246.8	163.56
247.033	158.56
247.266	157.56
247.5	167.56
247.733	177.56
247.966	211.56
248.2	170.56
248.433	177.56
248.666	181.56
248.899	192.56
249.133	212.56
249.366	210.56
249.599	215.56
249.832	180.56
250.066	190.56
250.299	198.56
250.532	194.56
250.765	212.56
250.998	234.56
251.231	235.56
251.465	220.56
251.698	211.56
251.931	210.56
252.164	203.56
252.397	213.56
252.63	217.56
252.863	211.56
253.096	216.56
253.329	243.56
253.562	241.56
253.795	230.56
254.028	236.56
254.261	227.56
254.494	240.56
254.727	256.56
254.96	265.56
255.193	282.56
255.426	248.56
255.659	235.56
255.892	243.56
256.124	241.56
256.357	255.56
256.59	228.56
256.823	217.56
257.056	235.56
257.289	221.56
257.521	213.56
257.754	215.56
257.987	245.56
258.22	233.56
258.452	217.56
258.685	218.56
258.918	222.56
259.151	205.56
259.383	237.56
259.616	231.56
259.849	224.56
260.081	244.56
260.314	269.56
260.547	265.56
260.779	255.56
261.012	252.56
261.244	217.56
261.477	227.56
261.71	234.56
261.942	243.56
262.175	244.56
262.407	242.56
262.64	239.56
262.872	212.56
263.105	228.56
263.337	225.56
263.57	217.56
263.802	212.56
264.035	221.56
264.267	232.56
264.499	231.56
264.732	224.56
264.964	212.56
265.197	220.56
265.429	253.56
265.661	217.56
265.894	224.56
266.126	233.56
266.358	226.56
266.591	215.56
266.823	236.56
267.055	231.56
267.287	245.56
267.52	258.56
267.752	230.56
267.984	244.56
268.216	249.56
268.448	247.56
268.681	244.56
268.913	272.56
269.145	260.56
269.377	293.56
269.609	291.56
269.841	267.56
270.073	288.56
270.306	309.56
270.538	341.56
270.77	347.56
271.002	304.56
271.234	292.56
271.466	305.56
271.698	322.56
271.93	319.56
272.162	316.56
272.394	338.56
272.626	316.56
272.858	299.56
273.09	290.56
273.322	297.56
273.553	270.56
273.785	278.56
274.017	279.56
274.249	276.56
274.481	269.56
274.713	257.56
274.945	271.56
275.176	290.56
275.408	288.56
275.64	277.56
275.872	288.56
276.104	282.56
276.335	290.56
276.567	281.56
276.799	283.56
277.031	309.56
277.262	325.56
277.494	332.56
277.726	316.56
277.957	316.56
278.189	284.56
278.421	287.56
278.652	273.56
278.884	286.56
279.115	298.56
279.347	270.56
279.579	292.56
279.81	294.56
280.042	276.56
280.273	299.56
280.505	295.56
280.736	290.56
280.968	281.56
281.199	286.56
281.431	277.56
281.662	302.56
281.894	284.56
282.125	313.56
282.356	312.56
282.588	324.56
282.819	324.56
283.051	301.56
283.282	284.56
283.513	288.56
283.745	304.56
283.976	302.56
284.207	322.56
284.439	317.56
284.67	302.56
284.901	285.56
285.132	283.56
285.364	307.56
285.595	293.56
285.826	310.56
286.057	297.56
286.288	302.56
286.52	292.56
286.751	315.56
286.982	312.56
287.213	303.56
287.444	312.56
287.675	310.56
287.906	321.56
288.138	347.56
288.369	327.56
288.6	321.56
288.831	320.56
289.062	314.56
289.293	324.56
289.524	311.56
289.755	304.56
289.986	334.56
290.217	306.56
290.448	320.56
290.679	312.56
290.91	326.56
291.141	313.56
291.371	332.56
291.602	324.56
291.833	320.56
292.064	327.56
292.295	301.56
292.526	314.56
292.757	328.56
292.987	318.56
293.218	325.56
293.449	330.56
293.68	318.56
293.91	308.56
294.141	323.56
294.372	316.56
294.603	310.56
294.833	317.56
295.064	317.56
295.295	339.56
295.525	342.56
295.756	337.56
295.987	325.56
296.217	315.56
296.448	340.56
296.679	330.56
296.909	322.56
297.14	328.56
297.37	340.56
297.601	340.56
297.831	336.56
298.062	313.56
298.292	315.56
298.523	327.56
298.753	342.56
298.984	328.56
299.214	344.56
299.445	330.56
299.675	331.56
299.905	334.56
300.136	334.56
300.366	326.56
300.597	338.56
300.827	360.56
301.057	345.56
301.288	343.56
301.518	337.56
301.748	349.56
301.979	343.56
302.209	367.56
302.439	348.56
302.669	359.56
302.9	363.56
303.13	358.56
303.36	363.56
303.59	357.56
303.82	361.56
304.051	376.56
304.281	379.56
304.511	365.56
304.741	348.56
304.971	348.56
305.201	344.56
305.431	338.56
305.661	357.56
305.891	350.56
306.121	370.56
306.352	373.56
306.582	356.56
306.812	372.56
307.042	365.56
307.272	347.56
307.502	355.56
307.731	355.56
307.961	369.56
308.191	343.56
308.421	352.56
308.651	353.56
308.881	352.56
309.111	339.56
309.341	361.56
309.571	361.56
309.8	371.56
310.03	391.56
310.26	406.56
310.49	394.56
310.72	402.56
310.949	388.56
311.179	407.56
311.409	384.56
311.639	383.56
311.868	399.56
312.098	385.56
312.328	399.56
312.557	429.56
312.787	442.56
313.017	424.56
313.246	398.56
313.476	391.56
313.706	412.56
313.935	388.56
314.165	402.56
314.394	408.56
314.624	425.56
314.853	403.56
315.083	413.56
315.312	398.56
315.542	388.56
315.771	406.56
316.001	404.56
316.23	375.56
316.46	393.56
316.689	400.56
316.919	399.56
317.148	407.56
317.377	429.56
317.607	407.56
317.836	395.56
318.065	403.56
318.295	394.56
318.524	398.56
318.753	413.56
318.983	405.56
319.212	397.56
319.441	404.56
319.67	405.56
319.9	403.56
320.129	377.56
320.358	411.56
320.587	420.56
320.816	408.56
321.046	418.56
321.275	408.56
321.504	408.56
321.733	408.56
321.962	437.56
322.191	450.56
322.42	449.56
322.649	444.56
322.878	438.56
323.108	455.56
323.337	467.56
323.566	492.56
323.795	506.56
324.024	540.56
324.253	646.56
324.482	881.56
324.71	1343.56
324.939	2038.56
325.168	1754.56
325.397	892.56
325.626	599.56
325.855	523.56
326.084	495.56
326.313	499.56
326.542	499.56
326.77	548.56
326.999	606.56
327.228	819.56
327.457	1238.56
327.686	1538.56
327.914	1024.56
328.143	685.56
328.372	612.56
328.6	553.56
328.829	552.56
329.058	562.56
329.287	568.56
329.515	536.56
329.744	517.56
329.972	511.56
330.201	530.56
330.43	562.56
330.658	589.56
330.887	622.56
331.115	574.56
331.344	522.56
331.572	507.56
331.801	502.56
332.03	514.56
332.258	484.56
332.486	481.56
332.715	488.56
332.943	470.56
333.172	521.56
333.4	481.56
333.629	506.56
333.857	515.56
334.085	549.56
334.314	526.56
334.542	578.56
334.771	598.56
334.999	540.56
335.227	494.56
335.455	496.56
335.684	499.56
335.912	501.56
336.14	488.56
336.369	477.56
336.597	493.56
336.825	481.56
337.053	486.56
337.281	466.56
337.51	480.56
337.738	481.56
337.966	480.56
338.194	482.56
338.422	471.56
338.65	482.56
338.878	453.56
339.106	476.56
339.334	484.56
339.562	451.56
339.79	460.56
340.018	467.56
340.246	458.56
340.474	486.56
340.702	476.56
340.93	468.56
341.158	448.56
341.386	476.56
341.614	457.56
341.842	469.56
342.07	461.56
342.298	439.56
342.526	449.56
342.754	468.56
342.981	435.56
343.209	451.56
343.437	443.56
343.665	487.56
343.893	485.56
344.12	489.56
344.348	473.56
344.576	458.56
344.804	477.56
345.031	488.56
345.259	477.56
345.487	458.56
345.714	468.56
345.942	444.56
346.17	448.56
346.397	428.56
346.625	457.56
346.853	441.56
347.08	440.56
347.308	439.56
347.535	464.56
347.763	454.56
347.99	447.56
348.218	449.56
348.445	465.56
348.673	440.56
348.9	471.56
349.128	449.56
349.355	437.56
349.583	424.56
349.81	424.56
350.037	425.56
350.265	416.56
350.492	437.56
350.72	440.56
350.947	434.56
351.174	443.56
351.402	460.56
351.629	460.56
351.856	440.56
352.083	444.56
352.311	446.56
352.538	449.56
352.765	461.56
352.992	446.56
353.22	416.56
353.447	438.56
353.674	428.56
353.901	427.56
354.128	423.56
354.355	445.56
354.583	418.56
354.81	423.56
355.037	397.56
355.264	418.56
355.491	433.56
355.718	426.56
355.945	409.56
356.172	413.56
356.399	400.56
356.626	426.56
356.853	406.56
357.08	409.56
357.307	421.56
357.534	420.56
357.761	436.56
357.988	418.56
358.215	416.56
358.441	398.56
358.668	412.56
358.895	426.56
359.122	432.56
359.349	439.56
359.576	426.56
359.802	458.56
360.029	469.56
360.256	491.56
360.483	477.56
360.709	448.56
360.936	458.56
361.163	446.56
361.39	455.56
361.616	474.56
361.843	452.56
362.07	439.56
362.296	462.56
362.523	445.56
362.749	460.56
362.976	437.56
363.203	425.56
363.429	440.56
363.656	429.56
363.882	426.56
364.109	434.56
364.335	437.56
364.562	416.56
364.788	429.56
365.015	440.56
365.241	437.56
365.468	456.56
365.694	440.56
365.92	435.56
366.147	413.56
366.373	429.56
366.599	415.56
366.826	447.56
367.052	424.56
367.278	427.56
367.505	451.56
367.731	432.56
367.957	434.56
368.184	426.56
368.41	436.56
368.636	435.56
368.862	456.56
369.089	442.56
369.315	448.56
369.541	439.56
369.767	422.56
369.993	448.56
370.219	442.56
370.445	427.56
370.672	438.56
370.898	429.56
371.124	440.56
371.35	436.56
371.576	454.56
371.802	466.56
372.028	452.56
372.254	433.56
372.48	437.56
372.706	434.56
372.932	457.56
373.158	437.56
373.384	429.56
373.61	442.56
373.835	453.56
374.061	444.56
374.287	432.56
374.513	461.56
374.739	451.56
374.965	467.56
375.191	475.56
375.416	491.56
375.642	455.56
375.868	447.56
376.094	435.56
376.319	450.56
376.545	478.56
376.771	434.56
376.997	420.56
377.222	428.56
377.448	435.56
377.674	450.56
377.899	435.56
378.125	448.56
378.35	459.56
378.576	432.56
378.802	426.56
379.027	443.56
379.253	441.56
379.478	449.56
379.704	450.56
379.929	434.56
380.155	429.56
380.38	438.56
380.606	454.56
380.831	429.56
381.057	454.56
381.282	461.56
381.507	440.56
381.733	470.56
381.958	439.56
382.184	452.56
382.409	453.56
382.634	471.56
382.86	441.56
383.085	451.56
383.31	457.56
383.535	460.56
383.761	462.56
383.986	476.56
384.211	448.56
384.436	467.56
384.662	459.56
384.887	484.56
385.112	492.56
385.337	493.56
385.562	492.56
385.787	487.56
386.013	506.56
386.238	498.56
386.463	506.56
386.688	481.56
386.913	503.56
387.138	484.56
387.363	486.56
387.588	513.56
387.813	496.56
388.038	478.56
388.263	500.56
388.488	494.56
388.713	484.56
388.938	490.56
389.163	488.56
389.387	520.56
389.612	493.56
389.837	484.56
390.062	482.56
390.287	481.56
390.512	466.56
390.736	486.56
390.961	498.56
391.186	480.56
391.411	536.56
391.636	500.56
391.86	515.56
392.085	535.56
392.31	509.56
392.534	492.56
392.759	518.56
392.984	515.56
393.208	497.56
393.433	523.56
393.658	504.56
393.882	503.56
394.107	475.56
394.331	512.56
394.556	489.56
394.78	504.56
395.005	485.56
395.229	512.56
395.454	502.56
395.678	505.56
395.903	523.56
396.127	558.56
396.352	533.56
396.576	521.56
396.801	518.56
397.025	525.56
397.249	521.56
397.474	522.56
397.698	540.56
397.922	531.56
398.147	571.56
398.371	580.56
398.595	578.56
398.82	574.56
399.044	570.56
399.268	622.56
399.492	631.56
399.717	700.56
399.941	725.56
400.165	731.56
400.389	746.56
400.613	671.56
400.837	602.56
401.062	615.56
401.286	590.56
401.51	580.56
401.734	589.56
401.958	557.56
402.182	573.56
402.406	595.56
402.63	610.56
402.854	586.56
403.078	600.56
403.302	597.56
403.526	614.56
403.75	606.56
403.974	598.56
404.198	603.56
404.422	617.56
404.645	638.56
404.869	631.56
405.093	662.56
405.317	702.56
405.541	725.56
405.765	666.56
405.988	642.56
406.212	637.56
406.436	638.56
406.66	672.56
406.883	650.56
407.107	680.56
407.331	732.56
407.555	795.56
407.778	775.56
408.002	733.56
408.226	673.56
408.449	666.56
408.673	658.56
408.896	701.56
409.12	737.56
409.344	698.56
409.567	648.56
409.791	608.56
410.014	629.56
410.238	625.56
410.461	611.56
410.685	596.56
410.908	629.56
411.132	664.56
411.355	690.56
411.578	640.56
411.802	621.56
412.025	596.56
412.249	625.56
412.472	628.56
412.695	658.56
412.919	676.56
413.142	624.56
413.365	568.56
413.589	586.56
413.812	582.56
414.035	603.56
414.258	588.56
414.482	582.56
414.705	572.56
414.928	552.56
415.151	568.56
415.374	563.56
415.597	573.56
415.821	580.56
416.044	575.56
416.267	554.56
416.49	554.56
416.713	546.56
416.936	560.56
417.159	562.56
417.382	571.56
417.605	549.56
417.828	583.56
418.051	616.56
418.274	576.56
418.497	560.56
418.72	585.56
418.943	589.56
419.166	586.56
419.389	613.56
419.611	617.56
419.834	589.56
420.057	605.56
420.28	599.56
420.503	602.56
420.726	565.56
420.948	619.56
421.171	660.56
421.394	682.56
421.617	608.56
421.839	602.56
422.062	604.56
422.285	609.56
422.507	692.56
422.73	721.56
422.953	756.56
423.175	654.56
423.398	626.56
423.621	625.56
423.843	629.56
424.066	639.56
424.288	628.56
424.511	674.56
424.733	681.56
424.956	805.56
425.178	749.56
425.401	774.56
425.623	805.56
425.846	669.56
426.068	620.56
426.291	629.56
426.513	628.56
426.735	640.56
426.958	673.56
427.18	744.56
427.402	876.56
427.625	970.56
427.847	841.56
428.069	726.56
428.292	657.56
428.514	631.56
428.736	600.56
428.958	589.56
429.181	576.56
429.403	576.56
429.625	591.56
429.847	608.56
430.069	686.56
430.292	692.56
430.514	596.56
430.736	566.56
430.958	550.56
431.18	572.56
431.402	567.56
431.624	548.56
431.846	560.56
432.068	552.56
432.29	567.56
432.512	557.56
432.734	585.56
432.956	548.56
433.178	552.56
433.4	583.56
433.622	565.56
433.844	558.56
434.066	525.56
434.287	541.56
434.509	557.56
434.731	566.56
434.953	578.56
435.175	591.56
435.397	632.56
435.618	625.56
435.84	673.56
436.062	774.56
436.284	862.56
436.505	711.56
436.727	642.56
436.949	612.56
437.17	566.56
437.392	560.56
437.614	572.56
437.835	608.56
438.057	712.56
438.278	823.56
438.5	819.56
438.721	892.56
438.943	870.56
439.165	688.56
439.386	630.56
439.608	636.56
439.829	626.56
440.05	647.56
440.272	704.56
440.493	649.56
440.715	627.56
440.936	599.56
441.158	590.56
441.379	587.56
441.6	616.56
441.822	615.56
442.043	668.56
442.264	732.56
442.486	822.56
442.707	668.56
442.928	672.56
443.149	637.56
443.371	654.56
443.592	709.56
443.813	817.56
444.034	873.56
444.255	734.56
444.476	685.56
444.698	668.56
444.919	627.56
445.14	803.56
445.361	704.56
445.582	692.56
445.803	733.56
446.024	853.56
446.245	866.56
446.466	782.56
446.687	666.56
446.908	648.56
447.129	600.56
447.35	583.56
447.571	573.56
447.792	571.56
448.013	566.56
448.234	569.56
448.455	632.56
448.675	765.56
448.896	879.56
449.117	724.56
449.338	696.56
449.559	814.56
449.779	941.56
450	776.56
450.221	638.56
450.442	550.56
450.662	560.56
450.883	554.56
451.104	573.56
451.324	566.56
451.545	540.56
451.766	514.56
451.986	518.56
452.207	491.56
452.428	506.56
452.648	520.56
452.869	517.56
453.089	525.56
453.31	517.56
453.53	507.56
453.751	510.56
453.971	517.56
454.192	532.56
454.412	522.56
454.633	502.56
454.853	501.56
455.073	490.56
455.294	562.56
455.514	607.56
455.734	595.56
455.955	515.56
456.175	485.56
456.395	476.56
456.616	499.56
456.836	485.56
457.056	484.56
457.276	462.56
457.497	480.56
457.717	501.56
457.937	486.56
458.157	487.56
458.377	488.56
458.598	525.56
458.818	535.56
459.038	620.56
459.258	664.56
459.478	601.56
459.698	549.56
459.918	536.56
460.138	541.56
460.358	567.56
460.578	581.56
460.798	568.56
461.018	604.56
461.238	572.56
461.458	569.56
461.678	582.56
461.898	580.56
462.118	569.56
462.338	614.56
462.558	595.56
462.777	609.56
462.997	630.56
463.217	653.56
463.437	661.56
463.657	620.56
463.876	627.56
464.096	652.56
464.316	625.56
464.536	615.56
464.755	620.56
464.975	625.56
465.195	642.56
465.414	668.56
465.634	613.56
465.854	581.56
466.073	586.56
466.293	538.56
466.512	541.56
466.732	538.56
466.951	542.56
467.171	513.56
467.391	512.56
467.61	531.56
467.829	522.56
468.049	537.56
468.268	522.56
468.488	533.56
468.707	501.56
468.927	534.56
469.146	489.56
469.365	526.56
469.585	530.56
469.804	525.56
470.023	524.56
470.243	544.56
470.462	545.56
470.681	548.56
470.901	550.56
471.12	552.56
471.339	523.56
471.558	515.56
471.777	527.56
471.997	536.56
472.216	529.56
472.435	570.56
472.654	568.56
472.873	553.56
473.092	531.56
473.311	530.56
473.53	524.56
473.749	520.56
473.968	554.56
474.187	674.56
474.406	708.56
474.625	589.56
474.844	560.56
475.063	538.56
475.282	548.56
475.501	555.56
475.72	542.56
475.939	545.56
476.158	533.56
476.377	553.56
476.596	537.56
476.814	565.56
477.033	559.56
477.252	562.56
477.471	587.56
477.69	584.56
477.908	591.56
478.127	595.56
478.346	603.56
478.564	603.56
478.783	598.56
479.002	616.56
479.22	631.56
479.439	640.56
479.658	635.56
479.876	648.56
480.095	667.56
480.313	681.56
480.532	673.56
480.751	658.56
480.969	639.56
481.188	726.56
481.406	760.56
481.624	678.56
481.843	662.56
482.061	658.56
482.28	616.56
482.498	634.56
482.717	633.56
482.935	629.56
483.153	615.56
483.372	624.56
483.59	630.56
483.808	593.56
484.027	627.56
484.245	617.56
484.463	631.56
484.681	623.56
484.9	636.56
485.118	646.56
485.336	633.56
485.554	629.56
485.772	646.56
485.99	640.56
486.209	648.56
486.427	630.56
486.645	664.56
486.863	679.56
487.081	684.56
487.299	662.56
487.517	669.56
487.735	656.56
487.953	701.56
488.171	669.56
488.389	665.56
488.607	663.56
488.825	655.56
489.043	665.56
489.261	689.56
489.479	676.56
489.696	684.56
489.914	689.56
490.132	674.56
490.35	714.56
490.568	724.56
490.786	708.56
491.003	723.56
491.221	751.56
491.439	745.56
491.657	746.56
491.874	768.56
492.092	768.56
492.31	797.56
492.527	778.56
492.745	786.56
492.963	749.56
493.18	788.56
493.398	806.56
493.615	814.56
493.833	802.56
494.05	815.56
494.268	802.56
494.485	799.56
494.703	802.56
494.92	809.56
495.138	792.56
495.355	802.56
495.573	808.56
495.79	770.56
496.008	820.56
496.225	795.56
496.442	818.56
496.66	798.56
496.877	805.56
497.094	817.56
497.312	790.56
497.529	818.56
497.746	822.56
497.963	859.56
498.181	869.56
498.398	892.56
498.615	925.56
498.832	900.56
499.049	958.56
499.267	971.56
499.484	1034.56
499.701	1079.56
499.918	1106.56
500.135	1184.56
500.352	1254.56
500.569	1287.56
500.786	1276.56
501.003	1259.56
501.22	1184.56
501.437	1143.56
501.654	1115.56
