Data from 1975.PennyLincolnUp.Lamp.En5.5.200Scan.071719.P1.Changed Mount._HRD10591_15-56-35-859.txt Node
Date: Thu Jul 18 15:56:35 EDT 2019
User: cochatt
Spectrometer: HR+D1059
Trigger mode: 1
Integration Time (sec): 1.000000E-1
Scans to average: 1
Electric dark correction enabled: true
Nonlinearity correction enabled: false
Boxcar width: 0
XAxis mode: Wavelengths
Number of Pixels in Spectrum: 2048
>>>>>Begin Spectral Data<<<<<
223.165	-17.62
223.4	-17.62
223.635	-17.62
223.869	-24.62
224.104	-10.62
224.338	-12.62
224.573	-18.62
224.808	0.38
225.042	-6.62
225.277	3.38
225.511	5.38
225.746	4.38
225.98	-3.62
226.215	-1.62
226.449	24.38
226.683	13.38
226.918	3.38
227.152	41.38
227.387	32.38
227.621	38.38
227.856	46.38
228.09	44.38
228.324	53.38
228.559	58.38
228.793	69.38
229.027	91.38
229.262	100.38
229.496	120.38
229.73	118.38
229.964	151.38
230.199	123.38
230.433	111.38
230.667	126.38
230.901	133.38
231.136	108.38
231.37	111.38
231.604	112.38
231.838	103.38
232.072	120.38
232.306	117.38
232.541	124.38
232.775	117.38
233.009	113.38
233.243	112.38
233.477	124.38
233.711	118.38
233.945	123.38
234.179	139.38
234.413	117.38
234.647	129.38
234.881	127.38
235.115	122.38
235.349	115.38
235.583	112.38
235.817	126.38
236.051	130.38
236.285	130.38
236.519	124.38
236.753	131.38
236.987	133.38
237.221	176.38
237.455	221.38
237.689	172.38
237.922	146.38
238.156	127.38
238.39	128.38
238.624	122.38
238.858	124.38
239.091	127.38
239.325	123.38
239.559	132.38
239.793	140.38
240.027	130.38
240.26	135.38
240.494	156.38
240.728	164.38
240.961	148.38
241.195	166.38
241.429	149.38
241.662	146.38
241.896	134.38
242.13	131.38
242.363	147.38
242.597	135.38
242.83	133.38
243.064	158.38
243.298	139.38
243.531	139.38
243.765	147.38
243.998	145.38
244.232	137.38
244.465	159.38
244.699	157.38
244.932	163.38
245.166	154.38
245.399	139.38
245.633	154.38
245.866	145.38
246.099	165.38
246.333	158.38
246.566	149.38
246.8	156.38
247.033	163.38
247.266	172.38
247.5	169.38
247.733	174.38
247.966	183.38
248.2	177.38
248.433	175.38
248.666	180.38
248.899	180.38
249.133	183.38
249.366	199.38
249.599	193.38
249.832	179.38
250.066	198.38
250.299	197.38
250.532	201.38
250.765	201.38
250.998	208.38
251.231	251.38
251.465	221.38
251.698	225.38
251.931	218.38
252.164	192.38
252.397	193.38
252.63	212.38
252.863	211.38
253.096	224.38
253.329	232.38
253.562	230.38
253.795	209.38
254.028	224.38
254.261	221.38
254.494	226.38
254.727	274.38
254.96	277.38
255.193	283.38
255.426	250.38
255.659	228.38
255.892	228.38
256.124	225.38
256.357	229.38
256.59	229.38
256.823	214.38
257.056	220.38
257.289	226.38
257.521	213.38
257.754	220.38
257.987	222.38
258.22	204.38
258.452	231.38
258.685	227.38
258.918	216.38
259.151	220.38
259.383	230.38
259.616	229.38
259.849	221.38
260.081	238.38
260.314	248.38
260.547	263.38
260.779	252.38
261.012	251.38
261.244	238.38
261.477	226.38
261.71	217.38
261.942	228.38
262.175	252.38
262.407	220.38
262.64	235.38
262.872	214.38
263.105	224.38
263.337	215.38
263.57	215.38
263.802	216.38
264.035	213.38
264.267	218.38
264.499	217.38
264.732	225.38
264.964	225.38
265.197	213.38
265.429	222.38
265.661	227.38
265.894	229.38
266.126	241.38
266.358	225.38
266.591	235.38
266.823	240.38
267.055	233.38
267.287	217.38
267.52	224.38
267.752	217.38
267.984	232.38
268.216	239.38
268.448	237.38
268.681	252.38
268.913	255.38
269.145	280.38
269.377	280.38
269.609	284.38
269.841	292.38
270.073	282.38
270.306	292.38
270.538	307.38
270.77	329.38
271.002	309.38
271.234	292.38
271.466	310.38
271.698	295.38
271.93	327.38
272.162	315.38
272.394	311.38
272.626	310.38
272.858	286.38
273.09	278.38
273.322	273.38
273.553	293.38
273.785	284.38
274.017	262.38
274.249	279.38
274.481	265.38
274.713	267.38
274.945	273.38
275.176	264.38
275.408	277.38
275.64	277.38
275.872	282.38
276.104	273.38
276.335	274.38
276.567	281.38
276.799	290.38
277.031	294.38
277.262	329.38
277.494	326.38
277.726	324.38
277.957	316.38
278.189	303.38
278.421	286.38
278.652	288.38
278.884	279.38
279.115	268.38
279.347	287.38
279.579	286.38
279.81	266.38
280.042	279.38
280.273	282.38
280.505	299.38
280.736	289.38
280.968	261.38
281.199	279.38
281.431	285.38
281.662	277.38
281.894	288.38
282.125	276.38
282.356	301.38
282.588	312.38
282.819	309.38
283.051	306.38
283.282	285.38
283.513	288.38
283.745	288.38
283.976	320.38
284.207	295.38
284.439	304.38
284.67	299.38
284.901	286.38
285.132	305.38
285.364	318.38
285.595	299.38
285.826	284.38
286.057	301.38
286.288	291.38
286.52	303.38
286.751	282.38
286.982	292.38
287.213	297.38
287.444	308.38
287.675	302.38
287.906	309.38
288.138	329.38
288.369	320.38
288.6	324.38
288.831	329.38
289.062	325.38
289.293	304.38
289.524	315.38
289.755	312.38
289.986	295.38
290.217	307.38
290.448	315.38
290.679	308.38
290.91	312.38
291.141	325.38
291.371	311.38
291.602	302.38
291.833	287.38
292.064	305.38
292.295	302.38
292.526	313.38
292.757	309.38
292.987	310.38
293.218	312.38
293.449	304.38
293.68	316.38
293.91	300.38
294.141	302.38
294.372	311.38
294.603	313.38
294.833	305.38
295.064	311.38
295.295	324.38
295.525	315.38
295.756	337.38
295.987	302.38
296.217	336.38
296.448	337.38
296.679	328.38
296.909	312.38
297.14	313.38
297.37	324.38
297.601	314.38
297.831	319.38
298.062	313.38
298.292	316.38
298.523	318.38
298.753	320.38
298.984	331.38
299.214	327.38
299.445	323.38
299.675	332.38
299.905	327.38
300.136	336.38
300.366	336.38
300.597	336.38
300.827	348.38
301.057	327.38
301.288	350.38
301.518	330.38
301.748	339.38
301.979	347.38
302.209	337.38
302.439	348.38
302.669	337.38
302.9	356.38
303.13	335.38
303.36	349.38
303.59	311.38
303.82	359.38
304.051	356.38
304.281	335.38
304.511	345.38
304.741	356.38
304.971	323.38
305.201	335.38
305.431	332.38
305.661	349.38
305.891	341.38
306.121	337.38
306.352	337.38
306.582	356.38
306.812	350.38
307.042	343.38
307.272	348.38
307.502	331.38
307.731	341.38
307.961	347.38
308.191	345.38
308.421	366.38
308.651	347.38
308.881	340.38
309.111	383.38
309.341	363.38
309.571	371.38
309.8	367.38
310.03	376.38
310.26	367.38
310.49	389.38
310.72	385.38
310.949	380.38
311.179	388.38
311.409	393.38
311.639	380.38
311.868	381.38
312.098	391.38
312.328	390.38
312.557	423.38
312.787	402.38
313.017	382.38
313.246	409.38
313.476	389.38
313.706	391.38
313.935	388.38
314.165	398.38
314.394	400.38
314.624	392.38
314.853	392.38
315.083	389.38
315.312	385.38
315.542	394.38
315.771	366.38
316.001	385.38
316.23	384.38
316.46	391.38
316.689	383.38
316.919	381.38
317.148	383.38
317.377	399.38
317.607	404.38
317.836	389.38
318.065	385.38
318.295	411.38
318.524	382.38
318.753	368.38
318.983	377.38
319.212	387.38
319.441	388.38
319.67	413.38
319.9	391.38
320.129	374.38
320.358	363.38
320.587	389.38
320.816	399.38
321.046	407.38
321.275	394.38
321.504	411.38
321.733	397.38
321.962	395.38
322.191	422.38
322.42	431.38
322.649	424.38
322.878	428.38
323.108	431.38
323.337	457.38
323.566	490.38
323.795	466.38
324.024	526.38
324.253	594.38
324.482	830.38
324.71	1213.38
324.939	1839.38
325.168	1623.38
325.397	814.38
325.626	572.38
325.855	472.38
326.084	455.38
326.313	474.38
326.542	474.38
326.77	549.38
326.999	570.38
327.228	739.38
327.457	1140.38
327.686	1420.38
327.914	936.38
328.143	647.38
328.372	573.38
328.6	534.38
328.829	529.38
329.058	555.38
329.287	542.38
329.515	491.38
329.744	496.38
329.972	484.38
330.201	491.38
330.43	544.38
330.658	575.38
330.887	594.38
331.115	570.38
331.344	497.38
331.572	489.38
331.801	501.38
332.03	501.38
332.258	469.38
332.486	466.38
332.715	447.38
332.943	456.38
333.172	481.38
333.4	484.38
333.629	488.38
333.857	493.38
334.085	519.38
334.314	520.38
334.542	528.38
334.771	552.38
334.999	538.38
335.227	492.38
335.455	485.38
335.684	476.38
335.912	479.38
336.14	477.38
336.369	469.38
336.597	472.38
336.825	447.38
337.053	472.38
337.281	449.38
337.51	463.38
337.738	473.38
337.966	443.38
338.194	469.38
338.422	456.38
338.65	457.38
338.878	424.38
339.106	441.38
339.334	436.38
339.562	449.38
339.79	462.38
340.018	440.38
340.246	455.38
340.474	447.38
340.702	455.38
340.93	437.38
341.158	435.38
341.386	431.38
341.614	432.38
341.842	457.38
342.07	430.38
342.298	421.38
342.526	428.38
342.754	438.38
342.981	439.38
343.209	428.38
343.437	457.38
343.665	462.38
343.893	455.38
344.12	473.38
344.348	466.38
344.576	453.38
344.804	468.38
345.031	476.38
345.259	469.38
345.487	465.38
345.714	452.38
345.942	443.38
346.17	424.38
346.397	450.38
346.625	430.38
346.853	421.38
347.08	416.38
347.308	426.38
347.535	447.38
347.763	415.38
347.99	434.38
348.218	423.38
348.445	431.38
348.673	421.38
348.9	446.38
349.128	430.38
349.355	413.38
349.583	432.38
349.81	426.38
350.037	422.38
350.265	407.38
350.492	441.38
350.72	448.38
350.947	448.38
351.174	436.38
351.402	431.38
351.629	442.38
351.856	433.38
352.083	437.38
352.311	458.38
352.538	446.38
352.765	420.38
352.992	442.38
353.22	426.38
353.447	432.38
353.674	435.38
353.901	402.38
354.128	402.38
354.355	423.38
354.583	399.38
354.81	392.38
355.037	414.38
355.264	383.38
355.491	419.38
355.718	419.38
355.945	396.38
356.172	416.38
356.399	421.38
356.626	395.38
356.853	393.38
357.08	403.38
357.307	410.38
357.534	390.38
357.761	393.38
357.988	419.38
358.215	393.38
358.441	417.38
358.668	413.38
358.895	436.38
359.122	401.38
359.349	415.38
359.576	429.38
359.802	444.38
360.029	465.38
360.256	491.38
360.483	468.38
360.709	433.38
360.936	411.38
361.163	407.38
361.39	433.38
361.616	442.38
361.843	439.38
362.07	433.38
362.296	430.38
362.523	435.38
362.749	428.38
362.976	409.38
363.203	429.38
363.429	408.38
363.656	419.38
363.882	425.38
364.109	424.38
364.335	409.38
364.562	426.38
364.788	423.38
365.015	422.38
365.241	414.38
365.468	436.38
365.694	430.38
365.92	428.38
366.147	424.38
366.373	406.38
366.599	402.38
366.826	425.38
367.052	424.38
367.278	426.38
367.505	410.38
367.731	414.38
367.957	416.38
368.184	422.38
368.41	420.38
368.636	452.38
368.862	423.38
369.089	435.38
369.315	413.38
369.541	429.38
369.767	443.38
369.993	429.38
370.219	402.38
370.445	422.38
370.672	431.38
370.898	416.38
371.124	411.38
371.35	427.38
371.576	410.38
371.802	425.38
372.028	411.38
372.254	435.38
372.48	425.38
372.706	421.38
372.932	434.38
373.158	442.38
373.384	441.38
373.61	438.38
373.835	420.38
374.061	428.38
374.287	439.38
374.513	442.38
374.739	443.38
374.965	454.38
375.191	423.38
375.416	425.38
375.642	420.38
375.868	463.38
376.094	429.38
376.319	439.38
376.545	428.38
376.771	413.38
376.997	424.38
377.222	443.38
377.448	421.38
377.674	435.38
377.899	438.38
378.125	436.38
378.35	403.38
378.576	419.38
378.802	444.38
379.027	467.38
379.253	422.38
379.478	446.38
379.704	443.38
379.929	445.38
380.155	435.38
380.38	431.38
380.606	427.38
380.831	417.38
381.057	429.38
381.282	436.38
381.507	420.38
381.733	448.38
381.958	458.38
382.184	444.38
382.409	447.38
382.634	446.38
382.86	440.38
383.085	441.38
383.31	455.38
383.535	459.38
383.761	458.38
383.986	462.38
384.211	468.38
384.436	464.38
384.662	476.38
384.887	462.38
385.112	476.38
385.337	466.38
385.562	463.38
385.787	492.38
386.013	478.38
386.238	492.38
386.463	511.38
386.688	477.38
386.913	483.38
387.138	474.38
387.363	456.38
387.588	476.38
387.813	475.38
388.038	487.38
388.263	455.38
388.488	462.38
388.713	463.38
388.938	487.38
389.163	488.38
389.387	493.38
389.612	461.38
389.837	489.38
390.062	469.38
390.287	472.38
390.512	477.38
390.736	469.38
390.961	473.38
391.186	470.38
391.411	472.38
391.636	457.38
391.86	500.38
392.085	496.38
392.31	501.38
392.534	490.38
392.759	496.38
392.984	483.38
393.208	492.38
393.433	486.38
393.658	504.38
393.882	484.38
394.107	496.38
394.331	501.38
394.556	495.38
394.78	468.38
395.005	494.38
395.229	485.38
395.454	499.38
395.678	505.38
395.903	518.38
396.127	535.38
396.352	518.38
396.576	502.38
396.801	498.38
397.025	486.38
397.249	519.38
397.474	535.38
397.698	524.38
397.922	544.38
398.147	536.38
398.371	579.38
398.595	550.38
398.82	572.38
399.044	595.38
399.268	599.38
399.492	648.38
399.717	675.38
399.941	720.38
400.165	737.38
400.389	705.38
400.613	638.38
400.837	611.38
401.062	602.38
401.286	556.38
401.51	573.38
401.734	578.38
401.958	555.38
402.182	552.38
402.406	574.38
402.63	578.38
402.854	585.38
403.078	579.38
403.302	593.38
403.526	595.38
403.75	601.38
403.974	577.38
404.198	593.38
404.422	602.38
404.645	610.38
404.869	596.38
405.093	616.38
405.317	666.38
405.541	703.38
405.765	650.38
405.988	617.38
406.212	610.38
406.436	615.38
406.66	656.38
406.883	647.38
407.107	661.38
407.331	703.38
407.555	771.38
407.778	747.38
408.002	695.38
408.226	651.38
408.449	642.38
408.673	645.38
408.896	673.38
409.12	707.38
409.344	682.38
409.567	606.38
409.791	600.38
410.014	590.38
410.238	592.38
410.461	602.38
410.685	592.38
410.908	587.38
411.132	640.38
411.355	674.38
411.578	638.38
411.802	594.38
412.025	599.38
412.249	584.38
412.472	625.38
412.695	640.38
412.919	621.38
413.142	602.38
413.365	597.38
413.589	557.38
413.812	596.38
414.035	566.38
414.258	558.38
414.482	560.38
414.705	567.38
414.928	543.38
415.151	561.38
415.374	566.38
415.597	560.38
415.821	523.38
416.044	558.38
416.267	557.38
416.49	544.38
416.713	527.38
416.936	534.38
417.159	543.38
417.382	558.38
417.605	565.38
417.828	575.38
418.051	603.38
418.274	553.38
418.497	542.38
418.72	575.38
418.943	551.38
419.166	574.38
419.389	611.38
419.611	616.38
419.834	592.38
420.057	600.38
420.28	573.38
420.503	609.38
420.726	592.38
420.948	601.38
421.171	619.38
421.394	664.38
421.617	607.38
421.839	590.38
422.062	576.38
422.285	583.38
422.507	631.38
422.73	707.38
422.953	704.38
423.175	639.38
423.398	602.38
423.621	588.38
423.843	645.38
424.066	627.38
424.288	614.38
424.511	632.38
424.733	665.38
424.956	752.38
425.178	709.38
425.401	709.38
425.623	723.38
425.846	657.38
426.068	601.38
426.291	590.38
426.513	602.38
426.735	618.38
426.958	639.38
427.18	757.38
427.402	870.38
427.625	939.38
427.847	785.38
428.069	716.38
428.292	631.38
428.514	598.38
428.736	559.38
428.958	555.38
429.181	580.38
429.403	525.38
429.625	566.38
429.847	587.38
430.069	677.38
430.292	683.38
430.514	581.38
430.736	582.38
430.958	566.38
431.18	535.38
431.402	542.38
431.624	529.38
431.846	518.38
432.068	500.38
432.29	531.38
432.512	551.38
432.734	551.38
432.956	539.38
433.178	517.38
433.4	517.38
433.622	537.38
433.844	566.38
434.066	526.38
434.287	535.38
434.509	569.38
434.731	579.38
434.953	587.38
435.175	576.38
435.397	611.38
435.618	617.38
435.84	628.38
436.062	732.38
436.284	805.38
436.505	670.38
436.727	598.38
436.949	582.38
437.17	560.38
437.392	576.38
437.614	566.38
437.835	622.38
438.057	681.38
438.278	777.38
438.5	796.38
438.721	889.38
438.943	827.38
439.165	673.38
439.386	611.38
439.608	592.38
439.829	604.38
440.05	629.38
440.272	664.38
440.493	627.38
440.715	586.38
440.936	556.38
441.158	555.38
441.379	571.38
441.6	588.38
441.822	585.38
442.043	617.38
442.264	726.38
442.486	776.38
442.707	665.38
442.928	643.38
443.149	640.38
443.371	675.38
443.592	704.38
443.813	774.38
444.034	864.38
444.255	719.38
444.476	661.38
444.698	626.38
444.919	627.38
445.14	731.38
445.361	683.38
445.582	646.38
445.803	721.38
446.024	807.38
446.245	837.38
446.466	750.38
446.687	628.38
446.908	603.38
447.129	546.38
447.35	542.38
447.571	535.38
447.792	523.38
448.013	555.38
448.234	576.38
448.455	622.38
448.675	763.38
448.896	864.38
449.117	720.38
449.338	657.38
449.559	795.38
449.779	911.38
450	715.38
450.221	571.38
450.442	555.38
450.662	517.38
450.883	552.38
451.104	554.38
451.324	537.38
451.545	519.38
451.766	504.38
451.986	504.38
452.207	499.38
452.428	477.38
452.648	504.38
452.869	487.38
453.089	503.38
453.31	511.38
453.53	488.38
453.751	481.38
453.971	493.38
454.192	495.38
454.412	507.38
454.633	488.38
454.853	473.38
455.073	481.38
455.294	507.38
455.514	568.38
455.734	574.38
455.955	505.38
456.175	475.38
456.395	462.38
456.616	470.38
456.836	477.38
457.056	472.38
457.276	447.38
457.497	462.38
457.717	454.38
457.937	470.38
458.157	486.38
458.377	488.38
458.598	507.38
458.818	549.38
459.038	615.38
459.258	647.38
459.478	595.38
459.698	539.38
459.918	530.38
460.138	549.38
460.358	538.38
460.578	549.38
460.798	560.38
461.018	547.38
461.238	555.38
461.458	560.38
461.678	562.38
461.898	573.38
462.118	565.38
462.338	569.38
462.558	590.38
462.777	603.38
462.997	608.38
463.217	645.38
463.437	636.38
463.657	624.38
463.876	592.38
464.096	600.38
464.316	612.38
464.536	583.38
464.755	603.38
464.975	599.38
465.195	629.38
465.414	657.38
465.634	591.38
465.854	555.38
466.073	554.38
466.293	528.38
466.512	525.38
466.732	524.38
466.951	523.38
467.171	498.38
467.391	537.38
467.61	511.38
467.829	513.38
468.049	527.38
468.268	524.38
468.488	516.38
468.707	510.38
468.927	511.38
469.146	491.38
469.365	491.38
469.585	487.38
469.804	489.38
470.023	536.38
470.243	528.38
470.462	533.38
470.681	533.38
470.901	540.38
471.12	540.38
471.339	520.38
471.558	523.38
471.777	538.38
471.997	523.38
472.216	534.38
472.435	550.38
472.654	521.38
472.873	526.38
473.092	522.38
473.311	502.38
473.53	497.38
473.749	535.38
473.968	573.38
474.187	640.38
474.406	688.38
474.625	590.38
474.844	535.38
475.063	505.38
475.282	504.38
475.501	532.38
475.72	530.38
475.939	538.38
476.158	541.38
476.377	542.38
476.596	519.38
476.814	536.38
477.033	544.38
477.252	557.38
477.471	534.38
477.69	555.38
477.908	568.38
478.127	592.38
478.346	573.38
478.564	580.38
478.783	595.38
479.002	585.38
479.22	601.38
479.439	629.38
479.658	619.38
479.876	620.38
480.095	616.38
480.313	672.38
480.532	659.38
480.751	658.38
480.969	655.38
481.188	694.38
481.406	705.38
481.624	653.38
481.843	637.38
482.061	620.38
482.28	587.38
482.498	592.38
482.717	586.38
482.935	607.38
483.153	591.38
483.372	612.38
483.59	604.38
483.808	600.38
484.027	606.38
484.245	589.38
484.463	619.38
484.681	632.38
484.9	636.38
485.118	621.38
485.336	622.38
485.554	614.38
485.772	625.38
485.99	637.38
486.209	624.38
486.427	637.38
486.645	646.38
486.863	641.38
487.081	680.38
487.299	651.38
487.517	646.38
487.735	638.38
487.953	620.38
488.171	678.38
488.389	664.38
488.607	662.38
488.825	654.38
489.043	649.38
489.261	660.38
489.479	661.38
489.696	644.38
489.914	651.38
490.132	653.38
490.35	704.38
490.568	697.38
490.786	708.38
491.003	717.38
491.221	719.38
491.439	710.38
491.657	743.38
491.874	734.38
492.092	758.38
492.31	759.38
492.527	775.38
492.745	749.38
492.963	759.38
493.18	797.38
493.398	761.38
493.615	763.38
493.833	800.38
494.05	771.38
494.268	785.38
494.485	767.38
494.703	755.38
494.92	765.38
495.138	752.38
495.355	758.38
495.573	769.38
495.79	807.38
496.008	779.38
496.225	751.38
496.442	771.38
496.66	772.38
496.877	804.38
497.094	785.38
497.312	769.38
497.529	802.38
497.746	811.38
497.963	820.38
498.181	825.38
498.398	864.38
498.615	892.38
498.832	905.38
499.049	918.38
499.267	979.38
499.484	1004.38
499.701	1057.38
499.918	1086.38
500.135	1155.38
500.352	1193.38
500.569	1215.38
500.786	1232.38
501.003	1225.38
501.22	1149.38
501.437	1083.38
501.654	1080.38
