Data from 1975.PennyLincolnUp.Lamp.En5.5.200Scan.071719.P1.Changed Mount._HRD10591_15-57-26-858.txt Node
Date: Thu Jul 18 15:57:26 EDT 2019
User: cochatt
Spectrometer: HR+D1059
Trigger mode: 1
Integration Time (sec): 1.000000E-1
Scans to average: 1
Electric dark correction enabled: true
Nonlinearity correction enabled: false
Boxcar width: 0
XAxis mode: Wavelengths
Number of Pixels in Spectrum: 2048
>>>>>Begin Spectral Data<<<<<
223.165	-20.38
223.4	-20.38
223.635	-20.38
223.869	-19.38
224.104	-8.38
224.338	-17.38
224.573	-24.38
224.808	-5.38
225.042	-7.38
225.277	-11.38
225.511	-5.38
225.746	3.62
225.98	10.62
226.215	-11.38
226.449	18.62
226.683	38.62
226.918	21.62
227.152	37.62
227.387	38.62
227.621	38.62
227.856	30.62
228.09	55.62
228.324	50.62
228.559	54.62
228.793	75.62
229.027	106.62
229.262	110.62
229.496	125.62
229.73	126.62
229.964	149.62
230.199	135.62
230.433	115.62
230.667	109.62
230.901	110.62
231.136	115.62
231.37	123.62
231.604	114.62
231.838	118.62
232.072	122.62
232.306	106.62
232.541	109.62
232.775	119.62
233.009	124.62
233.243	116.62
233.477	126.62
233.711	108.62
233.945	137.62
234.179	118.62
234.413	118.62
234.647	125.62
234.881	125.62
235.115	125.62
235.349	119.62
235.583	127.62
235.817	136.62
236.051	126.62
236.285	150.62
236.519	123.62
236.753	129.62
236.987	146.62
237.221	178.62
237.455	230.62
237.689	186.62
237.922	135.62
238.156	136.62
238.39	143.62
238.624	127.62
238.858	118.62
239.091	119.62
239.325	118.62
239.559	123.62
239.793	132.62
240.027	144.62
240.26	154.62
240.494	154.62
240.728	153.62
240.961	154.62
241.195	150.62
241.429	140.62
241.662	132.62
241.896	141.62
242.13	123.62
242.363	136.62
242.597	147.62
242.83	141.62
243.064	150.62
243.298	136.62
243.531	141.62
243.765	153.62
243.998	153.62
244.232	152.62
244.465	137.62
244.699	150.62
244.932	142.62
245.166	169.62
245.399	149.62
245.633	150.62
245.866	141.62
246.099	142.62
246.333	142.62
246.566	134.62
246.8	144.62
247.033	143.62
247.266	164.62
247.5	170.62
247.733	176.62
247.966	174.62
248.2	176.62
248.433	187.62
248.666	169.62
248.899	177.62
249.133	212.62
249.366	204.62
249.599	199.62
249.832	191.62
250.066	179.62
250.299	191.62
250.532	199.62
250.765	201.62
250.998	230.62
251.231	219.62
251.465	216.62
251.698	207.62
251.931	217.62
252.164	201.62
252.397	207.62
252.63	219.62
252.863	214.62
253.096	215.62
253.329	216.62
253.562	220.62
253.795	229.62
254.028	212.62
254.261	226.62
254.494	227.62
254.727	265.62
254.96	286.62
255.193	278.62
255.426	246.62
255.659	236.62
255.892	231.62
256.124	239.62
256.357	264.62
256.59	243.62
256.823	230.62
257.056	217.62
257.289	224.62
257.521	214.62
257.754	209.62
257.987	213.62
258.22	206.62
258.452	206.62
258.685	222.62
258.918	232.62
259.151	223.62
259.383	218.62
259.616	226.62
259.849	227.62
260.081	246.62
260.314	267.62
260.547	246.62
260.779	244.62
261.012	237.62
261.244	239.62
261.477	244.62
261.71	221.62
261.942	235.62
262.175	234.62
262.407	237.62
262.64	219.62
262.872	213.62
263.105	218.62
263.337	215.62
263.57	234.62
263.802	227.62
264.035	230.62
264.267	223.62
264.499	218.62
264.732	212.62
264.964	232.62
265.197	205.62
265.429	223.62
265.661	219.62
265.894	221.62
266.126	223.62
266.358	212.62
266.591	233.62
266.823	231.62
267.055	225.62
267.287	231.62
267.52	237.62
267.752	232.62
267.984	242.62
268.216	226.62
268.448	236.62
268.681	241.62
268.913	262.62
269.145	276.62
269.377	272.62
269.609	275.62
269.841	267.62
270.073	282.62
270.306	292.62
270.538	326.62
270.77	317.62
271.002	307.62
271.234	281.62
271.466	284.62
271.698	308.62
271.93	311.62
272.162	308.62
272.394	326.62
272.626	309.62
272.858	288.62
273.09	289.62
273.322	283.62
273.553	279.62
273.785	284.62
274.017	267.62
274.249	275.62
274.481	260.62
274.713	283.62
274.945	262.62
275.176	282.62
275.408	270.62
275.64	274.62
275.872	286.62
276.104	278.62
276.335	271.62
276.567	287.62
276.799	292.62
277.031	308.62
277.262	298.62
277.494	332.62
277.726	327.62
277.957	292.62
278.189	291.62
278.421	299.62
278.652	290.62
278.884	275.62
279.115	278.62
279.347	287.62
279.579	280.62
279.81	287.62
280.042	277.62
280.273	273.62
280.505	289.62
280.736	268.62
280.968	274.62
281.199	269.62
281.431	306.62
281.662	302.62
281.894	282.62
282.125	303.62
282.356	307.62
282.588	312.62
282.819	301.62
283.051	292.62
283.282	284.62
283.513	294.62
283.745	294.62
283.976	295.62
284.207	297.62
284.439	295.62
284.67	290.62
284.901	299.62
285.132	277.62
285.364	284.62
285.595	302.62
285.826	300.62
286.057	301.62
286.288	298.62
286.52	298.62
286.751	285.62
286.982	295.62
287.213	289.62
287.444	287.62
287.675	292.62
287.906	290.62
288.138	304.62
288.369	328.62
288.6	317.62
288.831	323.62
289.062	306.62
289.293	326.62
289.524	300.62
289.755	296.62
289.986	308.62
290.217	302.62
290.448	310.62
290.679	308.62
290.91	326.62
291.141	303.62
291.371	311.62
291.602	308.62
291.833	307.62
292.064	313.62
292.295	308.62
292.526	327.62
292.757	319.62
292.987	312.62
293.218	299.62
293.449	302.62
293.68	304.62
293.91	301.62
294.141	309.62
294.372	308.62
294.603	313.62
294.833	308.62
295.064	314.62
295.295	310.62
295.525	299.62
295.756	316.62
295.987	336.62
296.217	349.62
296.448	364.62
296.679	338.62
296.909	310.62
297.14	323.62
297.37	321.62
297.601	332.62
297.831	329.62
298.062	314.62
298.292	318.62
298.523	339.62
298.753	322.62
298.984	323.62
299.214	338.62
299.445	322.62
299.675	336.62
299.905	319.62
300.136	342.62
300.366	328.62
300.597	331.62
300.827	341.62
301.057	324.62
301.288	318.62
301.518	343.62
301.748	336.62
301.979	359.62
302.209	350.62
302.439	336.62
302.669	366.62
302.9	331.62
303.13	345.62
303.36	337.62
303.59	339.62
303.82	356.62
304.051	370.62
304.281	359.62
304.511	355.62
304.741	360.62
304.971	357.62
305.201	355.62
305.431	340.62
305.661	358.62
305.891	355.62
306.121	333.62
306.352	356.62
306.582	375.62
306.812	334.62
307.042	373.62
307.272	360.62
307.502	348.62
307.731	356.62
307.961	362.62
308.191	364.62
308.421	339.62
308.651	343.62
308.881	350.62
309.111	347.62
309.341	365.62
309.571	378.62
309.8	363.62
310.03	365.62
310.26	368.62
310.49	379.62
310.72	394.62
310.949	388.62
311.179	389.62
311.409	386.62
311.639	389.62
311.868	374.62
312.098	378.62
312.328	399.62
312.557	391.62
312.787	404.62
313.017	398.62
313.246	372.62
313.476	370.62
313.706	397.62
313.935	404.62
314.165	399.62
314.394	404.62
314.624	406.62
314.853	394.62
315.083	388.62
315.312	389.62
315.542	379.62
315.771	380.62
316.001	379.62
316.23	364.62
316.46	381.62
316.689	377.62
316.919	378.62
317.148	408.62
317.377	406.62
317.607	390.62
317.836	389.62
318.065	394.62
318.295	394.62
318.524	401.62
318.753	382.62
318.983	384.62
319.212	372.62
319.441	415.62
319.67	390.62
319.9	398.62
320.129	396.62
320.358	396.62
320.587	402.62
320.816	393.62
321.046	411.62
321.275	403.62
321.504	405.62
321.733	410.62
321.962	420.62
322.191	413.62
322.42	443.62
322.649	415.62
322.878	443.62
323.108	422.62
323.337	478.62
323.566	469.62
323.795	497.62
324.024	506.62
324.253	587.62
324.482	827.62
324.71	1243.62
324.939	1839.62
325.168	1646.62
325.397	851.62
325.626	598.62
325.855	536.62
326.084	499.62
326.313	469.62
326.542	468.62
326.77	513.62
326.999	579.62
327.228	759.62
327.457	1141.62
327.686	1431.62
327.914	976.62
328.143	636.62
328.372	580.62
328.6	568.62
328.829	524.62
329.058	539.62
329.287	540.62
329.515	524.62
329.744	496.62
329.972	502.62
330.201	529.62
330.43	556.62
330.658	559.62
330.887	551.62
331.115	565.62
331.344	526.62
331.572	488.62
331.801	477.62
332.03	494.62
332.258	484.62
332.486	472.62
332.715	469.62
332.943	461.62
333.172	478.62
333.4	464.62
333.629	501.62
333.857	495.62
334.085	514.62
334.314	551.62
334.542	568.62
334.771	566.62
334.999	544.62
335.227	496.62
335.455	493.62
335.684	487.62
335.912	457.62
336.14	464.62
336.369	461.62
336.597	482.62
336.825	481.62
337.053	484.62
337.281	453.62
337.51	447.62
337.738	468.62
337.966	456.62
338.194	447.62
338.422	450.62
338.65	454.62
338.878	453.62
339.106	454.62
339.334	443.62
339.562	455.62
339.79	458.62
340.018	452.62
340.246	440.62
340.474	456.62
340.702	447.62
340.93	463.62
341.158	459.62
341.386	450.62
341.614	446.62
341.842	436.62
342.07	442.62
342.298	437.62
342.526	441.62
342.754	430.62
342.981	440.62
343.209	457.62
343.437	423.62
343.665	461.62
343.893	481.62
344.12	442.62
344.348	469.62
344.576	468.62
344.804	477.62
345.031	480.62
345.259	465.62
345.487	475.62
345.714	441.62
345.942	448.62
346.17	457.62
346.397	442.62
346.625	436.62
346.853	439.62
347.08	431.62
347.308	428.62
347.535	443.62
347.763	429.62
347.99	448.62
348.218	458.62
348.445	470.62
348.673	436.62
348.9	437.62
349.128	423.62
349.355	427.62
349.583	410.62
349.81	420.62
350.037	441.62
350.265	429.62
350.492	415.62
350.72	427.62
350.947	431.62
351.174	422.62
351.402	440.62
351.629	452.62
351.856	418.62
352.083	429.62
352.311	431.62
352.538	439.62
352.765	456.62
352.992	414.62
353.22	445.62
353.447	429.62
353.674	420.62
353.901	400.62
354.128	423.62
354.355	396.62
354.583	407.62
354.81	408.62
355.037	427.62
355.264	416.62
355.491	395.62
355.718	417.62
355.945	399.62
356.172	416.62
356.399	426.62
356.626	415.62
356.853	398.62
357.08	396.62
357.307	404.62
357.534	411.62
357.761	386.62
357.988	400.62
358.215	410.62
358.441	413.62
358.668	416.62
358.895	413.62
359.122	407.62
359.349	424.62
359.576	405.62
359.802	448.62
360.029	458.62
360.256	478.62
360.483	454.62
360.709	416.62
360.936	438.62
361.163	438.62
361.39	424.62
361.616	432.62
361.843	454.62
362.07	438.62
362.296	432.62
362.523	434.62
362.749	406.62
362.976	416.62
363.203	423.62
363.429	423.62
363.656	435.62
363.882	423.62
364.109	436.62
364.335	429.62
364.562	416.62
364.788	399.62
365.015	438.62
365.241	438.62
365.468	424.62
365.694	400.62
365.92	423.62
366.147	437.62
366.373	414.62
366.599	420.62
366.826	406.62
367.052	431.62
367.278	434.62
367.505	424.62
367.731	428.62
367.957	452.62
368.184	424.62
368.41	419.62
368.636	447.62
368.862	447.62
369.089	434.62
369.315	429.62
369.541	425.62
369.767	430.62
369.993	414.62
370.219	430.62
370.445	431.62
370.672	427.62
370.898	459.62
371.124	445.62
371.35	432.62
371.576	440.62
371.802	436.62
372.028	439.62
372.254	419.62
372.48	435.62
372.706	425.62
372.932	423.62
373.158	428.62
373.384	440.62
373.61	420.62
373.835	429.62
374.061	423.62
374.287	453.62
374.513	443.62
374.739	429.62
374.965	445.62
375.191	446.62
375.416	446.62
375.642	430.62
375.868	439.62
376.094	430.62
376.319	428.62
376.545	420.62
376.771	443.62
376.997	429.62
377.222	440.62
377.448	429.62
377.674	424.62
377.899	424.62
378.125	425.62
378.35	427.62
378.576	424.62
378.802	439.62
379.027	403.62
379.253	412.62
379.478	428.62
379.704	440.62
379.929	434.62
380.155	443.62
380.38	406.62
380.606	440.62
380.831	420.62
381.057	444.62
381.282	449.62
381.507	440.62
381.733	430.62
381.958	439.62
382.184	429.62
382.409	430.62
382.634	432.62
382.86	440.62
383.085	453.62
383.31	439.62
383.535	454.62
383.761	455.62
383.986	458.62
384.211	448.62
384.436	438.62
384.662	449.62
384.887	458.62
385.112	473.62
385.337	475.62
385.562	497.62
385.787	472.62
386.013	505.62
386.238	502.62
386.463	485.62
386.688	475.62
386.913	486.62
387.138	479.62
387.363	479.62
387.588	487.62
387.813	490.62
388.038	484.62
388.263	506.62
388.488	474.62
388.713	486.62
388.938	480.62
389.163	469.62
389.387	468.62
389.612	478.62
389.837	455.62
390.062	462.62
390.287	480.62
390.512	491.62
390.736	486.62
390.961	504.62
391.186	504.62
391.411	488.62
391.636	492.62
391.86	520.62
392.085	479.62
392.31	496.62
392.534	505.62
392.759	502.62
392.984	501.62
393.208	499.62
393.433	490.62
393.658	479.62
393.882	496.62
394.107	488.62
394.331	502.62
394.556	489.62
394.78	498.62
395.005	498.62
395.229	504.62
395.454	502.62
395.678	512.62
395.903	525.62
396.127	534.62
396.352	531.62
396.576	504.62
396.801	486.62
397.025	498.62
397.249	500.62
397.474	520.62
397.698	539.62
397.922	556.62
398.147	541.62
398.371	554.62
398.595	546.62
398.82	564.62
399.044	586.62
399.268	606.62
399.492	658.62
399.717	711.62
399.941	692.62
400.165	723.62
400.389	724.62
400.613	649.62
400.837	624.62
401.062	607.62
401.286	573.62
401.51	560.62
401.734	584.62
401.958	585.62
402.182	572.62
402.406	592.62
402.63	574.62
402.854	588.62
403.078	582.62
403.302	590.62
403.526	596.62
403.75	594.62
403.974	574.62
404.198	574.62
404.422	599.62
404.645	631.62
404.869	614.62
405.093	650.62
405.317	679.62
405.541	710.62
405.765	659.62
405.988	630.62
406.212	636.62
406.436	646.62
406.66	644.62
406.883	648.62
407.107	656.62
407.331	702.62
407.555	772.62
407.778	784.62
408.002	726.62
408.226	648.62
408.449	646.62
408.673	647.62
408.896	679.62
409.12	706.62
409.344	678.62
409.567	618.62
409.791	611.62
410.014	586.62
410.238	584.62
410.461	575.62
410.685	607.62
410.908	606.62
411.132	622.62
411.355	677.62
411.578	655.62
411.802	597.62
412.025	578.62
412.249	613.62
412.472	613.62
412.695	688.62
412.919	651.62
413.142	598.62
413.365	572.62
413.589	566.62
413.812	529.62
414.035	549.62
414.258	571.62
414.482	564.62
414.705	564.62
414.928	564.62
415.151	547.62
415.374	577.62
415.597	555.62
415.821	555.62
416.044	555.62
416.267	545.62
416.49	568.62
416.713	554.62
416.936	555.62
417.159	578.62
417.382	571.62
417.605	568.62
417.828	560.62
418.051	586.62
418.274	559.62
418.497	568.62
418.72	573.62
418.943	558.62
419.166	586.62
419.389	612.62
419.611	600.62
419.834	603.62
420.057	589.62
420.28	600.62
420.503	594.62
420.726	590.62
420.948	592.62
421.171	616.62
421.394	675.62
421.617	620.62
421.839	575.62
422.062	582.62
422.285	574.62
422.507	646.62
422.73	706.62
422.953	692.62
423.175	608.62
423.398	605.62
423.621	623.62
423.843	628.62
424.066	640.62
424.288	648.62
424.511	613.62
424.733	669.62
424.956	759.62
425.178	725.62
425.401	735.62
425.623	754.62
425.846	647.62
426.068	617.62
426.291	622.62
426.513	623.62
426.735	609.62
426.958	639.62
427.18	718.62
427.402	855.62
427.625	953.62
427.847	824.62
428.069	697.62
428.292	637.62
428.514	603.62
428.736	583.62
428.958	566.62
429.181	533.62
429.403	567.62
429.625	553.62
429.847	606.62
430.069	655.62
430.292	644.62
430.514	568.62
430.736	578.62
430.958	568.62
431.18	544.62
431.402	528.62
431.624	528.62
431.846	547.62
432.068	525.62
432.29	520.62
432.512	546.62
432.734	540.62
432.956	549.62
433.178	546.62
433.4	552.62
433.622	549.62
433.844	558.62
434.066	520.62
434.287	548.62
434.509	562.62
434.731	541.62
434.953	578.62
435.175	597.62
435.397	610.62
435.618	620.62
435.84	652.62
436.062	722.62
436.284	808.62
436.505	679.62
436.727	596.62
436.949	575.62
437.17	578.62
437.392	566.62
437.614	556.62
437.835	590.62
438.057	680.62
438.278	791.62
438.5	789.62
438.721	845.62
438.943	835.62
439.165	660.62
439.386	610.62
439.608	607.62
439.829	621.62
440.05	626.62
440.272	686.62
440.493	626.62
440.715	599.62
440.936	564.62
441.158	565.62
441.379	561.62
441.6	573.62
441.822	619.62
442.043	667.62
442.264	720.62
442.486	770.62
442.707	671.62
442.928	623.62
443.149	628.62
443.371	668.62
443.592	692.62
443.813	804.62
444.034	863.62
444.255	710.62
444.476	642.62
444.698	626.62
444.919	613.62
445.14	756.62
445.361	683.62
445.582	671.62
445.803	690.62
446.024	796.62
446.245	816.62
446.466	769.62
446.687	634.62
446.908	602.62
447.129	551.62
447.35	574.62
447.571	564.62
447.792	549.62
448.013	544.62
448.234	551.62
448.455	620.62
448.675	718.62
448.896	854.62
449.117	712.62
449.338	696.62
449.559	799.62
449.779	922.62
450	734.62
450.221	610.62
450.442	551.62
450.662	547.62
450.883	538.62
451.104	548.62
451.324	517.62
451.545	512.62
451.766	523.62
451.986	491.62
452.207	474.62
452.428	500.62
452.648	494.62
452.869	497.62
453.089	509.62
453.31	514.62
453.53	502.62
453.751	479.62
453.971	493.62
454.192	492.62
454.412	506.62
454.633	494.62
454.853	495.62
455.073	488.62
455.294	518.62
455.514	582.62
455.734	544.62
455.955	502.62
456.175	476.62
456.395	461.62
456.616	457.62
456.836	474.62
457.056	475.62
457.276	461.62
457.497	482.62
457.717	467.62
457.937	495.62
458.157	487.62
458.377	513.62
458.598	509.62
458.818	551.62
459.038	641.62
459.258	649.62
459.478	570.62
459.698	551.62
459.918	540.62
460.138	547.62
460.358	568.62
460.578	562.62
460.798	582.62
461.018	581.62
461.238	574.62
461.458	549.62
461.678	562.62
461.898	589.62
462.118	562.62
462.338	587.62
462.558	605.62
462.777	591.62
462.997	629.62
463.217	616.62
463.437	636.62
463.657	613.62
463.876	590.62
464.096	612.62
464.316	609.62
464.536	614.62
464.755	620.62
464.975	608.62
465.195	606.62
465.414	667.62
465.634	612.62
465.854	575.62
466.073	560.62
466.293	538.62
466.512	516.62
466.732	520.62
466.951	511.62
467.171	516.62
467.391	534.62
467.61	523.62
467.829	534.62
468.049	540.62
468.268	534.62
468.488	518.62
468.707	473.62
468.927	487.62
469.146	486.62
469.365	509.62
469.585	491.62
469.804	515.62
470.023	527.62
470.243	535.62
470.462	540.62
470.681	557.62
470.901	526.62
471.12	532.62
471.339	547.62
471.558	523.62
471.777	524.62
471.997	541.62
472.216	520.62
472.435	540.62
472.654	528.62
472.873	515.62
473.092	501.62
473.311	519.62
473.53	511.62
473.749	544.62
473.968	563.62
474.187	658.62
474.406	683.62
474.625	575.62
474.844	536.62
475.063	520.62
475.282	527.62
475.501	527.62
475.72	532.62
475.939	514.62
476.158	517.62
476.377	516.62
476.596	551.62
476.814	542.62
477.033	534.62
477.252	554.62
477.471	560.62
477.69	556.62
477.908	575.62
478.127	590.62
478.346	569.62
478.564	571.62
478.783	586.62
479.002	615.62
479.22	615.62
479.439	612.62
479.658	633.62
479.876	634.62
480.095	624.62
480.313	629.62
480.532	659.62
480.751	644.62
480.969	639.62
481.188	706.62
481.406	720.62
481.624	681.62
481.843	642.62
482.061	615.62
482.28	611.62
482.498	589.62
482.717	604.62
482.935	614.62
483.153	620.62
483.372	624.62
483.59	590.62
483.808	615.62
484.027	607.62
484.245	607.62
484.463	623.62
484.681	634.62
484.9	612.62
485.118	630.62
485.336	626.62
485.554	628.62
485.772	617.62
485.99	626.62
486.209	620.62
486.427	636.62
486.645	634.62
486.863	667.62
487.081	662.62
487.299	635.62
487.517	652.62
487.735	646.62
487.953	652.62
488.171	642.62
488.389	675.62
488.607	647.62
488.825	656.62
489.043	634.62
489.261	655.62
489.479	673.62
489.696	666.62
489.914	668.62
490.132	671.62
490.35	693.62
490.568	675.62
490.786	690.62
491.003	692.62
491.221	724.62
491.439	740.62
491.657	743.62
491.874	746.62
492.092	757.62
492.31	749.62
492.527	776.62
492.745	770.62
492.963	754.62
493.18	767.62
493.398	758.62
493.615	760.62
493.833	772.62
494.05	765.62
494.268	795.62
494.485	754.62
494.703	748.62
494.92	767.62
495.138	770.62
495.355	744.62
495.573	757.62
495.79	784.62
496.008	778.62
496.225	793.62
496.442	814.62
496.66	779.62
496.877	784.62
497.094	788.62
497.312	756.62
497.529	813.62
497.746	825.62
497.963	805.62
498.181	863.62
498.398	873.62
498.615	885.62
498.832	898.62
499.049	917.62
499.267	977.62
499.484	993.62
499.701	1065.62
499.918	1087.62
500.135	1142.62
500.352	1251.62
500.569	1284.62
500.786	1237.62
501.003	1207.62
501.22	1178.62
501.437	1133.62
501.654	1081.62
