Data from 1975.PennyLincolnUp.Lamp.En5.5.200Scan.071719.P1.Changed Mount._HRD10591_15-57-21-859.txt Node
Date: Thu Jul 18 15:57:21 EDT 2019
User: cochatt
Spectrometer: HR+D1059
Trigger mode: 1
Integration Time (sec): 1.000000E-1
Scans to average: 1
Electric dark correction enabled: true
Nonlinearity correction enabled: false
Boxcar width: 0
XAxis mode: Wavelengths
Number of Pixels in Spectrum: 2048
>>>>>Begin Spectral Data<<<<<
223.165	-11.69
223.4	-11.69
223.635	-11.69
223.869	-7.69
224.104	-20.69
224.338	-6.69
224.573	-5.69
224.808	-23.69
225.042	-9.69
225.277	-9.69
225.511	-15.69
225.746	2.31
225.98	4.31
226.215	13.31
226.449	13.31
226.683	13.31
226.918	35.31
227.152	29.31
227.387	36.31
227.621	47.31
227.856	50.31
228.09	43.31
228.324	57.31
228.559	58.31
228.793	51.31
229.027	98.31
229.262	103.31
229.496	120.31
229.73	126.31
229.964	144.31
230.199	134.31
230.433	125.31
230.667	114.31
230.901	107.31
231.136	111.31
231.37	124.31
231.604	119.31
231.838	123.31
232.072	115.31
232.306	117.31
232.541	106.31
232.775	122.31
233.009	129.31
233.243	112.31
233.477	111.31
233.711	118.31
233.945	132.31
234.179	115.31
234.413	122.31
234.647	121.31
234.881	129.31
235.115	131.31
235.349	123.31
235.583	131.31
235.817	128.31
236.051	139.31
236.285	132.31
236.519	133.31
236.753	138.31
236.987	139.31
237.221	183.31
237.455	234.31
237.689	199.31
237.922	156.31
238.156	138.31
238.39	139.31
238.624	123.31
238.858	148.31
239.091	134.31
239.325	135.31
239.559	135.31
239.793	141.31
240.027	141.31
240.26	140.31
240.494	167.31
240.728	171.31
240.961	160.31
241.195	150.31
241.429	152.31
241.662	140.31
241.896	148.31
242.13	143.31
242.363	131.31
242.597	147.31
242.83	147.31
243.064	148.31
243.298	150.31
243.531	138.31
243.765	144.31
243.998	157.31
244.232	153.31
244.465	152.31
244.699	167.31
244.932	144.31
245.166	151.31
245.399	168.31
245.633	159.31
245.866	152.31
246.099	164.31
246.333	157.31
246.566	163.31
246.8	151.31
247.033	172.31
247.266	170.31
247.5	167.31
247.733	162.31
247.966	162.31
248.2	172.31
248.433	170.31
248.666	193.31
248.899	202.31
249.133	199.31
249.366	204.31
249.599	230.31
249.832	201.31
250.066	186.31
250.299	186.31
250.532	203.31
250.765	204.31
250.998	228.31
251.231	229.31
251.465	212.31
251.698	206.31
251.931	216.31
252.164	193.31
252.397	217.31
252.63	219.31
252.863	207.31
253.096	212.31
253.329	222.31
253.562	224.31
253.795	225.31
254.028	238.31
254.261	234.31
254.494	222.31
254.727	260.31
254.96	288.31
255.193	267.31
255.426	254.31
255.659	242.31
255.892	235.31
256.124	236.31
256.357	248.31
256.59	236.31
256.823	225.31
257.056	222.31
257.289	228.31
257.521	221.31
257.754	213.31
257.987	233.31
258.22	205.31
258.452	200.31
258.685	223.31
258.918	219.31
259.151	224.31
259.383	218.31
259.616	234.31
259.849	238.31
260.081	257.31
260.314	271.31
260.547	276.31
260.779	261.31
261.012	254.31
261.244	237.31
261.477	238.31
261.71	234.31
261.942	220.31
262.175	231.31
262.407	230.31
262.64	220.31
262.872	239.31
263.105	243.31
263.337	229.31
263.57	231.31
263.802	232.31
264.035	233.31
264.267	224.31
264.499	228.31
264.732	225.31
264.964	243.31
265.197	228.31
265.429	221.31
265.661	207.31
265.894	248.31
266.126	226.31
266.358	234.31
266.591	239.31
266.823	241.31
267.055	241.31
267.287	247.31
267.52	234.31
267.752	240.31
267.984	246.31
268.216	243.31
268.448	250.31
268.681	250.31
268.913	261.31
269.145	267.31
269.377	289.31
269.609	284.31
269.841	300.31
270.073	286.31
270.306	284.31
270.538	322.31
270.77	312.31
271.002	305.31
271.234	302.31
271.466	287.31
271.698	300.31
271.93	334.31
272.162	324.31
272.394	325.31
272.626	300.31
272.858	298.31
273.09	299.31
273.322	274.31
273.553	282.31
273.785	272.31
274.017	277.31
274.249	266.31
274.481	271.31
274.713	272.31
274.945	285.31
275.176	271.31
275.408	305.31
275.64	303.31
275.872	283.31
276.104	278.31
276.335	282.31
276.567	289.31
276.799	290.31
277.031	308.31
277.262	332.31
277.494	322.31
277.726	292.31
277.957	282.31
278.189	279.31
278.421	292.31
278.652	273.31
278.884	281.31
279.115	291.31
279.347	295.31
279.579	256.31
279.81	273.31
280.042	286.31
280.273	272.31
280.505	276.31
280.736	282.31
280.968	281.31
281.199	297.31
281.431	285.31
281.662	293.31
281.894	264.31
282.125	270.31
282.356	310.31
282.588	332.31
282.819	314.31
283.051	300.31
283.282	283.31
283.513	282.31
283.745	313.31
283.976	299.31
284.207	276.31
284.439	303.31
284.67	316.31
284.901	301.31
285.132	286.31
285.364	305.31
285.595	303.31
285.826	291.31
286.057	299.31
286.288	310.31
286.52	322.31
286.751	300.31
286.982	310.31
287.213	293.31
287.444	319.31
287.675	318.31
287.906	303.31
288.138	318.31
288.369	311.31
288.6	321.31
288.831	312.31
289.062	318.31
289.293	307.31
289.524	310.31
289.755	305.31
289.986	322.31
290.217	306.31
290.448	313.31
290.679	306.31
290.91	319.31
291.141	295.31
291.371	294.31
291.602	298.31
291.833	312.31
292.064	318.31
292.295	313.31
292.526	330.31
292.757	305.31
292.987	308.31
293.218	321.31
293.449	328.31
293.68	327.31
293.91	321.31
294.141	322.31
294.372	301.31
294.603	322.31
294.833	310.31
295.064	314.31
295.295	321.31
295.525	306.31
295.756	330.31
295.987	319.31
296.217	343.31
296.448	346.31
296.679	341.31
296.909	327.31
297.14	299.31
297.37	324.31
297.601	317.31
297.831	319.31
298.062	301.31
298.292	326.31
298.523	333.31
298.753	331.31
298.984	330.31
299.214	324.31
299.445	327.31
299.675	324.31
299.905	354.31
300.136	331.31
300.366	326.31
300.597	338.31
300.827	361.31
301.057	355.31
301.288	347.31
301.518	327.31
301.748	349.31
301.979	349.31
302.209	345.31
302.439	340.31
302.669	346.31
302.9	331.31
303.13	342.31
303.36	359.31
303.59	359.31
303.82	365.31
304.051	359.31
304.281	353.31
304.511	339.31
304.741	328.31
304.971	359.31
305.201	358.31
305.431	337.31
305.661	370.31
305.891	368.31
306.121	337.31
306.352	342.31
306.582	354.31
306.812	347.31
307.042	337.31
307.272	351.31
307.502	332.31
307.731	349.31
307.961	347.31
308.191	367.31
308.421	353.31
308.651	352.31
308.881	356.31
309.111	367.31
309.341	352.31
309.571	359.31
309.8	386.31
310.03	363.31
310.26	394.31
310.49	383.31
310.72	406.31
310.949	396.31
311.179	394.31
311.409	389.31
311.639	403.31
311.868	384.31
312.098	388.31
312.328	399.31
312.557	404.31
312.787	396.31
313.017	423.31
313.246	396.31
313.476	369.31
313.706	390.31
313.935	390.31
314.165	415.31
314.394	402.31
314.624	392.31
314.853	375.31
315.083	384.31
315.312	385.31
315.542	374.31
315.771	375.31
316.001	387.31
316.23	384.31
316.46	380.31
316.689	381.31
316.919	396.31
317.148	416.31
317.377	394.31
317.607	402.31
317.836	388.31
318.065	387.31
318.295	391.31
318.524	382.31
318.753	400.31
318.983	378.31
319.212	380.31
319.441	416.31
319.67	412.31
319.9	386.31
320.129	395.31
320.358	396.31
320.587	386.31
320.816	399.31
321.046	399.31
321.275	414.31
321.504	396.31
321.733	407.31
321.962	435.31
322.191	428.31
322.42	432.31
322.649	423.31
322.878	459.31
323.108	446.31
323.337	468.31
323.566	479.31
323.795	494.31
324.024	535.31
324.253	632.31
324.482	859.31
324.71	1264.31
324.939	1866.31
325.168	1654.31
325.397	871.31
325.626	593.31
325.855	502.31
326.084	504.31
326.313	475.31
326.542	483.31
326.77	527.31
326.999	601.31
327.228	770.31
327.457	1157.31
327.686	1409.31
327.914	934.31
328.143	648.31
328.372	560.31
328.6	548.31
328.829	526.31
329.058	535.31
329.287	562.31
329.515	521.31
329.744	491.31
329.972	501.31
330.201	538.31
330.43	533.31
330.658	563.31
330.887	593.31
331.115	561.31
331.344	520.31
331.572	492.31
331.801	499.31
332.03	484.31
332.258	498.31
332.486	471.31
332.715	474.31
332.943	479.31
333.172	489.31
333.4	487.31
333.629	501.31
333.857	514.31
334.085	495.31
334.314	546.31
334.542	573.31
334.771	582.31
334.999	552.31
335.227	518.31
335.455	482.31
335.684	495.31
335.912	485.31
336.14	472.31
336.369	486.31
336.597	468.31
336.825	473.31
337.053	466.31
337.281	459.31
337.51	449.31
337.738	454.31
337.966	474.31
338.194	491.31
338.422	462.31
338.65	478.31
338.878	439.31
339.106	452.31
339.334	460.31
339.562	444.31
339.79	456.31
340.018	463.31
340.246	470.31
340.474	452.31
340.702	451.31
340.93	448.31
341.158	436.31
341.386	439.31
341.614	454.31
341.842	457.31
342.07	457.31
342.298	441.31
342.526	458.31
342.754	432.31
342.981	429.31
343.209	444.31
343.437	442.31
343.665	479.31
343.893	478.31
344.12	488.31
344.348	463.31
344.576	470.31
344.804	473.31
345.031	461.31
345.259	472.31
345.487	460.31
345.714	436.31
345.942	426.31
346.17	436.31
346.397	423.31
346.625	445.31
346.853	436.31
347.08	438.31
347.308	444.31
347.535	442.31
347.763	460.31
347.99	451.31
348.218	435.31
348.445	447.31
348.673	454.31
348.9	467.31
349.128	450.31
349.355	428.31
349.583	439.31
349.81	425.31
350.037	425.31
350.265	444.31
350.492	427.31
350.72	432.31
350.947	436.31
351.174	439.31
351.402	446.31
351.629	450.31
351.856	453.31
352.083	446.31
352.311	446.31
352.538	431.31
352.765	442.31
352.992	426.31
353.22	431.31
353.447	448.31
353.674	422.31
353.901	425.31
354.128	414.31
354.355	394.31
354.583	440.31
354.81	423.31
355.037	435.31
355.264	390.31
355.491	402.31
355.718	410.31
355.945	419.31
356.172	415.31
356.399	418.31
356.626	397.31
356.853	422.31
357.08	396.31
357.307	409.31
357.534	401.31
357.761	426.31
357.988	432.31
358.215	419.31
358.441	407.31
358.668	422.31
358.895	403.31
359.122	408.31
359.349	425.31
359.576	433.31
359.802	432.31
360.029	441.31
360.256	458.31
360.483	459.31
360.709	444.31
360.936	448.31
361.163	435.31
361.39	434.31
361.616	442.31
361.843	422.31
362.07	452.31
362.296	452.31
362.523	434.31
362.749	420.31
362.976	437.31
363.203	427.31
363.429	432.31
363.656	435.31
363.882	423.31
364.109	431.31
364.335	426.31
364.562	431.31
364.788	393.31
365.015	433.31
365.241	430.31
365.468	438.31
365.694	440.31
365.92	443.31
366.147	420.31
366.373	416.31
366.599	419.31
366.826	413.31
367.052	426.31
367.278	433.31
367.505	448.31
367.731	432.31
367.957	430.31
368.184	448.31
368.41	453.31
368.636	456.31
368.862	422.31
369.089	419.31
369.315	427.31
369.541	435.31
369.767	443.31
369.993	416.31
370.219	426.31
370.445	434.31
370.672	439.31
370.898	441.31
371.124	431.31
371.35	445.31
371.576	441.31
371.802	438.31
372.028	448.31
372.254	448.31
372.48	427.31
372.706	440.31
372.932	458.31
373.158	440.31
373.384	442.31
373.61	446.31
373.835	444.31
374.061	449.31
374.287	427.31
374.513	434.31
374.739	440.31
374.965	472.31
375.191	472.31
375.416	466.31
375.642	465.31
375.868	459.31
376.094	435.31
376.319	449.31
376.545	433.31
376.771	413.31
376.997	427.31
377.222	440.31
377.448	437.31
377.674	447.31
377.899	426.31
378.125	424.31
378.35	419.31
378.576	432.31
378.802	429.31
379.027	424.31
379.253	418.31
379.478	431.31
379.704	442.31
379.929	440.31
380.155	418.31
380.38	422.31
380.606	426.31
380.831	424.31
381.057	435.31
381.282	433.31
381.507	456.31
381.733	438.31
381.958	431.31
382.184	442.31
382.409	438.31
382.634	452.31
382.86	446.31
383.085	457.31
383.31	431.31
383.535	476.31
383.761	462.31
383.986	460.31
384.211	450.31
384.436	453.31
384.662	476.31
384.887	466.31
385.112	470.31
385.337	490.31
385.562	475.31
385.787	511.31
386.013	506.31
386.238	492.31
386.463	491.31
386.688	474.31
386.913	473.31
387.138	462.31
387.363	499.31
387.588	483.31
387.813	468.31
388.038	499.31
388.263	467.31
388.488	499.31
388.713	504.31
388.938	480.31
389.163	510.31
389.387	491.31
389.612	480.31
389.837	495.31
390.062	489.31
390.287	495.31
390.512	468.31
390.736	474.31
390.961	462.31
391.186	496.31
391.411	507.31
391.636	507.31
391.86	506.31
392.085	509.31
392.31	491.31
392.534	493.31
392.759	510.31
392.984	510.31
393.208	521.31
393.433	488.31
393.658	508.31
393.882	479.31
394.107	490.31
394.331	514.31
394.556	491.31
394.78	510.31
395.005	510.31
395.229	492.31
395.454	503.31
395.678	499.31
395.903	554.31
396.127	520.31
396.352	529.31
396.576	493.31
396.801	508.31
397.025	526.31
397.249	526.31
397.474	522.31
397.698	536.31
397.922	536.31
398.147	534.31
398.371	554.31
398.595	536.31
398.82	576.31
399.044	596.31
399.268	587.31
399.492	630.31
399.717	680.31
399.941	706.31
400.165	734.31
400.389	704.31
400.613	654.31
400.837	604.31
401.062	574.31
401.286	559.31
401.51	572.31
401.734	561.31
401.958	580.31
402.182	585.31
402.406	594.31
402.63	584.31
402.854	588.31
403.078	588.31
403.302	593.31
403.526	597.31
403.75	593.31
403.974	589.31
404.198	591.31
404.422	607.31
404.645	610.31
404.869	603.31
405.093	654.31
405.317	678.31
405.541	729.31
405.765	646.31
405.988	611.31
406.212	609.31
406.436	627.31
406.66	635.31
406.883	654.31
407.107	668.31
407.331	711.31
407.555	790.31
407.778	780.31
408.002	723.31
408.226	652.31
408.449	644.31
408.673	639.31
408.896	673.31
409.12	712.31
409.344	687.31
409.567	612.31
409.791	608.31
410.014	627.31
410.238	594.31
410.461	586.31
410.685	562.31
410.908	607.31
411.132	649.31
411.355	682.31
411.578	633.31
411.802	607.31
412.025	598.31
412.249	595.31
412.472	636.31
412.695	666.31
412.919	639.31
413.142	609.31
413.365	600.31
413.589	600.31
413.812	580.31
414.035	539.31
414.258	547.31
414.482	570.31
414.705	572.31
414.928	576.31
415.151	568.31
415.374	551.31
415.597	551.31
415.821	570.31
416.044	564.31
416.267	567.31
416.49	541.31
416.713	572.31
416.936	558.31
417.159	541.31
417.382	570.31
417.605	584.31
417.828	581.31
418.051	594.31
418.274	589.31
418.497	572.31
418.72	565.31
418.943	553.31
419.166	580.31
419.389	617.31
419.611	613.31
419.834	603.31
420.057	609.31
420.28	601.31
420.503	578.31
420.726	598.31
420.948	608.31
421.171	628.31
421.394	674.31
421.617	607.31
421.839	588.31
422.062	576.31
422.285	580.31
422.507	651.31
422.73	738.31
422.953	699.31
423.175	624.31
423.398	619.31
423.621	640.31
423.843	627.31
424.066	625.31
424.288	611.31
424.511	631.31
424.733	692.31
424.956	795.31
425.178	742.31
425.401	739.31
425.623	763.31
425.846	658.31
426.068	617.31
426.291	609.31
426.513	586.31
426.735	632.31
426.958	656.31
427.18	744.31
427.402	870.31
427.625	956.31
427.847	802.31
428.069	697.31
428.292	668.31
428.514	603.31
428.736	593.31
428.958	569.31
429.181	567.31
429.403	559.31
429.625	570.31
429.847	627.31
430.069	706.31
430.292	676.31
430.514	591.31
430.736	568.31
430.958	567.31
431.18	547.31
431.402	571.31
431.624	526.31
431.846	538.31
432.068	538.31
432.29	539.31
432.512	528.31
432.734	566.31
432.956	539.31
433.178	547.31
433.4	546.31
433.622	541.31
433.844	542.31
434.066	570.31
434.287	536.31
434.509	547.31
434.731	554.31
434.953	586.31
435.175	600.31
435.397	625.31
435.618	642.31
435.84	643.31
436.062	758.31
436.284	804.31
436.505	687.31
436.727	614.31
436.949	585.31
437.17	576.31
437.392	562.31
437.614	585.31
437.835	584.31
438.057	683.31
438.278	776.31
438.5	787.31
438.721	896.31
438.943	843.31
439.165	666.31
439.386	614.31
439.608	592.31
439.829	600.31
440.05	640.31
440.272	688.31
440.493	642.31
440.715	594.31
440.936	575.31
441.158	578.31
441.379	590.31
441.6	607.31
441.822	609.31
442.043	648.31
442.264	740.31
442.486	795.31
442.707	665.31
442.928	638.31
443.149	631.31
443.371	627.31
443.592	697.31
443.813	770.31
444.034	858.31
444.255	733.31
444.476	644.31
444.698	620.31
444.919	659.31
445.14	776.31
445.361	715.31
445.582	642.31
445.803	731.31
446.024	811.31
446.245	796.31
446.466	742.31
446.687	651.31
446.908	643.31
447.129	579.31
447.35	583.31
447.571	552.31
447.792	547.31
448.013	574.31
448.234	587.31
448.455	610.31
448.675	766.31
448.896	870.31
449.117	726.31
449.338	655.31
449.559	798.31
449.779	929.31
450	713.31
450.221	606.31
450.442	542.31
450.662	536.31
450.883	516.31
451.104	574.31
451.324	540.31
451.545	531.31
451.766	520.31
451.986	496.31
452.207	495.31
452.428	516.31
452.648	511.31
452.869	495.31
453.089	523.31
453.31	535.31
453.53	516.31
453.751	496.31
453.971	510.31
454.192	526.31
454.412	502.31
454.633	480.31
454.853	483.31
455.073	520.31
455.294	520.31
455.514	592.31
455.734	566.31
455.955	507.31
456.175	475.31
456.395	472.31
456.616	486.31
456.836	487.31
457.056	474.31
457.276	472.31
457.497	460.31
457.717	470.31
457.937	468.31
458.157	497.31
458.377	510.31
458.598	512.31
458.818	548.31
459.038	625.31
459.258	679.31
459.478	577.31
459.698	544.31
459.918	544.31
460.138	533.31
460.358	570.31
460.578	555.31
460.798	567.31
461.018	597.31
461.238	540.31
461.458	574.31
461.678	558.31
461.898	583.31
462.118	578.31
462.338	572.31
462.558	581.31
462.777	621.31
462.997	609.31
463.217	632.31
463.437	660.31
463.657	630.31
463.876	608.31
464.096	608.31
464.316	613.31
464.536	596.31
464.755	592.31
464.975	622.31
465.195	619.31
465.414	645.31
465.634	600.31
465.854	562.31
466.073	567.31
466.293	547.31
466.512	539.31
466.732	520.31
466.951	514.31
467.171	524.31
467.391	523.31
467.61	523.31
467.829	542.31
468.049	524.31
468.268	527.31
468.488	487.31
468.707	515.31
468.927	509.31
469.146	513.31
469.365	511.31
469.585	512.31
469.804	524.31
470.023	544.31
470.243	527.31
470.462	536.31
470.681	522.31
470.901	549.31
471.12	520.31
471.339	525.31
471.558	519.31
471.777	537.31
471.997	530.31
472.216	526.31
472.435	559.31
472.654	541.31
472.873	520.31
473.092	528.31
473.311	520.31
473.53	519.31
473.749	530.31
473.968	549.31
474.187	649.31
474.406	682.31
474.625	587.31
474.844	526.31
475.063	541.31
475.282	532.31
475.501	528.31
475.72	545.31
475.939	526.31
476.158	547.31
476.377	556.31
476.596	516.31
476.814	539.31
477.033	542.31
477.252	547.31
477.471	573.31
477.69	570.31
477.908	572.31
478.127	576.31
478.346	609.31
478.564	594.31
478.783	602.31
479.002	600.31
479.22	620.31
479.439	622.31
479.658	633.31
479.876	632.31
480.095	640.31
480.313	678.31
480.532	679.31
480.751	642.31
480.969	675.31
481.188	683.31
481.406	723.31
481.624	674.31
481.843	634.31
482.061	622.31
482.28	614.31
482.498	616.31
482.717	612.31
482.935	606.31
483.153	611.31
483.372	620.31
483.59	607.31
483.808	616.31
484.027	610.31
484.245	616.31
484.463	609.31
484.681	618.31
484.9	621.31
485.118	623.31
485.336	621.31
485.554	629.31
485.772	634.31
485.99	641.31
486.209	644.31
486.427	652.31
486.645	646.31
486.863	668.31
487.081	659.31
487.299	647.31
487.517	661.31
487.735	682.31
487.953	650.31
488.171	670.31
488.389	668.31
488.607	667.31
488.825	672.31
489.043	650.31
489.261	676.31
489.479	678.31
489.696	696.31
489.914	664.31
490.132	667.31
490.35	680.31
490.568	689.31
490.786	690.31
491.003	709.31
491.221	721.31
491.439	750.31
491.657	755.31
491.874	744.31
492.092	780.31
492.31	746.31
492.527	763.31
492.745	776.31
492.963	784.31
493.18	757.31
493.398	778.31
493.615	778.31
493.833	775.31
494.05	784.31
494.268	774.31
494.485	777.31
494.703	779.31
494.92	760.31
495.138	780.31
495.355	772.31
495.573	765.31
495.79	764.31
496.008	791.31
496.225	807.31
496.442	779.31
496.66	793.31
496.877	787.31
497.094	791.31
497.312	801.31
497.529	802.31
497.746	815.31
497.963	834.31
498.181	846.31
498.398	870.31
498.615	864.31
498.832	896.31
499.049	923.31
499.267	958.31
499.484	1009.31
499.701	1054.31
499.918	1084.31
500.135	1164.31
500.352	1215.31
500.569	1256.31
500.786	1250.31
501.003	1232.31
501.22	1175.31
501.437	1144.31
501.654	1056.31
