Data from 1975.PennyLincolnUp.Lamp.En5.5.200Scan.071719.P1.Changed Mount._HRD10591_15-57-46-859.txt Node
Date: Thu Jul 18 15:57:46 EDT 2019
User: cochatt
Spectrometer: HR+D1059
Trigger mode: 1
Integration Time (sec): 1.000000E-1
Scans to average: 1
Electric dark correction enabled: true
Nonlinearity correction enabled: false
Boxcar width: 0
XAxis mode: Wavelengths
Number of Pixels in Spectrum: 2048
>>>>>Begin Spectral Data<<<<<
223.165	-14.56
223.4	-14.56
223.635	-14.56
223.869	-18.56
224.104	-14.56
224.338	-11.56
224.573	-20.56
224.808	-10.56
225.042	-7.56
225.277	-5.56
225.511	5.44
225.746	5.44
225.98	8.44
226.215	-0.56
226.449	8.44
226.683	22.44
226.918	23.44
227.152	30.44
227.387	46.44
227.621	38.44
227.856	31.44
228.09	53.44
228.324	55.44
228.559	46.44
228.793	66.44
229.027	97.44
229.262	114.44
229.496	102.44
229.73	122.44
229.964	143.44
230.199	130.44
230.433	112.44
230.667	118.44
230.901	125.44
231.136	118.44
231.37	99.44
231.604	108.44
231.838	106.44
232.072	120.44
232.306	115.44
232.541	113.44
232.775	117.44
233.009	133.44
233.243	99.44
233.477	113.44
233.711	124.44
233.945	126.44
234.179	119.44
234.413	125.44
234.647	125.44
234.881	118.44
235.115	124.44
235.349	127.44
235.583	122.44
235.817	125.44
236.051	130.44
236.285	144.44
236.519	135.44
236.753	151.44
236.987	146.44
237.221	180.44
237.455	230.44
237.689	195.44
237.922	154.44
238.156	143.44
238.39	134.44
238.624	117.44
238.858	123.44
239.091	125.44
239.325	143.44
239.559	125.44
239.793	121.44
240.027	144.44
240.26	143.44
240.494	150.44
240.728	127.44
240.961	146.44
241.195	153.44
241.429	137.44
241.662	138.44
241.896	146.44
242.13	138.44
242.363	141.44
242.597	139.44
242.83	161.44
243.064	147.44
243.298	126.44
243.531	147.44
243.765	162.44
243.998	147.44
244.232	154.44
244.465	130.44
244.699	177.44
244.932	161.44
245.166	143.44
245.399	158.44
245.633	148.44
245.866	150.44
246.099	157.44
246.333	158.44
246.566	155.44
246.8	153.44
247.033	148.44
247.266	146.44
247.5	172.44
247.733	177.44
247.966	180.44
248.2	185.44
248.433	168.44
248.666	177.44
248.899	199.44
249.133	194.44
249.366	197.44
249.599	209.44
249.832	198.44
250.066	179.44
250.299	179.44
250.532	202.44
250.765	210.44
250.998	236.44
251.231	213.44
251.465	216.44
251.698	217.44
251.931	212.44
252.164	215.44
252.397	214.44
252.63	206.44
252.863	205.44
253.096	218.44
253.329	232.44
253.562	221.44
253.795	213.44
254.028	220.44
254.261	217.44
254.494	228.44
254.727	249.44
254.96	293.44
255.193	275.44
255.426	245.44
255.659	226.44
255.892	228.44
256.124	231.44
256.357	237.44
256.59	226.44
256.823	213.44
257.056	217.44
257.289	227.44
257.521	217.44
257.754	228.44
257.987	227.44
258.22	221.44
258.452	220.44
258.685	220.44
258.918	226.44
259.151	218.44
259.383	223.44
259.616	222.44
259.849	216.44
260.081	226.44
260.314	247.44
260.547	251.44
260.779	243.44
261.012	247.44
261.244	245.44
261.477	227.44
261.71	219.44
261.942	226.44
262.175	222.44
262.407	235.44
262.64	211.44
262.872	223.44
263.105	218.44
263.337	235.44
263.57	216.44
263.802	225.44
264.035	231.44
264.267	246.44
264.499	222.44
264.732	228.44
264.964	226.44
265.197	219.44
265.429	210.44
265.661	212.44
265.894	221.44
266.126	228.44
266.358	232.44
266.591	215.44
266.823	231.44
267.055	230.44
267.287	245.44
267.52	226.44
267.752	236.44
267.984	239.44
268.216	247.44
268.448	229.44
268.681	236.44
268.913	242.44
269.145	259.44
269.377	290.44
269.609	302.44
269.841	283.44
270.073	281.44
270.306	291.44
270.538	303.44
270.77	333.44
271.002	310.44
271.234	279.44
271.466	294.44
271.698	320.44
271.93	326.44
272.162	332.44
272.394	330.44
272.626	324.44
272.858	291.44
273.09	296.44
273.322	260.44
273.553	277.44
273.785	293.44
274.017	286.44
274.249	271.44
274.481	257.44
274.713	284.44
274.945	288.44
275.176	292.44
275.408	275.44
275.64	267.44
275.872	288.44
276.104	291.44
276.335	261.44
276.567	308.44
276.799	298.44
277.031	320.44
277.262	317.44
277.494	335.44
277.726	317.44
277.957	290.44
278.189	285.44
278.421	280.44
278.652	294.44
278.884	285.44
279.115	290.44
279.347	294.44
279.579	276.44
279.81	280.44
280.042	268.44
280.273	283.44
280.505	287.44
280.736	271.44
280.968	284.44
281.199	280.44
281.431	268.44
281.662	295.44
281.894	283.44
282.125	280.44
282.356	290.44
282.588	293.44
282.819	307.44
283.051	313.44
283.282	295.44
283.513	285.44
283.745	293.44
283.976	317.44
284.207	317.44
284.439	312.44
284.67	301.44
284.901	294.44
285.132	294.44
285.364	301.44
285.595	303.44
285.826	299.44
286.057	287.44
286.288	298.44
286.52	291.44
286.751	284.44
286.982	308.44
287.213	312.44
287.444	296.44
287.675	316.44
287.906	302.44
288.138	342.44
288.369	353.44
288.6	319.44
288.831	298.44
289.062	321.44
289.293	321.44
289.524	314.44
289.755	310.44
289.986	319.44
290.217	313.44
290.448	301.44
290.679	303.44
290.91	319.44
291.141	320.44
291.371	300.44
291.602	322.44
291.833	319.44
292.064	305.44
292.295	318.44
292.526	315.44
292.757	313.44
292.987	315.44
293.218	308.44
293.449	317.44
293.68	290.44
293.91	302.44
294.141	316.44
294.372	317.44
294.603	315.44
294.833	325.44
295.064	325.44
295.295	315.44
295.525	319.44
295.756	318.44
295.987	329.44
296.217	356.44
296.448	349.44
296.679	337.44
296.909	322.44
297.14	329.44
297.37	327.44
297.601	307.44
297.831	308.44
298.062	305.44
298.292	308.44
298.523	320.44
298.753	321.44
298.984	342.44
299.214	315.44
299.445	336.44
299.675	315.44
299.905	333.44
300.136	323.44
300.366	315.44
300.597	330.44
300.827	350.44
301.057	353.44
301.288	365.44
301.518	365.44
301.748	366.44
301.979	333.44
302.209	343.44
302.439	355.44
302.669	348.44
302.9	353.44
303.13	367.44
303.36	341.44
303.59	371.44
303.82	350.44
304.051	355.44
304.281	355.44
304.511	347.44
304.741	353.44
304.971	335.44
305.201	351.44
305.431	343.44
305.661	341.44
305.891	345.44
306.121	350.44
306.352	342.44
306.582	349.44
306.812	359.44
307.042	365.44
307.272	337.44
307.502	362.44
307.731	344.44
307.961	349.44
308.191	347.44
308.421	359.44
308.651	381.44
308.881	359.44
309.111	365.44
309.341	362.44
309.571	377.44
309.8	373.44
310.03	379.44
310.26	379.44
310.49	378.44
310.72	409.44
310.949	389.44
311.179	396.44
311.409	394.44
311.639	395.44
311.868	400.44
312.098	389.44
312.328	395.44
312.557	398.44
312.787	396.44
313.017	427.44
313.246	409.44
313.476	402.44
313.706	382.44
313.935	387.44
314.165	412.44
314.394	395.44
314.624	412.44
314.853	401.44
315.083	418.44
315.312	403.44
315.542	385.44
315.771	391.44
316.001	387.44
316.23	389.44
316.46	382.44
316.689	380.44
316.919	386.44
317.148	389.44
317.377	396.44
317.607	402.44
317.836	407.44
318.065	408.44
318.295	395.44
318.524	382.44
318.753	382.44
318.983	398.44
319.212	388.44
319.441	410.44
319.67	372.44
319.9	411.44
320.129	387.44
320.358	405.44
320.587	398.44
320.816	405.44
321.046	403.44
321.275	412.44
321.504	412.44
321.733	429.44
321.962	405.44
322.191	418.44
322.42	439.44
322.649	451.44
322.878	441.44
323.108	452.44
323.337	444.44
323.566	486.44
323.795	505.44
324.024	515.44
324.253	603.44
324.482	828.44
324.71	1291.44
324.939	1912.44
325.168	1669.44
325.397	861.44
325.626	612.44
325.855	530.44
326.084	484.44
326.313	495.44
326.542	487.44
326.77	541.44
326.999	604.44
327.228	767.44
327.457	1125.44
327.686	1457.44
327.914	971.44
328.143	661.44
328.372	594.44
328.6	550.44
328.829	530.44
329.058	543.44
329.287	540.44
329.515	535.44
329.744	519.44
329.972	516.44
330.201	530.44
330.43	572.44
330.658	565.44
330.887	579.44
331.115	578.44
331.344	522.44
331.572	504.44
331.801	484.44
332.03	487.44
332.258	471.44
332.486	489.44
332.715	477.44
332.943	471.44
333.172	475.44
333.4	497.44
333.629	491.44
333.857	526.44
334.085	520.44
334.314	524.44
334.542	573.44
334.771	588.44
334.999	544.44
335.227	517.44
335.455	486.44
335.684	498.44
335.912	485.44
336.14	483.44
336.369	462.44
336.597	479.44
336.825	487.44
337.053	467.44
337.281	470.44
337.51	462.44
337.738	443.44
337.966	477.44
338.194	459.44
338.422	477.44
338.65	467.44
338.878	458.44
339.106	447.44
339.334	446.44
339.562	467.44
339.79	444.44
340.018	439.44
340.246	450.44
340.474	464.44
340.702	443.44
340.93	457.44
341.158	469.44
341.386	438.44
341.614	463.44
341.842	457.44
342.07	428.44
342.298	429.44
342.526	452.44
342.754	447.44
342.981	445.44
343.209	430.44
343.437	453.44
343.665	466.44
343.893	484.44
344.12	468.44
344.348	498.44
344.576	470.44
344.804	481.44
345.031	464.44
345.259	476.44
345.487	461.44
345.714	463.44
345.942	440.44
346.17	457.44
346.397	430.44
346.625	446.44
346.853	440.44
347.08	442.44
347.308	437.44
347.535	444.44
347.763	451.44
347.99	439.44
348.218	440.44
348.445	458.44
348.673	451.44
348.9	443.44
349.128	444.44
349.355	442.44
349.583	412.44
349.81	421.44
350.037	436.44
350.265	433.44
350.492	428.44
350.72	422.44
350.947	422.44
351.174	433.44
351.402	469.44
351.629	438.44
351.856	450.44
352.083	462.44
352.311	425.44
352.538	452.44
352.765	462.44
352.992	446.44
353.22	438.44
353.447	405.44
353.674	417.44
353.901	426.44
354.128	419.44
354.355	398.44
354.583	409.44
354.81	415.44
355.037	433.44
355.264	439.44
355.491	400.44
355.718	394.44
355.945	417.44
356.172	417.44
356.399	418.44
356.626	414.44
356.853	415.44
357.08	410.44
357.307	431.44
357.534	411.44
357.761	424.44
357.988	424.44
358.215	407.44
358.441	416.44
358.668	427.44
358.895	395.44
359.122	434.44
359.349	446.44
359.576	421.44
359.802	447.44
360.029	457.44
360.256	460.44
360.483	459.44
360.709	450.44
360.936	426.44
361.163	422.44
361.39	430.44
361.616	440.44
361.843	424.44
362.07	451.44
362.296	446.44
362.523	430.44
362.749	456.44
362.976	420.44
363.203	437.44
363.429	437.44
363.656	453.44
363.882	415.44
364.109	422.44
364.335	413.44
364.562	423.44
364.788	411.44
365.015	435.44
365.241	429.44
365.468	412.44
365.694	430.44
365.92	421.44
366.147	430.44
366.373	435.44
366.599	433.44
366.826	413.44
367.052	417.44
367.278	411.44
367.505	424.44
367.731	425.44
367.957	419.44
368.184	436.44
368.41	423.44
368.636	413.44
368.862	441.44
369.089	422.44
369.315	444.44
369.541	414.44
369.767	411.44
369.993	406.44
370.219	438.44
370.445	442.44
370.672	414.44
370.898	425.44
371.124	423.44
371.35	421.44
371.576	429.44
371.802	446.44
372.028	427.44
372.254	415.44
372.48	428.44
372.706	445.44
372.932	436.44
373.158	446.44
373.384	437.44
373.61	425.44
373.835	430.44
374.061	453.44
374.287	451.44
374.513	441.44
374.739	457.44
374.965	422.44
375.191	437.44
375.416	467.44
375.642	449.44
375.868	434.44
376.094	438.44
376.319	435.44
376.545	460.44
376.771	437.44
376.997	437.44
377.222	419.44
377.448	428.44
377.674	427.44
377.899	421.44
378.125	435.44
378.35	437.44
378.576	438.44
378.802	444.44
379.027	441.44
379.253	419.44
379.478	420.44
379.704	429.44
379.929	435.44
380.155	443.44
380.38	421.44
380.606	426.44
380.831	427.44
381.057	418.44
381.282	426.44
381.507	439.44
381.733	435.44
381.958	428.44
382.184	455.44
382.409	460.44
382.634	445.44
382.86	431.44
383.085	445.44
383.31	460.44
383.535	463.44
383.761	447.44
383.986	451.44
384.211	453.44
384.436	464.44
384.662	464.44
384.887	469.44
385.112	482.44
385.337	478.44
385.562	484.44
385.787	483.44
386.013	481.44
386.238	484.44
386.463	508.44
386.688	490.44
386.913	473.44
387.138	502.44
387.363	483.44
387.588	492.44
387.813	478.44
388.038	482.44
388.263	494.44
388.488	490.44
388.713	486.44
388.938	481.44
389.163	481.44
389.387	491.44
389.612	487.44
389.837	486.44
390.062	483.44
390.287	510.44
390.512	494.44
390.736	484.44
390.961	472.44
391.186	471.44
391.411	485.44
391.636	502.44
391.86	508.44
392.085	500.44
392.31	524.44
392.534	522.44
392.759	494.44
392.984	486.44
393.208	493.44
393.433	490.44
393.658	460.44
393.882	490.44
394.107	499.44
394.331	497.44
394.556	500.44
394.78	494.44
395.005	506.44
395.229	497.44
395.454	526.44
395.678	520.44
395.903	532.44
396.127	548.44
396.352	530.44
396.576	492.44
396.801	521.44
397.025	517.44
397.249	523.44
397.474	526.44
397.698	527.44
397.922	547.44
398.147	547.44
398.371	569.44
398.595	561.44
398.82	546.44
399.044	587.44
399.268	599.44
399.492	662.44
399.717	687.44
399.941	731.44
400.165	730.44
400.389	692.44
400.613	653.44
400.837	616.44
401.062	610.44
401.286	592.44
401.51	554.44
401.734	551.44
401.958	572.44
402.182	576.44
402.406	597.44
402.63	594.44
402.854	572.44
403.078	567.44
403.302	578.44
403.526	604.44
403.75	604.44
403.974	612.44
404.198	587.44
404.422	613.44
404.645	615.44
404.869	601.44
405.093	662.44
405.317	678.44
405.541	713.44
405.765	655.44
405.988	628.44
406.212	619.44
406.436	649.44
406.66	662.44
406.883	663.44
407.107	676.44
407.331	709.44
407.555	781.44
407.778	761.44
408.002	721.44
408.226	646.44
408.449	662.44
408.673	636.44
408.896	685.44
409.12	699.44
409.344	661.44
409.567	619.44
409.791	605.44
410.014	609.44
410.238	621.44
410.461	603.44
410.685	620.44
410.908	617.44
411.132	639.44
411.355	681.44
411.578	645.44
411.802	615.44
412.025	597.44
412.249	615.44
412.472	599.44
412.695	681.44
412.919	662.44
413.142	598.44
413.365	595.44
413.589	588.44
413.812	586.44
414.035	566.44
414.258	578.44
414.482	553.44
414.705	533.44
414.928	554.44
415.151	567.44
415.374	569.44
415.597	552.44
415.821	549.44
416.044	581.44
416.267	556.44
416.49	545.44
416.713	543.44
416.936	555.44
417.159	554.44
417.382	548.44
417.605	552.44
417.828	587.44
418.051	580.44
418.274	570.44
418.497	582.44
418.72	555.44
418.943	593.44
419.166	604.44
419.389	618.44
419.611	603.44
419.834	618.44
420.057	588.44
420.28	602.44
420.503	589.44
420.726	617.44
420.948	594.44
421.171	649.44
421.394	658.44
421.617	623.44
421.839	593.44
422.062	565.44
422.285	581.44
422.507	646.44
422.73	745.44
422.953	709.44
423.175	632.44
423.398	612.44
423.621	629.44
423.843	635.44
424.066	635.44
424.288	612.44
424.511	621.44
424.733	712.44
424.956	782.44
425.178	753.44
425.401	742.44
425.623	787.44
425.846	661.44
426.068	622.44
426.291	599.44
426.513	616.44
426.735	622.44
426.958	663.44
427.18	731.44
427.402	891.44
427.625	963.44
427.847	817.44
428.069	714.44
428.292	662.44
428.514	583.44
428.736	597.44
428.958	580.44
429.181	549.44
429.403	545.44
429.625	586.44
429.847	607.44
430.069	653.44
430.292	659.44
430.514	589.44
430.736	565.44
430.958	577.44
431.18	533.44
431.402	573.44
431.624	558.44
431.846	548.44
432.068	547.44
432.29	553.44
432.512	540.44
432.734	542.44
432.956	522.44
433.178	554.44
433.4	563.44
433.622	577.44
433.844	541.44
434.066	542.44
434.287	546.44
434.509	543.44
434.731	578.44
434.953	579.44
435.175	606.44
435.397	609.44
435.618	604.44
435.84	638.44
436.062	767.44
436.284	810.44
436.505	669.44
436.727	596.44
436.949	578.44
437.17	575.44
437.392	571.44
437.614	566.44
437.835	594.44
438.057	696.44
438.278	796.44
438.5	815.44
438.721	881.44
438.943	851.44
439.165	683.44
439.386	622.44
439.608	625.44
439.829	612.44
440.05	618.44
440.272	654.44
440.493	653.44
440.715	613.44
440.936	596.44
441.158	577.44
441.379	567.44
441.6	579.44
441.822	600.44
442.043	649.44
442.264	771.44
442.486	777.44
442.707	683.44
442.928	644.44
443.149	633.44
443.371	650.44
443.592	691.44
443.813	790.44
444.034	862.44
444.255	736.44
444.476	641.44
444.698	663.44
444.919	630.44
445.14	762.44
445.361	723.44
445.582	679.44
445.803	690.44
446.024	805.44
446.245	830.44
446.466	776.44
446.687	661.44
446.908	619.44
447.129	592.44
447.35	566.44
447.571	561.44
447.792	549.44
448.013	568.44
448.234	569.44
448.455	627.44
448.675	729.44
448.896	857.44
449.117	727.44
449.338	661.44
449.559	770.44
449.779	936.44
450	711.44
450.221	606.44
450.442	543.44
450.662	552.44
450.883	556.44
451.104	578.44
451.324	534.44
451.545	532.44
451.766	515.44
451.986	517.44
452.207	514.44
452.428	501.44
452.648	507.44
452.869	497.44
453.089	525.44
453.31	532.44
453.53	513.44
453.751	489.44
453.971	489.44
454.192	523.44
454.412	503.44
454.633	501.44
454.853	487.44
455.073	497.44
455.294	525.44
455.514	591.44
455.734	590.44
455.955	491.44
456.175	487.44
456.395	453.44
456.616	479.44
456.836	483.44
457.056	472.44
457.276	467.44
457.497	481.44
457.717	455.44
457.937	476.44
458.157	519.44
458.377	480.44
458.598	494.44
458.818	550.44
459.038	609.44
459.258	637.44
459.478	549.44
459.698	537.44
459.918	539.44
460.138	540.44
460.358	561.44
460.578	565.44
460.798	572.44
461.018	602.44
461.238	556.44
461.458	555.44
461.678	557.44
461.898	586.44
462.118	572.44
462.338	571.44
462.558	602.44
462.777	602.44
462.997	620.44
463.217	639.44
463.437	637.44
463.657	637.44
463.876	618.44
464.096	600.44
464.316	616.44
464.536	625.44
464.755	603.44
464.975	606.44
465.195	634.44
465.414	636.44
465.634	617.44
465.854	568.44
466.073	553.44
466.293	569.44
466.512	511.44
466.732	544.44
466.951	524.44
467.171	528.44
467.391	521.44
467.61	527.44
467.829	532.44
468.049	526.44
468.268	531.44
468.488	533.44
468.707	510.44
468.927	521.44
469.146	479.44
469.365	494.44
469.585	500.44
469.804	523.44
470.023	533.44
470.243	525.44
470.462	505.44
470.681	558.44
470.901	531.44
471.12	535.44
471.339	541.44
471.558	533.44
471.777	511.44
471.997	534.44
472.216	543.44
472.435	555.44
472.654	542.44
472.873	505.44
473.092	515.44
473.311	533.44
473.53	526.44
473.749	538.44
473.968	558.44
474.187	651.44
474.406	690.44
474.625	573.44
474.844	539.44
475.063	541.44
475.282	530.44
475.501	512.44
475.72	524.44
475.939	534.44
476.158	540.44
476.377	541.44
476.596	552.44
476.814	548.44
477.033	550.44
477.252	554.44
477.471	581.44
477.69	571.44
477.908	578.44
478.127	593.44
478.346	583.44
478.564	591.44
478.783	577.44
479.002	609.44
479.22	611.44
479.439	628.44
479.658	637.44
479.876	664.44
480.095	618.44
480.313	644.44
480.532	649.44
480.751	648.44
480.969	654.44
481.188	704.44
481.406	704.44
481.624	658.44
481.843	638.44
482.061	625.44
482.28	620.44
482.498	613.44
482.717	625.44
482.935	618.44
483.153	608.44
483.372	635.44
483.59	621.44
483.808	618.44
484.027	599.44
484.245	609.44
484.463	619.44
484.681	620.44
484.9	626.44
485.118	631.44
485.336	617.44
485.554	619.44
485.772	617.44
485.99	649.44
486.209	639.44
486.427	637.44
486.645	636.44
486.863	686.44
487.081	650.44
487.299	671.44
487.517	661.44
487.735	657.44
487.953	644.44
488.171	659.44
488.389	645.44
488.607	675.44
488.825	676.44
489.043	658.44
489.261	666.44
489.479	671.44
489.696	650.44
489.914	702.44
490.132	686.44
490.35	683.44
490.568	722.44
490.786	713.44
491.003	707.44
491.221	706.44
491.439	724.44
491.657	743.44
491.874	748.44
492.092	761.44
492.31	772.44
492.527	783.44
492.745	780.44
492.963	759.44
493.18	790.44
493.398	778.44
493.615	764.44
493.833	810.44
494.05	781.44
494.268	754.44
494.485	769.44
494.703	789.44
494.92	775.44
495.138	771.44
495.355	782.44
495.573	770.44
495.79	777.44
496.008	784.44
496.225	780.44
496.442	761.44
496.66	758.44
496.877	798.44
497.094	794.44
497.312	790.44
497.529	807.44
497.746	804.44
497.963	830.44
498.181	869.44
498.398	845.44
498.615	894.44
498.832	931.44
499.049	900.44
499.267	958.44
499.484	1006.44
499.701	1078.44
499.918	1109.44
500.135	1161.44
500.352	1245.44
500.569	1260.44
500.786	1268.44
501.003	1252.44
501.22	1181.44
501.437	1145.44
501.654	1086.44
