Data from 1975.PennyLincolnUp.Lamp.En5.5.200Scan.071719.P1.Changed Mount._HRD10591_15-56-34-859.txt Node
Date: Thu Jul 18 15:56:34 EDT 2019
User: cochatt
Spectrometer: HR+D1059
Trigger mode: 1
Integration Time (sec): 1.000000E-1
Scans to average: 1
Electric dark correction enabled: true
Nonlinearity correction enabled: false
Boxcar width: 0
XAxis mode: Wavelengths
Number of Pixels in Spectrum: 2048
>>>>>Begin Spectral Data<<<<<
223.165	-9.19
223.4	-9.19
223.635	-9.19
223.869	-10.19
224.104	-17.19
224.338	-21.19
224.573	-21.19
224.808	-11.19
225.042	-20.19
225.277	-5.19
225.511	-0.19
225.746	9.81
225.98	2.81
226.215	9.81
226.449	13.81
226.683	23.81
226.918	27.81
227.152	27.81
227.387	37.81
227.621	53.81
227.856	45.81
228.09	55.81
228.324	36.81
228.559	45.81
228.793	65.81
229.027	100.81
229.262	109.81
229.496	101.81
229.73	111.81
229.964	149.81
230.199	125.81
230.433	109.81
230.667	127.81
230.901	110.81
231.136	110.81
231.37	121.81
231.604	131.81
231.838	104.81
232.072	108.81
232.306	131.81
232.541	104.81
232.775	100.81
233.009	108.81
233.243	102.81
233.477	121.81
233.711	123.81
233.945	109.81
234.179	134.81
234.413	111.81
234.647	115.81
234.881	108.81
235.115	100.81
235.349	115.81
235.583	118.81
235.817	114.81
236.051	133.81
236.285	109.81
236.519	115.81
236.753	131.81
236.987	140.81
237.221	162.81
237.455	221.81
237.689	170.81
237.922	132.81
238.156	123.81
238.39	124.81
238.624	127.81
238.858	120.81
239.091	133.81
239.325	121.81
239.559	121.81
239.793	122.81
240.027	120.81
240.26	151.81
240.494	131.81
240.728	154.81
240.961	149.81
241.195	152.81
241.429	139.81
241.662	132.81
241.896	137.81
242.13	141.81
242.363	137.81
242.597	138.81
242.83	146.81
243.064	143.81
243.298	139.81
243.531	131.81
243.765	140.81
243.998	144.81
244.232	133.81
244.465	153.81
244.699	168.81
244.932	153.81
245.166	143.81
245.399	146.81
245.633	144.81
245.866	157.81
246.099	157.81
246.333	150.81
246.566	139.81
246.8	138.81
247.033	160.81
247.266	154.81
247.5	177.81
247.733	162.81
247.966	177.81
248.2	173.81
248.433	173.81
248.666	166.81
248.899	177.81
249.133	203.81
249.366	200.81
249.599	196.81
249.832	185.81
250.066	181.81
250.299	183.81
250.532	197.81
250.765	195.81
250.998	219.81
251.231	226.81
251.465	217.81
251.698	200.81
251.931	215.81
252.164	205.81
252.397	191.81
252.63	202.81
252.863	194.81
253.096	215.81
253.329	211.81
253.562	208.81
253.795	215.81
254.028	229.81
254.261	204.81
254.494	217.81
254.727	252.81
254.96	267.81
255.193	254.81
255.426	238.81
255.659	233.81
255.892	217.81
256.124	221.81
256.357	236.81
256.59	221.81
256.823	235.81
257.056	216.81
257.289	198.81
257.521	206.81
257.754	236.81
257.987	187.81
258.22	207.81
258.452	200.81
258.685	218.81
258.918	213.81
259.151	201.81
259.383	230.81
259.616	225.81
259.849	190.81
260.081	231.81
260.314	244.81
260.547	241.81
260.779	233.81
261.012	237.81
261.244	223.81
261.477	223.81
261.71	223.81
261.942	236.81
262.175	238.81
262.407	233.81
262.64	205.81
262.872	215.81
263.105	209.81
263.337	209.81
263.57	208.81
263.802	209.81
264.035	213.81
264.267	216.81
264.499	219.81
264.732	210.81
264.964	193.81
265.197	217.81
265.429	213.81
265.661	216.81
265.894	220.81
266.126	200.81
266.358	221.81
266.591	232.81
266.823	234.81
267.055	220.81
267.287	230.81
267.52	218.81
267.752	238.81
267.984	233.81
268.216	218.81
268.448	227.81
268.681	233.81
268.913	248.81
269.145	250.81
269.377	260.81
269.609	253.81
269.841	271.81
270.073	290.81
270.306	302.81
270.538	326.81
270.77	286.81
271.002	285.81
271.234	290.81
271.466	296.81
271.698	298.81
271.93	299.81
272.162	294.81
272.394	306.81
272.626	290.81
272.858	297.81
273.09	293.81
273.322	270.81
273.553	276.81
273.785	273.81
274.017	246.81
274.249	239.81
274.481	256.81
274.713	263.81
274.945	263.81
275.176	264.81
275.408	274.81
275.64	254.81
275.872	252.81
276.104	269.81
276.335	266.81
276.567	279.81
276.799	281.81
277.031	283.81
277.262	317.81
277.494	300.81
277.726	290.81
277.957	283.81
278.189	268.81
278.421	279.81
278.652	270.81
278.884	290.81
279.115	267.81
279.347	272.81
279.579	260.81
279.81	269.81
280.042	283.81
280.273	266.81
280.505	271.81
280.736	265.81
280.968	259.81
281.199	269.81
281.431	259.81
281.662	259.81
281.894	267.81
282.125	270.81
282.356	287.81
282.588	298.81
282.819	305.81
283.051	273.81
283.282	292.81
283.513	290.81
283.745	298.81
283.976	288.81
284.207	272.81
284.439	268.81
284.67	263.81
284.901	281.81
285.132	302.81
285.364	286.81
285.595	276.81
285.826	278.81
286.057	295.81
286.288	271.81
286.52	291.81
286.751	282.81
286.982	296.81
287.213	258.81
287.444	296.81
287.675	296.81
287.906	302.81
288.138	308.81
288.369	292.81
288.6	306.81
288.831	307.81
289.062	308.81
289.293	294.81
289.524	298.81
289.755	276.81
289.986	297.81
290.217	313.81
290.448	299.81
290.679	280.81
290.91	292.81
291.141	281.81
291.371	308.81
291.602	289.81
291.833	300.81
292.064	293.81
292.295	298.81
292.526	305.81
292.757	289.81
292.987	293.81
293.218	294.81
293.449	311.81
293.68	302.81
293.91	285.81
294.141	315.81
294.372	284.81
294.603	292.81
294.833	307.81
295.064	311.81
295.295	300.81
295.525	299.81
295.756	295.81
295.987	310.81
296.217	310.81
296.448	326.81
296.679	323.81
296.909	297.81
297.14	316.81
297.37	315.81
297.601	313.81
297.831	306.81
298.062	297.81
298.292	322.81
298.523	318.81
298.753	315.81
298.984	302.81
299.214	299.81
299.445	310.81
299.675	322.81
299.905	305.81
300.136	338.81
300.366	314.81
300.597	324.81
300.827	324.81
301.057	316.81
301.288	329.81
301.518	347.81
301.748	323.81
301.979	340.81
302.209	332.81
302.439	326.81
302.669	333.81
302.9	322.81
303.13	325.81
303.36	321.81
303.59	347.81
303.82	321.81
304.051	329.81
304.281	333.81
304.511	320.81
304.741	321.81
304.971	327.81
305.201	339.81
305.431	337.81
305.661	342.81
305.891	335.81
306.121	311.81
306.352	329.81
306.582	320.81
306.812	344.81
307.042	338.81
307.272	334.81
307.502	330.81
307.731	334.81
307.961	340.81
308.191	346.81
308.421	339.81
308.651	347.81
308.881	339.81
309.111	350.81
309.341	381.81
309.571	361.81
309.8	348.81
310.03	357.81
310.26	365.81
310.49	359.81
310.72	353.81
310.949	378.81
311.179	384.81
311.409	369.81
311.639	357.81
311.868	378.81
312.098	361.81
312.328	381.81
312.557	375.81
312.787	383.81
313.017	386.81
313.246	363.81
313.476	356.81
313.706	379.81
313.935	381.81
314.165	364.81
314.394	381.81
314.624	383.81
314.853	376.81
315.083	375.81
315.312	379.81
315.542	389.81
315.771	381.81
316.001	361.81
316.23	362.81
316.46	354.81
316.689	371.81
316.919	374.81
317.148	370.81
317.377	389.81
317.607	374.81
317.836	374.81
318.065	364.81
318.295	365.81
318.524	372.81
318.753	361.81
318.983	366.81
319.212	369.81
319.441	379.81
319.67	379.81
319.9	389.81
320.129	386.81
320.358	381.81
320.587	371.81
320.816	381.81
321.046	377.81
321.275	407.81
321.504	383.81
321.733	372.81
321.962	413.81
322.191	414.81
322.42	415.81
322.649	403.81
322.878	396.81
323.108	405.81
323.337	451.81
323.566	425.81
323.795	481.81
324.024	496.81
324.253	586.81
324.482	775.81
324.71	1180.81
324.939	1749.81
325.168	1531.81
325.397	794.81
325.626	556.81
325.855	473.81
326.084	461.81
326.313	442.81
326.542	453.81
326.77	475.81
326.999	552.81
327.228	734.81
327.457	1073.81
327.686	1315.81
327.914	898.81
328.143	561.81
328.372	512.81
328.6	511.81
328.829	502.81
329.058	517.81
329.287	521.81
329.515	484.81
329.744	473.81
329.972	464.81
330.201	497.81
330.43	518.81
330.658	537.81
330.887	537.81
331.115	517.81
331.344	491.81
331.572	459.81
331.801	445.81
332.03	475.81
332.258	462.81
332.486	445.81
332.715	448.81
332.943	445.81
333.172	459.81
333.4	455.81
333.629	489.81
333.857	497.81
334.085	494.81
334.314	521.81
334.542	537.81
334.771	531.81
334.999	507.81
335.227	490.81
335.455	465.81
335.684	456.81
335.912	461.81
336.14	456.81
336.369	447.81
336.597	451.81
336.825	443.81
337.053	445.81
337.281	453.81
337.51	424.81
337.738	444.81
337.966	446.81
338.194	459.81
338.422	440.81
338.65	421.81
338.878	437.81
339.106	435.81
339.334	451.81
339.562	420.81
339.79	429.81
340.018	434.81
340.246	431.81
340.474	424.81
340.702	435.81
340.93	443.81
341.158	434.81
341.386	427.81
341.614	432.81
341.842	434.81
342.07	405.81
342.298	433.81
342.526	414.81
342.754	426.81
342.981	416.81
343.209	420.81
343.437	417.81
343.665	435.81
343.893	437.81
344.12	450.81
344.348	463.81
344.576	444.81
344.804	445.81
345.031	441.81
345.259	434.81
345.487	459.81
345.714	426.81
345.942	420.81
346.17	420.81
346.397	421.81
346.625	407.81
346.853	426.81
347.08	410.81
347.308	399.81
347.535	415.81
347.763	418.81
347.99	421.81
348.218	411.81
348.445	437.81
348.673	399.81
348.9	410.81
349.128	429.81
349.355	384.81
349.583	390.81
349.81	404.81
350.037	397.81
350.265	409.81
350.492	385.81
350.72	410.81
350.947	393.81
351.174	409.81
351.402	429.81
351.629	407.81
351.856	405.81
352.083	419.81
352.311	419.81
352.538	414.81
352.765	423.81
352.992	411.81
353.22	409.81
353.447	411.81
353.674	411.81
353.901	411.81
354.128	394.81
354.355	428.81
354.583	403.81
354.81	408.81
355.037	400.81
355.264	399.81
355.491	389.81
355.718	379.81
355.945	379.81
356.172	395.81
356.399	400.81
356.626	398.81
356.853	400.81
357.08	395.81
357.307	382.81
357.534	383.81
357.761	400.81
357.988	393.81
358.215	405.81
358.441	395.81
358.668	388.81
358.895	419.81
359.122	423.81
359.349	410.81
359.576	405.81
359.802	418.81
360.029	429.81
360.256	454.81
360.483	474.81
360.709	433.81
360.936	413.81
361.163	441.81
361.39	429.81
361.616	430.81
361.843	416.81
362.07	435.81
362.296	427.81
362.523	410.81
362.749	429.81
362.976	415.81
363.203	421.81
363.429	409.81
363.656	391.81
363.882	403.81
364.109	395.81
364.335	400.81
364.562	413.81
364.788	414.81
365.015	384.81
365.241	409.81
365.468	396.81
365.694	420.81
365.92	417.81
366.147	406.81
366.373	400.81
366.599	413.81
366.826	412.81
367.052	398.81
367.278	414.81
367.505	402.81
367.731	402.81
367.957	411.81
368.184	422.81
368.41	420.81
368.636	412.81
368.862	441.81
369.089	423.81
369.315	413.81
369.541	397.81
369.767	402.81
369.993	423.81
370.219	394.81
370.445	421.81
370.672	419.81
370.898	392.81
371.124	412.81
371.35	409.81
371.576	426.81
371.802	425.81
372.028	403.81
372.254	418.81
372.48	426.81
372.706	431.81
372.932	431.81
373.158	413.81
373.384	427.81
373.61	411.81
373.835	419.81
374.061	397.81
374.287	423.81
374.513	420.81
374.739	435.81
374.965	432.81
375.191	404.81
375.416	414.81
375.642	422.81
375.868	414.81
376.094	397.81
376.319	422.81
376.545	412.81
376.771	420.81
376.997	426.81
377.222	415.81
377.448	418.81
377.674	412.81
377.899	387.81
378.125	406.81
378.35	412.81
378.576	406.81
378.802	408.81
379.027	403.81
379.253	417.81
379.478	409.81
379.704	420.81
379.929	414.81
380.155	412.81
380.38	396.81
380.606	430.81
380.831	425.81
381.057	423.81
381.282	425.81
381.507	399.81
381.733	419.81
381.958	422.81
382.184	415.81
382.409	433.81
382.634	423.81
382.86	428.81
383.085	434.81
383.31	413.81
383.535	431.81
383.761	446.81
383.986	456.81
384.211	454.81
384.436	455.81
384.662	464.81
384.887	443.81
385.112	460.81
385.337	460.81
385.562	449.81
385.787	477.81
386.013	468.81
386.238	477.81
386.463	473.81
386.688	466.81
386.913	456.81
387.138	456.81
387.363	466.81
387.588	459.81
387.813	445.81
388.038	454.81
388.263	450.81
388.488	457.81
388.713	476.81
388.938	474.81
389.163	466.81
389.387	468.81
389.612	462.81
389.837	438.81
390.062	452.81
390.287	474.81
390.512	471.81
390.736	454.81
390.961	455.81
391.186	474.81
391.411	470.81
391.636	480.81
391.86	497.81
392.085	513.81
392.31	487.81
392.534	478.81
392.759	491.81
392.984	475.81
393.208	474.81
393.433	462.81
393.658	474.81
393.882	469.81
394.107	474.81
394.331	463.81
394.556	470.81
394.78	467.81
395.005	475.81
395.229	486.81
395.454	484.81
395.678	530.81
395.903	493.81
396.127	498.81
396.352	507.81
396.576	505.81
396.801	506.81
397.025	487.81
397.249	496.81
397.474	501.81
397.698	523.81
397.922	533.81
398.147	503.81
398.371	513.81
398.595	524.81
398.82	518.81
399.044	537.81
399.268	571.81
399.492	613.81
399.717	653.81
399.941	675.81
400.165	690.81
400.389	677.81
400.613	620.81
400.837	582.81
401.062	565.81
401.286	546.81
401.51	545.81
401.734	531.81
401.958	549.81
402.182	544.81
402.406	531.81
402.63	549.81
402.854	555.81
403.078	566.81
403.302	563.81
403.526	569.81
403.75	580.81
403.974	575.81
404.198	586.81
404.422	589.81
404.645	577.81
404.869	559.81
405.093	604.81
405.317	646.81
405.541	687.81
405.765	634.81
405.988	595.81
406.212	590.81
406.436	600.81
406.66	623.81
406.883	601.81
407.107	658.81
407.331	680.81
407.555	762.81
407.778	756.81
408.002	685.81
408.226	633.81
408.449	629.81
408.673	605.81
408.896	651.81
409.12	691.81
409.344	631.81
409.567	559.81
409.791	562.81
410.014	554.81
410.238	538.81
410.461	576.81
410.685	576.81
410.908	602.81
411.132	600.81
411.355	662.81
411.578	627.81
411.802	579.81
412.025	565.81
412.249	563.81
412.472	582.81
412.695	646.81
412.919	635.81
413.142	573.81
413.365	545.81
413.589	538.81
413.812	539.81
414.035	545.81
414.258	541.81
414.482	524.81
414.705	533.81
414.928	549.81
415.151	531.81
415.374	537.81
415.597	552.81
415.821	532.81
416.044	543.81
416.267	543.81
416.49	527.81
416.713	541.81
416.936	536.81
417.159	522.81
417.382	527.81
417.605	558.81
417.828	516.81
418.051	569.81
418.274	541.81
418.497	535.81
418.72	540.81
418.943	521.81
419.166	555.81
419.389	582.81
419.611	585.81
419.834	589.81
420.057	566.81
420.28	569.81
420.503	553.81
420.726	549.81
420.948	553.81
421.171	598.81
421.394	633.81
421.617	581.81
421.839	574.81
422.062	568.81
422.285	545.81
422.507	615.81
422.73	707.81
422.953	676.81
423.175	602.81
423.398	580.81
423.621	571.81
423.843	603.81
424.066	618.81
424.288	588.81
424.511	631.81
424.733	658.81
424.956	744.81
425.178	710.81
425.401	703.81
425.623	736.81
425.846	651.81
426.068	606.81
426.291	591.81
426.513	577.81
426.735	601.81
426.958	600.81
427.18	706.81
427.402	830.81
427.625	893.81
427.847	790.81
428.069	682.81
428.292	604.81
428.514	550.81
428.736	556.81
428.958	539.81
429.181	537.81
429.403	530.81
429.625	541.81
429.847	567.81
430.069	635.81
430.292	649.81
430.514	558.81
430.736	532.81
430.958	539.81
431.18	521.81
431.402	518.81
431.624	527.81
431.846	513.81
432.068	518.81
432.29	525.81
432.512	528.81
432.734	539.81
432.956	514.81
433.178	547.81
433.4	532.81
433.622	512.81
433.844	499.81
434.066	517.81
434.287	498.81
434.509	548.81
434.731	532.81
434.953	556.81
435.175	555.81
435.397	596.81
435.618	596.81
435.84	649.81
436.062	702.81
436.284	774.81
436.505	663.81
436.727	586.81
436.949	537.81
437.17	533.81
437.392	552.81
437.614	551.81
437.835	577.81
438.057	654.81
438.278	777.81
438.5	773.81
438.721	840.81
438.943	809.81
439.165	628.81
439.386	587.81
439.608	601.81
439.829	584.81
440.05	603.81
440.272	633.81
440.493	635.81
440.715	583.81
440.936	569.81
441.158	527.81
441.379	566.81
441.6	542.81
441.822	570.81
442.043	620.81
442.264	695.81
442.486	747.81
442.707	639.81
442.928	605.81
443.149	597.81
443.371	605.81
443.592	643.81
443.813	766.81
444.034	836.81
444.255	698.81
444.476	628.81
444.698	621.81
444.919	643.81
445.14	713.81
445.361	651.81
445.582	649.81
445.803	670.81
446.024	763.81
446.245	783.81
446.466	696.81
446.687	614.81
446.908	569.81
447.129	567.81
447.35	560.81
447.571	518.81
447.792	505.81
448.013	526.81
448.234	538.81
448.455	586.81
448.675	693.81
448.896	811.81
449.117	693.81
449.338	661.81
449.559	762.81
449.779	855.81
450	694.81
450.221	583.81
450.442	536.81
450.662	503.81
450.883	494.81
451.104	500.81
451.324	495.81
451.545	488.81
451.766	486.81
451.986	460.81
452.207	451.81
452.428	468.81
452.648	500.81
452.869	467.81
453.089	480.81
453.31	493.81
453.53	471.81
453.751	469.81
453.971	466.81
454.192	478.81
454.412	470.81
454.633	442.81
454.853	462.81
455.073	468.81
455.294	496.81
455.514	566.81
455.734	552.81
455.955	475.81
456.175	466.81
456.395	448.81
456.616	454.81
456.836	478.81
457.056	460.81
457.276	439.81
457.497	454.81
457.717	441.81
457.937	485.81
458.157	485.81
458.377	463.81
458.598	494.81
458.818	557.81
459.038	579.81
459.258	630.81
459.478	544.81
459.698	494.81
459.918	510.81
460.138	510.81
460.358	527.81
460.578	525.81
460.798	530.81
461.018	531.81
461.238	527.81
461.458	557.81
461.678	545.81
461.898	566.81
462.118	554.81
462.338	549.81
462.558	558.81
462.777	581.81
462.997	595.81
463.217	614.81
463.437	599.81
463.657	603.81
463.876	591.81
464.096	586.81
464.316	606.81
464.536	570.81
464.755	585.81
464.975	582.81
465.195	595.81
465.414	626.81
465.634	573.81
465.854	523.81
466.073	539.81
466.293	516.81
466.512	505.81
466.732	489.81
466.951	509.81
467.171	485.81
467.391	486.81
467.61	501.81
467.829	521.81
468.049	481.81
468.268	485.81
468.488	482.81
468.707	487.81
468.927	501.81
469.146	466.81
469.365	475.81
469.585	494.81
469.804	506.81
470.023	514.81
470.243	479.81
470.462	493.81
470.681	531.81
470.901	520.81
471.12	501.81
471.339	515.81
471.558	486.81
471.777	525.81
471.997	502.81
472.216	513.81
472.435	550.81
472.654	517.81
472.873	483.81
473.092	497.81
473.311	483.81
473.53	514.81
473.749	511.81
473.968	526.81
474.187	631.81
474.406	637.81
474.625	547.81
474.844	475.81
475.063	501.81
475.282	475.81
475.501	512.81
475.72	509.81
475.939	497.81
476.158	513.81
476.377	526.81
476.596	496.81
476.814	539.81
477.033	536.81
477.252	516.81
477.471	538.81
477.69	526.81
477.908	564.81
478.127	555.81
478.346	557.81
478.564	551.81
478.783	558.81
479.002	595.81
479.22	564.81
479.439	583.81
479.658	607.81
479.876	587.81
480.095	610.81
480.313	631.81
480.532	638.81
480.751	618.81
480.969	597.81
481.188	661.81
481.406	694.81
481.624	650.81
481.843	612.81
482.061	597.81
482.28	576.81
482.498	593.81
482.717	573.81
482.935	580.81
483.153	595.81
483.372	588.81
483.59	578.81
483.808	583.81
484.027	573.81
484.245	583.81
484.463	584.81
484.681	591.81
484.9	589.81
485.118	589.81
485.336	578.81
485.554	586.81
485.772	608.81
485.99	616.81
486.209	584.81
486.427	627.81
486.645	623.81
486.863	605.81
487.081	622.81
487.299	629.81
487.517	637.81
487.735	617.81
487.953	629.81
488.171	629.81
488.389	634.81
488.607	636.81
488.825	655.81
489.043	616.81
489.261	636.81
489.479	638.81
489.696	607.81
489.914	653.81
490.132	634.81
490.35	667.81
490.568	674.81
490.786	666.81
491.003	711.81
491.221	686.81
491.439	697.81
491.657	709.81
491.874	699.81
492.092	726.81
492.31	701.81
492.527	719.81
492.745	724.81
492.963	710.81
493.18	734.81
493.398	743.81
493.615	737.81
493.833	756.81
494.05	736.81
494.268	743.81
494.485	738.81
494.703	743.81
494.92	713.81
495.138	741.81
495.355	734.81
495.573	731.81
495.79	746.81
496.008	745.81
496.225	742.81
496.442	779.81
496.66	751.81
496.877	731.81
497.094	767.81
497.312	772.81
497.529	772.81
497.746	768.81
497.963	828.81
498.181	822.81
498.398	834.81
498.615	852.81
498.832	853.81
499.049	886.81
499.267	921.81
499.484	961.81
499.701	999.81
499.918	1046.81
500.135	1075.81
500.352	1154.81
500.569	1196.81
500.786	1214.81
501.003	1178.81
501.22	1123.81
501.437	1070.81
501.654	1003.81
