Data from 1975.PennyLincolnUp.Lamp.En5.5.200Scan.071719.P1.Changed Mount._HRD10591_15-57-25-860.txt Node
Date: Thu Jul 18 15:57:25 EDT 2019
User: cochatt
Spectrometer: HR+D1059
Trigger mode: 1
Integration Time (sec): 1.000000E-1
Scans to average: 1
Electric dark correction enabled: true
Nonlinearity correction enabled: false
Boxcar width: 0
XAxis mode: Wavelengths
Number of Pixels in Spectrum: 2048
>>>>>Begin Spectral Data<<<<<
223.165	-7.88
223.4	-7.88
223.635	-7.88
223.869	-9.88
224.104	0.12
224.338	-9.88
224.573	-20.88
224.808	-13.88
225.042	-9.88
225.277	-7.88
225.511	-13.88
225.746	6.12
225.98	-1.88
226.215	0.12
226.449	6.12
226.683	15.12
226.918	31.12
227.152	37.12
227.387	41.12
227.621	54.12
227.856	57.12
228.09	52.12
228.324	59.12
228.559	57.12
228.793	68.12
229.027	91.12
229.262	97.12
229.496	103.12
229.73	123.12
229.964	158.12
230.199	129.12
230.433	109.12
230.667	99.12
230.901	126.12
231.136	125.12
231.37	123.12
231.604	119.12
231.838	105.12
232.072	121.12
232.306	116.12
232.541	116.12
232.775	109.12
233.009	118.12
233.243	118.12
233.477	105.12
233.711	136.12
233.945	122.12
234.179	122.12
234.413	120.12
234.647	120.12
234.881	118.12
235.115	120.12
235.349	127.12
235.583	122.12
235.817	114.12
236.051	114.12
236.285	125.12
236.519	136.12
236.753	146.12
236.987	139.12
237.221	166.12
237.455	229.12
237.689	194.12
237.922	141.12
238.156	144.12
238.39	153.12
238.624	144.12
238.858	126.12
239.091	138.12
239.325	120.12
239.559	128.12
239.793	129.12
240.027	144.12
240.26	153.12
240.494	160.12
240.728	147.12
240.961	152.12
241.195	134.12
241.429	136.12
241.662	149.12
241.896	147.12
242.13	147.12
242.363	120.12
242.597	144.12
242.83	128.12
243.064	140.12
243.298	145.12
243.531	134.12
243.765	146.12
243.998	151.12
244.232	136.12
244.465	159.12
244.699	158.12
244.932	156.12
245.166	155.12
245.399	148.12
245.633	152.12
245.866	155.12
246.099	131.12
246.333	158.12
246.566	145.12
246.8	149.12
247.033	183.12
247.266	171.12
247.5	151.12
247.733	175.12
247.966	189.12
248.2	175.12
248.433	178.12
248.666	175.12
248.899	183.12
249.133	212.12
249.366	195.12
249.599	205.12
249.832	205.12
250.066	189.12
250.299	201.12
250.532	198.12
250.765	198.12
250.998	220.12
251.231	250.12
251.465	230.12
251.698	224.12
251.931	217.12
252.164	206.12
252.397	206.12
252.63	203.12
252.863	224.12
253.096	228.12
253.329	239.12
253.562	228.12
253.795	233.12
254.028	221.12
254.261	216.12
254.494	230.12
254.727	259.12
254.96	290.12
255.193	284.12
255.426	246.12
255.659	249.12
255.892	230.12
256.124	253.12
256.357	224.12
256.59	244.12
256.823	219.12
257.056	211.12
257.289	219.12
257.521	215.12
257.754	224.12
257.987	215.12
258.22	217.12
258.452	222.12
258.685	218.12
258.918	219.12
259.151	213.12
259.383	213.12
259.616	233.12
259.849	226.12
260.081	229.12
260.314	256.12
260.547	245.12
260.779	266.12
261.012	231.12
261.244	224.12
261.477	232.12
261.71	216.12
261.942	222.12
262.175	243.12
262.407	242.12
262.64	211.12
262.872	213.12
263.105	224.12
263.337	209.12
263.57	219.12
263.802	206.12
264.035	230.12
264.267	201.12
264.499	215.12
264.732	228.12
264.964	224.12
265.197	229.12
265.429	214.12
265.661	214.12
265.894	224.12
266.126	238.12
266.358	232.12
266.591	220.12
266.823	239.12
267.055	238.12
267.287	249.12
267.52	238.12
267.752	237.12
267.984	242.12
268.216	230.12
268.448	239.12
268.681	254.12
268.913	250.12
269.145	271.12
269.377	286.12
269.609	273.12
269.841	279.12
270.073	275.12
270.306	299.12
270.538	328.12
270.77	330.12
271.002	327.12
271.234	324.12
271.466	315.12
271.698	321.12
271.93	308.12
272.162	320.12
272.394	326.12
272.626	296.12
272.858	300.12
273.09	294.12
273.322	284.12
273.553	273.12
273.785	264.12
274.017	283.12
274.249	283.12
274.481	286.12
274.713	268.12
274.945	253.12
275.176	267.12
275.408	271.12
275.64	279.12
275.872	268.12
276.104	257.12
276.335	281.12
276.567	285.12
276.799	279.12
277.031	320.12
277.262	318.12
277.494	331.12
277.726	303.12
277.957	306.12
278.189	316.12
278.421	279.12
278.652	288.12
278.884	276.12
279.115	288.12
279.347	296.12
279.579	270.12
279.81	282.12
280.042	296.12
280.273	283.12
280.505	293.12
280.736	286.12
280.968	295.12
281.199	269.12
281.431	294.12
281.662	292.12
281.894	273.12
282.125	285.12
282.356	304.12
282.588	311.12
282.819	297.12
283.051	277.12
283.282	280.12
283.513	294.12
283.745	302.12
283.976	287.12
284.207	276.12
284.439	293.12
284.67	296.12
284.901	282.12
285.132	282.12
285.364	289.12
285.595	305.12
285.826	293.12
286.057	310.12
286.288	303.12
286.52	314.12
286.751	294.12
286.982	306.12
287.213	308.12
287.444	308.12
287.675	303.12
287.906	313.12
288.138	295.12
288.369	314.12
288.6	322.12
288.831	327.12
289.062	316.12
289.293	313.12
289.524	325.12
289.755	327.12
289.986	314.12
290.217	304.12
290.448	299.12
290.679	319.12
290.91	306.12
291.141	310.12
291.371	312.12
291.602	326.12
291.833	313.12
292.064	300.12
292.295	297.12
292.526	308.12
292.757	308.12
292.987	298.12
293.218	309.12
293.449	309.12
293.68	312.12
293.91	309.12
294.141	308.12
294.372	321.12
294.603	311.12
294.833	297.12
295.064	308.12
295.295	326.12
295.525	319.12
295.756	316.12
295.987	337.12
296.217	342.12
296.448	344.12
296.679	330.12
296.909	328.12
297.14	328.12
297.37	335.12
297.601	319.12
297.831	337.12
298.062	307.12
298.292	310.12
298.523	316.12
298.753	334.12
298.984	311.12
299.214	330.12
299.445	345.12
299.675	329.12
299.905	330.12
300.136	316.12
300.366	339.12
300.597	347.12
300.827	338.12
301.057	342.12
301.288	332.12
301.518	348.12
301.748	339.12
301.979	344.12
302.209	351.12
302.439	340.12
302.669	357.12
302.9	338.12
303.13	355.12
303.36	345.12
303.59	335.12
303.82	361.12
304.051	339.12
304.281	339.12
304.511	351.12
304.741	345.12
304.971	341.12
305.201	354.12
305.431	336.12
305.661	343.12
305.891	345.12
306.121	341.12
306.352	351.12
306.582	347.12
306.812	358.12
307.042	348.12
307.272	365.12
307.502	373.12
307.731	345.12
307.961	360.12
308.191	356.12
308.421	350.12
308.651	347.12
308.881	347.12
309.111	354.12
309.341	351.12
309.571	351.12
309.8	360.12
310.03	371.12
310.26	382.12
310.49	382.12
310.72	390.12
310.949	384.12
311.179	391.12
311.409	393.12
311.639	389.12
311.868	390.12
312.098	391.12
312.328	381.12
312.557	404.12
312.787	404.12
313.017	414.12
313.246	378.12
313.476	370.12
313.706	397.12
313.935	392.12
314.165	396.12
314.394	393.12
314.624	412.12
314.853	392.12
315.083	402.12
315.312	380.12
315.542	401.12
315.771	389.12
316.001	385.12
316.23	376.12
316.46	395.12
316.689	395.12
316.919	388.12
317.148	397.12
317.377	404.12
317.607	406.12
317.836	389.12
318.065	393.12
318.295	380.12
318.524	389.12
318.753	375.12
318.983	399.12
319.212	405.12
319.441	385.12
319.67	413.12
319.9	378.12
320.129	388.12
320.358	400.12
320.587	412.12
320.816	384.12
321.046	410.12
321.275	396.12
321.504	414.12
321.733	426.12
321.962	415.12
322.191	425.12
322.42	423.12
322.649	429.12
322.878	432.12
323.108	449.12
323.337	473.12
323.566	471.12
323.795	526.12
324.024	527.12
324.253	621.12
324.482	812.12
324.71	1247.12
324.939	1883.12
325.168	1656.12
325.397	852.12
325.626	575.12
325.855	532.12
326.084	478.12
326.313	460.12
326.542	471.12
326.77	518.12
326.999	583.12
327.228	783.12
327.457	1125.12
327.686	1423.12
327.914	978.12
328.143	652.12
328.372	592.12
328.6	560.12
328.829	560.12
329.058	554.12
329.287	549.12
329.515	553.12
329.744	516.12
329.972	507.12
330.201	526.12
330.43	536.12
330.658	574.12
330.887	592.12
331.115	570.12
331.344	540.12
331.572	496.12
331.801	485.12
332.03	526.12
332.258	498.12
332.486	496.12
332.715	473.12
332.943	455.12
333.172	496.12
333.4	507.12
333.629	491.12
333.857	486.12
334.085	510.12
334.314	538.12
334.542	571.12
334.771	595.12
334.999	539.12
335.227	532.12
335.455	492.12
335.684	474.12
335.912	479.12
336.14	478.12
336.369	468.12
336.597	476.12
336.825	470.12
337.053	468.12
337.281	472.12
337.51	458.12
337.738	473.12
337.966	447.12
338.194	471.12
338.422	460.12
338.65	450.12
338.878	445.12
339.106	458.12
339.334	454.12
339.562	454.12
339.79	443.12
340.018	458.12
340.246	468.12
340.474	451.12
340.702	455.12
340.93	445.12
341.158	451.12
341.386	456.12
341.614	458.12
341.842	441.12
342.07	446.12
342.298	434.12
342.526	410.12
342.754	437.12
342.981	438.12
343.209	455.12
343.437	462.12
343.665	452.12
343.893	467.12
344.12	481.12
344.348	485.12
344.576	479.12
344.804	482.12
345.031	461.12
345.259	470.12
345.487	468.12
345.714	436.12
345.942	447.12
346.17	439.12
346.397	446.12
346.625	429.12
346.853	442.12
347.08	430.12
347.308	434.12
347.535	419.12
347.763	447.12
347.99	440.12
348.218	440.12
348.445	438.12
348.673	443.12
348.9	426.12
349.128	428.12
349.355	441.12
349.583	439.12
349.81	414.12
350.037	418.12
350.265	424.12
350.492	399.12
350.72	412.12
350.947	429.12
351.174	444.12
351.402	434.12
351.629	452.12
351.856	435.12
352.083	448.12
352.311	461.12
352.538	444.12
352.765	426.12
352.992	454.12
353.22	430.12
353.447	421.12
353.674	437.12
353.901	418.12
354.128	420.12
354.355	413.12
354.583	420.12
354.81	428.12
355.037	427.12
355.264	415.12
355.491	437.12
355.718	440.12
355.945	399.12
356.172	418.12
356.399	412.12
356.626	406.12
356.853	417.12
357.08	408.12
357.307	415.12
357.534	414.12
357.761	417.12
357.988	420.12
358.215	413.12
358.441	414.12
358.668	426.12
358.895	423.12
359.122	425.12
359.349	405.12
359.576	450.12
359.802	473.12
360.029	455.12
360.256	455.12
360.483	468.12
360.709	423.12
360.936	435.12
361.163	424.12
361.39	446.12
361.616	446.12
361.843	434.12
362.07	410.12
362.296	429.12
362.523	442.12
362.749	428.12
362.976	444.12
363.203	430.12
363.429	430.12
363.656	451.12
363.882	436.12
364.109	427.12
364.335	416.12
364.562	428.12
364.788	421.12
365.015	408.12
365.241	425.12
365.468	440.12
365.694	419.12
365.92	430.12
366.147	391.12
366.373	418.12
366.599	428.12
366.826	403.12
367.052	421.12
367.278	435.12
367.505	422.12
367.731	426.12
367.957	428.12
368.184	421.12
368.41	422.12
368.636	435.12
368.862	439.12
369.089	438.12
369.315	430.12
369.541	407.12
369.767	418.12
369.993	418.12
370.219	409.12
370.445	413.12
370.672	427.12
370.898	422.12
371.124	435.12
371.35	434.12
371.576	423.12
371.802	442.12
372.028	410.12
372.254	418.12
372.48	423.12
372.706	426.12
372.932	435.12
373.158	430.12
373.384	458.12
373.61	434.12
373.835	428.12
374.061	448.12
374.287	459.12
374.513	458.12
374.739	426.12
374.965	446.12
375.191	454.12
375.416	460.12
375.642	447.12
375.868	439.12
376.094	441.12
376.319	422.12
376.545	441.12
376.771	440.12
376.997	435.12
377.222	422.12
377.448	415.12
377.674	434.12
377.899	430.12
378.125	419.12
378.35	432.12
378.576	410.12
378.802	424.12
379.027	416.12
379.253	430.12
379.478	423.12
379.704	439.12
379.929	416.12
380.155	441.12
380.38	450.12
380.606	434.12
380.831	420.12
381.057	438.12
381.282	422.12
381.507	431.12
381.733	420.12
381.958	436.12
382.184	438.12
382.409	440.12
382.634	441.12
382.86	454.12
383.085	453.12
383.31	470.12
383.535	455.12
383.761	466.12
383.986	470.12
384.211	457.12
384.436	487.12
384.662	463.12
384.887	478.12
385.112	458.12
385.337	510.12
385.562	491.12
385.787	488.12
386.013	502.12
386.238	481.12
386.463	490.12
386.688	493.12
386.913	480.12
387.138	504.12
387.363	488.12
387.588	495.12
387.813	484.12
388.038	488.12
388.263	474.12
388.488	482.12
388.713	489.12
388.938	476.12
389.163	494.12
389.387	490.12
389.612	479.12
389.837	484.12
390.062	475.12
390.287	465.12
390.512	476.12
390.736	478.12
390.961	461.12
391.186	474.12
391.411	475.12
391.636	503.12
391.86	507.12
392.085	500.12
392.31	495.12
392.534	498.12
392.759	488.12
392.984	492.12
393.208	473.12
393.433	477.12
393.658	488.12
393.882	501.12
394.107	493.12
394.331	494.12
394.556	502.12
394.78	494.12
395.005	477.12
395.229	490.12
395.454	510.12
395.678	517.12
395.903	526.12
396.127	523.12
396.352	555.12
396.576	513.12
396.801	489.12
397.025	502.12
397.249	508.12
397.474	506.12
397.698	536.12
397.922	532.12
398.147	551.12
398.371	550.12
398.595	564.12
398.82	532.12
399.044	578.12
399.268	594.12
399.492	655.12
399.717	678.12
399.941	710.12
400.165	709.12
400.389	730.12
400.613	626.12
400.837	606.12
401.062	576.12
401.286	581.12
401.51	562.12
401.734	550.12
401.958	571.12
402.182	571.12
402.406	582.12
402.63	567.12
402.854	583.12
403.078	576.12
403.302	592.12
403.526	587.12
403.75	607.12
403.974	593.12
404.198	586.12
404.422	608.12
404.645	625.12
404.869	598.12
405.093	644.12
405.317	694.12
405.541	695.12
405.765	648.12
405.988	637.12
406.212	615.12
406.436	628.12
406.66	668.12
406.883	637.12
407.107	655.12
407.331	708.12
407.555	804.12
407.778	778.12
408.002	708.12
408.226	668.12
408.449	654.12
408.673	669.12
408.896	670.12
409.12	702.12
409.344	651.12
409.567	638.12
409.791	621.12
410.014	595.12
410.238	580.12
410.461	600.12
410.685	602.12
410.908	602.12
411.132	651.12
411.355	668.12
411.578	670.12
411.802	611.12
412.025	576.12
412.249	600.12
412.472	627.12
412.695	668.12
412.919	643.12
413.142	610.12
413.365	580.12
413.589	568.12
413.812	571.12
414.035	567.12
414.258	548.12
414.482	548.12
414.705	531.12
414.928	570.12
415.151	566.12
415.374	551.12
415.597	547.12
415.821	571.12
416.044	567.12
416.267	576.12
416.49	570.12
416.713	558.12
416.936	538.12
417.159	547.12
417.382	572.12
417.605	566.12
417.828	567.12
418.051	595.12
418.274	570.12
418.497	551.12
418.72	580.12
418.943	564.12
419.166	594.12
419.389	622.12
419.611	608.12
419.834	609.12
420.057	623.12
420.28	602.12
420.503	604.12
420.726	598.12
420.948	608.12
421.171	636.12
421.394	669.12
421.617	602.12
421.839	589.12
422.062	568.12
422.285	581.12
422.507	662.12
422.73	719.12
422.953	724.12
423.175	641.12
423.398	591.12
423.621	615.12
423.843	616.12
424.066	630.12
424.288	600.12
424.511	632.12
424.733	667.12
424.956	790.12
425.178	740.12
425.401	730.12
425.623	751.12
425.846	658.12
426.068	614.12
426.291	615.12
426.513	621.12
426.735	627.12
426.958	641.12
427.18	759.12
427.402	859.12
427.625	920.12
427.847	822.12
428.069	729.12
428.292	664.12
428.514	601.12
428.736	582.12
428.958	571.12
429.181	570.12
429.403	542.12
429.625	560.12
429.847	580.12
430.069	666.12
430.292	666.12
430.514	602.12
430.736	574.12
430.958	566.12
431.18	524.12
431.402	528.12
431.624	535.12
431.846	547.12
432.068	527.12
432.29	554.12
432.512	512.12
432.734	563.12
432.956	542.12
433.178	554.12
433.4	558.12
433.622	513.12
433.844	519.12
434.066	528.12
434.287	559.12
434.509	561.12
434.731	564.12
434.953	564.12
435.175	571.12
435.397	626.12
435.618	605.12
435.84	635.12
436.062	727.12
436.284	808.12
436.505	669.12
436.727	617.12
436.949	576.12
437.17	578.12
437.392	568.12
437.614	555.12
437.835	583.12
438.057	700.12
438.278	794.12
438.5	785.12
438.721	886.12
438.943	829.12
439.165	667.12
439.386	641.12
439.608	604.12
439.829	620.12
440.05	636.12
440.272	658.12
440.493	643.12
440.715	598.12
440.936	588.12
441.158	581.12
441.379	563.12
441.6	596.12
441.822	599.12
442.043	634.12
442.264	731.12
442.486	816.12
442.707	679.12
442.928	652.12
443.149	649.12
443.371	683.12
443.592	696.12
443.813	776.12
444.034	843.12
444.255	712.12
444.476	648.12
444.698	628.12
444.919	638.12
445.14	739.12
445.361	694.12
445.582	659.12
445.803	702.12
446.024	813.12
446.245	795.12
446.466	751.12
446.687	651.12
446.908	610.12
447.129	584.12
447.35	572.12
447.571	555.12
447.792	551.12
448.013	547.12
448.234	583.12
448.455	635.12
448.675	730.12
448.896	883.12
449.117	710.12
449.338	663.12
449.559	788.12
449.779	904.12
450	720.12
450.221	613.12
450.442	568.12
450.662	551.12
450.883	553.12
451.104	558.12
451.324	542.12
451.545	525.12
451.766	493.12
451.986	481.12
452.207	487.12
452.428	501.12
452.648	495.12
452.869	494.12
453.089	507.12
453.31	533.12
453.53	478.12
453.751	493.12
453.971	492.12
454.192	494.12
454.412	485.12
454.633	482.12
454.853	496.12
455.073	504.12
455.294	521.12
455.514	590.12
455.734	585.12
455.955	495.12
456.175	455.12
456.395	475.12
456.616	452.12
456.836	477.12
457.056	454.12
457.276	468.12
457.497	472.12
457.717	472.12
457.937	485.12
458.157	482.12
458.377	510.12
458.598	522.12
458.818	544.12
459.038	632.12
459.258	671.12
459.478	575.12
459.698	541.12
459.918	539.12
460.138	540.12
460.358	560.12
460.578	566.12
460.798	556.12
461.018	572.12
461.238	548.12
461.458	540.12
461.678	546.12
461.898	540.12
462.118	555.12
462.338	572.12
462.558	578.12
462.777	591.12
462.997	626.12
463.217	626.12
463.437	631.12
463.657	614.12
463.876	601.12
464.096	623.12
464.316	584.12
464.536	631.12
464.755	597.12
464.975	585.12
465.195	626.12
465.414	680.12
465.634	600.12
465.854	560.12
466.073	543.12
466.293	527.12
466.512	524.12
466.732	487.12
466.951	516.12
467.171	521.12
467.391	522.12
467.61	536.12
467.829	536.12
468.049	519.12
468.268	504.12
468.488	480.12
468.707	481.12
468.927	512.12
469.146	514.12
469.365	509.12
469.585	501.12
469.804	519.12
470.023	532.12
470.243	526.12
470.462	538.12
470.681	542.12
470.901	540.12
471.12	538.12
471.339	531.12
471.558	516.12
471.777	544.12
471.997	522.12
472.216	518.12
472.435	543.12
472.654	538.12
472.873	553.12
473.092	506.12
473.311	509.12
473.53	520.12
473.749	513.12
473.968	564.12
474.187	673.12
474.406	686.12
474.625	579.12
474.844	544.12
475.063	546.12
475.282	529.12
475.501	530.12
475.72	522.12
475.939	527.12
476.158	556.12
476.377	548.12
476.596	526.12
476.814	538.12
477.033	548.12
477.252	568.12
477.471	569.12
477.69	574.12
477.908	581.12
478.127	575.12
478.346	582.12
478.564	590.12
478.783	611.12
479.002	602.12
479.22	621.12
479.439	602.12
479.658	642.12
479.876	648.12
480.095	614.12
480.313	667.12
480.532	671.12
480.751	651.12
480.969	663.12
481.188	718.12
481.406	720.12
481.624	671.12
481.843	633.12
482.061	630.12
482.28	628.12
482.498	607.12
482.717	608.12
482.935	595.12
483.153	603.12
483.372	582.12
483.59	607.12
483.808	600.12
484.027	612.12
484.245	623.12
484.463	606.12
484.681	621.12
484.9	608.12
485.118	600.12
485.336	613.12
485.554	636.12
485.772	631.12
485.99	646.12
486.209	644.12
486.427	617.12
486.645	634.12
486.863	638.12
487.081	663.12
487.299	631.12
487.517	672.12
487.735	646.12
487.953	679.12
488.171	664.12
488.389	652.12
488.607	650.12
488.825	666.12
489.043	669.12
489.261	662.12
489.479	670.12
489.696	678.12
489.914	664.12
490.132	663.12
490.35	707.12
490.568	696.12
490.786	700.12
491.003	708.12
491.221	737.12
491.439	725.12
491.657	751.12
491.874	719.12
492.092	751.12
492.31	752.12
492.527	755.12
492.745	768.12
492.963	780.12
493.18	734.12
493.398	780.12
493.615	764.12
493.833	780.12
494.05	775.12
494.268	764.12
494.485	792.12
494.703	769.12
494.92	783.12
495.138	779.12
495.355	770.12
495.573	783.12
495.79	764.12
496.008	783.12
496.225	782.12
496.442	783.12
496.66	806.12
496.877	787.12
497.094	777.12
497.312	799.12
497.529	811.12
497.746	830.12
497.963	830.12
498.181	863.12
498.398	873.12
498.615	874.12
498.832	911.12
499.049	924.12
499.267	990.12
499.484	1000.12
499.701	1076.12
499.918	1124.12
500.135	1146.12
500.352	1220.12
500.569	1242.12
500.786	1285.12
501.003	1238.12
501.22	1178.12
501.437	1122.12
501.654	1090.12
