Data from 1975.PennyLincolnUp.Lamp.En5.5.200Scan.071719.P1.Changed Mount._HRD10591_15-55-56-858.txt Node
Date: Thu Jul 18 15:55:56 EDT 2019
User: cochatt
Spectrometer: HR+D1059
Trigger mode: 1
Integration Time (sec): 1.000000E-1
Scans to average: 1
Electric dark correction enabled: true
Nonlinearity correction enabled: false
Boxcar width: 0
XAxis mode: Wavelengths
Number of Pixels in Spectrum: 2048
>>>>>Begin Spectral Data<<<<<
223.165	-16.94
223.4	-16.94
223.635	-16.94
223.869	-26.94
224.104	-14.94
224.338	-6.94
224.573	-15.94
224.808	-8.94
225.042	-12.94
225.277	11.06
225.511	-12.94
225.746	3.06
225.98	4.06
226.215	4.06
226.449	15.06
226.683	23.06
226.918	20.06
227.152	36.06
227.387	25.06
227.621	36.06
227.856	33.06
228.09	47.06
228.324	33.06
228.559	58.06
228.793	66.06
229.027	101.06
229.262	109.06
229.496	116.06
229.73	131.06
229.964	144.06
230.199	132.06
230.433	131.06
230.667	95.06
230.901	105.06
231.136	119.06
231.37	112.06
231.604	126.06
231.838	105.06
232.072	122.06
232.306	106.06
232.541	114.06
232.775	99.06
233.009	95.06
233.243	112.06
233.477	110.06
233.711	112.06
233.945	116.06
234.179	127.06
234.413	118.06
234.647	115.06
234.881	116.06
235.115	106.06
235.349	120.06
235.583	127.06
235.817	115.06
236.051	119.06
236.285	112.06
236.519	135.06
236.753	126.06
236.987	129.06
237.221	170.06
237.455	216.06
237.689	176.06
237.922	137.06
238.156	124.06
238.39	112.06
238.624	118.06
238.858	132.06
239.091	117.06
239.325	124.06
239.559	133.06
239.793	131.06
240.027	155.06
240.26	132.06
240.494	153.06
240.728	151.06
240.961	135.06
241.195	144.06
241.429	135.06
241.662	130.06
241.896	128.06
242.13	137.06
242.363	144.06
242.597	118.06
242.83	129.06
243.064	135.06
243.298	134.06
243.531	132.06
243.765	143.06
243.998	142.06
244.232	134.06
244.465	134.06
244.699	143.06
244.932	146.06
245.166	141.06
245.399	153.06
245.633	153.06
245.866	152.06
246.099	156.06
246.333	134.06
246.566	145.06
246.8	169.06
247.033	153.06
247.266	159.06
247.5	162.06
247.733	163.06
247.966	152.06
248.2	164.06
248.433	167.06
248.666	157.06
248.899	181.06
249.133	187.06
249.366	203.06
249.599	186.06
249.832	193.06
250.066	169.06
250.299	185.06
250.532	169.06
250.765	202.06
250.998	214.06
251.231	204.06
251.465	215.06
251.698	193.06
251.931	184.06
252.164	183.06
252.397	202.06
252.63	194.06
252.863	197.06
253.096	220.06
253.329	224.06
253.562	193.06
253.795	201.06
254.028	209.06
254.261	198.06
254.494	207.06
254.727	238.06
254.96	255.06
255.193	252.06
255.426	220.06
255.659	219.06
255.892	204.06
256.124	211.06
256.357	240.06
256.59	207.06
256.823	207.06
257.056	209.06
257.289	205.06
257.521	206.06
257.754	208.06
257.987	200.06
258.22	212.06
258.452	208.06
258.685	202.06
258.918	200.06
259.151	201.06
259.383	215.06
259.616	213.06
259.849	210.06
260.081	221.06
260.314	247.06
260.547	262.06
260.779	244.06
261.012	233.06
261.244	215.06
261.477	199.06
261.71	217.06
261.942	205.06
262.175	216.06
262.407	197.06
262.64	202.06
262.872	224.06
263.105	219.06
263.337	212.06
263.57	191.06
263.802	206.06
264.035	200.06
264.267	205.06
264.499	201.06
264.732	232.06
264.964	228.06
265.197	222.06
265.429	203.06
265.661	198.06
265.894	208.06
266.126	215.06
266.358	213.06
266.591	197.06
266.823	224.06
267.055	223.06
267.287	230.06
267.52	211.06
267.752	233.06
267.984	213.06
268.216	238.06
268.448	227.06
268.681	224.06
268.913	260.06
269.145	259.06
269.377	239.06
269.609	242.06
269.841	245.06
270.073	240.06
270.306	275.06
270.538	287.06
270.77	296.06
271.002	301.06
271.234	261.06
271.466	265.06
271.698	282.06
271.93	285.06
272.162	298.06
272.394	285.06
272.626	289.06
272.858	274.06
273.09	275.06
273.322	248.06
273.553	255.06
273.785	235.06
274.017	271.06
274.249	259.06
274.481	245.06
274.713	269.06
274.945	260.06
275.176	263.06
275.408	268.06
275.64	269.06
275.872	240.06
276.104	269.06
276.335	253.06
276.567	264.06
276.799	264.06
277.031	272.06
277.262	281.06
277.494	305.06
277.726	278.06
277.957	269.06
278.189	263.06
278.421	260.06
278.652	274.06
278.884	291.06
279.115	244.06
279.347	263.06
279.579	279.06
279.81	269.06
280.042	270.06
280.273	262.06
280.505	264.06
280.736	264.06
280.968	260.06
281.199	267.06
281.431	260.06
281.662	264.06
281.894	270.06
282.125	285.06
282.356	270.06
282.588	277.06
282.819	290.06
283.051	269.06
283.282	272.06
283.513	273.06
283.745	279.06
283.976	276.06
284.207	287.06
284.439	290.06
284.67	274.06
284.901	265.06
285.132	261.06
285.364	278.06
285.595	279.06
285.826	271.06
286.057	272.06
286.288	272.06
286.52	282.06
286.751	278.06
286.982	292.06
287.213	256.06
287.444	273.06
287.675	283.06
287.906	279.06
288.138	288.06
288.369	295.06
288.6	305.06
288.831	299.06
289.062	287.06
289.293	304.06
289.524	294.06
289.755	296.06
289.986	288.06
290.217	287.06
290.448	295.06
290.679	286.06
290.91	293.06
291.141	291.06
291.371	295.06
291.602	303.06
291.833	294.06
292.064	311.06
292.295	297.06
292.526	280.06
292.757	271.06
292.987	288.06
293.218	296.06
293.449	286.06
293.68	309.06
293.91	283.06
294.141	276.06
294.372	309.06
294.603	290.06
294.833	304.06
295.064	281.06
295.295	295.06
295.525	294.06
295.756	288.06
295.987	284.06
296.217	310.06
296.448	309.06
296.679	280.06
296.909	279.06
297.14	293.06
297.37	298.06
297.601	304.06
297.831	299.06
298.062	288.06
298.292	288.06
298.523	302.06
298.753	317.06
298.984	292.06
299.214	309.06
299.445	287.06
299.675	312.06
299.905	295.06
300.136	311.06
300.366	311.06
300.597	312.06
300.827	313.06
301.057	305.06
301.288	323.06
301.518	302.06
301.748	325.06
301.979	335.06
302.209	326.06
302.439	313.06
302.669	331.06
302.9	323.06
303.13	328.06
303.36	333.06
303.59	311.06
303.82	312.06
304.051	331.06
304.281	335.06
304.511	339.06
304.741	339.06
304.971	325.06
305.201	336.06
305.431	322.06
305.661	323.06
305.891	314.06
306.121	317.06
306.352	298.06
306.582	324.06
306.812	318.06
307.042	321.06
307.272	332.06
307.502	339.06
307.731	335.06
307.961	334.06
308.191	325.06
308.421	323.06
308.651	335.06
308.881	323.06
309.111	334.06
309.341	328.06
309.571	349.06
309.8	331.06
310.03	339.06
310.26	341.06
310.49	337.06
310.72	350.06
310.949	375.06
311.179	391.06
311.409	357.06
311.639	356.06
311.868	344.06
312.098	349.06
312.328	365.06
312.557	351.06
312.787	367.06
313.017	373.06
313.246	377.06
313.476	341.06
313.706	360.06
313.935	375.06
314.165	353.06
314.394	364.06
314.624	381.06
314.853	364.06
315.083	355.06
315.312	369.06
315.542	358.06
315.771	356.06
316.001	335.06
316.23	336.06
316.46	319.06
316.689	360.06
316.919	364.06
317.148	355.06
317.377	352.06
317.607	360.06
317.836	356.06
318.065	378.06
318.295	366.06
318.524	365.06
318.753	366.06
318.983	357.06
319.212	366.06
319.441	371.06
319.67	374.06
319.9	352.06
320.129	356.06
320.358	360.06
320.587	377.06
320.816	361.06
321.046	357.06
321.275	382.06
321.504	373.06
321.733	364.06
321.962	366.06
322.191	403.06
322.42	364.06
322.649	399.06
322.878	375.06
323.108	415.06
323.337	416.06
323.566	416.06
323.795	454.06
324.024	479.06
324.253	549.06
324.482	689.06
324.71	1077.06
324.939	1559.06
325.168	1411.06
325.397	704.06
325.626	488.06
325.855	440.06
326.084	405.06
326.313	423.06
326.542	428.06
326.77	476.06
326.999	501.06
327.228	661.06
327.457	970.06
327.686	1223.06
327.914	830.06
328.143	551.06
328.372	515.06
328.6	473.06
328.829	470.06
329.058	470.06
329.287	485.06
329.515	456.06
329.744	448.06
329.972	443.06
330.201	446.06
330.43	491.06
330.658	484.06
330.887	492.06
331.115	505.06
331.344	458.06
331.572	443.06
331.801	432.06
332.03	445.06
332.258	436.06
332.486	433.06
332.715	433.06
332.943	427.06
333.172	441.06
333.4	454.06
333.629	465.06
333.857	447.06
334.085	466.06
334.314	475.06
334.542	492.06
334.771	518.06
334.999	480.06
335.227	461.06
335.455	465.06
335.684	465.06
335.912	436.06
336.14	432.06
336.369	418.06
336.597	454.06
336.825	439.06
337.053	435.06
337.281	432.06
337.51	433.06
337.738	425.06
337.966	431.06
338.194	421.06
338.422	427.06
338.65	459.06
338.878	443.06
339.106	417.06
339.334	412.06
339.562	389.06
339.79	407.06
340.018	416.06
340.246	422.06
340.474	437.06
340.702	414.06
340.93	424.06
341.158	408.06
341.386	417.06
341.614	423.06
341.842	440.06
342.07	412.06
342.298	389.06
342.526	389.06
342.754	409.06
342.981	406.06
343.209	425.06
343.437	419.06
343.665	430.06
343.893	445.06
344.12	459.06
344.348	432.06
344.576	426.06
344.804	432.06
345.031	416.06
345.259	424.06
345.487	426.06
345.714	427.06
345.942	408.06
346.17	415.06
346.397	407.06
346.625	401.06
346.853	408.06
347.08	387.06
347.308	399.06
347.535	388.06
347.763	409.06
347.99	391.06
348.218	385.06
348.445	397.06
348.673	382.06
348.9	402.06
349.128	391.06
349.355	391.06
349.583	397.06
349.81	382.06
350.037	386.06
350.265	381.06
350.492	373.06
350.72	388.06
350.947	391.06
351.174	412.06
351.402	392.06
351.629	412.06
351.856	414.06
352.083	403.06
352.311	401.06
352.538	399.06
352.765	402.06
352.992	382.06
353.22	432.06
353.447	412.06
353.674	372.06
353.901	384.06
354.128	372.06
354.355	379.06
354.583	385.06
354.81	369.06
355.037	367.06
355.264	377.06
355.491	387.06
355.718	372.06
355.945	388.06
356.172	388.06
356.399	390.06
356.626	366.06
356.853	381.06
357.08	373.06
357.307	388.06
357.534	353.06
357.761	371.06
357.988	396.06
358.215	390.06
358.441	383.06
358.668	378.06
358.895	379.06
359.122	381.06
359.349	392.06
359.576	378.06
359.802	416.06
360.029	415.06
360.256	434.06
360.483	421.06
360.709	402.06
360.936	416.06
361.163	394.06
361.39	387.06
361.616	387.06
361.843	386.06
362.07	400.06
362.296	390.06
362.523	387.06
362.749	389.06
362.976	393.06
363.203	387.06
363.429	394.06
363.656	399.06
363.882	404.06
364.109	383.06
364.335	399.06
364.562	384.06
364.788	379.06
365.015	388.06
365.241	392.06
365.468	382.06
365.694	379.06
365.92	407.06
366.147	383.06
366.373	407.06
366.599	401.06
366.826	379.06
367.052	391.06
367.278	398.06
367.505	392.06
367.731	397.06
367.957	391.06
368.184	393.06
368.41	400.06
368.636	412.06
368.862	411.06
369.089	409.06
369.315	405.06
369.541	395.06
369.767	384.06
369.993	385.06
370.219	392.06
370.445	393.06
370.672	392.06
370.898	379.06
371.124	389.06
371.35	392.06
371.576	402.06
371.802	397.06
372.028	407.06
372.254	402.06
372.48	401.06
372.706	395.06
372.932	402.06
373.158	405.06
373.384	406.06
373.61	398.06
373.835	419.06
374.061	407.06
374.287	397.06
374.513	427.06
374.739	421.06
374.965	417.06
375.191	407.06
375.416	429.06
375.642	432.06
375.868	413.06
376.094	405.06
376.319	414.06
376.545	400.06
376.771	421.06
376.997	405.06
377.222	405.06
377.448	394.06
377.674	415.06
377.899	417.06
378.125	407.06
378.35	402.06
378.576	421.06
378.802	399.06
379.027	414.06
379.253	400.06
379.478	395.06
379.704	397.06
379.929	406.06
380.155	369.06
380.38	414.06
380.606	389.06
380.831	383.06
381.057	428.06
381.282	413.06
381.507	423.06
381.733	382.06
381.958	392.06
382.184	407.06
382.409	437.06
382.634	425.06
382.86	411.06
383.085	421.06
383.31	441.06
383.535	438.06
383.761	436.06
383.986	414.06
384.211	415.06
384.436	452.06
384.662	444.06
384.887	426.06
385.112	418.06
385.337	438.06
385.562	454.06
385.787	449.06
386.013	452.06
386.238	463.06
386.463	477.06
386.688	463.06
386.913	450.06
387.138	437.06
387.363	473.06
387.588	455.06
387.813	451.06
388.038	453.06
388.263	477.06
388.488	467.06
388.713	455.06
388.938	447.06
389.163	451.06
389.387	445.06
389.612	451.06
389.837	436.06
390.062	435.06
390.287	453.06
390.512	451.06
390.736	438.06
390.961	440.06
391.186	489.06
391.411	475.06
391.636	459.06
391.86	499.06
392.085	488.06
392.31	472.06
392.534	468.06
392.759	467.06
392.984	469.06
393.208	464.06
393.433	471.06
393.658	452.06
393.882	470.06
394.107	437.06
394.331	459.06
394.556	440.06
394.78	459.06
395.005	461.06
395.229	440.06
395.454	465.06
395.678	485.06
395.903	493.06
396.127	502.06
396.352	501.06
396.576	477.06
396.801	471.06
397.025	463.06
397.249	490.06
397.474	485.06
397.698	487.06
397.922	507.06
398.147	513.06
398.371	524.06
398.595	510.06
398.82	533.06
399.044	545.06
399.268	547.06
399.492	606.06
399.717	644.06
399.941	676.06
400.165	651.06
400.389	663.06
400.613	582.06
400.837	563.06
401.062	539.06
401.286	539.06
401.51	545.06
401.734	516.06
401.958	520.06
402.182	524.06
402.406	533.06
402.63	536.06
402.854	535.06
403.078	526.06
403.302	535.06
403.526	563.06
403.75	558.06
403.974	547.06
404.198	556.06
404.422	551.06
404.645	570.06
404.869	572.06
405.093	592.06
405.317	622.06
405.541	650.06
405.765	614.06
405.988	589.06
406.212	586.06
406.436	583.06
406.66	597.06
406.883	588.06
407.107	622.06
407.331	657.06
407.555	744.06
407.778	721.06
408.002	643.06
408.226	619.06
408.449	608.06
408.673	610.06
408.896	626.06
409.12	641.06
409.344	640.06
409.567	575.06
409.791	558.06
410.014	554.06
410.238	558.06
410.461	544.06
410.685	552.06
410.908	575.06
411.132	601.06
411.355	619.06
411.578	588.06
411.802	541.06
412.025	558.06
412.249	567.06
412.472	573.06
412.695	616.06
412.919	601.06
413.142	551.06
413.365	537.06
413.589	535.06
413.812	544.06
414.035	534.06
414.258	517.06
414.482	517.06
414.705	540.06
414.928	535.06
415.151	541.06
415.374	508.06
415.597	512.06
415.821	492.06
416.044	517.06
416.267	538.06
416.49	503.06
416.713	519.06
416.936	536.06
417.159	517.06
417.382	513.06
417.605	518.06
417.828	524.06
418.051	545.06
418.274	547.06
418.497	506.06
418.72	523.06
418.943	541.06
419.166	545.06
419.389	586.06
419.611	552.06
419.834	575.06
420.057	560.06
420.28	556.06
420.503	537.06
420.726	526.06
420.948	558.06
421.171	587.06
421.394	623.06
421.617	575.06
421.839	551.06
422.062	555.06
422.285	542.06
422.507	615.06
422.73	661.06
422.953	651.06
423.175	574.06
423.398	565.06
423.621	564.06
423.843	589.06
424.066	567.06
424.288	575.06
424.511	577.06
424.733	638.06
424.956	712.06
425.178	678.06
425.401	696.06
425.623	697.06
425.846	605.06
426.068	573.06
426.291	556.06
426.513	543.06
426.735	543.06
426.958	598.06
427.18	681.06
427.402	813.06
427.625	862.06
427.847	722.06
428.069	649.06
428.292	619.06
428.514	549.06
428.736	535.06
428.958	528.06
429.181	491.06
429.403	511.06
429.625	531.06
429.847	567.06
430.069	615.06
430.292	611.06
430.514	545.06
430.736	526.06
430.958	520.06
431.18	509.06
431.402	523.06
431.624	509.06
431.846	493.06
432.068	498.06
432.29	498.06
432.512	489.06
432.734	511.06
432.956	505.06
433.178	526.06
433.4	523.06
433.622	513.06
433.844	522.06
434.066	487.06
434.287	495.06
434.509	505.06
434.731	527.06
434.953	520.06
435.175	529.06
435.397	565.06
435.618	558.06
435.84	595.06
436.062	715.06
436.284	747.06
436.505	614.06
436.727	577.06
436.949	546.06
437.17	539.06
437.392	534.06
437.614	535.06
437.835	558.06
438.057	643.06
438.278	716.06
438.5	745.06
438.721	803.06
438.943	771.06
439.165	622.06
439.386	567.06
439.608	573.06
439.829	549.06
440.05	592.06
440.272	636.06
440.493	569.06
440.715	563.06
440.936	540.06
441.158	535.06
441.379	544.06
441.6	566.06
441.822	543.06
442.043	611.06
442.264	692.06
442.486	711.06
442.707	624.06
442.928	584.06
443.149	589.06
443.371	589.06
443.592	640.06
443.813	726.06
444.034	810.06
444.255	640.06
444.476	593.06
444.698	577.06
444.919	611.06
445.14	666.06
445.361	609.06
445.582	611.06
445.803	647.06
446.024	723.06
446.245	772.06
446.466	685.06
446.687	595.06
446.908	571.06
447.129	538.06
447.35	515.06
447.571	513.06
447.792	484.06
448.013	496.06
448.234	525.06
448.455	569.06
448.675	696.06
448.896	800.06
449.117	663.06
449.338	619.06
449.559	740.06
449.779	844.06
450	652.06
450.221	542.06
450.442	513.06
450.662	497.06
450.883	485.06
451.104	492.06
451.324	491.06
451.545	479.06
451.766	485.06
451.986	457.06
452.207	451.06
452.428	435.06
452.648	476.06
452.869	452.06
453.089	471.06
453.31	475.06
453.53	459.06
453.751	461.06
453.971	467.06
454.192	462.06
454.412	445.06
454.633	447.06
454.853	484.06
455.073	428.06
455.294	503.06
455.514	535.06
455.734	524.06
455.955	478.06
456.175	433.06
456.395	431.06
456.616	422.06
456.836	428.06
457.056	449.06
457.276	428.06
457.497	431.06
457.717	444.06
457.937	444.06
458.157	435.06
458.377	445.06
458.598	462.06
458.818	511.06
459.038	563.06
459.258	602.06
459.478	532.06
459.698	489.06
459.918	498.06
460.138	496.06
460.358	507.06
460.578	514.06
460.798	523.06
461.018	535.06
461.238	511.06
461.458	519.06
461.678	543.06
461.898	533.06
462.118	506.06
462.338	547.06
462.558	555.06
462.777	565.06
462.997	579.06
463.217	607.06
463.437	627.06
463.657	608.06
463.876	559.06
464.096	584.06
464.316	566.06
464.536	562.06
464.755	544.06
464.975	564.06
465.195	585.06
465.414	591.06
465.634	556.06
465.854	523.06
466.073	522.06
466.293	497.06
466.512	473.06
466.732	480.06
466.951	481.06
467.171	502.06
467.391	477.06
467.61	494.06
467.829	480.06
468.049	480.06
468.268	474.06
468.488	477.06
468.707	488.06
468.927	486.06
469.146	482.06
469.365	463.06
469.585	470.06
469.804	483.06
470.023	490.06
470.243	499.06
470.462	485.06
470.681	527.06
470.901	494.06
471.12	485.06
471.339	490.06
471.558	486.06
471.777	493.06
471.997	481.06
472.216	493.06
472.435	524.06
472.654	488.06
472.873	469.06
473.092	474.06
473.311	467.06
473.53	490.06
473.749	491.06
473.968	532.06
474.187	587.06
474.406	619.06
474.625	520.06
474.844	519.06
475.063	487.06
475.282	464.06
475.501	485.06
475.72	505.06
475.939	492.06
476.158	496.06
476.377	483.06
476.596	501.06
476.814	525.06
477.033	501.06
477.252	514.06
477.471	528.06
477.69	541.06
477.908	528.06
478.127	518.06
478.346	540.06
478.564	529.06
478.783	554.06
479.002	560.06
479.22	566.06
479.439	579.06
479.658	576.06
479.876	606.06
480.095	605.06
480.313	598.06
480.532	596.06
480.751	603.06
480.969	607.06
481.188	638.06
481.406	655.06
481.624	607.06
481.843	589.06
482.061	569.06
482.28	567.06
482.498	576.06
482.717	565.06
482.935	573.06
483.153	546.06
483.372	562.06
483.59	571.06
483.808	549.06
484.027	574.06
484.245	547.06
484.463	565.06
484.681	573.06
484.9	573.06
485.118	569.06
485.336	571.06
485.554	587.06
485.772	582.06
485.99	588.06
486.209	585.06
486.427	594.06
486.645	600.06
486.863	616.06
487.081	585.06
487.299	595.06
487.517	599.06
487.735	592.06
487.953	605.06
488.171	599.06
488.389	587.06
488.607	591.06
488.825	608.06
489.043	596.06
489.261	605.06
489.479	638.06
489.696	621.06
489.914	637.06
490.132	634.06
490.35	632.06
490.568	619.06
490.786	645.06
491.003	668.06
491.221	685.06
491.439	704.06
491.657	658.06
491.874	689.06
492.092	685.06
492.31	707.06
492.527	687.06
492.745	686.06
492.963	707.06
493.18	701.06
493.398	703.06
493.615	691.06
493.833	716.06
494.05	722.06
494.268	699.06
494.485	713.06
494.703	730.06
494.92	724.06
495.138	722.06
495.355	701.06
495.573	709.06
495.79	725.06
496.008	704.06
496.225	724.06
496.442	738.06
496.66	711.06
496.877	715.06
497.094	739.06
497.312	727.06
497.529	729.06
497.746	745.06
497.963	740.06
498.181	780.06
498.398	798.06
498.615	825.06
498.832	842.06
499.049	869.06
499.267	901.06
499.484	938.06
499.701	979.06
499.918	1048.06
500.135	1079.06
500.352	1096.06
500.569	1169.06
500.786	1165.06
501.003	1139.06
501.22	1042.06
501.437	1031.06
501.654	1003.06
