Data from 1975.PennyLincolnUp.Lamp.En5.5.200Scan.071719.P1.Changed Mount._HRD10591_15-57-03-859.txt Node
Date: Thu Jul 18 15:57:03 EDT 2019
User: cochatt
Spectrometer: HR+D1059
Trigger mode: 1
Integration Time (sec): 1.000000E-1
Scans to average: 1
Electric dark correction enabled: true
Nonlinearity correction enabled: false
Boxcar width: 0
XAxis mode: Wavelengths
Number of Pixels in Spectrum: 2048
>>>>>Begin Spectral Data<<<<<
223.165	-13.44
223.4	-13.44
223.635	-13.44
223.869	-25.44
224.104	-20.44
224.338	-17.44
224.573	-11.44
224.808	-13.44
225.042	-11.44
225.277	-3.44
225.511	-10.44
225.746	9.56
225.98	18.56
226.215	22.56
226.449	18.56
226.683	9.56
226.918	17.56
227.152	30.56
227.387	36.56
227.621	24.56
227.856	35.56
228.09	48.56
228.324	53.56
228.559	62.56
228.793	78.56
229.027	100.56
229.262	108.56
229.496	116.56
229.73	132.56
229.964	141.56
230.199	129.56
230.433	103.56
230.667	120.56
230.901	136.56
231.136	122.56
231.37	122.56
231.604	129.56
231.838	116.56
232.072	128.56
232.306	112.56
232.541	110.56
232.775	128.56
233.009	105.56
233.243	106.56
233.477	109.56
233.711	122.56
233.945	117.56
234.179	129.56
234.413	116.56
234.647	116.56
234.881	116.56
235.115	122.56
235.349	127.56
235.583	114.56
235.817	132.56
236.051	111.56
236.285	128.56
236.519	122.56
236.753	128.56
236.987	150.56
237.221	174.56
237.455	220.56
237.689	193.56
237.922	140.56
238.156	145.56
238.39	129.56
238.624	119.56
238.858	126.56
239.091	154.56
239.325	146.56
239.559	138.56
239.793	127.56
240.027	140.56
240.26	138.56
240.494	156.56
240.728	154.56
240.961	152.56
241.195	144.56
241.429	153.56
241.662	124.56
241.896	141.56
242.13	145.56
242.363	132.56
242.597	136.56
242.83	135.56
243.064	145.56
243.298	141.56
243.531	145.56
243.765	140.56
243.998	148.56
244.232	151.56
244.465	140.56
244.699	156.56
244.932	138.56
245.166	146.56
245.399	166.56
245.633	158.56
245.866	141.56
246.099	151.56
246.333	172.56
246.566	162.56
246.8	153.56
247.033	159.56
247.266	164.56
247.5	175.56
247.733	171.56
247.966	187.56
248.2	177.56
248.433	171.56
248.666	171.56
248.899	190.56
249.133	181.56
249.366	225.56
249.599	190.56
249.832	199.56
250.066	194.56
250.299	193.56
250.532	205.56
250.765	207.56
250.998	236.56
251.231	244.56
251.465	214.56
251.698	209.56
251.931	205.56
252.164	192.56
252.397	199.56
252.63	211.56
252.863	214.56
253.096	215.56
253.329	227.56
253.562	229.56
253.795	209.56
254.028	232.56
254.261	218.56
254.494	232.56
254.727	254.56
254.96	272.56
255.193	275.56
255.426	245.56
255.659	226.56
255.892	227.56
256.124	233.56
256.357	238.56
256.59	239.56
256.823	224.56
257.056	239.56
257.289	215.56
257.521	209.56
257.754	220.56
257.987	232.56
258.22	228.56
258.452	200.56
258.685	205.56
258.918	213.56
259.151	217.56
259.383	225.56
259.616	235.56
259.849	228.56
260.081	254.56
260.314	252.56
260.547	249.56
260.779	233.56
261.012	233.56
261.244	225.56
261.477	242.56
261.71	222.56
261.942	231.56
262.175	222.56
262.407	227.56
262.64	225.56
262.872	216.56
263.105	220.56
263.337	230.56
263.57	209.56
263.802	220.56
264.035	217.56
264.267	229.56
264.499	214.56
264.732	225.56
264.964	224.56
265.197	222.56
265.429	229.56
265.661	221.56
265.894	233.56
266.126	233.56
266.358	215.56
266.591	215.56
266.823	226.56
267.055	239.56
267.287	228.56
267.52	225.56
267.752	234.56
267.984	219.56
268.216	244.56
268.448	240.56
268.681	242.56
268.913	263.56
269.145	280.56
269.377	284.56
269.609	301.56
269.841	278.56
270.073	278.56
270.306	288.56
270.538	302.56
270.77	316.56
271.002	329.56
271.234	300.56
271.466	297.56
271.698	331.56
271.93	310.56
272.162	342.56
272.394	326.56
272.626	319.56
272.858	295.56
273.09	279.56
273.322	280.56
273.553	265.56
273.785	296.56
274.017	267.56
274.249	300.56
274.481	268.56
274.713	293.56
274.945	274.56
275.176	287.56
275.408	261.56
275.64	279.56
275.872	268.56
276.104	272.56
276.335	293.56
276.567	287.56
276.799	300.56
277.031	312.56
277.262	324.56
277.494	348.56
277.726	314.56
277.957	301.56
278.189	303.56
278.421	292.56
278.652	284.56
278.884	288.56
279.115	290.56
279.347	297.56
279.579	290.56
279.81	272.56
280.042	285.56
280.273	280.56
280.505	278.56
280.736	281.56
280.968	278.56
281.199	297.56
281.431	290.56
281.662	262.56
281.894	292.56
282.125	288.56
282.356	300.56
282.588	311.56
282.819	316.56
283.051	278.56
283.282	289.56
283.513	281.56
283.745	288.56
283.976	295.56
284.207	294.56
284.439	303.56
284.67	314.56
284.901	301.56
285.132	288.56
285.364	282.56
285.595	295.56
285.826	291.56
286.057	309.56
286.288	288.56
286.52	289.56
286.751	296.56
286.982	298.56
287.213	308.56
287.444	315.56
287.675	316.56
287.906	324.56
288.138	320.56
288.369	327.56
288.6	336.56
288.831	304.56
289.062	294.56
289.293	306.56
289.524	316.56
289.755	298.56
289.986	303.56
290.217	301.56
290.448	253.56
290.679	301.56
290.91	328.56
291.141	312.56
291.371	286.56
291.602	302.56
291.833	314.56
292.064	324.56
292.295	289.56
292.526	322.56
292.757	307.56
292.987	289.56
293.218	302.56
293.449	328.56
293.68	296.56
293.91	287.56
294.141	305.56
294.372	295.56
294.603	308.56
294.833	313.56
295.064	321.56
295.295	296.56
295.525	312.56
295.756	302.56
295.987	322.56
296.217	329.56
296.448	337.56
296.679	313.56
296.909	312.56
297.14	302.56
297.37	330.56
297.601	318.56
297.831	310.56
298.062	314.56
298.292	313.56
298.523	329.56
298.753	329.56
298.984	337.56
299.214	329.56
299.445	316.56
299.675	317.56
299.905	336.56
300.136	323.56
300.366	337.56
300.597	329.56
300.827	335.56
301.057	332.56
301.288	328.56
301.518	332.56
301.748	355.56
301.979	344.56
302.209	354.56
302.439	343.56
302.669	346.56
302.9	358.56
303.13	335.56
303.36	359.56
303.59	346.56
303.82	356.56
304.051	359.56
304.281	340.56
304.511	343.56
304.741	345.56
304.971	333.56
305.201	346.56
305.431	333.56
305.661	338.56
305.891	328.56
306.121	333.56
306.352	334.56
306.582	343.56
306.812	336.56
307.042	338.56
307.272	339.56
307.502	340.56
307.731	350.56
307.961	351.56
308.191	349.56
308.421	357.56
308.651	349.56
308.881	362.56
309.111	346.56
309.341	358.56
309.571	352.56
309.8	365.56
310.03	378.56
310.26	379.56
310.49	390.56
310.72	365.56
310.949	392.56
311.179	400.56
311.409	403.56
311.639	372.56
311.868	385.56
312.098	384.56
312.328	389.56
312.557	395.56
312.787	407.56
313.017	412.56
313.246	385.56
313.476	390.56
313.706	368.56
313.935	386.56
314.165	403.56
314.394	409.56
314.624	402.56
314.853	397.56
315.083	393.56
315.312	390.56
315.542	386.56
315.771	390.56
316.001	362.56
316.23	392.56
316.46	395.56
316.689	386.56
316.919	389.56
317.148	385.56
317.377	424.56
317.607	400.56
317.836	393.56
318.065	388.56
318.295	382.56
318.524	391.56
318.753	396.56
318.983	369.56
319.212	388.56
319.441	400.56
319.67	381.56
319.9	397.56
320.129	391.56
320.358	393.56
320.587	399.56
320.816	394.56
321.046	413.56
321.275	409.56
321.504	390.56
321.733	419.56
321.962	414.56
322.191	427.56
322.42	425.56
322.649	434.56
322.878	436.56
323.108	458.56
323.337	477.56
323.566	463.56
323.795	497.56
324.024	555.56
324.253	630.56
324.482	832.56
324.71	1228.56
324.939	1852.56
325.168	1621.56
325.397	832.56
325.626	572.56
325.855	517.56
326.084	477.56
326.313	460.56
326.542	471.56
326.77	506.56
326.999	594.56
327.228	761.56
327.457	1165.56
327.686	1444.56
327.914	943.56
328.143	635.56
328.372	586.56
328.6	532.56
328.829	534.56
329.058	514.56
329.287	543.56
329.515	532.56
329.744	499.56
329.972	514.56
330.201	506.56
330.43	545.56
330.658	576.56
330.887	572.56
331.115	549.56
331.344	502.56
331.572	488.56
331.801	478.56
332.03	479.56
332.258	491.56
332.486	454.56
332.715	454.56
332.943	452.56
333.172	473.56
333.4	476.56
333.629	513.56
333.857	505.56
334.085	513.56
334.314	537.56
334.542	560.56
334.771	555.56
334.999	513.56
335.227	492.56
335.455	484.56
335.684	487.56
335.912	461.56
336.14	475.56
336.369	482.56
336.597	461.56
336.825	480.56
337.053	470.56
337.281	460.56
337.51	465.56
337.738	470.56
337.966	442.56
338.194	430.56
338.422	477.56
338.65	448.56
338.878	463.56
339.106	446.56
339.334	462.56
339.562	450.56
339.79	443.56
340.018	439.56
340.246	449.56
340.474	432.56
340.702	439.56
340.93	433.56
341.158	448.56
341.386	416.56
341.614	451.56
341.842	438.56
342.07	439.56
342.298	453.56
342.526	434.56
342.754	458.56
342.981	426.56
343.209	450.56
343.437	452.56
343.665	461.56
343.893	488.56
344.12	464.56
344.348	466.56
344.576	447.56
344.804	444.56
345.031	442.56
345.259	463.56
345.487	446.56
345.714	434.56
345.942	436.56
346.17	463.56
346.397	440.56
346.625	441.56
346.853	437.56
347.08	428.56
347.308	433.56
347.535	456.56
347.763	439.56
347.99	435.56
348.218	460.56
348.445	443.56
348.673	442.56
348.9	425.56
349.128	410.56
349.355	409.56
349.583	412.56
349.81	417.56
350.037	426.56
350.265	418.56
350.492	418.56
350.72	424.56
350.947	430.56
351.174	436.56
351.402	441.56
351.629	434.56
351.856	417.56
352.083	428.56
352.311	453.56
352.538	434.56
352.765	447.56
352.992	452.56
353.22	432.56
353.447	408.56
353.674	417.56
353.901	422.56
354.128	402.56
354.355	417.56
354.583	438.56
354.81	419.56
355.037	426.56
355.264	417.56
355.491	397.56
355.718	415.56
355.945	414.56
356.172	384.56
356.399	424.56
356.626	396.56
356.853	412.56
357.08	409.56
357.307	401.56
357.534	394.56
357.761	413.56
357.988	409.56
358.215	411.56
358.441	414.56
358.668	417.56
358.895	417.56
359.122	413.56
359.349	418.56
359.576	425.56
359.802	452.56
360.029	462.56
360.256	468.56
360.483	456.56
360.709	467.56
360.936	433.56
361.163	442.56
361.39	444.56
361.616	443.56
361.843	406.56
362.07	441.56
362.296	438.56
362.523	441.56
362.749	419.56
362.976	411.56
363.203	431.56
363.429	436.56
363.656	428.56
363.882	429.56
364.109	396.56
364.335	424.56
364.562	429.56
364.788	422.56
365.015	425.56
365.241	426.56
365.468	433.56
365.694	425.56
365.92	430.56
366.147	427.56
366.373	402.56
366.599	419.56
366.826	436.56
367.052	417.56
367.278	411.56
367.505	424.56
367.731	425.56
367.957	417.56
368.184	433.56
368.41	445.56
368.636	421.56
368.862	442.56
369.089	422.56
369.315	422.56
369.541	433.56
369.767	414.56
369.993	420.56
370.219	420.56
370.445	417.56
370.672	422.56
370.898	413.56
371.124	425.56
371.35	416.56
371.576	421.56
371.802	418.56
372.028	425.56
372.254	415.56
372.48	445.56
372.706	442.56
372.932	442.56
373.158	434.56
373.384	424.56
373.61	429.56
373.835	448.56
374.061	425.56
374.287	412.56
374.513	412.56
374.739	447.56
374.965	461.56
375.191	450.56
375.416	431.56
375.642	457.56
375.868	446.56
376.094	435.56
376.319	429.56
376.545	431.56
376.771	427.56
376.997	419.56
377.222	426.56
377.448	450.56
377.674	438.56
377.899	428.56
378.125	414.56
378.35	429.56
378.576	418.56
378.802	416.56
379.027	424.56
379.253	436.56
379.478	435.56
379.704	436.56
379.929	431.56
380.155	448.56
380.38	440.56
380.606	416.56
380.831	424.56
381.057	435.56
381.282	448.56
381.507	447.56
381.733	420.56
381.958	438.56
382.184	461.56
382.409	440.56
382.634	472.56
382.86	437.56
383.085	463.56
383.31	432.56
383.535	461.56
383.761	466.56
383.986	466.56
384.211	464.56
384.436	445.56
384.662	475.56
384.887	474.56
385.112	470.56
385.337	478.56
385.562	478.56
385.787	491.56
386.013	505.56
386.238	498.56
386.463	505.56
386.688	486.56
386.913	480.56
387.138	488.56
387.363	467.56
387.588	463.56
387.813	491.56
388.038	474.56
388.263	478.56
388.488	486.56
388.713	468.56
388.938	482.56
389.163	470.56
389.387	478.56
389.612	486.56
389.837	481.56
390.062	472.56
390.287	481.56
390.512	480.56
390.736	492.56
390.961	474.56
391.186	480.56
391.411	483.56
391.636	494.56
391.86	516.56
392.085	515.56
392.31	527.56
392.534	516.56
392.759	492.56
392.984	526.56
393.208	510.56
393.433	496.56
393.658	502.56
393.882	491.56
394.107	486.56
394.331	494.56
394.556	487.56
394.78	472.56
395.005	488.56
395.229	504.56
395.454	502.56
395.678	527.56
395.903	518.56
396.127	522.56
396.352	511.56
396.576	505.56
396.801	509.56
397.025	498.56
397.249	520.56
397.474	530.56
397.698	510.56
397.922	530.56
398.147	553.56
398.371	559.56
398.595	540.56
398.82	575.56
399.044	564.56
399.268	587.56
399.492	617.56
399.717	682.56
399.941	720.56
400.165	721.56
400.389	704.56
400.613	667.56
400.837	617.56
401.062	591.56
401.286	574.56
401.51	542.56
401.734	566.56
401.958	568.56
402.182	561.56
402.406	572.56
402.63	582.56
402.854	555.56
403.078	566.56
403.302	574.56
403.526	583.56
403.75	607.56
403.974	621.56
404.198	596.56
404.422	598.56
404.645	592.56
404.869	632.56
405.093	643.56
405.317	650.56
405.541	694.56
405.765	651.56
405.988	603.56
406.212	639.56
406.436	645.56
406.66	640.56
406.883	642.56
407.107	670.56
407.331	698.56
407.555	772.56
407.778	762.56
408.002	715.56
408.226	646.56
408.449	650.56
408.673	656.56
408.896	678.56
409.12	685.56
409.344	670.56
409.567	624.56
409.791	591.56
410.014	566.56
410.238	593.56
410.461	589.56
410.685	591.56
410.908	609.56
411.132	631.56
411.355	669.56
411.578	644.56
411.802	593.56
412.025	577.56
412.249	623.56
412.472	632.56
412.695	658.56
412.919	636.56
413.142	604.56
413.365	582.56
413.589	597.56
413.812	562.56
414.035	572.56
414.258	559.56
414.482	560.56
414.705	561.56
414.928	551.56
415.151	569.56
415.374	567.56
415.597	543.56
415.821	551.56
416.044	562.56
416.267	534.56
416.49	554.56
416.713	522.56
416.936	548.56
417.159	568.56
417.382	566.56
417.605	553.56
417.828	562.56
418.051	588.56
418.274	582.56
418.497	548.56
418.72	571.56
418.943	570.56
419.166	589.56
419.389	616.56
419.611	612.56
419.834	600.56
420.057	613.56
420.28	575.56
420.503	588.56
420.726	577.56
420.948	601.56
421.171	642.56
421.394	689.56
421.617	600.56
421.839	565.56
422.062	593.56
422.285	586.56
422.507	652.56
422.73	722.56
422.953	684.56
423.175	629.56
423.398	609.56
423.621	612.56
423.843	634.56
424.066	644.56
424.288	616.56
424.511	616.56
424.733	704.56
424.956	774.56
425.178	712.56
425.401	719.56
425.623	749.56
425.846	663.56
426.068	614.56
426.291	614.56
426.513	591.56
426.735	618.56
426.958	629.56
427.18	727.56
427.402	870.56
427.625	960.56
427.847	800.56
428.069	726.56
428.292	641.56
428.514	606.56
428.736	580.56
428.958	578.56
429.181	561.56
429.403	557.56
429.625	574.56
429.847	631.56
430.069	650.56
430.292	656.56
430.514	598.56
430.736	571.56
430.958	541.56
431.18	574.56
431.402	549.56
431.624	532.56
431.846	540.56
432.068	523.56
432.29	554.56
432.512	518.56
432.734	561.56
432.956	563.56
433.178	552.56
433.4	548.56
433.622	545.56
433.844	532.56
434.066	540.56
434.287	517.56
434.509	556.56
434.731	552.56
434.953	567.56
435.175	580.56
435.397	599.56
435.618	612.56
435.84	647.56
436.062	735.56
436.284	829.56
436.505	689.56
436.727	597.56
436.949	576.56
437.17	552.56
437.392	574.56
437.614	614.56
437.835	602.56
438.057	704.56
438.278	814.56
438.5	804.56
438.721	832.56
438.943	850.56
439.165	676.56
439.386	643.56
439.608	593.56
439.829	620.56
440.05	626.56
440.272	645.56
440.493	654.56
440.715	598.56
440.936	580.56
441.158	561.56
441.379	583.56
441.6	560.56
441.822	624.56
442.043	657.56
442.264	744.56
442.486	776.56
442.707	678.56
442.928	604.56
443.149	634.56
443.371	636.56
443.592	678.56
443.813	785.56
444.034	863.56
444.255	720.56
444.476	626.56
444.698	624.56
444.919	616.56
445.14	768.56
445.361	700.56
445.582	665.56
445.803	718.56
446.024	800.56
446.245	808.56
446.466	752.56
446.687	668.56
446.908	623.56
447.129	596.56
447.35	549.56
447.571	550.56
447.792	556.56
448.013	557.56
448.234	566.56
448.455	629.56
448.675	720.56
448.896	836.56
449.117	754.56
449.338	705.56
449.559	804.56
449.779	902.56
450	735.56
450.221	589.56
450.442	562.56
450.662	540.56
450.883	546.56
451.104	562.56
451.324	545.56
451.545	499.56
451.766	516.56
451.986	504.56
452.207	498.56
452.428	508.56
452.648	472.56
452.869	507.56
453.089	500.56
453.31	514.56
453.53	479.56
453.751	479.56
453.971	507.56
454.192	504.56
454.412	503.56
454.633	488.56
454.853	480.56
455.073	477.56
455.294	496.56
455.514	583.56
455.734	581.56
455.955	501.56
456.175	477.56
456.395	472.56
456.616	459.56
456.836	456.56
457.056	470.56
457.276	458.56
457.497	463.56
457.717	457.56
457.937	478.56
458.157	481.56
458.377	503.56
458.598	494.56
458.818	554.56
459.038	635.56
459.258	675.56
459.478	604.56
459.698	546.56
459.918	568.56
460.138	573.56
460.358	560.56
460.578	568.56
460.798	572.56
461.018	568.56
461.238	542.56
461.458	574.56
461.678	545.56
461.898	554.56
462.118	551.56
462.338	577.56
462.558	584.56
462.777	609.56
462.997	638.56
463.217	620.56
463.437	644.56
463.657	620.56
463.876	607.56
464.096	611.56
464.316	611.56
464.536	621.56
464.755	606.56
464.975	609.56
465.195	622.56
465.414	650.56
465.634	593.56
465.854	568.56
466.073	550.56
466.293	549.56
466.512	543.56
466.732	518.56
466.951	511.56
467.171	496.56
467.391	513.56
467.61	532.56
467.829	538.56
468.049	533.56
468.268	537.56
468.488	518.56
468.707	510.56
468.927	509.56
469.146	509.56
469.365	512.56
469.585	497.56
469.804	509.56
470.023	519.56
470.243	546.56
470.462	531.56
470.681	547.56
470.901	543.56
471.12	527.56
471.339	524.56
471.558	516.56
471.777	521.56
471.997	512.56
472.216	517.56
472.435	545.56
472.654	530.56
472.873	530.56
473.092	551.56
473.311	523.56
473.53	536.56
473.749	518.56
473.968	561.56
474.187	651.56
474.406	680.56
474.625	576.56
474.844	516.56
475.063	523.56
475.282	490.56
475.501	530.56
475.72	516.56
475.939	542.56
476.158	526.56
476.377	543.56
476.596	511.56
476.814	535.56
477.033	553.56
477.252	528.56
477.471	531.56
477.69	550.56
477.908	585.56
478.127	576.56
478.346	577.56
478.564	588.56
478.783	612.56
479.002	593.56
479.22	595.56
479.439	618.56
479.658	610.56
479.876	646.56
480.095	629.56
480.313	651.56
480.532	641.56
480.751	640.56
480.969	658.56
481.188	695.56
481.406	712.56
481.624	654.56
481.843	618.56
482.061	624.56
482.28	607.56
482.498	590.56
482.717	609.56
482.935	602.56
483.153	607.56
483.372	619.56
483.59	610.56
483.808	601.56
484.027	594.56
484.245	603.56
484.463	611.56
484.681	620.56
484.9	613.56
485.118	626.56
485.336	616.56
485.554	601.56
485.772	629.56
485.99	646.56
486.209	644.56
486.427	618.56
486.645	650.56
486.863	680.56
487.081	658.56
487.299	669.56
487.517	642.56
487.735	656.56
487.953	646.56
488.171	642.56
488.389	642.56
488.607	641.56
488.825	662.56
489.043	676.56
489.261	675.56
489.479	661.56
489.696	680.56
489.914	694.56
490.132	681.56
490.35	680.56
490.568	687.56
490.786	704.56
491.003	722.56
491.221	734.56
491.439	703.56
491.657	748.56
491.874	769.56
492.092	724.56
492.31	777.56
492.527	780.56
492.745	757.56
492.963	735.56
493.18	758.56
493.398	783.56
493.615	777.56
493.833	759.56
494.05	774.56
494.268	785.56
494.485	752.56
494.703	774.56
494.92	759.56
495.138	759.56
495.355	784.56
495.573	774.56
495.79	778.56
496.008	789.56
496.225	776.56
496.442	760.56
496.66	785.56
496.877	788.56
497.094	780.56
497.312	789.56
497.529	800.56
497.746	808.56
497.963	823.56
498.181	873.56
498.398	861.56
498.615	895.56
498.832	906.56
499.049	896.56
499.267	940.56
499.484	1007.56
499.701	1017.56
499.918	1086.56
500.135	1162.56
500.352	1218.56
500.569	1246.56
500.786	1234.56
501.003	1222.56
501.22	1197.56
501.437	1121.56
501.654	1118.56
