Data from 1975.PennyLincolnUp.Lamp.En5.5.200Scan.071719.P1.Changed Mount._HRD10591_15-57-45-859.txt Node
Date: Thu Jul 18 15:57:45 EDT 2019
User: cochatt
Spectrometer: HR+D1059
Trigger mode: 1
Integration Time (sec): 1.000000E-1
Scans to average: 1
Electric dark correction enabled: true
Nonlinearity correction enabled: false
Boxcar width: 0
XAxis mode: Wavelengths
Number of Pixels in Spectrum: 2048
>>>>>Begin Spectral Data<<<<<
223.165	-9.62
223.4	-9.62
223.635	-9.62
223.869	-10.62
224.104	-20.62
224.338	-5.62
224.573	-14.62
224.808	-17.62
225.042	-12.62
225.277	-9.62
225.511	-4.62
225.746	0.38
225.98	0.38
226.215	25.38
226.449	19.38
226.683	18.38
226.918	19.38
227.152	22.38
227.387	34.38
227.621	31.38
227.856	48.38
228.09	53.38
228.324	54.38
228.559	65.38
228.793	62.38
229.027	89.38
229.262	99.38
229.496	106.38
229.73	141.38
229.964	146.38
230.199	126.38
230.433	100.38
230.667	107.38
230.901	115.38
231.136	114.38
231.37	116.38
231.604	110.38
231.838	103.38
232.072	104.38
232.306	112.38
232.541	114.38
232.775	123.38
233.009	116.38
233.243	121.38
233.477	128.38
233.711	117.38
233.945	118.38
234.179	116.38
234.413	124.38
234.647	122.38
234.881	138.38
235.115	129.38
235.349	111.38
235.583	107.38
235.817	119.38
236.051	125.38
236.285	124.38
236.519	123.38
236.753	132.38
236.987	142.38
237.221	178.38
237.455	222.38
237.689	167.38
237.922	150.38
238.156	138.38
238.39	135.38
238.624	111.38
238.858	131.38
239.091	121.38
239.325	134.38
239.559	122.38
239.793	114.38
240.027	134.38
240.26	146.38
240.494	162.38
240.728	173.38
240.961	158.38
241.195	139.38
241.429	141.38
241.662	136.38
241.896	132.38
242.13	144.38
242.363	142.38
242.597	121.38
242.83	146.38
243.064	137.38
243.298	142.38
243.531	132.38
243.765	144.38
243.998	155.38
244.232	138.38
244.465	143.38
244.699	140.38
244.932	162.38
245.166	151.38
245.399	155.38
245.633	140.38
245.866	132.38
246.099	155.38
246.333	163.38
246.566	151.38
246.8	158.38
247.033	155.38
247.266	145.38
247.5	158.38
247.733	168.38
247.966	161.38
248.2	165.38
248.433	162.38
248.666	170.38
248.899	184.38
249.133	186.38
249.366	218.38
249.599	203.38
249.832	178.38
250.066	172.38
250.299	195.38
250.532	199.38
250.765	207.38
250.998	230.38
251.231	226.38
251.465	204.38
251.698	200.38
251.931	204.38
252.164	207.38
252.397	174.38
252.63	208.38
252.863	206.38
253.096	204.38
253.329	240.38
253.562	218.38
253.795	200.38
254.028	204.38
254.261	221.38
254.494	240.38
254.727	274.38
254.96	274.38
255.193	269.38
255.426	241.38
255.659	234.38
255.892	226.38
256.124	235.38
256.357	227.38
256.59	230.38
256.823	210.38
257.056	217.38
257.289	196.38
257.521	223.38
257.754	214.38
257.987	225.38
258.22	219.38
258.452	207.38
258.685	216.38
258.918	213.38
259.151	200.38
259.383	219.38
259.616	219.38
259.849	226.38
260.081	235.38
260.314	273.38
260.547	258.38
260.779	249.38
261.012	238.38
261.244	206.38
261.477	216.38
261.71	229.38
261.942	220.38
262.175	234.38
262.407	231.38
262.64	219.38
262.872	222.38
263.105	228.38
263.337	219.38
263.57	225.38
263.802	210.38
264.035	210.38
264.267	226.38
264.499	208.38
264.732	201.38
264.964	219.38
265.197	223.38
265.429	215.38
265.661	232.38
265.894	232.38
266.126	217.38
266.358	228.38
266.591	211.38
266.823	240.38
267.055	222.38
267.287	242.38
267.52	222.38
267.752	220.38
267.984	231.38
268.216	243.38
268.448	234.38
268.681	233.38
268.913	238.38
269.145	274.38
269.377	275.38
269.609	269.38
269.841	267.38
270.073	267.38
270.306	278.38
270.538	306.38
270.77	304.38
271.002	314.38
271.234	297.38
271.466	290.38
271.698	316.38
271.93	311.38
272.162	319.38
272.394	303.38
272.626	309.38
272.858	295.38
273.09	280.38
273.322	280.38
273.553	273.38
273.785	274.38
274.017	263.38
274.249	260.38
274.481	264.38
274.713	267.38
274.945	298.38
275.176	258.38
275.408	293.38
275.64	273.38
275.872	278.38
276.104	255.38
276.335	278.38
276.567	291.38
276.799	299.38
277.031	282.38
277.262	324.38
277.494	327.38
277.726	293.38
277.957	308.38
278.189	287.38
278.421	273.38
278.652	282.38
278.884	280.38
279.115	260.38
279.347	279.38
279.579	303.38
279.81	257.38
280.042	279.38
280.273	294.38
280.505	273.38
280.736	293.38
280.968	279.38
281.199	267.38
281.431	280.38
281.662	278.38
281.894	291.38
282.125	276.38
282.356	305.38
282.588	318.38
282.819	320.38
283.051	282.38
283.282	288.38
283.513	298.38
283.745	301.38
283.976	282.38
284.207	284.38
284.439	276.38
284.67	293.38
284.901	288.38
285.132	279.38
285.364	293.38
285.595	288.38
285.826	279.38
286.057	293.38
286.288	295.38
286.52	304.38
286.751	281.38
286.982	299.38
287.213	293.38
287.444	292.38
287.675	289.38
287.906	297.38
288.138	291.38
288.369	311.38
288.6	308.38
288.831	326.38
289.062	326.38
289.293	304.38
289.524	305.38
289.755	296.38
289.986	288.38
290.217	303.38
290.448	307.38
290.679	316.38
290.91	314.38
291.141	302.38
291.371	306.38
291.602	315.38
291.833	288.38
292.064	292.38
292.295	303.38
292.526	310.38
292.757	303.38
292.987	301.38
293.218	302.38
293.449	292.38
293.68	305.38
293.91	283.38
294.141	307.38
294.372	290.38
294.603	302.38
294.833	313.38
295.064	306.38
295.295	305.38
295.525	310.38
295.756	297.38
295.987	313.38
296.217	329.38
296.448	329.38
296.679	326.38
296.909	290.38
297.14	319.38
297.37	312.38
297.601	311.38
297.831	295.38
298.062	309.38
298.292	322.38
298.523	299.38
298.753	315.38
298.984	314.38
299.214	298.38
299.445	311.38
299.675	324.38
299.905	332.38
300.136	329.38
300.366	320.38
300.597	313.38
300.827	316.38
301.057	338.38
301.288	344.38
301.518	346.38
301.748	320.38
301.979	341.38
302.209	350.38
302.439	345.38
302.669	352.38
302.9	331.38
303.13	327.38
303.36	340.38
303.59	340.38
303.82	346.38
304.051	344.38
304.281	350.38
304.511	332.38
304.741	338.38
304.971	340.38
305.201	339.38
305.431	361.38
305.661	343.38
305.891	344.38
306.121	334.38
306.352	349.38
306.582	327.38
306.812	338.38
307.042	335.38
307.272	345.38
307.502	351.38
307.731	332.38
307.961	338.38
308.191	330.38
308.421	339.38
308.651	339.38
308.881	345.38
309.111	363.38
309.341	359.38
309.571	362.38
309.8	361.38
310.03	362.38
310.26	359.38
310.49	386.38
310.72	377.38
310.949	400.38
311.179	384.38
311.409	378.38
311.639	357.38
311.868	392.38
312.098	376.38
312.328	373.38
312.557	395.38
312.787	397.38
313.017	397.38
313.246	404.38
313.476	396.38
313.706	384.38
313.935	377.38
314.165	399.38
314.394	393.38
314.624	397.38
314.853	382.38
315.083	373.38
315.312	391.38
315.542	395.38
315.771	368.38
316.001	368.38
316.23	388.38
316.46	378.38
316.689	379.38
316.919	376.38
317.148	378.38
317.377	389.38
317.607	391.38
317.836	380.38
318.065	400.38
318.295	366.38
318.524	361.38
318.753	362.38
318.983	376.38
319.212	368.38
319.441	372.38
319.67	390.38
319.9	397.38
320.129	386.38
320.358	387.38
320.587	386.38
320.816	412.38
321.046	391.38
321.275	376.38
321.504	397.38
321.733	400.38
321.962	424.38
322.191	409.38
322.42	426.38
322.649	423.38
322.878	438.38
323.108	454.38
323.337	450.38
323.566	454.38
323.795	487.38
324.024	522.38
324.253	605.38
324.482	840.38
324.71	1216.38
324.939	1888.38
325.168	1660.38
325.397	829.38
325.626	578.38
325.855	502.38
326.084	491.38
326.313	464.38
326.542	479.38
326.77	500.38
326.999	599.38
327.228	776.38
327.457	1142.38
327.686	1410.38
327.914	954.38
328.143	644.38
328.372	578.38
328.6	536.38
328.829	522.38
329.058	546.38
329.287	534.38
329.515	527.38
329.744	500.38
329.972	480.38
330.201	502.38
330.43	542.38
330.658	542.38
330.887	568.38
331.115	577.38
331.344	515.38
331.572	481.38
331.801	472.38
332.03	492.38
332.258	488.38
332.486	481.38
332.715	473.38
332.943	450.38
333.172	469.38
333.4	474.38
333.629	507.38
333.857	500.38
334.085	515.38
334.314	529.38
334.542	575.38
334.771	585.38
334.999	498.38
335.227	489.38
335.455	466.38
335.684	468.38
335.912	497.38
336.14	455.38
336.369	464.38
336.597	481.38
336.825	472.38
337.053	455.38
337.281	455.38
337.51	442.38
337.738	470.38
337.966	435.38
338.194	449.38
338.422	459.38
338.65	477.38
338.878	450.38
339.106	442.38
339.334	422.38
339.562	430.38
339.79	440.38
340.018	439.38
340.246	439.38
340.474	444.38
340.702	449.38
340.93	453.38
341.158	452.38
341.386	444.38
341.614	454.38
341.842	442.38
342.07	428.38
342.298	444.38
342.526	440.38
342.754	440.38
342.981	418.38
343.209	423.38
343.437	441.38
343.665	453.38
343.893	470.38
344.12	463.38
344.348	455.38
344.576	486.38
344.804	467.38
345.031	439.38
345.259	454.38
345.487	459.38
345.714	462.38
345.942	433.38
346.17	449.38
346.397	434.38
346.625	452.38
346.853	418.38
347.08	427.38
347.308	422.38
347.535	434.38
347.763	441.38
347.99	428.38
348.218	433.38
348.445	445.38
348.673	440.38
348.9	438.38
349.128	427.38
349.355	445.38
349.583	425.38
349.81	424.38
350.037	423.38
350.265	408.38
350.492	432.38
350.72	404.38
350.947	423.38
351.174	427.38
351.402	443.38
351.629	432.38
351.856	430.38
352.083	423.38
352.311	431.38
352.538	422.38
352.765	432.38
352.992	435.38
353.22	434.38
353.447	420.38
353.674	412.38
353.901	425.38
354.128	410.38
354.355	405.38
354.583	406.38
354.81	394.38
355.037	412.38
355.264	387.38
355.491	379.38
355.718	406.38
355.945	397.38
356.172	405.38
356.399	394.38
356.626	411.38
356.853	406.38
357.08	415.38
357.307	402.38
357.534	404.38
357.761	406.38
357.988	408.38
358.215	394.38
358.441	389.38
358.668	405.38
358.895	402.38
359.122	402.38
359.349	402.38
359.576	440.38
359.802	445.38
360.029	457.38
360.256	464.38
360.483	451.38
360.709	424.38
360.936	444.38
361.163	435.38
361.39	430.38
361.616	441.38
361.843	435.38
362.07	428.38
362.296	437.38
362.523	427.38
362.749	441.38
362.976	404.38
363.203	442.38
363.429	400.38
363.656	431.38
363.882	428.38
364.109	423.38
364.335	403.38
364.562	394.38
364.788	417.38
365.015	414.38
365.241	389.38
365.468	415.38
365.694	420.38
365.92	421.38
366.147	428.38
366.373	419.38
366.599	410.38
366.826	417.38
367.052	418.38
367.278	419.38
367.505	424.38
367.731	430.38
367.957	403.38
368.184	409.38
368.41	423.38
368.636	432.38
368.862	444.38
369.089	402.38
369.315	417.38
369.541	425.38
369.767	423.38
369.993	418.38
370.219	418.38
370.445	417.38
370.672	433.38
370.898	420.38
371.124	410.38
371.35	444.38
371.576	418.38
371.802	431.38
372.028	429.38
372.254	408.38
372.48	422.38
372.706	415.38
372.932	430.38
373.158	451.38
373.384	430.38
373.61	424.38
373.835	428.38
374.061	418.38
374.287	421.38
374.513	430.38
374.739	436.38
374.965	415.38
375.191	454.38
375.416	434.38
375.642	436.38
375.868	443.38
376.094	450.38
376.319	415.38
376.545	417.38
376.771	435.38
376.997	432.38
377.222	425.38
377.448	425.38
377.674	422.38
377.899	435.38
378.125	412.38
378.35	406.38
378.576	418.38
378.802	428.38
379.027	418.38
379.253	421.38
379.478	436.38
379.704	418.38
379.929	427.38
380.155	418.38
380.38	430.38
380.606	412.38
380.831	431.38
381.057	426.38
381.282	432.38
381.507	440.38
381.733	447.38
381.958	425.38
382.184	446.38
382.409	450.38
382.634	445.38
382.86	428.38
383.085	423.38
383.31	442.38
383.535	460.38
383.761	454.38
383.986	454.38
384.211	449.38
384.436	430.38
384.662	474.38
384.887	478.38
385.112	472.38
385.337	467.38
385.562	475.38
385.787	456.38
386.013	482.38
386.238	475.38
386.463	456.38
386.688	478.38
386.913	456.38
387.138	462.38
387.363	481.38
387.588	487.38
387.813	471.38
388.038	470.38
388.263	470.38
388.488	495.38
388.713	506.38
388.938	473.38
389.163	466.38
389.387	481.38
389.612	461.38
389.837	478.38
390.062	476.38
390.287	465.38
390.512	467.38
390.736	486.38
390.961	476.38
391.186	486.38
391.411	481.38
391.636	481.38
391.86	504.38
392.085	504.38
392.31	491.38
392.534	479.38
392.759	484.38
392.984	502.38
393.208	478.38
393.433	478.38
393.658	453.38
393.882	467.38
394.107	472.38
394.331	496.38
394.556	490.38
394.78	484.38
395.005	487.38
395.229	480.38
395.454	513.38
395.678	475.38
395.903	510.38
396.127	507.38
396.352	506.38
396.576	524.38
396.801	498.38
397.025	522.38
397.249	525.38
397.474	499.38
397.698	516.38
397.922	521.38
398.147	560.38
398.371	544.38
398.595	532.38
398.82	551.38
399.044	560.38
399.268	616.38
399.492	615.38
399.717	692.38
399.941	695.38
400.165	697.38
400.389	684.38
400.613	650.38
400.837	595.38
401.062	562.38
401.286	584.38
401.51	552.38
401.734	549.38
401.958	562.38
402.182	546.38
402.406	553.38
402.63	570.38
402.854	572.38
403.078	576.38
403.302	581.38
403.526	574.38
403.75	588.38
403.974	589.38
404.198	566.38
404.422	603.38
404.645	569.38
404.869	607.38
405.093	610.38
405.317	656.38
405.541	687.38
405.765	649.38
405.988	634.38
406.212	623.38
406.436	651.38
406.66	653.38
406.883	603.38
407.107	648.38
407.331	707.38
407.555	798.38
407.778	770.38
408.002	721.38
408.226	650.38
408.449	646.38
408.673	619.38
408.896	650.38
409.12	706.38
409.344	693.38
409.567	607.38
409.791	611.38
410.014	578.38
410.238	564.38
410.461	580.38
410.685	585.38
410.908	574.38
411.132	612.38
411.355	660.38
411.578	619.38
411.802	601.38
412.025	576.38
412.249	571.38
412.472	625.38
412.695	649.38
412.919	649.38
413.142	594.38
413.365	565.38
413.589	565.38
413.812	570.38
414.035	553.38
414.258	522.38
414.482	546.38
414.705	560.38
414.928	548.38
415.151	537.38
415.374	556.38
415.597	555.38
415.821	550.38
416.044	547.38
416.267	547.38
416.49	571.38
416.713	566.38
416.936	522.38
417.159	547.38
417.382	549.38
417.605	553.38
417.828	578.38
418.051	563.38
418.274	567.38
418.497	549.38
418.72	561.38
418.943	532.38
419.166	599.38
419.389	619.38
419.611	591.38
419.834	595.38
420.057	589.38
420.28	572.38
420.503	587.38
420.726	586.38
420.948	571.38
421.171	648.38
421.394	650.38
421.617	611.38
421.839	571.38
422.062	565.38
422.285	601.38
422.507	658.38
422.73	723.38
422.953	686.38
423.175	601.38
423.398	608.38
423.621	590.38
423.843	624.38
424.066	644.38
424.288	599.38
424.511	648.38
424.733	691.38
424.956	753.38
425.178	736.38
425.401	727.38
425.623	758.38
425.846	664.38
426.068	615.38
426.291	608.38
426.513	604.38
426.735	588.38
426.958	642.38
427.18	717.38
427.402	843.38
427.625	937.38
427.847	801.38
428.069	706.38
428.292	649.38
428.514	588.38
428.736	572.38
428.958	594.38
429.181	554.38
429.403	563.38
429.625	566.38
429.847	589.38
430.069	652.38
430.292	670.38
430.514	567.38
430.736	574.38
430.958	538.38
431.18	531.38
431.402	547.38
431.624	524.38
431.846	522.38
432.068	530.38
432.29	543.38
432.512	524.38
432.734	534.38
432.956	517.38
433.178	561.38
433.4	521.38
433.622	546.38
433.844	534.38
434.066	536.38
434.287	547.38
434.509	532.38
434.731	551.38
434.953	595.38
435.175	591.38
435.397	595.38
435.618	617.38
435.84	656.38
436.062	715.38
436.284	793.38
436.505	652.38
436.727	608.38
436.949	583.38
437.17	560.38
437.392	524.38
437.614	578.38
437.835	584.38
438.057	666.38
438.278	784.38
438.5	783.38
438.721	865.38
438.943	832.38
439.165	672.38
439.386	623.38
439.608	604.38
439.829	609.38
440.05	632.38
440.272	656.38
440.493	642.38
440.715	594.38
440.936	576.38
441.158	583.38
441.379	570.38
441.6	603.38
441.822	601.38
442.043	634.38
442.264	708.38
442.486	756.38
442.707	667.38
442.928	613.38
443.149	639.38
443.371	646.38
443.592	690.38
443.813	787.38
444.034	839.38
444.255	689.38
444.476	638.38
444.698	630.38
444.919	640.38
445.14	767.38
445.361	676.38
445.582	639.38
445.803	682.38
446.024	780.38
446.245	801.38
446.466	742.38
446.687	632.38
446.908	615.38
447.129	582.38
447.35	563.38
447.571	552.38
447.792	545.38
448.013	543.38
448.234	563.38
448.455	602.38
448.675	735.38
448.896	848.38
449.117	714.38
449.338	669.38
449.559	780.38
449.779	913.38
450	710.38
450.221	593.38
450.442	538.38
450.662	528.38
450.883	515.38
451.104	542.38
451.324	546.38
451.545	502.38
451.766	515.38
451.986	502.38
452.207	489.38
452.428	487.38
452.648	495.38
452.869	479.38
453.089	488.38
453.31	532.38
453.53	509.38
453.751	490.38
453.971	494.38
454.192	508.38
454.412	486.38
454.633	488.38
454.853	490.38
455.073	490.38
455.294	528.38
455.514	584.38
455.734	562.38
455.955	516.38
456.175	497.38
456.395	480.38
456.616	475.38
456.836	461.38
457.056	477.38
457.276	449.38
457.497	447.38
457.717	470.38
457.937	485.38
458.157	483.38
458.377	502.38
458.598	507.38
458.818	549.38
459.038	621.38
459.258	658.38
459.478	582.38
459.698	539.38
459.918	549.38
460.138	528.38
460.358	546.38
460.578	571.38
460.798	554.38
461.018	551.38
461.238	554.38
461.458	579.38
461.678	534.38
461.898	561.38
462.118	545.38
462.338	579.38
462.558	585.38
462.777	592.38
462.997	608.38
463.217	617.38
463.437	625.38
463.657	617.38
463.876	602.38
464.096	631.38
464.316	594.38
464.536	603.38
464.755	603.38
464.975	595.38
465.195	614.38
465.414	641.38
465.634	563.38
465.854	576.38
466.073	549.38
466.293	529.38
466.512	546.38
466.732	516.38
466.951	495.38
467.171	485.38
467.391	523.38
467.61	514.38
467.829	545.38
468.049	522.38
468.268	495.38
468.488	516.38
468.707	501.38
468.927	483.38
469.146	490.38
469.365	494.38
469.585	506.38
469.804	505.38
470.023	534.38
470.243	513.38
470.462	506.38
470.681	530.38
470.901	540.38
471.12	535.38
471.339	529.38
471.558	529.38
471.777	532.38
471.997	542.38
472.216	524.38
472.435	545.38
472.654	529.38
472.873	524.38
473.092	514.38
473.311	505.38
473.53	519.38
473.749	505.38
473.968	554.38
474.187	655.38
474.406	660.38
474.625	564.38
474.844	524.38
475.063	516.38
475.282	496.38
475.501	518.38
475.72	525.38
475.939	522.38
476.158	506.38
476.377	517.38
476.596	526.38
476.814	539.38
477.033	536.38
477.252	567.38
477.471	553.38
477.69	562.38
477.908	560.38
478.127	570.38
478.346	583.38
478.564	586.38
478.783	578.38
479.002	578.38
479.22	612.38
479.439	632.38
479.658	609.38
479.876	616.38
480.095	624.38
480.313	664.38
480.532	665.38
480.751	645.38
480.969	657.38
481.188	677.38
481.406	703.38
481.624	648.38
481.843	634.38
482.061	621.38
482.28	609.38
482.498	609.38
482.717	605.38
482.935	630.38
483.153	613.38
483.372	603.38
483.59	592.38
483.808	590.38
484.027	626.38
484.245	588.38
484.463	611.38
484.681	634.38
484.9	632.38
485.118	623.38
485.336	623.38
485.554	650.38
485.772	634.38
485.99	614.38
486.209	645.38
486.427	626.38
486.645	635.38
486.863	647.38
487.081	644.38
487.299	635.38
487.517	615.38
487.735	652.38
487.953	655.38
488.171	630.38
488.389	651.38
488.607	663.38
488.825	653.38
489.043	648.38
489.261	658.38
489.479	646.38
489.696	660.38
489.914	646.38
490.132	660.38
490.35	688.38
490.568	707.38
490.786	694.38
491.003	668.38
491.221	712.38
491.439	721.38
491.657	722.38
491.874	736.38
492.092	705.38
492.31	763.38
492.527	727.38
492.745	738.38
492.963	746.38
493.18	755.38
493.398	763.38
493.615	772.38
493.833	767.38
494.05	755.38
494.268	769.38
494.485	756.38
494.703	747.38
494.92	744.38
495.138	763.38
495.355	740.38
495.573	737.38
495.79	766.38
496.008	759.38
496.225	772.38
496.442	774.38
496.66	768.38
496.877	766.38
497.094	825.38
497.312	784.38
497.529	828.38
497.746	803.38
497.963	806.38
498.181	843.38
498.398	860.38
498.615	883.38
498.832	931.38
499.049	913.38
499.267	947.38
499.484	998.38
499.701	1054.38
499.918	1070.38
500.135	1155.38
500.352	1194.38
500.569	1259.38
500.786	1272.38
501.003	1222.38
501.22	1136.38
501.437	1110.38
501.654	1071.38
