Data from 1975.PennyLincolnUp.Lamp.En5.5.200Scan.071719.P1.Changed Mount._HRD10591_15-56-17-858.txt Node
Date: Thu Jul 18 15:56:17 EDT 2019
User: cochatt
Spectrometer: HR+D1059
Trigger mode: 1
Integration Time (sec): 1.000000E-1
Scans to average: 1
Electric dark correction enabled: true
Nonlinearity correction enabled: false
Boxcar width: 0
XAxis mode: Wavelengths
Number of Pixels in Spectrum: 2048
>>>>>Begin Spectral Data<<<<<
223.165	-15.56
223.4	-15.56
223.635	-15.56
223.869	-20.56
224.104	-24.56
224.338	-30.56
224.573	-10.56
224.808	-8.56
225.042	2.44
225.277	-23.56
225.511	1.44
225.746	14.44
225.98	3.44
226.215	17.44
226.449	20.44
226.683	23.44
226.918	18.44
227.152	32.44
227.387	39.44
227.621	34.44
227.856	40.44
228.09	49.44
228.324	42.44
228.559	50.44
228.793	73.44
229.027	84.44
229.262	103.44
229.496	94.44
229.73	106.44
229.964	122.44
230.199	114.44
230.433	111.44
230.667	116.44
230.901	118.44
231.136	93.44
231.37	112.44
231.604	111.44
231.838	100.44
232.072	119.44
232.306	106.44
232.541	115.44
232.775	101.44
233.009	110.44
233.243	128.44
233.477	122.44
233.711	99.44
233.945	106.44
234.179	112.44
234.413	111.44
234.647	116.44
234.881	115.44
235.115	112.44
235.349	113.44
235.583	119.44
235.817	119.44
236.051	114.44
236.285	112.44
236.519	113.44
236.753	120.44
236.987	138.44
237.221	179.44
237.455	219.44
237.689	169.44
237.922	140.44
238.156	117.44
238.39	121.44
238.624	122.44
238.858	121.44
239.091	105.44
239.325	136.44
239.559	123.44
239.793	133.44
240.027	130.44
240.26	127.44
240.494	157.44
240.728	146.44
240.961	151.44
241.195	148.44
241.429	133.44
241.662	130.44
241.896	126.44
242.13	132.44
242.363	131.44
242.597	142.44
242.83	130.44
243.064	132.44
243.298	153.44
243.531	133.44
243.765	129.44
243.998	131.44
244.232	139.44
244.465	154.44
244.699	161.44
244.932	141.44
245.166	152.44
245.399	158.44
245.633	149.44
245.866	143.44
246.099	145.44
246.333	139.44
246.566	136.44
246.8	134.44
247.033	152.44
247.266	169.44
247.5	152.44
247.733	168.44
247.966	175.44
248.2	174.44
248.433	158.44
248.666	164.44
248.899	174.44
249.133	176.44
249.366	193.44
249.599	183.44
249.832	171.44
250.066	191.44
250.299	189.44
250.532	195.44
250.765	204.44
250.998	211.44
251.231	231.44
251.465	219.44
251.698	208.44
251.931	193.44
252.164	190.44
252.397	191.44
252.63	177.44
252.863	191.44
253.096	203.44
253.329	223.44
253.562	221.44
253.795	215.44
254.028	209.44
254.261	214.44
254.494	217.44
254.727	249.44
254.96	264.44
255.193	265.44
255.426	228.44
255.659	233.44
255.892	208.44
256.124	221.44
256.357	239.44
256.59	212.44
256.823	217.44
257.056	201.44
257.289	205.44
257.521	210.44
257.754	203.44
257.987	208.44
258.22	206.44
258.452	207.44
258.685	202.44
258.918	210.44
259.151	203.44
259.383	221.44
259.616	217.44
259.849	204.44
260.081	224.44
260.314	236.44
260.547	231.44
260.779	253.44
261.012	229.44
261.244	235.44
261.477	226.44
261.71	208.44
261.942	206.44
262.175	219.44
262.407	213.44
262.64	217.44
262.872	222.44
263.105	206.44
263.337	228.44
263.57	221.44
263.802	206.44
264.035	224.44
264.267	211.44
264.499	206.44
264.732	220.44
264.964	203.44
265.197	203.44
265.429	209.44
265.661	215.44
265.894	217.44
266.126	227.44
266.358	220.44
266.591	210.44
266.823	223.44
267.055	202.44
267.287	232.44
267.52	233.44
267.752	229.44
267.984	233.44
268.216	231.44
268.448	243.44
268.681	232.44
268.913	244.44
269.145	263.44
269.377	272.44
269.609	257.44
269.841	277.44
270.073	258.44
270.306	271.44
270.538	298.44
270.77	308.44
271.002	290.44
271.234	292.44
271.466	283.44
271.698	306.44
271.93	302.44
272.162	323.44
272.394	310.44
272.626	286.44
272.858	287.44
273.09	267.44
273.322	238.44
273.553	250.44
273.785	257.44
274.017	260.44
274.249	271.44
274.481	251.44
274.713	264.44
274.945	263.44
275.176	246.44
275.408	252.44
275.64	261.44
275.872	271.44
276.104	255.44
276.335	243.44
276.567	257.44
276.799	271.44
277.031	295.44
277.262	321.44
277.494	314.44
277.726	287.44
277.957	273.44
278.189	299.44
278.421	283.44
278.652	273.44
278.884	252.44
279.115	284.44
279.347	268.44
279.579	259.44
279.81	267.44
280.042	265.44
280.273	281.44
280.505	260.44
280.736	275.44
280.968	262.44
281.199	266.44
281.431	276.44
281.662	262.44
281.894	262.44
282.125	261.44
282.356	278.44
282.588	290.44
282.819	294.44
283.051	283.44
283.282	278.44
283.513	255.44
283.745	270.44
283.976	274.44
284.207	302.44
284.439	273.44
284.67	290.44
284.901	275.44
285.132	277.44
285.364	287.44
285.595	283.44
285.826	293.44
286.057	279.44
286.288	298.44
286.52	284.44
286.751	259.44
286.982	287.44
287.213	289.44
287.444	284.44
287.675	278.44
287.906	295.44
288.138	281.44
288.369	308.44
288.6	291.44
288.831	279.44
289.062	287.44
289.293	298.44
289.524	289.44
289.755	287.44
289.986	291.44
290.217	302.44
290.448	290.44
290.679	296.44
290.91	290.44
291.141	282.44
291.371	271.44
291.602	300.44
291.833	290.44
292.064	291.44
292.295	280.44
292.526	292.44
292.757	294.44
292.987	286.44
293.218	297.44
293.449	297.44
293.68	287.44
293.91	309.44
294.141	298.44
294.372	282.44
294.603	281.44
294.833	304.44
295.064	296.44
295.295	296.44
295.525	278.44
295.756	315.44
295.987	303.44
296.217	335.44
296.448	308.44
296.679	312.44
296.909	293.44
297.14	284.44
297.37	323.44
297.601	290.44
297.831	292.44
298.062	318.44
298.292	314.44
298.523	329.44
298.753	298.44
298.984	311.44
299.214	299.44
299.445	316.44
299.675	313.44
299.905	315.44
300.136	313.44
300.366	313.44
300.597	323.44
300.827	325.44
301.057	345.44
301.288	343.44
301.518	331.44
301.748	323.44
301.979	346.44
302.209	307.44
302.439	339.44
302.669	313.44
302.9	332.44
303.13	322.44
303.36	328.44
303.59	303.44
303.82	316.44
304.051	344.44
304.281	334.44
304.511	328.44
304.741	328.44
304.971	315.44
305.201	328.44
305.431	326.44
305.661	332.44
305.891	318.44
306.121	347.44
306.352	346.44
306.582	337.44
306.812	339.44
307.042	332.44
307.272	331.44
307.502	327.44
307.731	336.44
307.961	328.44
308.191	343.44
308.421	326.44
308.651	330.44
308.881	339.44
309.111	356.44
309.341	330.44
309.571	331.44
309.8	335.44
310.03	349.44
310.26	354.44
310.49	369.44
310.72	356.44
310.949	361.44
311.179	369.44
311.409	375.44
311.639	373.44
311.868	362.44
312.098	364.44
312.328	367.44
312.557	384.44
312.787	370.44
313.017	385.44
313.246	370.44
313.476	352.44
313.706	378.44
313.935	384.44
314.165	367.44
314.394	391.44
314.624	397.44
314.853	359.44
315.083	357.44
315.312	370.44
315.542	362.44
315.771	358.44
316.001	358.44
316.23	362.44
316.46	354.44
316.689	388.44
316.919	362.44
317.148	386.44
317.377	377.44
317.607	358.44
317.836	372.44
318.065	352.44
318.295	378.44
318.524	377.44
318.753	362.44
318.983	378.44
319.212	366.44
319.441	384.44
319.67	371.44
319.9	375.44
320.129	368.44
320.358	367.44
320.587	375.44
320.816	366.44
321.046	368.44
321.275	371.44
321.504	386.44
321.733	366.44
321.962	391.44
322.191	411.44
322.42	397.44
322.649	398.44
322.878	416.44
323.108	389.44
323.337	429.44
323.566	438.44
323.795	479.44
324.024	499.44
324.253	578.44
324.482	766.44
324.71	1153.44
324.939	1755.44
325.168	1552.44
325.397	768.44
325.626	527.44
325.855	472.44
326.084	445.44
326.313	451.44
326.542	457.44
326.77	476.44
326.999	562.44
327.228	694.44
327.457	1067.44
327.686	1334.44
327.914	897.44
328.143	592.44
328.372	546.44
328.6	528.44
328.829	490.44
329.058	508.44
329.287	518.44
329.515	488.44
329.744	470.44
329.972	463.44
330.201	472.44
330.43	517.44
330.658	516.44
330.887	536.44
331.115	491.44
331.344	457.44
331.572	463.44
331.801	464.44
332.03	442.44
332.258	466.44
332.486	427.44
332.715	444.44
332.943	433.44
333.172	461.44
333.4	470.44
333.629	453.44
333.857	483.44
334.085	484.44
334.314	520.44
334.542	543.44
334.771	538.44
334.999	485.44
335.227	484.44
335.455	473.44
335.684	467.44
335.912	451.44
336.14	448.44
336.369	449.44
336.597	464.44
336.825	454.44
337.053	446.44
337.281	441.44
337.51	440.44
337.738	426.44
337.966	414.44
338.194	428.44
338.422	417.44
338.65	430.44
338.878	425.44
339.106	432.44
339.334	435.44
339.562	426.44
339.79	417.44
340.018	418.44
340.246	427.44
340.474	441.44
340.702	430.44
340.93	416.44
341.158	439.44
341.386	410.44
341.614	400.44
341.842	438.44
342.07	421.44
342.298	426.44
342.526	425.44
342.754	421.44
342.981	413.44
343.209	416.44
343.437	427.44
343.665	424.44
343.893	435.44
344.12	458.44
344.348	449.44
344.576	453.44
344.804	441.44
345.031	437.44
345.259	474.44
345.487	425.44
345.714	432.44
345.942	426.44
346.17	424.44
346.397	414.44
346.625	414.44
346.853	398.44
347.08	402.44
347.308	412.44
347.535	423.44
347.763	417.44
347.99	415.44
348.218	427.44
348.445	400.44
348.673	413.44
348.9	407.44
349.128	416.44
349.355	390.44
349.583	403.44
349.81	398.44
350.037	384.44
350.265	412.44
350.492	395.44
350.72	393.44
350.947	410.44
351.174	407.44
351.402	432.44
351.629	408.44
351.856	386.44
352.083	412.44
352.311	402.44
352.538	419.44
352.765	405.44
352.992	404.44
353.22	404.44
353.447	409.44
353.674	400.44
353.901	418.44
354.128	390.44
354.355	411.44
354.583	398.44
354.81	378.44
355.037	362.44
355.264	382.44
355.491	376.44
355.718	392.44
355.945	388.44
356.172	389.44
356.399	386.44
356.626	396.44
356.853	385.44
357.08	406.44
357.307	379.44
357.534	397.44
357.761	390.44
357.988	395.44
358.215	398.44
358.441	404.44
358.668	389.44
358.895	389.44
359.122	391.44
359.349	405.44
359.576	403.44
359.802	423.44
360.029	432.44
360.256	427.44
360.483	439.44
360.709	404.44
360.936	404.44
361.163	426.44
361.39	407.44
361.616	426.44
361.843	426.44
362.07	400.44
362.296	401.44
362.523	428.44
362.749	395.44
362.976	391.44
363.203	393.44
363.429	410.44
363.656	424.44
363.882	391.44
364.109	399.44
364.335	420.44
364.562	402.44
364.788	402.44
365.015	412.44
365.241	419.44
365.468	395.44
365.694	401.44
365.92	390.44
366.147	395.44
366.373	388.44
366.599	399.44
366.826	401.44
367.052	419.44
367.278	405.44
367.505	404.44
367.731	423.44
367.957	397.44
368.184	408.44
368.41	393.44
368.636	434.44
368.862	422.44
369.089	395.44
369.315	400.44
369.541	415.44
369.767	367.44
369.993	357.44
370.219	410.44
370.445	395.44
370.672	400.44
370.898	397.44
371.124	403.44
371.35	426.44
371.576	392.44
371.802	391.44
372.028	389.44
372.254	422.44
372.48	418.44
372.706	416.44
372.932	401.44
373.158	409.44
373.384	419.44
373.61	424.44
373.835	415.44
374.061	403.44
374.287	419.44
374.513	427.44
374.739	418.44
374.965	427.44
375.191	455.44
375.416	402.44
375.642	432.44
375.868	417.44
376.094	422.44
376.319	414.44
376.545	408.44
376.771	409.44
376.997	414.44
377.222	394.44
377.448	390.44
377.674	402.44
377.899	410.44
378.125	416.44
378.35	403.44
378.576	404.44
378.802	404.44
379.027	415.44
379.253	415.44
379.478	410.44
379.704	410.44
379.929	405.44
380.155	410.44
380.38	413.44
380.606	414.44
380.831	416.44
381.057	405.44
381.282	420.44
381.507	422.44
381.733	405.44
381.958	435.44
382.184	419.44
382.409	433.44
382.634	422.44
382.86	450.44
383.085	417.44
383.31	440.44
383.535	414.44
383.761	427.44
383.986	441.44
384.211	438.44
384.436	465.44
384.662	448.44
384.887	470.44
385.112	458.44
385.337	447.44
385.562	455.44
385.787	462.44
386.013	426.44
386.238	460.44
386.463	484.44
386.688	443.44
386.913	436.44
387.138	435.44
387.363	470.44
387.588	498.44
387.813	472.44
388.038	456.44
388.263	481.44
388.488	466.44
388.713	451.44
388.938	459.44
389.163	463.44
389.387	443.44
389.612	455.44
389.837	448.44
390.062	433.44
390.287	439.44
390.512	450.44
390.736	455.44
390.961	452.44
391.186	460.44
391.411	483.44
391.636	480.44
391.86	470.44
392.085	482.44
392.31	492.44
392.534	467.44
392.759	472.44
392.984	500.44
393.208	485.44
393.433	465.44
393.658	459.44
393.882	456.44
394.107	466.44
394.331	452.44
394.556	481.44
394.78	477.44
395.005	471.44
395.229	473.44
395.454	459.44
395.678	474.44
395.903	497.44
396.127	508.44
396.352	536.44
396.576	486.44
396.801	460.44
397.025	474.44
397.249	484.44
397.474	459.44
397.698	500.44
397.922	531.44
398.147	530.44
398.371	526.44
398.595	524.44
398.82	544.44
399.044	540.44
399.268	571.44
399.492	598.44
399.717	643.44
399.941	668.44
400.165	692.44
400.389	670.44
400.613	642.44
400.837	574.44
401.062	566.44
401.286	563.44
401.51	558.44
401.734	548.44
401.958	534.44
402.182	543.44
402.406	552.44
402.63	548.44
402.854	572.44
403.078	564.44
403.302	556.44
403.526	571.44
403.75	570.44
403.974	538.44
404.198	577.44
404.422	555.44
404.645	574.44
404.869	566.44
405.093	607.44
405.317	648.44
405.541	686.44
405.765	640.44
405.988	587.44
406.212	581.44
406.436	618.44
406.66	619.44
406.883	637.44
407.107	626.44
407.331	675.44
407.555	766.44
407.778	715.44
408.002	678.44
408.226	628.44
408.449	611.44
408.673	580.44
408.896	616.44
409.12	654.44
409.344	633.44
409.567	597.44
409.791	567.44
410.014	568.44
410.238	550.44
410.461	545.44
410.685	577.44
410.908	562.44
411.132	616.44
411.355	643.44
411.578	591.44
411.802	570.44
412.025	573.44
412.249	569.44
412.472	591.44
412.695	637.44
412.919	608.44
413.142	564.44
413.365	534.44
413.589	552.44
413.812	534.44
414.035	540.44
414.258	515.44
414.482	540.44
414.705	529.44
414.928	529.44
415.151	533.44
415.374	521.44
415.597	507.44
415.821	538.44
416.044	519.44
416.267	515.44
416.49	539.44
416.713	514.44
416.936	544.44
417.159	526.44
417.382	516.44
417.605	499.44
417.828	519.44
418.051	569.44
418.274	552.44
418.497	529.44
418.72	532.44
418.943	529.44
419.166	550.44
419.389	579.44
419.611	583.44
419.834	581.44
420.057	555.44
420.28	575.44
420.503	565.44
420.726	551.44
420.948	581.44
421.171	604.44
421.394	642.44
421.617	583.44
421.839	539.44
422.062	555.44
422.285	542.44
422.507	627.44
422.73	706.44
422.953	678.44
423.175	591.44
423.398	594.44
423.621	588.44
423.843	569.44
424.066	606.44
424.288	577.44
424.511	596.44
424.733	640.44
424.956	745.44
425.178	720.44
425.401	688.44
425.623	718.44
425.846	658.44
426.068	586.44
426.291	551.44
426.513	559.44
426.735	588.44
426.958	609.44
427.18	699.44
427.402	838.44
427.625	898.44
427.847	787.44
428.069	696.44
428.292	609.44
428.514	552.44
428.736	528.44
428.958	565.44
429.181	528.44
429.403	531.44
429.625	549.44
429.847	585.44
430.069	635.44
430.292	630.44
430.514	550.44
430.736	513.44
430.958	505.44
431.18	517.44
431.402	530.44
431.624	486.44
431.846	524.44
432.068	494.44
432.29	522.44
432.512	516.44
432.734	506.44
432.956	516.44
433.178	516.44
433.4	537.44
433.622	510.44
433.844	494.44
434.066	520.44
434.287	515.44
434.509	518.44
434.731	529.44
434.953	548.44
435.175	562.44
435.397	573.44
435.618	609.44
435.84	623.44
436.062	695.44
436.284	770.44
436.505	644.44
436.727	582.44
436.949	537.44
437.17	530.44
437.392	514.44
437.614	547.44
437.835	558.44
438.057	632.44
438.278	756.44
438.5	750.44
438.721	842.44
438.943	830.44
439.165	664.44
439.386	594.44
439.608	587.44
439.829	591.44
440.05	630.44
440.272	635.44
440.493	601.44
440.715	581.44
440.936	555.44
441.158	545.44
441.379	554.44
441.6	572.44
441.822	586.44
442.043	607.44
442.264	679.44
442.486	746.44
442.707	634.44
442.928	588.44
443.149	600.44
443.371	620.44
443.592	655.44
443.813	728.44
444.034	811.44
444.255	675.44
444.476	593.44
444.698	589.44
444.919	608.44
445.14	697.44
445.361	650.44
445.582	636.44
445.803	667.44
446.024	806.44
446.245	775.44
446.466	717.44
446.687	608.44
446.908	577.44
447.129	541.44
447.35	539.44
447.571	519.44
447.792	512.44
448.013	539.44
448.234	535.44
448.455	584.44
448.675	712.44
448.896	821.44
449.117	681.44
449.338	622.44
449.559	756.44
449.779	852.44
450	704.44
450.221	579.44
450.442	526.44
450.662	507.44
450.883	503.44
451.104	531.44
451.324	521.44
451.545	500.44
451.766	490.44
451.986	466.44
452.207	444.44
452.428	464.44
452.648	449.44
452.869	491.44
453.089	443.44
453.31	487.44
453.53	473.44
453.751	478.44
453.971	453.44
454.192	474.44
454.412	472.44
454.633	466.44
454.853	459.44
455.073	472.44
455.294	487.44
455.514	542.44
455.734	538.44
455.955	505.44
456.175	445.44
456.395	462.44
456.616	442.44
456.836	433.44
457.056	438.44
457.276	408.44
457.497	446.44
457.717	452.44
457.937	466.44
458.157	464.44
458.377	480.44
458.598	476.44
458.818	517.44
459.038	588.44
459.258	603.44
459.478	548.44
459.698	504.44
459.918	506.44
460.138	510.44
460.358	524.44
460.578	521.44
460.798	538.44
461.018	535.44
461.238	527.44
461.458	542.44
461.678	533.44
461.898	538.44
462.118	524.44
462.338	550.44
462.558	563.44
462.777	565.44
462.997	587.44
463.217	603.44
463.437	618.44
463.657	592.44
463.876	581.44
464.096	574.44
464.316	587.44
464.536	566.44
464.755	575.44
464.975	572.44
465.195	578.44
465.414	618.44
465.634	587.44
465.854	548.44
466.073	518.44
466.293	506.44
466.512	500.44
466.732	475.44
466.951	494.44
467.171	488.44
467.391	494.44
467.61	518.44
467.829	502.44
468.049	491.44
468.268	471.44
468.488	477.44
468.707	490.44
468.927	479.44
469.146	484.44
469.365	488.44
469.585	487.44
469.804	481.44
470.023	481.44
470.243	487.44
470.462	515.44
470.681	508.44
470.901	524.44
471.12	485.44
471.339	516.44
471.558	496.44
471.777	515.44
471.997	491.44
472.216	501.44
472.435	530.44
472.654	500.44
472.873	490.44
473.092	490.44
473.311	498.44
473.53	481.44
473.749	512.44
473.968	548.44
474.187	634.44
474.406	634.44
474.625	546.44
474.844	512.44
475.063	468.44
475.282	476.44
475.501	506.44
475.72	488.44
475.939	500.44
476.158	503.44
476.377	536.44
476.596	514.44
476.814	521.44
477.033	520.44
477.252	528.44
477.471	543.44
477.69	524.44
477.908	563.44
478.127	553.44
478.346	561.44
478.564	565.44
478.783	566.44
479.002	574.44
479.22	591.44
479.439	573.44
479.658	602.44
479.876	604.44
480.095	616.44
480.313	606.44
480.532	623.44
480.751	616.44
480.969	622.44
481.188	644.44
481.406	672.44
481.624	640.44
481.843	612.44
482.061	618.44
482.28	587.44
482.498	574.44
482.717	570.44
482.935	575.44
483.153	583.44
483.372	582.44
483.59	559.44
483.808	587.44
484.027	584.44
484.245	570.44
484.463	574.44
484.681	611.44
484.9	584.44
485.118	585.44
485.336	605.44
485.554	617.44
485.772	598.44
485.99	607.44
486.209	599.44
486.427	594.44
486.645	604.44
486.863	610.44
487.081	613.44
487.299	622.44
487.517	620.44
487.735	630.44
487.953	624.44
488.171	612.44
488.389	618.44
488.607	597.44
488.825	604.44
489.043	606.44
489.261	600.44
489.479	636.44
489.696	621.44
489.914	631.44
490.132	642.44
490.35	660.44
490.568	674.44
490.786	659.44
491.003	694.44
491.221	695.44
491.439	688.44
491.657	708.44
491.874	716.44
492.092	722.44
492.31	724.44
492.527	735.44
492.745	701.44
492.963	712.44
493.18	719.44
493.398	722.44
493.615	747.44
493.833	731.44
494.05	729.44
494.268	725.44
494.485	731.44
494.703	728.44
494.92	716.44
495.138	731.44
495.355	734.44
495.573	737.44
495.79	730.44
496.008	752.44
496.225	732.44
496.442	742.44
496.66	753.44
496.877	742.44
497.094	750.44
497.312	747.44
497.529	775.44
497.746	775.44
497.963	779.44
498.181	786.44
498.398	794.44
498.615	824.44
498.832	867.44
499.049	907.44
499.267	897.44
499.484	925.44
499.701	992.44
499.918	1043.44
500.135	1092.44
500.352	1186.44
500.569	1204.44
500.786	1196.44
501.003	1155.44
501.22	1138.44
501.437	1030.44
501.654	1010.44
