Data from 1975.PennyLincolnUp.Lamp.En5.5.200Scan.071719.P1.Changed Mount._HRD10591_15-55-29-858.txt Node
Date: Thu Jul 18 15:55:29 EDT 2019
User: cochatt
Spectrometer: HR+D1059
Trigger mode: 1
Integration Time (sec): 1.000000E-1
Scans to average: 1
Electric dark correction enabled: true
Nonlinearity correction enabled: false
Boxcar width: 0
XAxis mode: Wavelengths
Number of Pixels in Spectrum: 2048
>>>>>Begin Spectral Data<<<<<
223.165	-11.44
223.4	-11.44
223.635	-11.44
223.869	-24.44
224.104	-15.44
224.338	-23.44
224.573	-13.44
224.808	-8.44
225.042	-0.44
225.277	-2.44
225.511	-9.44
225.746	7.56
225.98	14.56
226.215	5.56
226.449	20.56
226.683	19.56
226.918	25.56
227.152	15.56
227.387	26.56
227.621	43.56
227.856	36.56
228.09	45.56
228.324	51.56
228.559	61.56
228.793	56.56
229.027	95.56
229.262	100.56
229.496	101.56
229.73	113.56
229.964	148.56
230.199	121.56
230.433	118.56
230.667	101.56
230.901	117.56
231.136	108.56
231.37	103.56
231.604	110.56
231.838	117.56
232.072	119.56
232.306	102.56
232.541	117.56
232.775	122.56
233.009	113.56
233.243	120.56
233.477	111.56
233.711	124.56
233.945	117.56
234.179	111.56
234.413	118.56
234.647	115.56
234.881	113.56
235.115	110.56
235.349	108.56
235.583	99.56
235.817	111.56
236.051	135.56
236.285	124.56
236.519	114.56
236.753	117.56
236.987	133.56
237.221	174.56
237.455	205.56
237.689	175.56
237.922	133.56
238.156	128.56
238.39	121.56
238.624	119.56
238.858	114.56
239.091	122.56
239.325	126.56
239.559	119.56
239.793	134.56
240.027	131.56
240.26	126.56
240.494	148.56
240.728	154.56
240.961	154.56
241.195	154.56
241.429	138.56
241.662	130.56
241.896	130.56
242.13	131.56
242.363	139.56
242.597	132.56
242.83	125.56
243.064	141.56
243.298	140.56
243.531	148.56
243.765	133.56
243.998	133.56
244.232	130.56
244.465	133.56
244.699	135.56
244.932	148.56
245.166	143.56
245.399	158.56
245.633	139.56
245.866	146.56
246.099	141.56
246.333	152.56
246.566	135.56
246.8	150.56
247.033	146.56
247.266	153.56
247.5	157.56
247.733	183.56
247.966	171.56
248.2	170.56
248.433	184.56
248.666	185.56
248.899	183.56
249.133	193.56
249.366	193.56
249.599	181.56
249.832	170.56
250.066	176.56
250.299	167.56
250.532	189.56
250.765	193.56
250.998	223.56
251.231	225.56
251.465	195.56
251.698	184.56
251.931	214.56
252.164	205.56
252.397	193.56
252.63	191.56
252.863	194.56
253.096	209.56
253.329	210.56
253.562	207.56
253.795	183.56
254.028	195.56
254.261	202.56
254.494	216.56
254.727	234.56
254.96	252.56
255.193	248.56
255.426	228.56
255.659	210.56
255.892	212.56
256.124	215.56
256.357	226.56
256.59	205.56
256.823	211.56
257.056	195.56
257.289	195.56
257.521	196.56
257.754	205.56
257.987	196.56
258.22	202.56
258.452	209.56
258.685	213.56
258.918	207.56
259.151	192.56
259.383	207.56
259.616	213.56
259.849	203.56
260.081	236.56
260.314	237.56
260.547	233.56
260.779	227.56
261.012	243.56
261.244	221.56
261.477	221.56
261.71	207.56
261.942	211.56
262.175	225.56
262.407	212.56
262.64	215.56
262.872	193.56
263.105	201.56
263.337	196.56
263.57	195.56
263.802	209.56
264.035	203.56
264.267	213.56
264.499	211.56
264.732	223.56
264.964	198.56
265.197	210.56
265.429	222.56
265.661	229.56
265.894	211.56
266.126	230.56
266.358	225.56
266.591	208.56
266.823	217.56
267.055	226.56
267.287	217.56
267.52	225.56
267.752	210.56
267.984	216.56
268.216	236.56
268.448	204.56
268.681	221.56
268.913	227.56
269.145	263.56
269.377	257.56
269.609	233.56
269.841	259.56
270.073	257.56
270.306	264.56
270.538	288.56
270.77	300.56
271.002	274.56
271.234	264.56
271.466	256.56
271.698	290.56
271.93	303.56
272.162	296.56
272.394	285.56
272.626	286.56
272.858	255.56
273.09	281.56
273.322	263.56
273.553	263.56
273.785	251.56
274.017	246.56
274.249	262.56
274.481	258.56
274.713	271.56
274.945	282.56
275.176	253.56
275.408	261.56
275.64	261.56
275.872	269.56
276.104	264.56
276.335	277.56
276.567	253.56
276.799	283.56
277.031	295.56
277.262	286.56
277.494	285.56
277.726	282.56
277.957	295.56
278.189	273.56
278.421	262.56
278.652	271.56
278.884	269.56
279.115	267.56
279.347	273.56
279.579	272.56
279.81	295.56
280.042	287.56
280.273	294.56
280.505	279.56
280.736	294.56
280.968	262.56
281.199	261.56
281.431	259.56
281.662	286.56
281.894	280.56
282.125	279.56
282.356	294.56
282.588	308.56
282.819	303.56
283.051	277.56
283.282	284.56
283.513	279.56
283.745	278.56
283.976	294.56
284.207	291.56
284.439	277.56
284.67	286.56
284.901	301.56
285.132	291.56
285.364	293.56
285.595	294.56
285.826	271.56
286.057	257.56
286.288	275.56
286.52	287.56
286.751	286.56
286.982	274.56
287.213	275.56
287.444	299.56
287.675	303.56
287.906	308.56
288.138	302.56
288.369	312.56
288.6	313.56
288.831	316.56
289.062	304.56
289.293	293.56
289.524	283.56
289.755	277.56
289.986	274.56
290.217	312.56
290.448	287.56
290.679	297.56
290.91	294.56
291.141	278.56
291.371	297.56
291.602	285.56
291.833	301.56
292.064	307.56
292.295	294.56
292.526	297.56
292.757	296.56
292.987	274.56
293.218	299.56
293.449	292.56
293.68	294.56
293.91	301.56
294.141	302.56
294.372	296.56
294.603	293.56
294.833	301.56
295.064	289.56
295.295	289.56
295.525	328.56
295.756	303.56
295.987	326.56
296.217	314.56
296.448	328.56
296.679	313.56
296.909	297.56
297.14	312.56
297.37	331.56
297.601	314.56
297.831	287.56
298.062	301.56
298.292	306.56
298.523	322.56
298.753	308.56
298.984	300.56
299.214	302.56
299.445	303.56
299.675	319.56
299.905	313.56
300.136	310.56
300.366	299.56
300.597	309.56
300.827	326.56
301.057	331.56
301.288	326.56
301.518	338.56
301.748	312.56
301.979	338.56
302.209	335.56
302.439	331.56
302.669	336.56
302.9	325.56
303.13	334.56
303.36	332.56
303.59	339.56
303.82	345.56
304.051	344.56
304.281	308.56
304.511	324.56
304.741	322.56
304.971	345.56
305.201	319.56
305.431	337.56
305.661	307.56
305.891	320.56
306.121	310.56
306.352	332.56
306.582	329.56
306.812	330.56
307.042	315.56
307.272	323.56
307.502	338.56
307.731	341.56
307.961	345.56
308.191	345.56
308.421	330.56
308.651	333.56
308.881	327.56
309.111	340.56
309.341	355.56
309.571	361.56
309.8	357.56
310.03	345.56
310.26	354.56
310.49	351.56
310.72	366.56
310.949	364.56
311.179	384.56
311.409	349.56
311.639	343.56
311.868	357.56
312.098	344.56
312.328	365.56
312.557	399.56
312.787	405.56
313.017	381.56
313.246	372.56
313.476	359.56
313.706	358.56
313.935	363.56
314.165	387.56
314.394	385.56
314.624	373.56
314.853	389.56
315.083	366.56
315.312	363.56
315.542	358.56
315.771	366.56
316.001	382.56
316.23	367.56
316.46	372.56
316.689	378.56
316.919	384.56
317.148	394.56
317.377	375.56
317.607	366.56
317.836	370.56
318.065	363.56
318.295	377.56
318.524	374.56
318.753	363.56
318.983	353.56
319.212	360.56
319.441	354.56
319.67	391.56
319.9	379.56
320.129	355.56
320.358	375.56
320.587	362.56
320.816	381.56
321.046	373.56
321.275	373.56
321.504	371.56
321.733	395.56
321.962	383.56
322.191	408.56
322.42	415.56
322.649	396.56
322.878	389.56
323.108	419.56
323.337	433.56
323.566	443.56
323.795	469.56
324.024	492.56
324.253	563.56
324.482	803.56
324.71	1238.56
324.939	1853.56
325.168	1607.56
325.397	795.56
325.626	545.56
325.855	462.56
326.084	470.56
326.313	456.56
326.542	451.56
326.77	490.56
326.999	579.56
327.228	774.56
327.457	1134.56
327.686	1403.56
327.914	944.56
328.143	605.56
328.372	549.56
328.6	510.56
328.829	516.56
329.058	525.56
329.287	522.56
329.515	478.56
329.744	454.56
329.972	457.56
330.201	483.56
330.43	517.56
330.658	519.56
330.887	555.56
331.115	535.56
331.344	470.56
331.572	472.56
331.801	454.56
332.03	478.56
332.258	456.56
332.486	441.56
332.715	433.56
332.943	427.56
333.172	465.56
333.4	459.56
333.629	445.56
333.857	465.56
334.085	479.56
334.314	484.56
334.542	493.56
334.771	538.56
334.999	481.56
335.227	455.56
335.455	463.56
335.684	466.56
335.912	433.56
336.14	439.56
336.369	451.56
336.597	459.56
336.825	464.56
337.053	457.56
337.281	431.56
337.51	426.56
337.738	419.56
337.966	420.56
338.194	437.56
338.422	445.56
338.65	438.56
338.878	411.56
339.106	430.56
339.334	445.56
339.562	417.56
339.79	397.56
340.018	415.56
340.246	436.56
340.474	428.56
340.702	430.56
340.93	422.56
341.158	407.56
341.386	422.56
341.614	426.56
341.842	431.56
342.07	412.56
342.298	430.56
342.526	419.56
342.754	441.56
342.981	413.56
343.209	420.56
343.437	412.56
343.665	416.56
343.893	453.56
344.12	437.56
344.348	450.56
344.576	438.56
344.804	449.56
345.031	454.56
345.259	447.56
345.487	427.56
345.714	408.56
345.942	448.56
346.17	414.56
346.397	403.56
346.625	410.56
346.853	407.56
347.08	387.56
347.308	417.56
347.535	435.56
347.763	428.56
347.99	425.56
348.218	394.56
348.445	420.56
348.673	416.56
348.9	402.56
349.128	410.56
349.355	400.56
349.583	405.56
349.81	406.56
350.037	397.56
350.265	405.56
350.492	410.56
350.72	399.56
350.947	391.56
351.174	423.56
351.402	413.56
351.629	434.56
351.856	428.56
352.083	397.56
352.311	418.56
352.538	427.56
352.765	422.56
352.992	413.56
353.22	394.56
353.447	399.56
353.674	389.56
353.901	384.56
354.128	405.56
354.355	395.56
354.583	400.56
354.81	387.56
355.037	395.56
355.264	399.56
355.491	407.56
355.718	382.56
355.945	402.56
356.172	392.56
356.399	397.56
356.626	383.56
356.853	397.56
357.08	401.56
357.307	372.56
357.534	391.56
357.761	404.56
357.988	386.56
358.215	399.56
358.441	394.56
358.668	391.56
358.895	392.56
359.122	397.56
359.349	398.56
359.576	411.56
359.802	442.56
360.029	446.56
360.256	461.56
360.483	445.56
360.709	428.56
360.936	403.56
361.163	395.56
361.39	419.56
361.616	411.56
361.843	413.56
362.07	407.56
362.296	411.56
362.523	418.56
362.749	406.56
362.976	383.56
363.203	408.56
363.429	407.56
363.656	413.56
363.882	417.56
364.109	403.56
364.335	412.56
364.562	407.56
364.788	417.56
365.015	399.56
365.241	391.56
365.468	397.56
365.694	398.56
365.92	399.56
366.147	390.56
366.373	388.56
366.599	399.56
366.826	410.56
367.052	382.56
367.278	388.56
367.505	385.56
367.731	407.56
367.957	403.56
368.184	418.56
368.41	411.56
368.636	407.56
368.862	438.56
369.089	428.56
369.315	418.56
369.541	414.56
369.767	397.56
369.993	399.56
370.219	406.56
370.445	410.56
370.672	415.56
370.898	397.56
371.124	392.56
371.35	411.56
371.576	414.56
371.802	418.56
372.028	400.56
372.254	403.56
372.48	410.56
372.706	411.56
372.932	411.56
373.158	417.56
373.384	433.56
373.61	417.56
373.835	424.56
374.061	411.56
374.287	435.56
374.513	435.56
374.739	417.56
374.965	430.56
375.191	427.56
375.416	427.56
375.642	427.56
375.868	434.56
376.094	408.56
376.319	414.56
376.545	421.56
376.771	412.56
376.997	423.56
377.222	399.56
377.448	401.56
377.674	410.56
377.899	389.56
378.125	419.56
378.35	400.56
378.576	408.56
378.802	403.56
379.027	410.56
379.253	391.56
379.478	415.56
379.704	418.56
379.929	421.56
380.155	419.56
380.38	395.56
380.606	413.56
380.831	421.56
381.057	433.56
381.282	429.56
381.507	439.56
381.733	436.56
381.958	421.56
382.184	456.56
382.409	447.56
382.634	451.56
382.86	451.56
383.085	448.56
383.31	431.56
383.535	454.56
383.761	447.56
383.986	450.56
384.211	464.56
384.436	474.56
384.662	478.56
384.887	468.56
385.112	508.56
385.337	489.56
385.562	485.56
385.787	477.56
386.013	494.56
386.238	507.56
386.463	509.56
386.688	501.56
386.913	477.56
387.138	500.56
387.363	485.56
387.588	476.56
387.813	499.56
388.038	473.56
388.263	475.56
388.488	506.56
388.713	485.56
388.938	489.56
389.163	465.56
389.387	466.56
389.612	444.56
389.837	441.56
390.062	455.56
390.287	468.56
390.512	455.56
390.736	445.56
390.961	486.56
391.186	463.56
391.411	484.56
391.636	482.56
391.86	505.56
392.085	497.56
392.31	499.56
392.534	476.56
392.759	509.56
392.984	499.56
393.208	511.56
393.433	575.56
393.658	575.56
393.882	485.56
394.107	484.56
394.331	476.56
394.556	487.56
394.78	484.56
395.005	472.56
395.229	482.56
395.454	483.56
395.678	468.56
395.903	506.56
396.127	552.56
396.352	551.56
396.576	503.56
396.801	506.56
397.025	547.56
397.249	551.56
397.474	506.56
397.698	502.56
397.922	523.56
398.147	527.56
398.371	532.56
398.595	509.56
398.82	524.56
399.044	549.56
399.268	577.56
399.492	612.56
399.717	663.56
399.941	672.56
400.165	672.56
400.389	666.56
400.613	620.56
400.837	563.56
401.062	563.56
401.286	554.56
401.51	556.56
401.734	559.56
401.958	545.56
402.182	536.56
402.406	540.56
402.63	582.56
402.854	571.56
403.078	563.56
403.302	582.56
403.526	579.56
403.75	565.56
403.974	568.56
404.198	556.56
404.422	578.56
404.645	573.56
404.869	573.56
405.093	607.56
405.317	622.56
405.541	649.56
405.765	613.56
405.988	582.56
406.212	595.56
406.436	607.56
406.66	642.56
406.883	614.56
407.107	639.56
407.331	654.56
407.555	733.56
407.778	704.56
408.002	665.56
408.226	611.56
408.449	609.56
408.673	615.56
408.896	613.56
409.12	651.56
409.344	626.56
409.567	610.56
409.791	574.56
410.014	559.56
410.238	539.56
410.461	579.56
410.685	573.56
410.908	601.56
411.132	611.56
411.355	650.56
411.578	625.56
411.802	562.56
412.025	570.56
412.249	568.56
412.472	581.56
412.695	617.56
412.919	587.56
413.142	572.56
413.365	535.56
413.589	564.56
413.812	552.56
414.035	552.56
414.258	539.56
414.482	544.56
414.705	523.56
414.928	528.56
415.151	523.56
415.374	532.56
415.597	541.56
415.821	554.56
416.044	547.56
416.267	526.56
416.49	526.56
416.713	542.56
416.936	531.56
417.159	539.56
417.382	517.56
417.605	526.56
417.828	555.56
418.051	583.56
418.274	550.56
418.497	536.56
418.72	550.56
418.943	551.56
419.166	565.56
419.389	596.56
419.611	556.56
419.834	607.56
420.057	576.56
420.28	552.56
420.503	571.56
420.726	552.56
420.948	550.56
421.171	593.56
421.394	629.56
421.617	589.56
421.839	547.56
422.062	548.56
422.285	542.56
422.507	612.56
422.73	681.56
422.953	693.56
423.175	609.56
423.398	606.56
423.621	584.56
423.843	589.56
424.066	621.56
424.288	594.56
424.511	602.56
424.733	637.56
424.956	728.56
425.178	702.56
425.401	688.56
425.623	701.56
425.846	623.56
426.068	606.56
426.291	589.56
426.513	598.56
426.735	579.56
426.958	630.56
427.18	693.56
427.402	827.56
427.625	899.56
427.847	767.56
428.069	670.56
428.292	605.56
428.514	567.56
428.736	542.56
428.958	553.56
429.181	520.56
429.403	509.56
429.625	535.56
429.847	558.56
430.069	634.56
430.292	616.56
430.514	536.56
430.736	547.56
430.958	531.56
431.18	550.56
431.402	503.56
431.624	490.56
431.846	513.56
432.068	530.56
432.29	517.56
432.512	524.56
432.734	510.56
432.956	483.56
433.178	516.56
433.4	537.56
433.622	523.56
433.844	509.56
434.066	542.56
434.287	523.56
434.509	517.56
434.731	555.56
434.953	545.56
435.175	562.56
435.397	590.56
435.618	576.56
435.84	619.56
436.062	710.56
436.284	757.56
436.505	663.56
436.727	592.56
436.949	539.56
437.17	533.56
437.392	508.56
437.614	548.56
437.835	560.56
438.057	632.56
438.278	755.56
438.5	735.56
438.721	807.56
438.943	805.56
439.165	637.56
439.386	550.56
439.608	610.56
439.829	589.56
440.05	593.56
440.272	642.56
440.493	574.56
440.715	551.56
440.936	571.56
441.158	567.56
441.379	573.56
441.6	586.56
441.822	568.56
442.043	617.56
442.264	693.56
442.486	749.56
442.707	636.56
442.928	581.56
443.149	599.56
443.371	625.56
443.592	670.56
443.813	723.56
444.034	805.56
444.255	702.56
444.476	631.56
444.698	605.56
444.919	617.56
445.14	773.56
445.361	665.56
445.582	635.56
445.803	674.56
446.024	773.56
446.245	781.56
446.466	716.56
446.687	610.56
446.908	573.56
447.129	559.56
447.35	536.56
447.571	538.56
447.792	521.56
448.013	507.56
448.234	533.56
448.455	574.56
448.675	676.56
448.896	814.56
449.117	675.56
449.338	633.56
449.559	746.56
449.779	857.56
450	659.56
450.221	581.56
450.442	528.56
450.662	513.56
450.883	531.56
451.104	546.56
451.324	502.56
451.545	515.56
451.766	477.56
451.986	471.56
452.207	488.56
452.428	481.56
452.648	479.56
452.869	467.56
453.089	463.56
453.31	501.56
453.53	471.56
453.751	477.56
453.971	470.56
454.192	491.56
454.412	470.56
454.633	443.56
454.853	465.56
455.073	460.56
455.294	504.56
455.514	557.56
455.734	546.56
455.955	473.56
456.175	451.56
456.395	445.56
456.616	454.56
456.836	460.56
457.056	450.56
457.276	433.56
457.497	447.56
457.717	447.56
457.937	453.56
458.157	446.56
458.377	476.56
458.598	476.56
458.818	518.56
459.038	597.56
459.258	633.56
459.478	570.56
459.698	535.56
459.918	533.56
460.138	513.56
460.358	550.56
460.578	535.56
460.798	528.56
461.018	542.56
461.238	539.56
461.458	540.56
461.678	554.56
461.898	515.56
462.118	555.56
462.338	555.56
462.558	562.56
462.777	585.56
462.997	585.56
463.217	615.56
463.437	640.56
463.657	611.56
463.876	609.56
464.096	610.56
464.316	579.56
464.536	575.56
464.755	591.56
464.975	578.56
465.195	602.56
465.414	649.56
465.634	588.56
465.854	565.56
466.073	528.56
466.293	508.56
466.512	511.56
466.732	499.56
466.951	505.56
467.171	495.56
467.391	488.56
467.61	525.56
467.829	505.56
468.049	522.56
468.268	530.56
468.488	478.56
468.707	506.56
468.927	507.56
469.146	490.56
469.365	499.56
469.585	505.56
469.804	489.56
470.023	520.56
470.243	523.56
470.462	514.56
470.681	541.56
470.901	519.56
471.12	519.56
471.339	490.56
471.558	509.56
471.777	515.56
471.997	499.56
472.216	510.56
472.435	515.56
472.654	505.56
472.873	517.56
473.092	508.56
473.311	498.56
473.53	499.56
473.749	494.56
473.968	545.56
474.187	609.56
474.406	654.56
474.625	539.56
474.844	507.56
475.063	519.56
475.282	505.56
475.501	479.56
475.72	504.56
475.939	526.56
476.158	489.56
476.377	546.56
476.596	539.56
476.814	525.56
477.033	530.56
477.252	537.56
477.471	535.56
477.69	551.56
477.908	556.56
478.127	581.56
478.346	561.56
478.564	561.56
478.783	578.56
479.002	579.56
479.22	599.56
479.439	607.56
479.658	584.56
479.876	622.56
480.095	598.56
480.313	631.56
480.532	613.56
480.751	639.56
480.969	639.56
481.188	656.56
481.406	680.56
481.624	627.56
481.843	607.56
482.061	614.56
482.28	612.56
482.498	603.56
482.717	589.56
482.935	579.56
483.153	607.56
483.372	607.56
483.59	622.56
483.808	596.56
484.027	583.56
484.245	615.56
484.463	606.56
484.681	619.56
484.9	599.56
485.118	608.56
485.336	608.56
485.554	631.56
485.772	614.56
485.99	616.56
486.209	605.56
486.427	629.56
486.645	654.56
486.863	654.56
487.081	630.56
487.299	654.56
487.517	659.56
487.735	651.56
487.953	649.56
488.171	635.56
488.389	617.56
488.607	629.56
488.825	605.56
489.043	651.56
489.261	644.56
489.479	628.56
489.696	637.56
489.914	650.56
490.132	652.56
490.35	661.56
490.568	676.56
490.786	668.56
491.003	670.56
491.221	703.56
491.439	691.56
491.657	713.56
491.874	722.56
492.092	703.56
492.31	732.56
492.527	722.56
492.745	721.56
492.963	733.56
493.18	724.56
493.398	723.56
493.615	745.56
493.833	755.56
494.05	748.56
494.268	738.56
494.485	746.56
494.703	752.56
494.92	741.56
495.138	735.56
495.355	714.56
495.573	748.56
495.79	761.56
496.008	760.56
496.225	744.56
496.442	757.56
496.66	735.56
496.877	757.56
497.094	759.56
497.312	769.56
497.529	786.56
497.746	793.56
497.963	813.56
498.181	817.56
498.398	842.56
498.615	871.56
498.832	865.56
499.049	887.56
499.267	922.56
499.484	969.56
499.701	1033.56
499.918	1070.56
500.135	1138.56
500.352	1173.56
500.569	1210.56
500.786	1220.56
501.003	1189.56
501.22	1144.56
501.437	1094.56
501.654	1044.56
