Data from 1975.PennyLincolnUp.Lamp.En5.5.200Scan.071719.P1.Changed Mount._HRD10591_15-58-45-860.txt Node
Date: Thu Jul 18 15:58:45 EDT 2019
User: cochatt
Spectrometer: HR+D1059
Trigger mode: 1
Integration Time (sec): 1.000000E-1
Scans to average: 1
Electric dark correction enabled: true
Nonlinearity correction enabled: false
Boxcar width: 0
XAxis mode: Wavelengths
Number of Pixels in Spectrum: 2048
>>>>>Begin Spectral Data<<<<<
223.165	-24.88
223.4	-24.88
223.635	-24.88
223.869	-13.88
224.104	-18.88
224.338	-16.88
224.573	-22.88
224.808	-8.88
225.042	-1.88
225.277	-6.88
225.511	11.12
225.746	2.12
225.98	1.12
226.215	0.12
226.449	14.12
226.683	25.12
226.918	27.12
227.152	34.12
227.387	29.12
227.621	44.12
227.856	54.12
228.09	49.12
228.324	53.12
228.559	47.12
228.793	63.12
229.027	106.12
229.262	97.12
229.496	111.12
229.73	122.12
229.964	141.12
230.199	129.12
230.433	115.12
230.667	114.12
230.901	121.12
231.136	111.12
231.37	95.12
231.604	118.12
231.838	106.12
232.072	124.12
232.306	127.12
232.541	105.12
232.775	114.12
233.009	126.12
233.243	117.12
233.477	137.12
233.711	122.12
233.945	125.12
234.179	137.12
234.413	130.12
234.647	120.12
234.881	121.12
235.115	127.12
235.349	112.12
235.583	123.12
235.817	139.12
236.051	129.12
236.285	126.12
236.519	133.12
236.753	129.12
236.987	147.12
237.221	190.12
237.455	236.12
237.689	176.12
237.922	147.12
238.156	132.12
238.39	151.12
238.624	133.12
238.858	119.12
239.091	139.12
239.325	137.12
239.559	127.12
239.793	130.12
240.027	128.12
240.26	132.12
240.494	162.12
240.728	143.12
240.961	165.12
241.195	138.12
241.429	149.12
241.662	133.12
241.896	146.12
242.13	153.12
242.363	151.12
242.597	130.12
242.83	157.12
243.064	141.12
243.298	145.12
243.531	152.12
243.765	143.12
243.998	145.12
244.232	153.12
244.465	151.12
244.699	165.12
244.932	161.12
245.166	147.12
245.399	162.12
245.633	154.12
245.866	155.12
246.099	162.12
246.333	151.12
246.566	151.12
246.8	155.12
247.033	158.12
247.266	167.12
247.5	169.12
247.733	176.12
247.966	192.12
248.2	170.12
248.433	171.12
248.666	170.12
248.899	199.12
249.133	203.12
249.366	204.12
249.599	202.12
249.832	211.12
250.066	178.12
250.299	192.12
250.532	179.12
250.765	210.12
250.998	240.12
251.231	238.12
251.465	224.12
251.698	226.12
251.931	207.12
252.164	207.12
252.397	215.12
252.63	198.12
252.863	213.12
253.096	242.12
253.329	225.12
253.562	234.12
253.795	217.12
254.028	229.12
254.261	239.12
254.494	224.12
254.727	263.12
254.96	265.12
255.193	269.12
255.426	257.12
255.659	246.12
255.892	234.12
256.124	245.12
256.357	263.12
256.59	236.12
256.823	219.12
257.056	225.12
257.289	223.12
257.521	213.12
257.754	215.12
257.987	216.12
258.22	227.12
258.452	224.12
258.685	226.12
258.918	214.12
259.151	224.12
259.383	239.12
259.616	215.12
259.849	221.12
260.081	227.12
260.314	265.12
260.547	245.12
260.779	263.12
261.012	239.12
261.244	233.12
261.477	231.12
261.71	246.12
261.942	230.12
262.175	242.12
262.407	231.12
262.64	214.12
262.872	213.12
263.105	209.12
263.337	232.12
263.57	230.12
263.802	234.12
264.035	238.12
264.267	222.12
264.499	222.12
264.732	229.12
264.964	230.12
265.197	221.12
265.429	213.12
265.661	224.12
265.894	235.12
266.126	216.12
266.358	221.12
266.591	244.12
266.823	233.12
267.055	251.12
267.287	249.12
267.52	235.12
267.752	241.12
267.984	236.12
268.216	239.12
268.448	262.12
268.681	245.12
268.913	253.12
269.145	268.12
269.377	301.12
269.609	291.12
269.841	287.12
270.073	282.12
270.306	301.12
270.538	309.12
270.77	330.12
271.002	315.12
271.234	303.12
271.466	306.12
271.698	327.12
271.93	327.12
272.162	306.12
272.394	320.12
272.626	303.12
272.858	304.12
273.09	307.12
273.322	301.12
273.553	281.12
273.785	275.12
274.017	283.12
274.249	281.12
274.481	303.12
274.713	267.12
274.945	277.12
275.176	285.12
275.408	294.12
275.64	288.12
275.872	276.12
276.104	287.12
276.335	283.12
276.567	294.12
276.799	300.12
277.031	305.12
277.262	335.12
277.494	343.12
277.726	298.12
277.957	308.12
278.189	285.12
278.421	283.12
278.652	298.12
278.884	279.12
279.115	279.12
279.347	274.12
279.579	289.12
279.81	283.12
280.042	280.12
280.273	282.12
280.505	306.12
280.736	294.12
280.968	297.12
281.199	285.12
281.431	299.12
281.662	288.12
281.894	317.12
282.125	299.12
282.356	312.12
282.588	311.12
282.819	317.12
283.051	287.12
283.282	286.12
283.513	295.12
283.745	303.12
283.976	311.12
284.207	301.12
284.439	302.12
284.67	302.12
284.901	305.12
285.132	301.12
285.364	313.12
285.595	299.12
285.826	312.12
286.057	306.12
286.288	305.12
286.52	321.12
286.751	295.12
286.982	302.12
287.213	304.12
287.444	313.12
287.675	321.12
287.906	303.12
288.138	308.12
288.369	328.12
288.6	327.12
288.831	336.12
289.062	315.12
289.293	313.12
289.524	317.12
289.755	319.12
289.986	298.12
290.217	313.12
290.448	303.12
290.679	307.12
290.91	323.12
291.141	326.12
291.371	327.12
291.602	316.12
291.833	305.12
292.064	303.12
292.295	310.12
292.526	309.12
292.757	313.12
292.987	315.12
293.218	297.12
293.449	322.12
293.68	339.12
293.91	311.12
294.141	327.12
294.372	317.12
294.603	325.12
294.833	320.12
295.064	332.12
295.295	316.12
295.525	323.12
295.756	342.12
295.987	332.12
296.217	339.12
296.448	353.12
296.679	348.12
296.909	327.12
297.14	317.12
297.37	325.12
297.601	323.12
297.831	315.12
298.062	322.12
298.292	331.12
298.523	330.12
298.753	339.12
298.984	316.12
299.214	332.12
299.445	318.12
299.675	330.12
299.905	359.12
300.136	338.12
300.366	330.12
300.597	341.12
300.827	345.12
301.057	348.12
301.288	364.12
301.518	356.12
301.748	353.12
301.979	378.12
302.209	327.12
302.439	355.12
302.669	345.12
302.9	349.12
303.13	334.12
303.36	375.12
303.59	371.12
303.82	354.12
304.051	369.12
304.281	351.12
304.511	345.12
304.741	366.12
304.971	344.12
305.201	350.12
305.431	364.12
305.661	361.12
305.891	343.12
306.121	343.12
306.352	354.12
306.582	367.12
306.812	350.12
307.042	352.12
307.272	349.12
307.502	367.12
307.731	354.12
307.961	364.12
308.191	363.12
308.421	345.12
308.651	368.12
308.881	361.12
309.111	371.12
309.341	365.12
309.571	376.12
309.8	385.12
310.03	369.12
310.26	385.12
310.49	395.12
310.72	393.12
310.949	398.12
311.179	419.12
311.409	408.12
311.639	389.12
311.868	383.12
312.098	387.12
312.328	395.12
312.557	407.12
312.787	409.12
313.017	416.12
313.246	411.12
313.476	389.12
313.706	403.12
313.935	390.12
314.165	391.12
314.394	403.12
314.624	403.12
314.853	399.12
315.083	425.12
315.312	417.12
315.542	404.12
315.771	387.12
316.001	385.12
316.23	383.12
316.46	386.12
316.689	380.12
316.919	418.12
317.148	395.12
317.377	412.12
317.607	409.12
317.836	401.12
318.065	397.12
318.295	396.12
318.524	394.12
318.753	398.12
318.983	399.12
319.212	402.12
319.441	404.12
319.67	391.12
319.9	413.12
320.129	391.12
320.358	402.12
320.587	397.12
320.816	420.12
321.046	427.12
321.275	426.12
321.504	422.12
321.733	410.12
321.962	425.12
322.191	433.12
322.42	433.12
322.649	447.12
322.878	463.12
323.108	480.12
323.337	473.12
323.566	482.12
323.795	509.12
324.024	550.12
324.253	633.12
324.482	863.12
324.71	1277.12
324.939	1952.12
325.168	1760.12
325.397	875.12
325.626	593.12
325.855	547.12
326.084	504.12
326.313	495.12
326.542	488.12
326.77	537.12
326.999	612.12
327.228	802.12
327.457	1230.12
327.686	1510.12
327.914	991.12
328.143	695.12
328.372	593.12
328.6	554.12
328.829	536.12
329.058	567.12
329.287	543.12
329.515	531.12
329.744	523.12
329.972	524.12
330.201	546.12
330.43	582.12
330.658	589.12
330.887	575.12
331.115	571.12
331.344	553.12
331.572	503.12
331.801	517.12
332.03	512.12
332.258	487.12
332.486	496.12
332.715	489.12
332.943	490.12
333.172	477.12
333.4	498.12
333.629	494.12
333.857	534.12
334.085	548.12
334.314	551.12
334.542	569.12
334.771	583.12
334.999	540.12
335.227	512.12
335.455	504.12
335.684	486.12
335.912	492.12
336.14	458.12
336.369	488.12
336.597	478.12
336.825	467.12
337.053	474.12
337.281	498.12
337.51	500.12
337.738	462.12
337.966	442.12
338.194	481.12
338.422	476.12
338.65	476.12
338.878	456.12
339.106	461.12
339.334	459.12
339.562	465.12
339.79	457.12
340.018	453.12
340.246	461.12
340.474	455.12
340.702	453.12
340.93	430.12
341.158	442.12
341.386	465.12
341.614	477.12
341.842	463.12
342.07	447.12
342.298	460.12
342.526	437.12
342.754	463.12
342.981	461.12
343.209	465.12
343.437	451.12
343.665	485.12
343.893	469.12
344.12	487.12
344.348	487.12
344.576	485.12
344.804	491.12
345.031	473.12
345.259	485.12
345.487	481.12
345.714	450.12
345.942	438.12
346.17	439.12
346.397	435.12
346.625	434.12
346.853	428.12
347.08	440.12
347.308	445.12
347.535	471.12
347.763	462.12
347.99	469.12
348.218	455.12
348.445	460.12
348.673	467.12
348.9	435.12
349.128	436.12
349.355	445.12
349.583	421.12
349.81	422.12
350.037	437.12
350.265	425.12
350.492	412.12
350.72	428.12
350.947	462.12
351.174	430.12
351.402	441.12
351.629	469.12
351.856	447.12
352.083	459.12
352.311	475.12
352.538	450.12
352.765	455.12
352.992	457.12
353.22	454.12
353.447	432.12
353.674	450.12
353.901	433.12
354.128	458.12
354.355	433.12
354.583	411.12
354.81	424.12
355.037	440.12
355.264	436.12
355.491	442.12
355.718	411.12
355.945	426.12
356.172	437.12
356.399	416.12
356.626	441.12
356.853	407.12
357.08	414.12
357.307	426.12
357.534	410.12
357.761	411.12
357.988	422.12
358.215	410.12
358.441	429.12
358.668	443.12
358.895	439.12
359.122	455.12
359.349	434.12
359.576	435.12
359.802	474.12
360.029	469.12
360.256	477.12
360.483	457.12
360.709	460.12
360.936	446.12
361.163	437.12
361.39	440.12
361.616	438.12
361.843	434.12
362.07	438.12
362.296	470.12
362.523	463.12
362.749	424.12
362.976	430.12
363.203	437.12
363.429	421.12
363.656	421.12
363.882	442.12
364.109	435.12
364.335	417.12
364.562	441.12
364.788	429.12
365.015	428.12
365.241	439.12
365.468	448.12
365.694	431.12
365.92	441.12
366.147	415.12
366.373	429.12
366.599	432.12
366.826	427.12
367.052	419.12
367.278	417.12
367.505	426.12
367.731	439.12
367.957	453.12
368.184	415.12
368.41	439.12
368.636	427.12
368.862	451.12
369.089	449.12
369.315	431.12
369.541	436.12
369.767	427.12
369.993	448.12
370.219	435.12
370.445	437.12
370.672	420.12
370.898	449.12
371.124	442.12
371.35	424.12
371.576	443.12
371.802	438.12
372.028	425.12
372.254	426.12
372.48	430.12
372.706	422.12
372.932	442.12
373.158	445.12
373.384	447.12
373.61	443.12
373.835	473.12
374.061	445.12
374.287	437.12
374.513	453.12
374.739	428.12
374.965	448.12
375.191	466.12
375.416	438.12
375.642	442.12
375.868	449.12
376.094	457.12
376.319	425.12
376.545	441.12
376.771	417.12
376.997	442.12
377.222	435.12
377.448	451.12
377.674	443.12
377.899	428.12
378.125	441.12
378.35	431.12
378.576	443.12
378.802	421.12
379.027	423.12
379.253	450.12
379.478	413.12
379.704	426.12
379.929	441.12
380.155	433.12
380.38	419.12
380.606	430.12
380.831	437.12
381.057	449.12
381.282	445.12
381.507	431.12
381.733	463.12
381.958	449.12
382.184	445.12
382.409	450.12
382.634	452.12
382.86	469.12
383.085	463.12
383.31	472.12
383.535	453.12
383.761	486.12
383.986	460.12
384.211	472.12
384.436	451.12
384.662	462.12
384.887	473.12
385.112	462.12
385.337	480.12
385.562	503.12
385.787	509.12
386.013	505.12
386.238	473.12
386.463	512.12
386.688	485.12
386.913	488.12
387.138	487.12
387.363	465.12
387.588	478.12
387.813	470.12
388.038	482.12
388.263	502.12
388.488	485.12
388.713	512.12
388.938	483.12
389.163	495.12
389.387	474.12
389.612	511.12
389.837	491.12
390.062	501.12
390.287	472.12
390.512	475.12
390.736	458.12
390.961	486.12
391.186	495.12
391.411	503.12
391.636	517.12
391.86	500.12
392.085	508.12
392.31	510.12
392.534	530.12
392.759	522.12
392.984	521.12
393.208	501.12
393.433	505.12
393.658	468.12
393.882	485.12
394.107	504.12
394.331	482.12
394.556	509.12
394.78	497.12
395.005	505.12
395.229	513.12
395.454	499.12
395.678	513.12
395.903	532.12
396.127	545.12
396.352	530.12
396.576	516.12
396.801	514.12
397.025	511.12
397.249	511.12
397.474	540.12
397.698	521.12
397.922	546.12
398.147	563.12
398.371	584.12
398.595	538.12
398.82	572.12
399.044	575.12
399.268	640.12
399.492	650.12
399.717	685.12
399.941	730.12
400.165	730.12
400.389	721.12
400.613	661.12
400.837	607.12
401.062	586.12
401.286	584.12
401.51	606.12
401.734	578.12
401.958	611.12
402.182	585.12
402.406	572.12
402.63	592.12
402.854	581.12
403.078	589.12
403.302	581.12
403.526	622.12
403.75	609.12
403.974	603.12
404.198	597.12
404.422	628.12
404.645	623.12
404.869	615.12
405.093	601.12
405.317	687.12
405.541	746.12
405.765	650.12
405.988	646.12
406.212	605.12
406.436	649.12
406.66	669.12
406.883	645.12
407.107	682.12
407.331	710.12
407.555	809.12
407.778	788.12
408.002	721.12
408.226	649.12
408.449	670.12
408.673	645.12
408.896	673.12
409.12	713.12
409.344	658.12
409.567	622.12
409.791	605.12
410.014	610.12
410.238	595.12
410.461	593.12
410.685	607.12
410.908	612.12
411.132	646.12
411.355	682.12
411.578	657.12
411.802	601.12
412.025	594.12
412.249	599.12
412.472	635.12
412.695	685.12
412.919	655.12
413.142	621.12
413.365	596.12
413.589	589.12
413.812	570.12
414.035	568.12
414.258	577.12
414.482	563.12
414.705	551.12
414.928	561.12
415.151	562.12
415.374	576.12
415.597	550.12
415.821	562.12
416.044	552.12
416.267	554.12
416.49	560.12
416.713	565.12
416.936	539.12
417.159	585.12
417.382	567.12
417.605	585.12
417.828	595.12
418.051	622.12
418.274	577.12
418.497	588.12
418.72	587.12
418.943	554.12
419.166	604.12
419.389	619.12
419.611	625.12
419.834	611.12
420.057	595.12
420.28	598.12
420.503	590.12
420.726	578.12
420.948	614.12
421.171	647.12
421.394	663.12
421.617	618.12
421.839	594.12
422.062	595.12
422.285	599.12
422.507	661.12
422.73	743.12
422.953	727.12
423.175	652.12
423.398	620.12
423.621	632.12
423.843	608.12
424.066	629.12
424.288	634.12
424.511	680.12
424.733	701.12
424.956	779.12
425.178	748.12
425.401	747.12
425.623	786.12
425.846	663.12
426.068	617.12
426.291	629.12
426.513	621.12
426.735	631.12
426.958	659.12
427.18	742.12
427.402	878.12
427.625	961.12
427.847	820.12
428.069	737.12
428.292	652.12
428.514	605.12
428.736	582.12
428.958	594.12
429.181	588.12
429.403	572.12
429.625	583.12
429.847	609.12
430.069	669.12
430.292	681.12
430.514	610.12
430.736	550.12
430.958	565.12
431.18	563.12
431.402	552.12
431.624	534.12
431.846	538.12
432.068	539.12
432.29	550.12
432.512	555.12
432.734	542.12
432.956	551.12
433.178	568.12
433.4	582.12
433.622	543.12
433.844	557.12
434.066	549.12
434.287	565.12
434.509	549.12
434.731	571.12
434.953	557.12
435.175	589.12
435.397	649.12
435.618	624.12
435.84	648.12
436.062	765.12
436.284	845.12
436.505	695.12
436.727	629.12
436.949	589.12
437.17	571.12
437.392	574.12
437.614	592.12
437.835	605.12
438.057	716.12
438.278	817.12
438.5	802.12
438.721	886.12
438.943	873.12
439.165	678.12
439.386	638.12
439.608	627.12
439.829	622.12
440.05	655.12
440.272	676.12
440.493	643.12
440.715	576.12
440.936	585.12
441.158	586.12
441.379	581.12
441.6	587.12
441.822	638.12
442.043	663.12
442.264	736.12
442.486	800.12
442.707	679.12
442.928	645.12
443.149	632.12
443.371	647.12
443.592	718.12
443.813	807.12
444.034	897.12
444.255	734.12
444.476	648.12
444.698	651.12
444.919	652.12
445.14	769.12
445.361	716.12
445.582	658.12
445.803	721.12
446.024	847.12
446.245	858.12
446.466	797.12
446.687	667.12
446.908	606.12
447.129	577.12
447.35	574.12
447.571	571.12
447.792	567.12
448.013	555.12
448.234	575.12
448.455	639.12
448.675	769.12
448.896	889.12
449.117	730.12
449.338	694.12
449.559	808.12
449.779	939.12
450	728.12
450.221	626.12
450.442	558.12
450.662	574.12
450.883	536.12
451.104	552.12
451.324	548.12
451.545	535.12
451.766	513.12
451.986	511.12
452.207	525.12
452.428	518.12
452.648	488.12
452.869	509.12
453.089	497.12
453.31	522.12
453.53	511.12
453.751	502.12
453.971	493.12
454.192	507.12
454.412	536.12
454.633	524.12
454.853	490.12
455.073	519.12
455.294	534.12
455.514	602.12
455.734	599.12
455.955	489.12
456.175	487.12
456.395	467.12
456.616	460.12
456.836	490.12
457.056	473.12
457.276	474.12
457.497	478.12
457.717	467.12
457.937	465.12
458.157	494.12
458.377	509.12
458.598	512.12
458.818	537.12
459.038	631.12
459.258	677.12
459.478	595.12
459.698	551.12
459.918	562.12
460.138	557.12
460.358	560.12
460.578	574.12
460.798	569.12
461.018	555.12
461.238	562.12
461.458	571.12
461.678	569.12
461.898	571.12
462.118	593.12
462.338	586.12
462.558	609.12
462.777	593.12
462.997	636.12
463.217	625.12
463.437	660.12
463.657	640.12
463.876	621.12
464.096	624.12
464.316	590.12
464.536	609.12
464.755	590.12
464.975	597.12
465.195	646.12
465.414	646.12
465.634	588.12
465.854	600.12
466.073	556.12
466.293	572.12
466.512	528.12
466.732	541.12
466.951	549.12
467.171	524.12
467.391	527.12
467.61	541.12
467.829	547.12
468.049	553.12
468.268	543.12
468.488	528.12
468.707	512.12
468.927	492.12
469.146	523.12
469.365	517.12
469.585	489.12
469.804	496.12
470.023	526.12
470.243	543.12
470.462	539.12
470.681	563.12
470.901	555.12
471.12	526.12
471.339	506.12
471.558	524.12
471.777	561.12
471.997	520.12
472.216	537.12
472.435	558.12
472.654	551.12
472.873	534.12
473.092	546.12
473.311	527.12
473.53	531.12
473.749	534.12
473.968	581.12
474.187	651.12
474.406	686.12
474.625	586.12
474.844	544.12
475.063	512.12
475.282	538.12
475.501	550.12
475.72	539.12
475.939	535.12
476.158	528.12
476.377	579.12
476.596	531.12
476.814	543.12
477.033	565.12
477.252	582.12
477.471	558.12
477.69	578.12
477.908	588.12
478.127	579.12
478.346	613.12
478.564	579.12
478.783	614.12
479.002	593.12
479.22	621.12
479.439	604.12
479.658	641.12
479.876	622.12
480.095	649.12
480.313	683.12
480.532	678.12
480.751	657.12
480.969	651.12
481.188	705.12
481.406	737.12
481.624	661.12
481.843	644.12
482.061	637.12
482.28	618.12
482.498	631.12
482.717	611.12
482.935	643.12
483.153	622.12
483.372	618.12
483.59	636.12
483.808	639.12
484.027	634.12
484.245	623.12
484.463	615.12
484.681	607.12
484.9	603.12
485.118	622.12
485.336	630.12
485.554	618.12
485.772	657.12
485.99	627.12
486.209	645.12
486.427	663.12
486.645	622.12
486.863	658.12
487.081	665.12
487.299	663.12
487.517	677.12
487.735	671.12
487.953	663.12
488.171	683.12
488.389	666.12
488.607	641.12
488.825	651.12
489.043	673.12
489.261	680.12
489.479	665.12
489.696	666.12
489.914	685.12
490.132	696.12
490.35	682.12
490.568	702.12
490.786	716.12
491.003	714.12
491.221	726.12
491.439	745.12
491.657	761.12
491.874	777.12
492.092	796.12
492.31	779.12
492.527	763.12
492.745	764.12
492.963	769.12
493.18	773.12
493.398	777.12
493.615	793.12
493.833	795.12
494.05	792.12
494.268	795.12
494.485	793.12
494.703	776.12
494.92	792.12
495.138	770.12
495.355	801.12
495.573	807.12
495.79	789.12
496.008	809.12
496.225	792.12
496.442	799.12
496.66	810.12
496.877	787.12
497.094	806.12
497.312	806.12
497.529	807.12
497.746	816.12
497.963	820.12
498.181	896.12
498.398	890.12
498.615	890.12
498.832	913.12
499.049	950.12
499.267	975.12
499.484	1003.12
499.701	1069.12
499.918	1088.12
500.135	1169.12
500.352	1207.12
500.569	1285.12
500.786	1232.12
501.003	1228.12
501.22	1188.12
501.437	1112.12
501.654	1086.12
