Data from 1975.PennyLincolnUp.Lamp.En5.5.200Scan.071719.P1.Changed Mount._HRD10591_15-55-28-858.txt Node
Date: Thu Jul 18 15:55:28 EDT 2019
User: cochatt
Spectrometer: HR+D1059
Trigger mode: 1
Integration Time (sec): 1.000000E-1
Scans to average: 1
Electric dark correction enabled: true
Nonlinearity correction enabled: false
Boxcar width: 0
XAxis mode: Wavelengths
Number of Pixels in Spectrum: 2048
>>>>>Begin Spectral Data<<<<<
223.165	-18.44
223.4	-18.44
223.635	-18.44
223.869	-7.44
224.104	-17.44
224.338	-13.44
224.573	-13.44
224.808	-6.44
225.042	-0.44
225.277	-3.44
225.511	-5.44
225.746	14.56
225.98	-2.44
226.215	18.56
226.449	9.56
226.683	2.56
226.918	19.56
227.152	23.56
227.387	23.56
227.621	14.56
227.856	34.56
228.09	36.56
228.324	35.56
228.559	61.56
228.793	58.56
229.027	100.56
229.262	116.56
229.496	116.56
229.73	147.56
229.964	154.56
230.199	149.56
230.433	126.56
230.667	106.56
230.901	112.56
231.136	123.56
231.37	99.56
231.604	112.56
231.838	124.56
232.072	107.56
232.306	113.56
232.541	104.56
232.775	114.56
233.009	99.56
233.243	131.56
233.477	131.56
233.711	116.56
233.945	104.56
234.179	129.56
234.413	119.56
234.647	136.56
234.881	127.56
235.115	121.56
235.349	116.56
235.583	130.56
235.817	118.56
236.051	130.56
236.285	122.56
236.519	121.56
236.753	126.56
236.987	144.56
237.221	184.56
237.455	260.56
237.689	209.56
237.922	143.56
238.156	133.56
238.39	146.56
238.624	143.56
238.858	134.56
239.091	132.56
239.325	128.56
239.559	118.56
239.793	134.56
240.027	145.56
240.26	165.56
240.494	168.56
240.728	160.56
240.961	169.56
241.195	154.56
241.429	145.56
241.662	150.56
241.896	123.56
242.13	138.56
242.363	141.56
242.597	149.56
242.83	149.56
243.064	138.56
243.298	140.56
243.531	142.56
243.765	142.56
243.998	151.56
244.232	148.56
244.465	152.56
244.699	163.56
244.932	152.56
245.166	158.56
245.399	146.56
245.633	164.56
245.866	151.56
246.099	145.56
246.333	159.56
246.566	151.56
246.8	180.56
247.033	160.56
247.266	172.56
247.5	174.56
247.733	187.56
247.966	173.56
248.2	188.56
248.433	210.56
248.666	187.56
248.899	197.56
249.133	222.56
249.366	226.56
249.599	188.56
249.832	198.56
250.066	177.56
250.299	199.56
250.532	198.56
250.765	225.56
250.998	237.56
251.231	250.56
251.465	234.56
251.698	219.56
251.931	198.56
252.164	216.56
252.397	215.56
252.63	202.56
252.863	219.56
253.096	215.56
253.329	232.56
253.562	237.56
253.795	235.56
254.028	217.56
254.261	239.56
254.494	236.56
254.727	258.56
254.96	292.56
255.193	289.56
255.426	272.56
255.659	241.56
255.892	235.56
256.124	232.56
256.357	240.56
256.59	229.56
256.823	212.56
257.056	204.56
257.289	225.56
257.521	232.56
257.754	231.56
257.987	223.56
258.22	215.56
258.452	228.56
258.685	208.56
258.918	231.56
259.151	220.56
259.383	228.56
259.616	241.56
259.849	245.56
260.081	258.56
260.314	283.56
260.547	282.56
260.779	261.56
261.012	265.56
261.244	250.56
261.477	255.56
261.71	245.56
261.942	235.56
262.175	266.56
262.407	263.56
262.64	227.56
262.872	233.56
263.105	230.56
263.337	221.56
263.57	238.56
263.802	239.56
264.035	225.56
264.267	230.56
264.499	216.56
264.732	244.56
264.964	224.56
265.197	229.56
265.429	233.56
265.661	234.56
265.894	231.56
266.126	224.56
266.358	228.56
266.591	229.56
266.823	244.56
267.055	245.56
267.287	242.56
267.52	250.56
267.752	263.56
267.984	260.56
268.216	239.56
268.448	250.56
268.681	267.56
268.913	268.56
269.145	284.56
269.377	311.56
269.609	298.56
269.841	296.56
270.073	285.56
270.306	312.56
270.538	346.56
270.77	333.56
271.002	293.56
271.234	315.56
271.466	308.56
271.698	343.56
271.93	359.56
272.162	346.56
272.394	342.56
272.626	309.56
272.858	304.56
273.09	310.56
273.322	287.56
273.553	291.56
273.785	293.56
274.017	284.56
274.249	280.56
274.481	311.56
274.713	281.56
274.945	297.56
275.176	299.56
275.408	287.56
275.64	327.56
275.872	276.56
276.104	312.56
276.335	296.56
276.567	323.56
276.799	306.56
277.031	352.56
277.262	359.56
277.494	369.56
277.726	318.56
277.957	315.56
278.189	302.56
278.421	308.56
278.652	289.56
278.884	302.56
279.115	319.56
279.347	312.56
279.579	358.56
279.81	402.56
280.042	383.56
280.273	339.56
280.505	358.56
280.736	337.56
280.968	311.56
281.199	310.56
281.431	310.56
281.662	303.56
281.894	315.56
282.125	283.56
282.356	331.56
282.588	327.56
282.819	347.56
283.051	320.56
283.282	289.56
283.513	278.56
283.745	304.56
283.976	319.56
284.207	306.56
284.439	288.56
284.67	314.56
284.901	314.56
285.132	327.56
285.364	314.56
285.595	333.56
285.826	312.56
286.057	308.56
286.288	296.56
286.52	323.56
286.751	296.56
286.982	312.56
287.213	307.56
287.444	329.56
287.675	317.56
287.906	335.56
288.138	349.56
288.369	348.56
288.6	350.56
288.831	328.56
289.062	338.56
289.293	308.56
289.524	296.56
289.755	316.56
289.986	324.56
290.217	335.56
290.448	307.56
290.679	324.56
290.91	318.56
291.141	325.56
291.371	314.56
291.602	311.56
291.833	320.56
292.064	310.56
292.295	316.56
292.526	316.56
292.757	322.56
292.987	330.56
293.218	319.56
293.449	341.56
293.68	339.56
293.91	321.56
294.141	334.56
294.372	332.56
294.603	326.56
294.833	324.56
295.064	337.56
295.295	300.56
295.525	324.56
295.756	335.56
295.987	343.56
296.217	363.56
296.448	383.56
296.679	347.56
296.909	344.56
297.14	338.56
297.37	359.56
297.601	342.56
297.831	330.56
298.062	334.56
298.292	338.56
298.523	342.56
298.753	348.56
298.984	361.56
299.214	334.56
299.445	332.56
299.675	347.56
299.905	363.56
300.136	344.56
300.366	337.56
300.597	368.56
300.827	352.56
301.057	359.56
301.288	358.56
301.518	359.56
301.748	363.56
301.979	349.56
302.209	378.56
302.439	376.56
302.669	351.56
302.9	382.56
303.13	360.56
303.36	366.56
303.59	382.56
303.82	371.56
304.051	394.56
304.281	375.56
304.511	351.56
304.741	380.56
304.971	375.56
305.201	374.56
305.431	368.56
305.661	368.56
305.891	346.56
306.121	370.56
306.352	364.56
306.582	367.56
306.812	375.56
307.042	370.56
307.272	372.56
307.502	367.56
307.731	382.56
307.961	367.56
308.191	371.56
308.421	372.56
308.651	367.56
308.881	378.56
309.111	388.56
309.341	396.56
309.571	405.56
309.8	404.56
310.03	417.56
310.26	424.56
310.49	430.56
310.72	412.56
310.949	452.56
311.179	445.56
311.409	440.56
311.639	416.56
311.868	407.56
312.098	416.56
312.328	436.56
312.557	449.56
312.787	446.56
313.017	449.56
313.246	427.56
313.476	405.56
313.706	403.56
313.935	419.56
314.165	437.56
314.394	450.56
314.624	459.56
314.853	433.56
315.083	433.56
315.312	423.56
315.542	425.56
315.771	414.56
316.001	412.56
316.23	406.56
316.46	396.56
316.689	427.56
316.919	415.56
317.148	421.56
317.377	432.56
317.607	427.56
317.836	425.56
318.065	416.56
318.295	431.56
318.524	427.56
318.753	403.56
318.983	403.56
319.212	428.56
319.441	423.56
319.67	446.56
319.9	414.56
320.129	415.56
320.358	421.56
320.587	440.56
320.816	435.56
321.046	435.56
321.275	423.56
321.504	441.56
321.733	440.56
321.962	451.56
322.191	484.56
322.42	510.56
322.649	487.56
322.878	503.56
323.108	523.56
323.337	551.56
323.566	559.56
323.795	610.56
324.024	656.56
324.253	790.56
324.482	1168.56
324.71	1851.56
324.939	2802.56
325.168	2402.56
325.397	1172.56
325.626	759.56
325.855	620.56
326.084	555.56
326.313	549.56
326.542	562.56
326.77	626.56
326.999	734.56
327.228	1051.56
327.457	1688.56
327.686	2135.56
327.914	1356.56
328.143	836.56
328.372	754.56
328.6	658.56
328.829	616.56
329.058	675.56
329.287	662.56
329.515	642.56
329.744	563.56
329.972	560.56
330.201	599.56
330.43	620.56
330.658	658.56
330.887	694.56
331.115	700.56
331.344	597.56
331.572	552.56
331.801	566.56
332.03	540.56
332.258	535.56
332.486	501.56
332.715	497.56
332.943	509.56
333.172	506.56
333.4	545.56
333.629	534.56
333.857	548.56
334.085	572.56
334.314	574.56
334.542	588.56
334.771	609.56
334.999	578.56
335.227	551.56
335.455	529.56
335.684	529.56
335.912	489.56
336.14	521.56
336.369	534.56
336.597	518.56
336.825	499.56
337.053	508.56
337.281	498.56
337.51	521.56
337.738	515.56
337.966	514.56
338.194	525.56
338.422	518.56
338.65	490.56
338.878	490.56
339.106	491.56
339.334	503.56
339.562	488.56
339.79	473.56
340.018	516.56
340.246	474.56
340.474	496.56
340.702	496.56
340.93	469.56
341.158	462.56
341.386	494.56
341.614	497.56
341.842	483.56
342.07	474.56
342.298	474.56
342.526	478.56
342.754	449.56
342.981	470.56
343.209	466.56
343.437	444.56
343.665	493.56
343.893	480.56
344.12	491.56
344.348	503.56
344.576	503.56
344.804	506.56
345.031	516.56
345.259	497.56
345.487	518.56
345.714	487.56
345.942	488.56
346.17	479.56
346.397	453.56
346.625	459.56
346.853	484.56
347.08	477.56
347.308	437.56
347.535	487.56
347.763	475.56
347.99	481.56
348.218	475.56
348.445	498.56
348.673	496.56
348.9	460.56
349.128	455.56
349.355	463.56
349.583	456.56
349.81	454.56
350.037	446.56
350.265	443.56
350.492	424.56
350.72	425.56
350.947	453.56
351.174	481.56
351.402	480.56
351.629	482.56
351.856	478.56
352.083	484.56
352.311	498.56
352.538	502.56
352.765	504.56
352.992	476.56
353.22	467.56
353.447	480.56
353.674	472.56
353.901	452.56
354.128	450.56
354.355	449.56
354.583	459.56
354.81	436.56
355.037	420.56
355.264	440.56
355.491	436.56
355.718	432.56
355.945	440.56
356.172	439.56
356.399	433.56
356.626	448.56
356.853	443.56
357.08	430.56
357.307	427.56
357.534	462.56
357.761	422.56
357.988	447.56
358.215	450.56
358.441	456.56
358.668	468.56
358.895	449.56
359.122	442.56
359.349	459.56
359.576	486.56
359.802	497.56
360.029	536.56
360.256	554.56
360.483	546.56
360.709	488.56
360.936	484.56
361.163	472.56
361.39	458.56
361.616	480.56
361.843	474.56
362.07	484.56
362.296	505.56
362.523	486.56
362.749	464.56
362.976	483.56
363.203	448.56
363.429	444.56
363.656	463.56
363.882	463.56
364.109	420.56
364.335	463.56
364.562	448.56
364.788	448.56
365.015	462.56
365.241	460.56
365.468	470.56
365.694	465.56
365.92	477.56
366.147	427.56
366.373	443.56
366.599	463.56
366.826	436.56
367.052	456.56
367.278	444.56
367.505	435.56
367.731	438.56
367.957	457.56
368.184	466.56
368.41	469.56
368.636	456.56
368.862	481.56
369.089	468.56
369.315	448.56
369.541	446.56
369.767	460.56
369.993	466.56
370.219	436.56
370.445	453.56
370.672	453.56
370.898	476.56
371.124	461.56
371.35	443.56
371.576	446.56
371.802	456.56
372.028	447.56
372.254	452.56
372.48	475.56
372.706	444.56
372.932	472.56
373.158	448.56
373.384	466.56
373.61	460.56
373.835	475.56
374.061	480.56
374.287	484.56
374.513	460.56
374.739	474.56
374.965	480.56
375.191	463.56
375.416	487.56
375.642	475.56
375.868	455.56
376.094	455.56
376.319	445.56
376.545	470.56
376.771	464.56
376.997	456.56
377.222	459.56
377.448	454.56
377.674	436.56
377.899	436.56
378.125	458.56
378.35	457.56
378.576	466.56
378.802	468.56
379.027	469.56
379.253	450.56
379.478	459.56
379.704	452.56
379.929	460.56
380.155	481.56
380.38	468.56
380.606	473.56
380.831	459.56
381.057	460.56
381.282	476.56
381.507	472.56
381.733	478.56
381.958	468.56
382.184	510.56
382.409	488.56
382.634	514.56
382.86	488.56
383.085	510.56
383.31	483.56
383.535	516.56
383.761	526.56
383.986	516.56
384.211	517.56
384.436	525.56
384.662	531.56
384.887	537.56
385.112	554.56
385.337	569.56
385.562	544.56
385.787	562.56
386.013	582.56
386.238	585.56
386.463	563.56
386.688	570.56
386.913	560.56
387.138	592.56
387.363	565.56
387.588	525.56
387.813	523.56
388.038	544.56
388.263	574.56
388.488	590.56
388.713	560.56
388.938	519.56
389.163	529.56
389.387	516.56
389.612	508.56
389.837	514.56
390.062	490.56
390.287	497.56
390.512	496.56
390.736	505.56
390.961	510.56
391.186	513.56
391.411	509.56
391.636	522.56
391.86	527.56
392.085	523.56
392.31	543.56
392.534	543.56
392.759	569.56
392.984	549.56
393.208	613.56
393.433	699.56
393.658	739.56
393.882	583.56
394.107	534.56
394.331	515.56
394.556	549.56
394.78	559.56
395.005	514.56
395.229	513.56
395.454	554.56
395.678	541.56
395.903	563.56
396.127	599.56
396.352	641.56
396.576	598.56
396.801	615.56
397.025	682.56
397.249	617.56
397.474	575.56
397.698	558.56
397.922	567.56
398.147	588.56
398.371	589.56
398.595	574.56
398.82	575.56
399.044	615.56
399.268	612.56
399.492	683.56
399.717	686.56
399.941	738.56
400.165	756.56
400.389	762.56
400.613	692.56
400.837	622.56
401.062	603.56
401.286	609.56
401.51	611.56
401.734	599.56
401.958	642.56
402.182	608.56
402.406	627.56
402.63	638.56
402.854	633.56
403.078	634.56
403.302	633.56
403.526	641.56
403.75	652.56
403.974	631.56
404.198	630.56
404.422	634.56
404.645	636.56
404.869	629.56
405.093	680.56
405.317	701.56
405.541	739.56
405.765	694.56
405.988	669.56
406.212	673.56
406.436	705.56
406.66	752.56
406.883	694.56
407.107	728.56
407.331	781.56
407.555	827.56
407.778	827.56
408.002	763.56
408.226	725.56
408.449	703.56
408.673	684.56
408.896	709.56
409.12	773.56
409.344	716.56
409.567	686.56
409.791	648.56
410.014	645.56
410.238	644.56
410.461	632.56
410.685	634.56
410.908	642.56
411.132	675.56
411.355	718.56
411.578	687.56
411.802	628.56
412.025	601.56
412.249	646.56
412.472	615.56
412.695	681.56
412.919	644.56
413.142	634.56
413.365	604.56
413.589	607.56
413.812	618.56
414.035	581.56
414.258	599.56
414.482	590.56
414.705	603.56
414.928	624.56
415.151	551.56
415.374	607.56
415.597	569.56
415.821	562.56
416.044	603.56
416.267	576.56
416.49	614.56
416.713	594.56
416.936	600.56
417.159	577.56
417.382	612.56
417.605	568.56
417.828	614.56
418.051	642.56
418.274	612.56
418.497	611.56
418.72	599.56
418.943	590.56
419.166	612.56
419.389	664.56
419.611	647.56
419.834	636.56
420.057	622.56
420.28	634.56
420.503	598.56
420.726	597.56
420.948	612.56
421.171	688.56
421.394	710.56
421.617	623.56
421.839	626.56
422.062	608.56
422.285	633.56
422.507	703.56
422.73	840.56
422.953	840.56
423.175	686.56
423.398	667.56
423.621	660.56
423.843	689.56
424.066	657.56
424.288	666.56
424.511	671.56
424.733	764.56
424.956	853.56
425.178	810.56
425.401	795.56
425.623	814.56
425.846	719.56
426.068	668.56
426.291	648.56
426.513	640.56
426.735	663.56
426.958	709.56
427.18	806.56
427.402	949.56
427.625	1063.56
427.847	944.56
428.069	800.56
428.292	729.56
428.514	664.56
428.736	609.56
428.958	631.56
429.181	602.56
429.403	626.56
429.625	612.56
429.847	666.56
430.069	717.56
430.292	739.56
430.514	637.56
430.736	632.56
430.958	618.56
431.18	569.56
431.402	592.56
431.624	588.56
431.846	568.56
432.068	570.56
432.29	590.56
432.512	558.56
432.734	576.56
432.956	587.56
433.178	607.56
433.4	612.56
433.622	585.56
433.844	587.56
434.066	580.56
434.287	594.56
434.509	582.56
434.731	606.56
434.953	615.56
435.175	611.56
435.397	684.56
435.618	647.56
435.84	706.56
436.062	798.56
436.284	895.56
436.505	729.56
436.727	683.56
436.949	620.56
437.17	607.56
437.392	596.56
437.614	615.56
437.835	642.56
438.057	772.56
438.278	895.56
438.5	888.56
438.721	969.56
438.943	942.56
439.165	709.56
439.386	682.56
439.608	678.56
439.829	676.56
440.05	716.56
440.272	786.56
440.493	713.56
440.715	666.56
440.936	611.56
441.158	610.56
441.379	603.56
441.6	661.56
441.822	663.56
442.043	764.56
442.264	807.56
442.486	840.56
442.707	746.56
442.928	689.56
443.149	705.56
443.371	717.56
443.592	765.56
443.813	865.56
444.034	931.56
444.255	809.56
444.476	697.56
444.698	682.56
444.919	694.56
445.14	835.56
445.361	770.56
445.582	738.56
445.803	820.56
446.024	944.56
446.245	923.56
446.466	847.56
446.687	727.56
446.908	658.56
447.129	617.56
447.35	603.56
447.571	606.56
447.792	611.56
448.013	612.56
448.234	615.56
448.455	650.56
448.675	788.56
448.896	910.56
449.117	774.56
449.338	736.56
449.559	875.56
449.779	985.56
450	794.56
450.221	652.56
450.442	586.56
450.662	594.56
450.883	594.56
451.104	625.56
451.324	622.56
451.545	569.56
451.766	564.56
451.986	558.56
452.207	550.56
452.428	536.56
452.648	528.56
452.869	531.56
453.089	591.56
453.31	580.56
453.53	550.56
453.751	558.56
453.971	572.56
454.192	558.56
454.412	584.56
454.633	547.56
454.853	548.56
455.073	532.56
455.294	579.56
455.514	643.56
455.734	623.56
455.955	515.56
456.175	506.56
456.395	518.56
456.616	511.56
456.836	481.56
457.056	492.56
457.276	490.56
457.497	510.56
457.717	516.56
457.937	545.56
458.157	509.56
458.377	520.56
458.598	570.56
458.818	639.56
459.038	738.56
459.258	766.56
459.478	661.56
459.698	584.56
459.918	607.56
460.138	598.56
460.358	602.56
460.578	587.56
460.798	619.56
461.018	638.56
461.238	592.56
461.458	601.56
461.678	568.56
461.898	614.56
462.118	591.56
462.338	612.56
462.558	638.56
462.777	646.56
462.997	660.56
463.217	662.56
463.437	673.56
463.657	662.56
463.876	652.56
464.096	653.56
464.316	655.56
464.536	654.56
464.755	689.56
464.975	658.56
465.195	740.56
465.414	823.56
465.634	706.56
465.854	617.56
466.073	586.56
466.293	583.56
466.512	582.56
466.732	567.56
466.951	570.56
467.171	563.56
467.391	553.56
467.61	569.56
467.829	595.56
468.049	564.56
468.268	588.56
468.488	533.56
468.707	539.56
468.927	553.56
469.146	539.56
469.365	567.56
469.585	554.56
469.804	574.56
470.023	605.56
470.243	614.56
470.462	577.56
470.681	607.56
470.901	598.56
471.12	578.56
471.339	560.56
471.558	566.56
471.777	570.56
471.997	555.56
472.216	568.56
472.435	588.56
472.654	588.56
472.873	570.56
473.092	565.56
473.311	567.56
473.53	556.56
473.749	570.56
473.968	620.56
474.187	729.56
474.406	778.56
474.625	636.56
474.844	592.56
475.063	552.56
475.282	587.56
475.501	574.56
475.72	566.56
475.939	560.56
476.158	593.56
476.377	576.56
476.596	582.56
476.814	598.56
477.033	605.56
477.252	595.56
477.471	608.56
477.69	618.56
477.908	624.56
478.127	640.56
478.346	644.56
478.564	646.56
478.783	645.56
479.002	672.56
479.22	694.56
479.439	702.56
479.658	688.56
479.876	710.56
480.095	680.56
480.313	765.56
480.532	725.56
480.751	724.56
480.969	694.56
481.188	778.56
481.406	833.56
481.624	742.56
481.843	708.56
482.061	676.56
482.28	669.56
482.498	676.56
482.717	653.56
482.935	672.56
483.153	668.56
483.372	699.56
483.59	681.56
483.808	676.56
484.027	660.56
484.245	691.56
484.463	681.56
484.681	683.56
484.9	699.56
485.118	690.56
485.336	711.56
485.554	710.56
485.772	701.56
485.99	713.56
486.209	688.56
486.427	735.56
486.645	727.56
486.863	755.56
487.081	752.56
487.299	719.56
487.517	716.56
487.735	730.56
487.953	735.56
488.171	734.56
488.389	735.56
488.607	764.56
488.825	720.56
489.043	733.56
489.261	727.56
489.479	722.56
489.696	727.56
489.914	736.56
490.132	743.56
490.35	750.56
490.568	753.56
490.786	760.56
491.003	776.56
491.221	802.56
491.439	768.56
491.657	813.56
491.874	827.56
492.092	854.56
492.31	823.56
492.527	817.56
492.745	822.56
492.963	816.56
493.18	802.56
493.398	845.56
493.615	849.56
493.833	851.56
494.05	866.56
494.268	867.56
494.485	834.56
494.703	836.56
494.92	835.56
495.138	843.56
495.355	844.56
495.573	852.56
495.79	873.56
496.008	866.56
496.225	859.56
496.442	830.56
496.66	833.56
496.877	863.56
497.094	866.56
497.312	844.56
497.529	855.56
497.746	890.56
497.963	891.56
498.181	951.56
498.398	956.56
498.615	962.56
498.832	1010.56
499.049	1018.56
499.267	1048.56
499.484	1078.56
499.701	1120.56
499.918	1180.56
500.135	1232.56
500.352	1346.56
500.569	1356.56
500.786	1354.56
501.003	1314.56
501.22	1313.56
501.437	1174.56
