Data from 1975.PennyLincolnUp.Lamp.En5.5.200Scan.071719.P1.Changed Mount._HRD10591_15-57-29-859.txt Node
Date: Thu Jul 18 15:57:29 EDT 2019
User: cochatt
Spectrometer: HR+D1059
Trigger mode: 1
Integration Time (sec): 1.000000E-1
Scans to average: 1
Electric dark correction enabled: true
Nonlinearity correction enabled: false
Boxcar width: 0
XAxis mode: Wavelengths
Number of Pixels in Spectrum: 2048
>>>>>Begin Spectral Data<<<<<
223.165	-22.06
223.4	-22.06
223.635	-22.06
223.869	-20.06
224.104	-13.06
224.338	-7.06
224.573	-13.06
224.808	-19.06
225.042	-1.06
225.277	-2.06
225.511	-1.06
225.746	-9.06
225.98	12.94
226.215	9.94
226.449	17.94
226.683	27.94
226.918	20.94
227.152	17.94
227.387	45.94
227.621	42.94
227.856	35.94
228.09	45.94
228.324	60.94
228.559	54.94
228.793	64.94
229.027	91.94
229.262	92.94
229.496	109.94
229.73	142.94
229.964	144.94
230.199	121.94
230.433	97.94
230.667	103.94
230.901	111.94
231.136	101.94
231.37	109.94
231.604	114.94
231.838	126.94
232.072	115.94
232.306	100.94
232.541	111.94
232.775	122.94
233.009	111.94
233.243	110.94
233.477	132.94
233.711	121.94
233.945	122.94
234.179	112.94
234.413	109.94
234.647	112.94
234.881	126.94
235.115	118.94
235.349	114.94
235.583	121.94
235.817	128.94
236.051	129.94
236.285	130.94
236.519	126.94
236.753	131.94
236.987	136.94
237.221	176.94
237.455	214.94
237.689	176.94
237.922	137.94
238.156	110.94
238.39	127.94
238.624	136.94
238.858	121.94
239.091	141.94
239.325	138.94
239.559	132.94
239.793	126.94
240.027	131.94
240.26	144.94
240.494	150.94
240.728	144.94
240.961	133.94
241.195	133.94
241.429	145.94
241.662	152.94
241.896	135.94
242.13	125.94
242.363	126.94
242.597	145.94
242.83	141.94
243.064	125.94
243.298	146.94
243.531	144.94
243.765	131.94
243.998	130.94
244.232	134.94
244.465	147.94
244.699	161.94
244.932	150.94
245.166	143.94
245.399	132.94
245.633	158.94
245.866	156.94
246.099	158.94
246.333	135.94
246.566	147.94
246.8	154.94
247.033	152.94
247.266	172.94
247.5	158.94
247.733	167.94
247.966	166.94
248.2	188.94
248.433	167.94
248.666	184.94
248.899	184.94
249.133	190.94
249.366	200.94
249.599	206.94
249.832	172.94
250.066	181.94
250.299	172.94
250.532	197.94
250.765	200.94
250.998	199.94
251.231	224.94
251.465	206.94
251.698	194.94
251.931	189.94
252.164	212.94
252.397	210.94
252.63	189.94
252.863	186.94
253.096	207.94
253.329	219.94
253.562	236.94
253.795	235.94
254.028	208.94
254.261	206.94
254.494	210.94
254.727	237.94
254.96	261.94
255.193	263.94
255.426	227.94
255.659	223.94
255.892	231.94
256.124	224.94
256.357	223.94
256.59	226.94
256.823	214.94
257.056	195.94
257.289	199.94
257.521	199.94
257.754	212.94
257.987	216.94
258.22	215.94
258.452	204.94
258.685	213.94
258.918	207.94
259.151	218.94
259.383	208.94
259.616	215.94
259.849	231.94
260.081	246.94
260.314	256.94
260.547	243.94
260.779	250.94
261.012	223.94
261.244	226.94
261.477	226.94
261.71	220.94
261.942	224.94
262.175	226.94
262.407	213.94
262.64	237.94
262.872	230.94
263.105	204.94
263.337	207.94
263.57	235.94
263.802	232.94
264.035	199.94
264.267	214.94
264.499	214.94
264.732	224.94
264.964	214.94
265.197	203.94
265.429	221.94
265.661	230.94
265.894	221.94
266.126	236.94
266.358	209.94
266.591	218.94
266.823	238.94
267.055	233.94
267.287	221.94
267.52	225.94
267.752	228.94
267.984	211.94
268.216	234.94
268.448	234.94
268.681	244.94
268.913	242.94
269.145	246.94
269.377	280.94
269.609	276.94
269.841	277.94
270.073	260.94
270.306	290.94
270.538	311.94
270.77	321.94
271.002	310.94
271.234	277.94
271.466	298.94
271.698	308.94
271.93	331.94
272.162	306.94
272.394	306.94
272.626	286.94
272.858	281.94
273.09	272.94
273.322	271.94
273.553	269.94
273.785	264.94
274.017	270.94
274.249	279.94
274.481	266.94
274.713	262.94
274.945	272.94
275.176	271.94
275.408	268.94
275.64	274.94
275.872	289.94
276.104	284.94
276.335	263.94
276.567	287.94
276.799	276.94
277.031	313.94
277.262	324.94
277.494	312.94
277.726	296.94
277.957	279.94
278.189	294.94
278.421	288.94
278.652	295.94
278.884	285.94
279.115	280.94
279.347	281.94
279.579	278.94
279.81	288.94
280.042	282.94
280.273	272.94
280.505	283.94
280.736	271.94
280.968	269.94
281.199	274.94
281.431	269.94
281.662	306.94
281.894	272.94
282.125	286.94
282.356	270.94
282.588	301.94
282.819	310.94
283.051	295.94
283.282	273.94
283.513	276.94
283.745	273.94
283.976	288.94
284.207	306.94
284.439	306.94
284.67	320.94
284.901	301.94
285.132	271.94
285.364	275.94
285.595	297.94
285.826	284.94
286.057	288.94
286.288	292.94
286.52	293.94
286.751	280.94
286.982	291.94
287.213	298.94
287.444	309.94
287.675	296.94
287.906	307.94
288.138	324.94
288.369	312.94
288.6	324.94
288.831	294.94
289.062	302.94
289.293	312.94
289.524	306.94
289.755	304.94
289.986	302.94
290.217	300.94
290.448	293.94
290.679	290.94
290.91	286.94
291.141	285.94
291.371	308.94
291.602	322.94
291.833	289.94
292.064	292.94
292.295	320.94
292.526	298.94
292.757	299.94
292.987	284.94
293.218	296.94
293.449	308.94
293.68	316.94
293.91	307.94
294.141	306.94
294.372	298.94
294.603	306.94
294.833	316.94
295.064	323.94
295.295	314.94
295.525	308.94
295.756	295.94
295.987	326.94
296.217	348.94
296.448	332.94
296.679	322.94
296.909	327.94
297.14	302.94
297.37	319.94
297.601	312.94
297.831	310.94
298.062	307.94
298.292	323.94
298.523	310.94
298.753	329.94
298.984	313.94
299.214	326.94
299.445	322.94
299.675	338.94
299.905	317.94
300.136	331.94
300.366	317.94
300.597	316.94
300.827	343.94
301.057	344.94
301.288	342.94
301.518	350.94
301.748	328.94
301.979	348.94
302.209	326.94
302.439	347.94
302.669	341.94
302.9	327.94
303.13	331.94
303.36	354.94
303.59	334.94
303.82	346.94
304.051	345.94
304.281	355.94
304.511	346.94
304.741	334.94
304.971	327.94
305.201	348.94
305.431	331.94
305.661	319.94
305.891	341.94
306.121	344.94
306.352	348.94
306.582	349.94
306.812	335.94
307.042	351.94
307.272	347.94
307.502	335.94
307.731	340.94
307.961	340.94
308.191	358.94
308.421	355.94
308.651	373.94
308.881	372.94
309.111	359.94
309.341	355.94
309.571	354.94
309.8	363.94
310.03	354.94
310.26	365.94
310.49	363.94
310.72	364.94
310.949	395.94
311.179	399.94
311.409	385.94
311.639	387.94
311.868	375.94
312.098	382.94
312.328	391.94
312.557	398.94
312.787	407.94
313.017	397.94
313.246	399.94
313.476	370.94
313.706	380.94
313.935	374.94
314.165	386.94
314.394	419.94
314.624	412.94
314.853	387.94
315.083	387.94
315.312	363.94
315.542	374.94
315.771	375.94
316.001	378.94
316.23	383.94
316.46	395.94
316.689	371.94
316.919	384.94
317.148	391.94
317.377	396.94
317.607	388.94
317.836	368.94
318.065	382.94
318.295	404.94
318.524	394.94
318.753	382.94
318.983	381.94
319.212	360.94
319.441	378.94
319.67	404.94
319.9	394.94
320.129	390.94
320.358	390.94
320.587	379.94
320.816	399.94
321.046	391.94
321.275	391.94
321.504	392.94
321.733	422.94
321.962	405.94
322.191	403.94
322.42	406.94
322.649	440.94
322.878	427.94
323.108	410.94
323.337	440.94
323.566	456.94
323.795	502.94
324.024	519.94
324.253	598.94
324.482	788.94
324.71	1241.94
324.939	1787.94
325.168	1588.94
325.397	816.94
325.626	591.94
325.855	503.94
326.084	484.94
326.313	473.94
326.542	463.94
326.77	496.94
326.999	563.94
327.228	737.94
327.457	1117.94
327.686	1406.94
327.914	924.94
328.143	646.94
328.372	560.94
328.6	554.94
328.829	535.94
329.058	536.94
329.287	547.94
329.515	518.94
329.744	501.94
329.972	466.94
330.201	502.94
330.43	533.94
330.658	554.94
330.887	563.94
331.115	567.94
331.344	468.94
331.572	487.94
331.801	469.94
332.03	498.94
332.258	476.94
332.486	444.94
332.715	472.94
332.943	478.94
333.172	472.94
333.4	473.94
333.629	478.94
333.857	515.94
334.085	489.94
334.314	506.94
334.542	534.94
334.771	567.94
334.999	538.94
335.227	480.94
335.455	456.94
335.684	487.94
335.912	484.94
336.14	477.94
336.369	441.94
336.597	473.94
336.825	448.94
337.053	440.94
337.281	443.94
337.51	455.94
337.738	450.94
337.966	466.94
338.194	450.94
338.422	435.94
338.65	460.94
338.878	446.94
339.106	446.94
339.334	445.94
339.562	450.94
339.79	439.94
340.018	454.94
340.246	438.94
340.474	427.94
340.702	440.94
340.93	432.94
341.158	441.94
341.386	447.94
341.614	447.94
341.842	453.94
342.07	451.94
342.298	416.94
342.526	441.94
342.754	429.94
342.981	434.94
343.209	443.94
343.437	447.94
343.665	437.94
343.893	462.94
344.12	462.94
344.348	471.94
344.576	442.94
344.804	440.94
345.031	446.94
345.259	454.94
345.487	452.94
345.714	427.94
345.942	440.94
346.17	411.94
346.397	429.94
346.625	422.94
346.853	414.94
347.08	431.94
347.308	431.94
347.535	424.94
347.763	430.94
347.99	426.94
348.218	422.94
348.445	417.94
348.673	441.94
348.9	416.94
349.128	429.94
349.355	421.94
349.583	424.94
349.81	418.94
350.037	399.94
350.265	414.94
350.492	425.94
350.72	406.94
350.947	423.94
351.174	445.94
351.402	436.94
351.629	435.94
351.856	438.94
352.083	416.94
352.311	429.94
352.538	434.94
352.765	422.94
352.992	411.94
353.22	428.94
353.447	431.94
353.674	427.94
353.901	422.94
354.128	426.94
354.355	406.94
354.583	397.94
354.81	403.94
355.037	406.94
355.264	385.94
355.491	388.94
355.718	399.94
355.945	396.94
356.172	390.94
356.399	394.94
356.626	380.94
356.853	408.94
357.08	400.94
357.307	400.94
357.534	395.94
357.761	406.94
357.988	404.94
358.215	411.94
358.441	386.94
358.668	399.94
358.895	428.94
359.122	420.94
359.349	403.94
359.576	430.94
359.802	441.94
360.029	465.94
360.256	461.94
360.483	446.94
360.709	426.94
360.936	417.94
361.163	430.94
361.39	430.94
361.616	431.94
361.843	421.94
362.07	420.94
362.296	430.94
362.523	428.94
362.749	407.94
362.976	418.94
363.203	430.94
363.429	403.94
363.656	420.94
363.882	401.94
364.109	394.94
364.335	399.94
364.562	397.94
364.788	398.94
365.015	418.94
365.241	410.94
365.468	420.94
365.694	415.94
365.92	416.94
366.147	410.94
366.373	414.94
366.599	408.94
366.826	409.94
367.052	416.94
367.278	418.94
367.505	428.94
367.731	410.94
367.957	389.94
368.184	415.94
368.41	416.94
368.636	421.94
368.862	408.94
369.089	421.94
369.315	421.94
369.541	412.94
369.767	424.94
369.993	429.94
370.219	411.94
370.445	416.94
370.672	413.94
370.898	428.94
371.124	426.94
371.35	429.94
371.576	428.94
371.802	408.94
372.028	422.94
372.254	420.94
372.48	438.94
372.706	410.94
372.932	416.94
373.158	432.94
373.384	418.94
373.61	422.94
373.835	445.94
374.061	442.94
374.287	441.94
374.513	429.94
374.739	422.94
374.965	422.94
375.191	431.94
375.416	431.94
375.642	420.94
375.868	421.94
376.094	415.94
376.319	423.94
376.545	408.94
376.771	415.94
376.997	433.94
377.222	420.94
377.448	402.94
377.674	417.94
377.899	407.94
378.125	409.94
378.35	410.94
378.576	412.94
378.802	425.94
379.027	429.94
379.253	421.94
379.478	400.94
379.704	425.94
379.929	426.94
380.155	411.94
380.38	424.94
380.606	396.94
380.831	421.94
381.057	416.94
381.282	424.94
381.507	430.94
381.733	440.94
381.958	429.94
382.184	420.94
382.409	430.94
382.634	442.94
382.86	419.94
383.085	452.94
383.31	465.94
383.535	443.94
383.761	428.94
383.986	444.94
384.211	445.94
384.436	468.94
384.662	451.94
384.887	471.94
385.112	469.94
385.337	489.94
385.562	478.94
385.787	449.94
386.013	482.94
386.238	473.94
386.463	471.94
386.688	483.94
386.913	476.94
387.138	460.94
387.363	488.94
387.588	457.94
387.813	480.94
388.038	461.94
388.263	470.94
388.488	469.94
388.713	457.94
388.938	483.94
389.163	478.94
389.387	456.94
389.612	454.94
389.837	485.94
390.062	462.94
390.287	454.94
390.512	473.94
390.736	480.94
390.961	485.94
391.186	454.94
391.411	472.94
391.636	481.94
391.86	489.94
392.085	507.94
392.31	515.94
392.534	499.94
392.759	492.94
392.984	469.94
393.208	482.94
393.433	502.94
393.658	486.94
393.882	474.94
394.107	488.94
394.331	490.94
394.556	474.94
394.78	478.94
395.005	489.94
395.229	486.94
395.454	472.94
395.678	495.94
395.903	507.94
396.127	513.94
396.352	508.94
396.576	492.94
396.801	500.94
397.025	478.94
397.249	495.94
397.474	513.94
397.698	512.94
397.922	512.94
398.147	518.94
398.371	536.94
398.595	534.94
398.82	555.94
399.044	564.94
399.268	577.94
399.492	639.94
399.717	660.94
399.941	686.94
400.165	694.94
400.389	690.94
400.613	642.94
400.837	589.94
401.062	568.94
401.286	558.94
401.51	541.94
401.734	564.94
401.958	562.94
402.182	571.94
402.406	546.94
402.63	553.94
402.854	578.94
403.078	559.94
403.302	578.94
403.526	590.94
403.75	602.94
403.974	584.94
404.198	586.94
404.422	591.94
404.645	586.94
404.869	606.94
405.093	623.94
405.317	661.94
405.541	676.94
405.765	652.94
405.988	594.94
406.212	621.94
406.436	621.94
406.66	629.94
406.883	628.94
407.107	644.94
407.331	688.94
407.555	746.94
407.778	770.94
408.002	715.94
408.226	656.94
408.449	632.94
408.673	614.94
408.896	626.94
409.12	675.94
409.344	635.94
409.567	617.94
409.791	602.94
410.014	551.94
410.238	567.94
410.461	591.94
410.685	580.94
410.908	594.94
411.132	630.94
411.355	657.94
411.578	635.94
411.802	601.94
412.025	579.94
412.249	596.94
412.472	600.94
412.695	630.94
412.919	628.94
413.142	591.94
413.365	585.94
413.589	551.94
413.812	555.94
414.035	548.94
414.258	567.94
414.482	550.94
414.705	568.94
414.928	564.94
415.151	553.94
415.374	533.94
415.597	525.94
415.821	520.94
416.044	543.94
416.267	536.94
416.49	532.94
416.713	547.94
416.936	560.94
417.159	546.94
417.382	552.94
417.605	550.94
417.828	573.94
418.051	543.94
418.274	559.94
418.497	555.94
418.72	562.94
418.943	532.94
419.166	570.94
419.389	610.94
419.611	585.94
419.834	572.94
420.057	579.94
420.28	588.94
420.503	580.94
420.726	557.94
420.948	581.94
421.171	611.94
421.394	647.94
421.617	589.94
421.839	555.94
422.062	557.94
422.285	576.94
422.507	634.94
422.73	672.94
422.953	659.94
423.175	618.94
423.398	603.94
423.621	586.94
423.843	612.94
424.066	615.94
424.288	602.94
424.511	630.94
424.733	664.94
424.956	770.94
425.178	706.94
425.401	707.94
425.623	723.94
425.846	652.94
426.068	602.94
426.291	612.94
426.513	581.94
426.735	605.94
426.958	650.94
427.18	693.94
427.402	822.94
427.625	904.94
427.847	791.94
428.069	698.94
428.292	632.94
428.514	579.94
428.736	544.94
428.958	574.94
429.181	540.94
429.403	578.94
429.625	564.94
429.847	595.94
430.069	665.94
430.292	650.94
430.514	562.94
430.736	556.94
430.958	558.94
431.18	520.94
431.402	536.94
431.624	528.94
431.846	535.94
432.068	520.94
432.29	518.94
432.512	493.94
432.734	521.94
432.956	495.94
433.178	537.94
433.4	533.94
433.622	548.94
433.844	544.94
434.066	519.94
434.287	533.94
434.509	537.94
434.731	555.94
434.953	573.94
435.175	549.94
435.397	597.94
435.618	602.94
435.84	639.94
436.062	742.94
436.284	814.94
436.505	672.94
436.727	592.94
436.949	606.94
437.17	557.94
437.392	534.94
437.614	563.94
437.835	597.94
438.057	649.94
438.278	752.94
438.5	745.94
438.721	840.94
438.943	844.94
439.165	644.94
439.386	600.94
439.608	594.94
439.829	587.94
440.05	612.94
440.272	662.94
440.493	623.94
440.715	568.94
440.936	567.94
441.158	563.94
441.379	582.94
441.6	564.94
441.822	623.94
442.043	634.94
442.264	706.94
442.486	750.94
442.707	653.94
442.928	613.94
443.149	591.94
443.371	621.94
443.592	663.94
443.813	765.94
444.034	834.94
444.255	712.94
444.476	650.94
444.698	602.94
444.919	636.94
445.14	712.94
445.361	670.94
445.582	636.94
445.803	674.94
446.024	775.94
446.245	800.94
446.466	695.94
446.687	612.94
446.908	595.94
447.129	558.94
447.35	557.94
447.571	539.94
447.792	524.94
448.013	547.94
448.234	555.94
448.455	591.94
448.675	719.94
448.896	861.94
449.117	702.94
449.338	651.94
449.559	772.94
449.779	887.94
450	679.94
450.221	599.94
450.442	566.94
450.662	532.94
450.883	543.94
451.104	546.94
451.324	527.94
451.545	498.94
451.766	476.94
451.986	495.94
452.207	481.94
452.428	489.94
452.648	479.94
452.869	471.94
453.089	504.94
453.31	514.94
453.53	505.94
453.751	486.94
453.971	472.94
454.192	502.94
454.412	495.94
454.633	514.94
454.853	462.94
455.073	475.94
455.294	508.94
455.514	584.94
455.734	556.94
455.955	500.94
456.175	482.94
456.395	462.94
456.616	448.94
456.836	443.94
457.056	461.94
457.276	456.94
457.497	454.94
457.717	460.94
457.937	468.94
458.157	486.94
458.377	474.94
458.598	495.94
458.818	555.94
459.038	586.94
459.258	628.94
459.478	576.94
459.698	528.94
459.918	522.94
460.138	526.94
460.358	530.94
460.578	545.94
460.798	564.94
461.018	578.94
461.238	526.94
461.458	526.94
461.678	558.94
461.898	556.94
462.118	551.94
462.338	585.94
462.558	582.94
462.777	582.94
462.997	618.94
463.217	632.94
463.437	615.94
463.657	612.94
463.876	595.94
464.096	588.94
464.316	581.94
464.536	591.94
464.755	597.94
464.975	606.94
465.195	590.94
465.414	652.94
465.634	564.94
465.854	555.94
466.073	545.94
466.293	518.94
466.512	520.94
466.732	533.94
466.951	528.94
467.171	500.94
467.391	522.94
467.61	517.94
467.829	535.94
468.049	522.94
468.268	520.94
468.488	491.94
468.707	499.94
468.927	496.94
469.146	500.94
469.365	476.94
469.585	507.94
469.804	521.94
470.023	503.94
470.243	512.94
470.462	511.94
470.681	529.94
470.901	516.94
471.12	525.94
471.339	510.94
471.558	501.94
471.777	519.94
471.997	500.94
472.216	512.94
472.435	535.94
472.654	517.94
472.873	501.94
473.092	489.94
473.311	502.94
473.53	515.94
473.749	525.94
473.968	546.94
474.187	649.94
474.406	676.94
474.625	556.94
474.844	521.94
475.063	513.94
475.282	487.94
475.501	497.94
475.72	519.94
475.939	513.94
476.158	510.94
476.377	520.94
476.596	513.94
476.814	538.94
477.033	535.94
477.252	542.94
477.471	551.94
477.69	564.94
477.908	552.94
478.127	564.94
478.346	577.94
478.564	560.94
478.783	580.94
479.002	571.94
479.22	588.94
479.439	599.94
479.658	608.94
479.876	622.94
480.095	632.94
480.313	632.94
480.532	645.94
480.751	635.94
480.969	622.94
481.188	678.94
481.406	724.94
481.624	650.94
481.843	611.94
482.061	615.94
482.28	581.94
482.498	598.94
482.717	586.94
482.935	576.94
483.153	605.94
483.372	607.94
483.59	608.94
483.808	589.94
484.027	583.94
484.245	589.94
484.463	590.94
484.681	609.94
484.9	619.94
485.118	615.94
485.336	623.94
485.554	615.94
485.772	612.94
485.99	636.94
486.209	629.94
486.427	615.94
486.645	644.94
486.863	642.94
487.081	653.94
487.299	644.94
487.517	634.94
487.735	620.94
487.953	646.94
488.171	631.94
488.389	648.94
488.607	628.94
488.825	655.94
489.043	659.94
489.261	628.94
489.479	651.94
489.696	648.94
489.914	660.94
490.132	652.94
490.35	672.94
490.568	651.94
490.786	679.94
491.003	704.94
491.221	719.94
491.439	707.94
491.657	712.94
491.874	723.94
492.092	725.94
492.31	739.94
492.527	740.94
492.745	733.94
492.963	744.94
493.18	742.94
493.398	746.94
493.615	743.94
493.833	781.94
494.05	775.94
494.268	732.94
494.485	732.94
494.703	755.94
494.92	738.94
495.138	774.94
495.355	758.94
495.573	763.94
495.79	766.94
496.008	764.94
496.225	735.94
496.442	754.94
496.66	772.94
496.877	769.94
497.094	768.94
497.312	766.94
497.529	765.94
497.746	756.94
497.963	822.94
498.181	827.94
498.398	850.94
498.615	831.94
498.832	892.94
499.049	898.94
499.267	955.94
499.484	986.94
499.701	995.94
499.918	1049.94
500.135	1106.94
500.352	1166.94
500.569	1206.94
500.786	1195.94
501.003	1197.94
501.22	1170.94
501.437	1080.94
501.654	1030.94
