Data from 1975.PennyLincolnUp.Lamp.En5.5.200Scan.071719.P1.Changed Mount._HRD10591_15-56-24-859.txt Node
Date: Thu Jul 18 15:56:24 EDT 2019
User: cochatt
Spectrometer: HR+D1059
Trigger mode: 1
Integration Time (sec): 1.000000E-1
Scans to average: 1
Electric dark correction enabled: true
Nonlinearity correction enabled: false
Boxcar width: 0
XAxis mode: Wavelengths
Number of Pixels in Spectrum: 2048
>>>>>Begin Spectral Data<<<<<
223.165	-11.56
223.4	-11.56
223.635	-11.56
223.869	-26.56
224.104	0.44
224.338	-0.56
224.573	-21.56
224.808	-11.56
225.042	-16.56
225.277	-18.56
225.511	3.44
225.746	11.44
225.98	3.44
226.215	0.44
226.449	18.44
226.683	16.44
226.918	22.44
227.152	30.44
227.387	18.44
227.621	36.44
227.856	50.44
228.09	50.44
228.324	49.44
228.559	67.44
228.793	65.44
229.027	93.44
229.262	102.44
229.496	100.44
229.73	129.44
229.964	145.44
230.199	130.44
230.433	119.44
230.667	116.44
230.901	123.44
231.136	116.44
231.37	123.44
231.604	116.44
231.838	116.44
232.072	97.44
232.306	118.44
232.541	127.44
232.775	106.44
233.009	123.44
233.243	122.44
233.477	121.44
233.711	126.44
233.945	117.44
234.179	126.44
234.413	113.44
234.647	102.44
234.881	126.44
235.115	127.44
235.349	111.44
235.583	117.44
235.817	120.44
236.051	122.44
236.285	135.44
236.519	119.44
236.753	132.44
236.987	161.44
237.221	167.44
237.455	206.44
237.689	172.44
237.922	135.44
238.156	126.44
238.39	142.44
238.624	130.44
238.858	129.44
239.091	131.44
239.325	124.44
239.559	129.44
239.793	113.44
240.027	130.44
240.26	150.44
240.494	149.44
240.728	142.44
240.961	146.44
241.195	140.44
241.429	134.44
241.662	135.44
241.896	127.44
242.13	143.44
242.363	137.44
242.597	134.44
242.83	145.44
243.064	139.44
243.298	135.44
243.531	133.44
243.765	152.44
243.998	141.44
244.232	148.44
244.465	152.44
244.699	132.44
244.932	154.44
245.166	156.44
245.399	141.44
245.633	142.44
245.866	139.44
246.099	131.44
246.333	148.44
246.566	150.44
246.8	162.44
247.033	155.44
247.266	158.44
247.5	157.44
247.733	159.44
247.966	175.44
248.2	170.44
248.433	171.44
248.666	179.44
248.899	180.44
249.133	196.44
249.366	208.44
249.599	197.44
249.832	194.44
250.066	177.44
250.299	181.44
250.532	199.44
250.765	202.44
250.998	220.44
251.231	210.44
251.465	199.44
251.698	191.44
251.931	198.44
252.164	200.44
252.397	201.44
252.63	190.44
252.863	180.44
253.096	213.44
253.329	206.44
253.562	222.44
253.795	218.44
254.028	207.44
254.261	210.44
254.494	224.44
254.727	239.44
254.96	280.44
255.193	265.44
255.426	249.44
255.659	236.44
255.892	232.44
256.124	242.44
256.357	247.44
256.59	243.44
256.823	218.44
257.056	215.44
257.289	191.44
257.521	211.44
257.754	220.44
257.987	215.44
258.22	207.44
258.452	196.44
258.685	204.44
258.918	204.44
259.151	215.44
259.383	219.44
259.616	223.44
259.849	228.44
260.081	212.44
260.314	244.44
260.547	277.44
260.779	262.44
261.012	238.44
261.244	223.44
261.477	222.44
261.71	223.44
261.942	226.44
262.175	234.44
262.407	219.44
262.64	237.44
262.872	214.44
263.105	227.44
263.337	207.44
263.57	211.44
263.802	216.44
264.035	227.44
264.267	218.44
264.499	221.44
264.732	210.44
264.964	234.44
265.197	210.44
265.429	214.44
265.661	214.44
265.894	223.44
266.126	220.44
266.358	228.44
266.591	224.44
266.823	230.44
267.055	233.44
267.287	229.44
267.52	231.44
267.752	231.44
267.984	216.44
268.216	219.44
268.448	239.44
268.681	229.44
268.913	243.44
269.145	243.44
269.377	282.44
269.609	278.44
269.841	255.44
270.073	266.44
270.306	274.44
270.538	319.44
270.77	311.44
271.002	286.44
271.234	302.44
271.466	300.44
271.698	317.44
271.93	314.44
272.162	323.44
272.394	322.44
272.626	323.44
272.858	280.44
273.09	269.44
273.322	271.44
273.553	287.44
273.785	261.44
274.017	280.44
274.249	266.44
274.481	290.44
274.713	273.44
274.945	287.44
275.176	284.44
275.408	245.44
275.64	268.44
275.872	269.44
276.104	267.44
276.335	270.44
276.567	264.44
276.799	281.44
277.031	295.44
277.262	308.44
277.494	322.44
277.726	289.44
277.957	286.44
278.189	290.44
278.421	260.44
278.652	284.44
278.884	270.44
279.115	287.44
279.347	291.44
279.579	283.44
279.81	282.44
280.042	284.44
280.273	276.44
280.505	308.44
280.736	263.44
280.968	263.44
281.199	276.44
281.431	277.44
281.662	279.44
281.894	260.44
282.125	301.44
282.356	292.44
282.588	312.44
282.819	298.44
283.051	290.44
283.282	267.44
283.513	280.44
283.745	283.44
283.976	288.44
284.207	285.44
284.439	291.44
284.67	281.44
284.901	297.44
285.132	300.44
285.364	275.44
285.595	294.44
285.826	286.44
286.057	307.44
286.288	286.44
286.52	296.44
286.751	284.44
286.982	297.44
287.213	314.44
287.444	267.44
287.675	295.44
287.906	321.44
288.138	309.44
288.369	310.44
288.6	298.44
288.831	294.44
289.062	322.44
289.293	294.44
289.524	299.44
289.755	300.44
289.986	315.44
290.217	282.44
290.448	309.44
290.679	296.44
290.91	302.44
291.141	306.44
291.371	288.44
291.602	299.44
291.833	297.44
292.064	311.44
292.295	306.44
292.526	318.44
292.757	324.44
292.987	306.44
293.218	299.44
293.449	300.44
293.68	301.44
293.91	284.44
294.141	280.44
294.372	292.44
294.603	313.44
294.833	308.44
295.064	287.44
295.295	301.44
295.525	296.44
295.756	311.44
295.987	311.44
296.217	327.44
296.448	338.44
296.679	316.44
296.909	324.44
297.14	321.44
297.37	312.44
297.601	319.44
297.831	314.44
298.062	323.44
298.292	311.44
298.523	312.44
298.753	316.44
298.984	329.44
299.214	312.44
299.445	319.44
299.675	319.44
299.905	334.44
300.136	343.44
300.366	326.44
300.597	318.44
300.827	332.44
301.057	329.44
301.288	331.44
301.518	328.44
301.748	354.44
301.979	343.44
302.209	332.44
302.439	340.44
302.669	344.44
302.9	350.44
303.13	340.44
303.36	340.44
303.59	360.44
303.82	370.44
304.051	353.44
304.281	340.44
304.511	322.44
304.741	326.44
304.971	312.44
305.201	340.44
305.431	354.44
305.661	356.44
305.891	333.44
306.121	342.44
306.352	342.44
306.582	358.44
306.812	356.44
307.042	340.44
307.272	340.44
307.502	359.44
307.731	345.44
307.961	349.44
308.191	356.44
308.421	345.44
308.651	359.44
308.881	340.44
309.111	356.44
309.341	363.44
309.571	358.44
309.8	356.44
310.03	359.44
310.26	359.44
310.49	369.44
310.72	366.44
310.949	386.44
311.179	399.44
311.409	376.44
311.639	357.44
311.868	374.44
312.098	363.44
312.328	391.44
312.557	377.44
312.787	403.44
313.017	393.44
313.246	408.44
313.476	370.44
313.706	381.44
313.935	391.44
314.165	400.44
314.394	385.44
314.624	399.44
314.853	375.44
315.083	395.44
315.312	375.44
315.542	394.44
315.771	378.44
316.001	388.44
316.23	398.44
316.46	372.44
316.689	400.44
316.919	378.44
317.148	382.44
317.377	385.44
317.607	389.44
317.836	390.44
318.065	387.44
318.295	378.44
318.524	374.44
318.753	380.44
318.983	382.44
319.212	388.44
319.441	381.44
319.67	388.44
319.9	393.44
320.129	361.44
320.358	389.44
320.587	384.44
320.816	391.44
321.046	404.44
321.275	400.44
321.504	431.44
321.733	404.44
321.962	396.44
322.191	414.44
322.42	426.44
322.649	421.44
322.878	417.44
323.108	431.44
323.337	439.44
323.566	458.44
323.795	471.44
324.024	502.44
324.253	574.44
324.482	764.44
324.71	1154.44
324.939	1720.44
325.168	1568.44
325.397	799.44
325.626	548.44
325.855	491.44
326.084	459.44
326.313	461.44
326.542	468.44
326.77	501.44
326.999	562.44
327.228	731.44
327.457	1090.44
327.686	1305.44
327.914	922.44
328.143	602.44
328.372	529.44
328.6	521.44
328.829	507.44
329.058	511.44
329.287	516.44
329.515	489.44
329.744	492.44
329.972	475.44
330.201	500.44
330.43	522.44
330.658	534.44
330.887	565.44
331.115	548.44
331.344	500.44
331.572	466.44
331.801	464.44
332.03	476.44
332.258	456.44
332.486	440.44
332.715	443.44
332.943	465.44
333.172	483.44
333.4	506.44
333.629	490.44
333.857	488.44
334.085	518.44
334.314	510.44
334.542	537.44
334.771	572.44
334.999	526.44
335.227	509.44
335.455	499.44
335.684	478.44
335.912	476.44
336.14	468.44
336.369	476.44
336.597	478.44
336.825	460.44
337.053	450.44
337.281	443.44
337.51	462.44
337.738	456.44
337.966	446.44
338.194	456.44
338.422	458.44
338.65	466.44
338.878	458.44
339.106	430.44
339.334	430.44
339.562	439.44
339.79	455.44
340.018	427.44
340.246	429.44
340.474	445.44
340.702	459.44
340.93	475.44
341.158	442.44
341.386	438.44
341.614	444.44
341.842	435.44
342.07	428.44
342.298	424.44
342.526	422.44
342.754	414.44
342.981	427.44
343.209	435.44
343.437	444.44
343.665	442.44
343.893	458.44
344.12	469.44
344.348	464.44
344.576	472.44
344.804	453.44
345.031	456.44
345.259	476.44
345.487	447.44
345.714	430.44
345.942	441.44
346.17	408.44
346.397	430.44
346.625	446.44
346.853	420.44
347.08	423.44
347.308	406.44
347.535	438.44
347.763	441.44
347.99	424.44
348.218	436.44
348.445	451.44
348.673	424.44
348.9	423.44
349.128	414.44
349.355	406.44
349.583	404.44
349.81	416.44
350.037	413.44
350.265	431.44
350.492	407.44
350.72	419.44
350.947	417.44
351.174	421.44
351.402	417.44
351.629	422.44
351.856	430.44
352.083	427.44
352.311	425.44
352.538	425.44
352.765	444.44
352.992	414.44
353.22	419.44
353.447	444.44
353.674	417.44
353.901	389.44
354.128	404.44
354.355	410.44
354.583	411.44
354.81	403.44
355.037	421.44
355.264	391.44
355.491	390.44
355.718	395.44
355.945	388.44
356.172	391.44
356.399	402.44
356.626	391.44
356.853	418.44
357.08	419.44
357.307	397.44
357.534	400.44
357.761	418.44
357.988	415.44
358.215	390.44
358.441	417.44
358.668	397.44
358.895	378.44
359.122	403.44
359.349	397.44
359.576	424.44
359.802	426.44
360.029	452.44
360.256	476.44
360.483	440.44
360.709	438.44
360.936	447.44
361.163	417.44
361.39	425.44
361.616	415.44
361.843	421.44
362.07	435.44
362.296	421.44
362.523	432.44
362.749	418.44
362.976	432.44
363.203	430.44
363.429	408.44
363.656	397.44
363.882	428.44
364.109	424.44
364.335	412.44
364.562	425.44
364.788	418.44
365.015	406.44
365.241	421.44
365.468	437.44
365.694	434.44
365.92	423.44
366.147	421.44
366.373	410.44
366.599	420.44
366.826	416.44
367.052	424.44
367.278	409.44
367.505	420.44
367.731	414.44
367.957	410.44
368.184	434.44
368.41	412.44
368.636	436.44
368.862	411.44
369.089	418.44
369.315	416.44
369.541	425.44
369.767	393.44
369.993	408.44
370.219	416.44
370.445	414.44
370.672	412.44
370.898	415.44
371.124	427.44
371.35	421.44
371.576	426.44
371.802	419.44
372.028	428.44
372.254	427.44
372.48	422.44
372.706	428.44
372.932	448.44
373.158	439.44
373.384	430.44
373.61	429.44
373.835	428.44
374.061	421.44
374.287	424.44
374.513	422.44
374.739	449.44
374.965	426.44
375.191	444.44
375.416	439.44
375.642	444.44
375.868	444.44
376.094	430.44
376.319	420.44
376.545	437.44
376.771	414.44
376.997	426.44
377.222	430.44
377.448	429.44
377.674	423.44
377.899	414.44
378.125	420.44
378.35	442.44
378.576	418.44
378.802	418.44
379.027	418.44
379.253	422.44
379.478	422.44
379.704	407.44
379.929	429.44
380.155	429.44
380.38	437.44
380.606	436.44
380.831	432.44
381.057	452.44
381.282	439.44
381.507	436.44
381.733	436.44
381.958	438.44
382.184	440.44
382.409	471.44
382.634	454.44
382.86	440.44
383.085	449.44
383.31	414.44
383.535	449.44
383.761	460.44
383.986	454.44
384.211	453.44
384.436	442.44
384.662	478.44
384.887	483.44
385.112	482.44
385.337	476.44
385.562	470.44
385.787	480.44
386.013	498.44
386.238	474.44
386.463	474.44
386.688	452.44
386.913	479.44
387.138	477.44
387.363	495.44
387.588	478.44
387.813	475.44
388.038	490.44
388.263	487.44
388.488	479.44
388.713	484.44
388.938	470.44
389.163	458.44
389.387	470.44
389.612	476.44
389.837	461.44
390.062	484.44
390.287	473.44
390.512	471.44
390.736	476.44
390.961	478.44
391.186	454.44
391.411	474.44
391.636	475.44
391.86	494.44
392.085	487.44
392.31	510.44
392.534	508.44
392.759	508.44
392.984	483.44
393.208	481.44
393.433	483.44
393.658	474.44
393.882	468.44
394.107	480.44
394.331	480.44
394.556	487.44
394.78	492.44
395.005	494.44
395.229	492.44
395.454	515.44
395.678	506.44
395.903	502.44
396.127	545.44
396.352	512.44
396.576	514.44
396.801	478.44
397.025	518.44
397.249	510.44
397.474	526.44
397.698	499.44
397.922	515.44
398.147	543.44
398.371	547.44
398.595	535.44
398.82	546.44
399.044	527.44
399.268	581.44
399.492	648.44
399.717	667.44
399.941	729.44
400.165	707.44
400.389	686.44
400.613	620.44
400.837	610.44
401.062	584.44
401.286	592.44
401.51	578.44
401.734	547.44
401.958	558.44
402.182	574.44
402.406	590.44
402.63	572.44
402.854	571.44
403.078	588.44
403.302	571.44
403.526	602.44
403.75	595.44
403.974	584.44
404.198	562.44
404.422	593.44
404.645	587.44
404.869	615.44
405.093	645.44
405.317	650.44
405.541	722.44
405.765	650.44
405.988	602.44
406.212	598.44
406.436	613.44
406.66	662.44
406.883	626.44
407.107	643.44
407.331	666.44
407.555	771.44
407.778	767.44
408.002	695.44
408.226	644.44
408.449	635.44
408.673	638.44
408.896	663.44
409.12	705.44
409.344	660.44
409.567	623.44
409.791	607.44
410.014	585.44
410.238	576.44
410.461	605.44
410.685	580.44
410.908	619.44
411.132	630.44
411.355	675.44
411.578	608.44
411.802	599.44
412.025	588.44
412.249	595.44
412.472	602.44
412.695	644.44
412.919	642.44
413.142	563.44
413.365	573.44
413.589	554.44
413.812	563.44
414.035	557.44
414.258	564.44
414.482	549.44
414.705	558.44
414.928	541.44
415.151	550.44
415.374	540.44
415.597	552.44
415.821	525.44
416.044	540.44
416.267	524.44
416.49	530.44
416.713	532.44
416.936	573.44
417.159	572.44
417.382	534.44
417.605	562.44
417.828	582.44
418.051	575.44
418.274	583.44
418.497	557.44
418.72	552.44
418.943	555.44
419.166	597.44
419.389	614.44
419.611	606.44
419.834	584.44
420.057	590.44
420.28	596.44
420.503	564.44
420.726	586.44
420.948	603.44
421.171	640.44
421.394	667.44
421.617	586.44
421.839	556.44
422.062	564.44
422.285	563.44
422.507	636.44
422.73	741.44
422.953	681.44
423.175	628.44
423.398	608.44
423.621	611.44
423.843	618.44
424.066	626.44
424.288	591.44
424.511	624.44
424.733	682.44
424.956	751.44
425.178	735.44
425.401	694.44
425.623	731.44
425.846	642.44
426.068	610.44
426.291	595.44
426.513	574.44
426.735	591.44
426.958	633.44
427.18	735.44
427.402	825.44
427.625	923.44
427.847	803.44
428.069	692.44
428.292	644.44
428.514	593.44
428.736	582.44
428.958	583.44
429.181	532.44
429.403	536.44
429.625	555.44
429.847	580.44
430.069	676.44
430.292	650.44
430.514	570.44
430.736	532.44
430.958	577.44
431.18	542.44
431.402	518.44
431.624	517.44
431.846	519.44
432.068	509.44
432.29	542.44
432.512	524.44
432.734	554.44
432.956	556.44
433.178	538.44
433.4	548.44
433.622	534.44
433.844	543.44
434.066	549.44
434.287	518.44
434.509	545.44
434.731	551.44
434.953	564.44
435.175	593.44
435.397	636.44
435.618	584.44
435.84	644.44
436.062	723.44
436.284	784.44
436.505	676.44
436.727	612.44
436.949	559.44
437.17	559.44
437.392	546.44
437.614	563.44
437.835	583.44
438.057	658.44
438.278	773.44
438.5	735.44
438.721	855.44
438.943	824.44
439.165	675.44
439.386	593.44
439.608	587.44
439.829	579.44
440.05	612.44
440.272	643.44
440.493	605.44
440.715	597.44
440.936	575.44
441.158	547.44
441.379	546.44
441.6	560.44
441.822	603.44
442.043	622.44
442.264	720.44
442.486	746.44
442.707	680.44
442.928	624.44
443.149	621.44
443.371	643.44
443.592	674.44
443.813	748.44
444.034	840.44
444.255	710.44
444.476	610.44
444.698	648.44
444.919	605.44
445.14	739.44
445.361	682.44
445.582	651.44
445.803	668.44
446.024	836.44
446.245	814.44
446.466	719.44
446.687	655.44
446.908	597.44
447.129	562.44
447.35	544.44
447.571	554.44
447.792	519.44
448.013	543.44
448.234	559.44
448.455	613.44
448.675	691.44
448.896	863.44
449.117	706.44
449.338	666.44
449.559	789.44
449.779	910.44
450	702.44
450.221	596.44
450.442	528.44
450.662	539.44
450.883	529.44
451.104	521.44
451.324	536.44
451.545	510.44
451.766	507.44
451.986	486.44
452.207	467.44
452.428	486.44
452.648	474.44
452.869	486.44
453.089	498.44
453.31	543.44
453.53	485.44
453.751	486.44
453.971	466.44
454.192	485.44
454.412	478.44
454.633	488.44
454.853	483.44
455.073	485.44
455.294	523.44
455.514	595.44
455.734	553.44
455.955	495.44
456.175	474.44
456.395	463.44
456.616	466.44
456.836	458.44
457.056	456.44
457.276	473.44
457.497	444.44
457.717	467.44
457.937	469.44
458.157	480.44
458.377	502.44
458.598	488.44
458.818	555.44
459.038	616.44
459.258	622.44
459.478	570.44
459.698	539.44
459.918	542.44
460.138	549.44
460.358	538.44
460.578	549.44
460.798	553.44
461.018	552.44
461.238	584.44
461.458	565.44
461.678	560.44
461.898	572.44
462.118	560.44
462.338	568.44
462.558	592.44
462.777	590.44
462.997	622.44
463.217	620.44
463.437	648.44
463.657	595.44
463.876	590.44
464.096	589.44
464.316	610.44
464.536	603.44
464.755	593.44
464.975	578.44
465.195	596.44
465.414	638.44
465.634	576.44
465.854	576.44
466.073	546.44
466.293	534.44
466.512	516.44
466.732	480.44
466.951	509.44
467.171	500.44
467.391	504.44
467.61	501.44
467.829	517.44
468.049	536.44
468.268	536.44
468.488	518.44
468.707	475.44
468.927	494.44
469.146	482.44
469.365	501.44
469.585	500.44
469.804	510.44
470.023	511.44
470.243	533.44
470.462	524.44
470.681	522.44
470.901	538.44
471.12	519.44
471.339	502.44
471.558	525.44
471.777	515.44
471.997	517.44
472.216	517.44
472.435	520.44
472.654	528.44
472.873	477.44
473.092	520.44
473.311	498.44
473.53	504.44
473.749	500.44
473.968	547.44
474.187	646.44
474.406	654.44
474.625	540.44
474.844	522.44
475.063	513.44
475.282	511.44
475.501	511.44
475.72	525.44
475.939	524.44
476.158	527.44
476.377	529.44
476.596	538.44
476.814	521.44
477.033	545.44
477.252	549.44
477.471	513.44
477.69	560.44
477.908	572.44
478.127	554.44
478.346	570.44
478.564	567.44
478.783	598.44
479.002	591.44
479.22	587.44
479.439	587.44
479.658	612.44
479.876	615.44
480.095	611.44
480.313	635.44
480.532	638.44
480.751	637.44
480.969	645.44
481.188	694.44
481.406	690.44
481.624	661.44
481.843	648.44
482.061	591.44
482.28	602.44
482.498	613.44
482.717	621.44
482.935	607.44
483.153	601.44
483.372	586.44
483.59	594.44
483.808	599.44
484.027	602.44
484.245	606.44
484.463	636.44
484.681	629.44
484.9	610.44
485.118	604.44
485.336	594.44
485.554	602.44
485.772	615.44
485.99	626.44
486.209	637.44
486.427	617.44
486.645	640.44
486.863	638.44
487.081	663.44
487.299	630.44
487.517	625.44
487.735	629.44
487.953	637.44
488.171	648.44
488.389	645.44
488.607	644.44
488.825	642.44
489.043	647.44
489.261	648.44
489.479	655.44
489.696	664.44
489.914	668.44
490.132	669.44
490.35	698.44
490.568	685.44
490.786	708.44
491.003	708.44
491.221	717.44
491.439	740.44
491.657	726.44
491.874	724.44
492.092	730.44
492.31	724.44
492.527	748.44
492.745	763.44
492.963	757.44
493.18	743.44
493.398	780.44
493.615	757.44
493.833	759.44
494.05	775.44
494.268	746.44
494.485	742.44
494.703	766.44
494.92	756.44
495.138	766.44
495.355	763.44
495.573	748.44
495.79	782.44
496.008	743.44
496.225	734.44
496.442	762.44
496.66	776.44
496.877	759.44
497.094	793.44
497.312	799.44
497.529	778.44
497.746	800.44
497.963	806.44
498.181	856.44
498.398	850.44
498.615	848.44
498.832	896.44
499.049	928.44
499.267	942.44
499.484	980.44
499.701	1006.44
499.918	1051.44
500.135	1148.44
500.352	1210.44
500.569	1243.44
500.786	1253.44
501.003	1207.44
501.22	1135.44
501.437	1116.44
501.654	1051.44
