Data from 1975.PennyLincolnUp.Lamp.En5.5.200Scan.071719.P1.Changed Mount._HRD10591_15-58-23-860.txt Node
Date: Thu Jul 18 15:58:23 EDT 2019
User: cochatt
Spectrometer: HR+D1059
Trigger mode: 1
Integration Time (sec): 1.000000E-1
Scans to average: 1
Electric dark correction enabled: true
Nonlinearity correction enabled: false
Boxcar width: 0
XAxis mode: Wavelengths
Number of Pixels in Spectrum: 2048
>>>>>Begin Spectral Data<<<<<
223.165	-19.62
223.4	-19.62
223.635	-19.62
223.869	-17.62
224.104	-19.62
224.338	-17.62
224.573	-25.62
224.808	-0.62
225.042	18.38
225.277	-1.62
225.511	2.38
225.746	7.38
225.98	8.38
226.215	-3.62
226.449	10.38
226.683	10.38
226.918	20.38
227.152	28.38
227.387	52.38
227.621	53.38
227.856	56.38
228.09	42.38
228.324	63.38
228.559	52.38
228.793	52.38
229.027	98.38
229.262	108.38
229.496	114.38
229.73	135.38
229.964	159.38
230.199	123.38
230.433	111.38
230.667	109.38
230.901	120.38
231.136	110.38
231.37	112.38
231.604	125.38
231.838	104.38
232.072	110.38
232.306	117.38
232.541	105.38
232.775	119.38
233.009	120.38
233.243	125.38
233.477	128.38
233.711	118.38
233.945	134.38
234.179	128.38
234.413	131.38
234.647	135.38
234.881	126.38
235.115	128.38
235.349	122.38
235.583	131.38
235.817	123.38
236.051	136.38
236.285	139.38
236.519	133.38
236.753	151.38
236.987	133.38
237.221	193.38
237.455	247.38
237.689	208.38
237.922	139.38
238.156	145.38
238.39	128.38
238.624	129.38
238.858	137.38
239.091	127.38
239.325	120.38
239.559	138.38
239.793	157.38
240.027	142.38
240.26	152.38
240.494	167.38
240.728	167.38
240.961	141.38
241.195	146.38
241.429	145.38
241.662	161.38
241.896	144.38
242.13	153.38
242.363	156.38
242.597	149.38
242.83	150.38
243.064	147.38
243.298	157.38
243.531	157.38
243.765	147.38
243.998	145.38
244.232	156.38
244.465	145.38
244.699	151.38
244.932	149.38
245.166	160.38
245.399	150.38
245.633	165.38
245.866	145.38
246.099	140.38
246.333	158.38
246.566	158.38
246.8	158.38
247.033	166.38
247.266	174.38
247.5	175.38
247.733	188.38
247.966	184.38
248.2	182.38
248.433	184.38
248.666	187.38
248.899	206.38
249.133	212.38
249.366	209.38
249.599	192.38
249.832	188.38
250.066	189.38
250.299	192.38
250.532	208.38
250.765	219.38
250.998	230.38
251.231	247.38
251.465	235.38
251.698	221.38
251.931	209.38
252.164	198.38
252.397	208.38
252.63	205.38
252.863	215.38
253.096	220.38
253.329	233.38
253.562	231.38
253.795	230.38
254.028	230.38
254.261	223.38
254.494	230.38
254.727	276.38
254.96	291.38
255.193	278.38
255.426	267.38
255.659	251.38
255.892	249.38
256.124	237.38
256.357	248.38
256.59	227.38
256.823	231.38
257.056	224.38
257.289	219.38
257.521	218.38
257.754	215.38
257.987	216.38
258.22	227.38
258.452	219.38
258.685	220.38
258.918	201.38
259.151	219.38
259.383	220.38
259.616	222.38
259.849	230.38
260.081	261.38
260.314	273.38
260.547	281.38
260.779	252.38
261.012	229.38
261.244	231.38
261.477	234.38
261.71	223.38
261.942	235.38
262.175	250.38
262.407	232.38
262.64	225.38
262.872	216.38
263.105	239.38
263.337	234.38
263.57	226.38
263.802	237.38
264.035	207.38
264.267	222.38
264.499	221.38
264.732	224.38
264.964	220.38
265.197	222.38
265.429	219.38
265.661	220.38
265.894	238.38
266.126	224.38
266.358	216.38
266.591	237.38
266.823	238.38
267.055	259.38
267.287	254.38
267.52	227.38
267.752	233.38
267.984	243.38
268.216	261.38
268.448	257.38
268.681	245.38
268.913	261.38
269.145	269.38
269.377	287.38
269.609	297.38
269.841	304.38
270.073	290.38
270.306	289.38
270.538	333.38
270.77	332.38
271.002	315.38
271.234	296.38
271.466	299.38
271.698	320.38
271.93	333.38
272.162	331.38
272.394	341.38
272.626	320.38
272.858	300.38
273.09	303.38
273.322	274.38
273.553	284.38
273.785	288.38
274.017	288.38
274.249	275.38
274.481	281.38
274.713	286.38
274.945	291.38
275.176	295.38
275.408	285.38
275.64	279.38
275.872	264.38
276.104	291.38
276.335	283.38
276.567	299.38
276.799	301.38
277.031	316.38
277.262	334.38
277.494	350.38
277.726	317.38
277.957	310.38
278.189	291.38
278.421	291.38
278.652	291.38
278.884	292.38
279.115	296.38
279.347	301.38
279.579	289.38
279.81	285.38
280.042	277.38
280.273	288.38
280.505	277.38
280.736	288.38
280.968	287.38
281.199	300.38
281.431	291.38
281.662	279.38
281.894	288.38
282.125	272.38
282.356	303.38
282.588	327.38
282.819	324.38
283.051	301.38
283.282	287.38
283.513	291.38
283.745	295.38
283.976	296.38
284.207	309.38
284.439	322.38
284.67	320.38
284.901	309.38
285.132	300.38
285.364	303.38
285.595	305.38
285.826	293.38
286.057	306.38
286.288	303.38
286.52	289.38
286.751	305.38
286.982	316.38
287.213	296.38
287.444	317.38
287.675	311.38
287.906	317.38
288.138	299.38
288.369	302.38
288.6	326.38
288.831	306.38
289.062	324.38
289.293	313.38
289.524	311.38
289.755	299.38
289.986	310.38
290.217	298.38
290.448	298.38
290.679	320.38
290.91	316.38
291.141	317.38
291.371	307.38
291.602	336.38
291.833	301.38
292.064	321.38
292.295	320.38
292.526	320.38
292.757	316.38
292.987	317.38
293.218	307.38
293.449	312.38
293.68	319.38
293.91	312.38
294.141	309.38
294.372	331.38
294.603	307.38
294.833	314.38
295.064	295.38
295.295	324.38
295.525	309.38
295.756	307.38
295.987	336.38
296.217	343.38
296.448	346.38
296.679	324.38
296.909	325.38
297.14	323.38
297.37	328.38
297.601	339.38
297.831	326.38
298.062	325.38
298.292	315.38
298.523	340.38
298.753	347.38
298.984	319.38
299.214	327.38
299.445	327.38
299.675	324.38
299.905	335.38
300.136	323.38
300.366	337.38
300.597	332.38
300.827	364.38
301.057	330.38
301.288	367.38
301.518	343.38
301.748	355.38
301.979	353.38
302.209	351.38
302.439	358.38
302.669	337.38
302.9	345.38
303.13	333.38
303.36	375.38
303.59	366.38
303.82	352.38
304.051	362.38
304.281	344.38
304.511	355.38
304.741	352.38
304.971	348.38
305.201	326.38
305.431	340.38
305.661	346.38
305.891	345.38
306.121	373.38
306.352	362.38
306.582	361.38
306.812	363.38
307.042	347.38
307.272	353.38
307.502	355.38
307.731	336.38
307.961	345.38
308.191	360.38
308.421	356.38
308.651	367.38
308.881	359.38
309.111	365.38
309.341	382.38
309.571	378.38
309.8	384.38
310.03	378.38
310.26	402.38
310.49	392.38
310.72	417.38
310.949	402.38
311.179	422.38
311.409	421.38
311.639	388.38
311.868	395.38
312.098	395.38
312.328	394.38
312.557	388.38
312.787	428.38
313.017	428.38
313.246	419.38
313.476	385.38
313.706	385.38
313.935	395.38
314.165	409.38
314.394	413.38
314.624	440.38
314.853	399.38
315.083	387.38
315.312	390.38
315.542	400.38
315.771	396.38
316.001	387.38
316.23	389.38
316.46	406.38
316.689	413.38
316.919	389.38
317.148	413.38
317.377	405.38
317.607	404.38
317.836	396.38
318.065	389.38
318.295	415.38
318.524	391.38
318.753	391.38
318.983	406.38
319.212	398.38
319.441	406.38
319.67	419.38
319.9	398.38
320.129	384.38
320.358	377.38
320.587	399.38
320.816	405.38
321.046	407.38
321.275	406.38
321.504	432.38
321.733	437.38
321.962	429.38
322.191	446.38
322.42	438.38
322.649	463.38
322.878	465.38
323.108	448.38
323.337	489.38
323.566	511.38
323.795	501.38
324.024	509.38
324.253	652.38
324.482	863.38
324.71	1328.38
324.939	1944.38
325.168	1735.38
325.397	888.38
325.626	627.38
325.855	531.38
326.084	521.38
326.313	470.38
326.542	486.38
326.77	522.38
326.999	596.38
327.228	813.38
327.457	1218.38
327.686	1531.38
327.914	984.38
328.143	670.38
328.372	584.38
328.6	569.38
328.829	539.38
329.058	557.38
329.287	550.38
329.515	533.38
329.744	499.38
329.972	524.38
330.201	554.38
330.43	582.38
330.658	578.38
330.887	606.38
331.115	586.38
331.344	527.38
331.572	483.38
331.801	502.38
332.03	515.38
332.258	502.38
332.486	474.38
332.715	471.38
332.943	473.38
333.172	477.38
333.4	529.38
333.629	512.38
333.857	523.38
334.085	534.38
334.314	559.38
334.542	567.38
334.771	587.38
334.999	541.38
335.227	511.38
335.455	497.38
335.684	495.38
335.912	502.38
336.14	478.38
336.369	503.38
336.597	487.38
336.825	481.38
337.053	500.38
337.281	454.38
337.51	460.38
337.738	465.38
337.966	452.38
338.194	476.38
338.422	466.38
338.65	454.38
338.878	451.38
339.106	437.38
339.334	456.38
339.562	475.38
339.79	460.38
340.018	459.38
340.246	454.38
340.474	459.38
340.702	440.38
340.93	448.38
341.158	435.38
341.386	449.38
341.614	470.38
341.842	470.38
342.07	453.38
342.298	443.38
342.526	443.38
342.754	452.38
342.981	441.38
343.209	443.38
343.437	459.38
343.665	454.38
343.893	470.38
344.12	476.38
344.348	477.38
344.576	475.38
344.804	475.38
345.031	473.38
345.259	470.38
345.487	485.38
345.714	460.38
345.942	470.38
346.17	446.38
346.397	447.38
346.625	419.38
346.853	445.38
347.08	451.38
347.308	461.38
347.535	463.38
347.763	473.38
347.99	444.38
348.218	469.38
348.445	455.38
348.673	465.38
348.9	461.38
349.128	455.38
349.355	447.38
349.583	424.38
349.81	447.38
350.037	428.38
350.265	417.38
350.492	412.38
350.72	421.38
350.947	427.38
351.174	452.38
351.402	446.38
351.629	456.38
351.856	447.38
352.083	457.38
352.311	446.38
352.538	435.38
352.765	448.38
352.992	436.38
353.22	437.38
353.447	446.38
353.674	435.38
353.901	419.38
354.128	435.38
354.355	427.38
354.583	401.38
354.81	413.38
355.037	399.38
355.264	409.38
355.491	399.38
355.718	425.38
355.945	445.38
356.172	423.38
356.399	412.38
356.626	424.38
356.853	421.38
357.08	436.38
357.307	420.38
357.534	412.38
357.761	428.38
357.988	414.38
358.215	415.38
358.441	438.38
358.668	441.38
358.895	426.38
359.122	421.38
359.349	435.38
359.576	425.38
359.802	455.38
360.029	491.38
360.256	479.38
360.483	456.38
360.709	448.38
360.936	454.38
361.163	445.38
361.39	452.38
361.616	442.38
361.843	427.38
362.07	451.38
362.296	439.38
362.523	430.38
362.749	423.38
362.976	440.38
363.203	433.38
363.429	423.38
363.656	437.38
363.882	415.38
364.109	416.38
364.335	404.38
364.562	423.38
364.788	422.38
365.015	417.38
365.241	444.38
365.468	446.38
365.694	449.38
365.92	455.38
366.147	419.38
366.373	417.38
366.599	405.38
366.826	413.38
367.052	430.38
367.278	423.38
367.505	423.38
367.731	432.38
367.957	423.38
368.184	433.38
368.41	428.38
368.636	440.38
368.862	440.38
369.089	447.38
369.315	444.38
369.541	420.38
369.767	419.38
369.993	413.38
370.219	417.38
370.445	407.38
370.672	439.38
370.898	425.38
371.124	452.38
371.35	425.38
371.576	431.38
371.802	446.38
372.028	447.38
372.254	424.38
372.48	443.38
372.706	435.38
372.932	444.38
373.158	451.38
373.384	455.38
373.61	436.38
373.835	449.38
374.061	445.38
374.287	439.38
374.513	440.38
374.739	468.38
374.965	448.38
375.191	447.38
375.416	463.38
375.642	443.38
375.868	445.38
376.094	450.38
376.319	439.38
376.545	451.38
376.771	432.38
376.997	431.38
377.222	446.38
377.448	431.38
377.674	439.38
377.899	423.38
378.125	437.38
378.35	427.38
378.576	432.38
378.802	424.38
379.027	419.38
379.253	436.38
379.478	441.38
379.704	449.38
379.929	441.38
380.155	413.38
380.38	436.38
380.606	443.38
380.831	432.38
381.057	445.38
381.282	414.38
381.507	453.38
381.733	459.38
381.958	454.38
382.184	448.38
382.409	446.38
382.634	443.38
382.86	440.38
383.085	457.38
383.31	449.38
383.535	430.38
383.761	438.38
383.986	467.38
384.211	459.38
384.436	453.38
384.662	476.38
384.887	478.38
385.112	464.38
385.337	481.38
385.562	493.38
385.787	483.38
386.013	494.38
386.238	491.38
386.463	504.38
386.688	479.38
386.913	472.38
387.138	516.38
387.363	494.38
387.588	487.38
387.813	492.38
388.038	482.38
388.263	485.38
388.488	492.38
388.713	467.38
388.938	506.38
389.163	501.38
389.387	496.38
389.612	470.38
389.837	495.38
390.062	470.38
390.287	475.38
390.512	499.38
390.736	471.38
390.961	476.38
391.186	472.38
391.411	487.38
391.636	519.38
391.86	516.38
392.085	522.38
392.31	523.38
392.534	488.38
392.759	490.38
392.984	487.38
393.208	494.38
393.433	479.38
393.658	486.38
393.882	485.38
394.107	504.38
394.331	492.38
394.556	484.38
394.78	504.38
395.005	509.38
395.229	483.38
395.454	517.38
395.678	518.38
395.903	524.38
396.127	539.38
396.352	545.38
396.576	516.38
396.801	507.38
397.025	508.38
397.249	501.38
397.474	510.38
397.698	515.38
397.922	537.38
398.147	574.38
398.371	556.38
398.595	549.38
398.82	569.38
399.044	588.38
399.268	617.38
399.492	636.38
399.717	688.38
399.941	752.38
400.165	726.38
400.389	722.38
400.613	651.38
400.837	598.38
401.062	607.38
401.286	576.38
401.51	559.38
401.734	575.38
401.958	557.38
402.182	575.38
402.406	595.38
402.63	599.38
402.854	572.38
403.078	569.38
403.302	584.38
403.526	589.38
403.75	585.38
403.974	609.38
404.198	575.38
404.422	599.38
404.645	620.38
404.869	601.38
405.093	617.38
405.317	703.38
405.541	727.38
405.765	646.38
405.988	644.38
406.212	623.38
406.436	661.38
406.66	662.38
406.883	629.38
407.107	654.38
407.331	699.38
407.555	807.38
407.778	807.38
408.002	715.38
408.226	660.38
408.449	669.38
408.673	663.38
408.896	684.38
409.12	727.38
409.344	683.38
409.567	609.38
409.791	612.38
410.014	604.38
410.238	596.38
410.461	602.38
410.685	596.38
410.908	615.38
411.132	631.38
411.355	687.38
411.578	659.38
411.802	596.38
412.025	588.38
412.249	602.38
412.472	634.38
412.695	657.38
412.919	649.38
413.142	611.38
413.365	591.38
413.589	602.38
413.812	566.38
414.035	548.38
414.258	571.38
414.482	567.38
414.705	569.38
414.928	548.38
415.151	591.38
415.374	580.38
415.597	541.38
415.821	559.38
416.044	587.38
416.267	568.38
416.49	560.38
416.713	565.38
416.936	551.38
417.159	532.38
417.382	571.38
417.605	549.38
417.828	567.38
418.051	587.38
418.274	569.38
418.497	550.38
418.72	575.38
418.943	570.38
419.166	587.38
419.389	608.38
419.611	617.38
419.834	611.38
420.057	595.38
420.28	581.38
420.503	584.38
420.726	611.38
420.948	607.38
421.171	645.38
421.394	709.38
421.617	601.38
421.839	597.38
422.062	573.38
422.285	606.38
422.507	661.38
422.73	757.38
422.953	700.38
423.175	633.38
423.398	613.38
423.621	626.38
423.843	639.38
424.066	628.38
424.288	619.38
424.511	634.38
424.733	691.38
424.956	776.38
425.178	761.38
425.401	747.38
425.623	771.38
425.846	679.38
426.068	640.38
426.291	606.38
426.513	620.38
426.735	609.38
426.958	661.38
427.18	763.38
427.402	899.38
427.625	971.38
427.847	829.38
428.069	720.38
428.292	658.38
428.514	589.38
428.736	580.38
428.958	569.38
429.181	569.38
429.403	554.38
429.625	588.38
429.847	592.38
430.069	663.38
430.292	672.38
430.514	591.38
430.736	552.38
430.958	569.38
431.18	547.38
431.402	569.38
431.624	536.38
431.846	550.38
432.068	542.38
432.29	558.38
432.512	527.38
432.734	560.38
432.956	550.38
433.178	574.38
433.4	574.38
433.622	556.38
433.844	553.38
434.066	523.38
434.287	529.38
434.509	540.38
434.731	585.38
434.953	566.38
435.175	596.38
435.397	619.38
435.618	622.38
435.84	659.38
436.062	759.38
436.284	836.38
436.505	690.38
436.727	625.38
436.949	591.38
437.17	572.38
437.392	550.38
437.614	585.38
437.835	600.38
438.057	677.38
438.278	835.38
438.5	814.38
438.721	886.38
438.943	866.38
439.165	683.38
439.386	639.38
439.608	636.38
439.829	615.38
440.05	635.38
440.272	681.38
440.493	667.38
440.715	607.38
440.936	587.38
441.158	582.38
441.379	578.38
441.6	601.38
441.822	589.38
442.043	667.38
442.264	762.38
442.486	779.38
442.707	640.38
442.928	639.38
443.149	627.38
443.371	643.38
443.592	700.38
443.813	805.38
444.034	899.38
444.255	724.38
444.476	657.38
444.698	648.38
444.919	640.38
445.14	760.38
445.361	699.38
445.582	661.38
445.803	721.38
446.024	840.38
446.245	857.38
446.466	763.38
446.687	651.38
446.908	615.38
447.129	602.38
447.35	569.38
447.571	558.38
447.792	544.38
448.013	562.38
448.234	601.38
448.455	637.38
448.675	745.38
448.896	890.38
449.117	740.38
449.338	722.38
449.559	814.38
449.779	928.38
450	771.38
450.221	618.38
450.442	556.38
450.662	541.38
450.883	547.38
451.104	561.38
451.324	552.38
451.545	532.38
451.766	522.38
451.986	499.38
452.207	502.38
452.428	525.38
452.648	512.38
452.869	494.38
453.089	492.38
453.31	524.38
453.53	541.38
453.751	518.38
453.971	511.38
454.192	511.38
454.412	511.38
454.633	505.38
454.853	514.38
455.073	519.38
455.294	513.38
455.514	584.38
455.734	584.38
455.955	526.38
456.175	506.38
456.395	456.38
456.616	477.38
456.836	517.38
457.056	473.38
457.276	483.38
457.497	501.38
457.717	475.38
457.937	485.38
458.157	464.38
458.377	529.38
458.598	517.38
458.818	561.38
459.038	621.38
459.258	664.38
459.478	575.38
459.698	542.38
459.918	551.38
460.138	566.38
460.358	565.38
460.578	570.38
460.798	567.38
461.018	586.38
461.238	560.38
461.458	573.38
461.678	543.38
461.898	565.38
462.118	584.38
462.338	602.38
462.558	591.38
462.777	603.38
462.997	623.38
463.217	610.38
463.437	662.38
463.657	635.38
463.876	624.38
464.096	613.38
464.316	623.38
464.536	612.38
464.755	602.38
464.975	604.38
465.195	622.38
465.414	662.38
465.634	616.38
465.854	585.38
466.073	564.38
466.293	524.38
466.512	517.38
466.732	535.38
466.951	518.38
467.171	529.38
467.391	515.38
467.61	536.38
467.829	551.38
468.049	548.38
468.268	522.38
468.488	524.38
468.707	503.38
468.927	503.38
469.146	507.38
469.365	507.38
469.585	533.38
469.804	510.38
470.023	540.38
470.243	534.38
470.462	521.38
470.681	567.38
470.901	545.38
471.12	539.38
471.339	531.38
471.558	519.38
471.777	549.38
471.997	520.38
472.216	528.38
472.435	554.38
472.654	549.38
472.873	527.38
473.092	543.38
473.311	535.38
473.53	523.38
473.749	544.38
473.968	567.38
474.187	671.38
474.406	709.38
474.625	597.38
474.844	542.38
475.063	546.38
475.282	535.38
475.501	532.38
475.72	539.38
475.939	548.38
476.158	537.38
476.377	543.38
476.596	539.38
476.814	550.38
477.033	559.38
477.252	572.38
477.471	552.38
477.69	553.38
477.908	580.38
478.127	594.38
478.346	600.38
478.564	602.38
478.783	603.38
479.002	616.38
479.22	607.38
479.439	597.38
479.658	623.38
479.876	643.38
480.095	635.38
480.313	701.38
480.532	654.38
480.751	661.38
480.969	655.38
481.188	712.38
481.406	739.38
481.624	662.38
481.843	629.38
482.061	613.38
482.28	639.38
482.498	635.38
482.717	629.38
482.935	604.38
483.153	592.38
483.372	614.38
483.59	629.38
483.808	630.38
484.027	619.38
484.245	605.38
484.463	638.38
484.681	632.38
484.9	629.38
485.118	647.38
485.336	634.38
485.554	627.38
485.772	636.38
485.99	635.38
486.209	637.38
486.427	647.38
486.645	647.38
486.863	660.38
487.081	665.38
487.299	644.38
487.517	680.38
487.735	650.38
487.953	645.38
488.171	652.38
488.389	670.38
488.607	671.38
488.825	660.38
489.043	664.38
489.261	675.38
489.479	675.38
489.696	686.38
489.914	676.38
490.132	685.38
490.35	693.38
490.568	712.38
490.786	702.38
491.003	712.38
491.221	732.38
491.439	735.38
491.657	728.38
491.874	720.38
492.092	755.38
492.31	745.38
492.527	790.38
492.745	783.38
492.963	760.38
493.18	760.38
493.398	788.38
493.615	780.38
493.833	810.38
494.05	780.38
494.268	811.38
494.485	797.38
494.703	774.38
494.92	800.38
495.138	804.38
495.355	791.38
495.573	790.38
495.79	761.38
496.008	807.38
496.225	799.38
496.442	808.38
496.66	781.38
496.877	805.38
497.094	807.38
497.312	816.38
497.529	841.38
497.746	837.38
497.963	829.38
498.181	845.38
498.398	876.38
498.615	899.38
498.832	893.38
499.049	931.38
499.267	957.38
499.484	1045.38
499.701	1029.38
499.918	1096.38
500.135	1171.38
500.352	1251.38
500.569	1254.38
500.786	1256.38
501.003	1235.38
501.22	1245.38
501.437	1146.38
501.654	1118.38
