Data from 1975.PennyLincolnUp.Lamp.En5.5.200Scan.071719.P1.Changed Mount._HRD10591_15-55-41-858.txt Node
Date: Thu Jul 18 15:55:41 EDT 2019
User: cochatt
Spectrometer: HR+D1059
Trigger mode: 1
Integration Time (sec): 1.000000E-1
Scans to average: 1
Electric dark correction enabled: true
Nonlinearity correction enabled: false
Boxcar width: 0
XAxis mode: Wavelengths
Number of Pixels in Spectrum: 2048
>>>>>Begin Spectral Data<<<<<
223.165	-5.75
223.4	-5.75
223.635	-5.75
223.869	-21.75
224.104	-12.75
224.338	-13.75
224.573	-24.75
224.808	-13.75
225.042	8.25
225.277	-13.75
225.511	-1.75
225.746	-10.75
225.98	5.25
226.215	15.25
226.449	19.25
226.683	21.25
226.918	15.25
227.152	34.25
227.387	32.25
227.621	31.25
227.856	37.25
228.09	47.25
228.324	48.25
228.559	47.25
228.793	63.25
229.027	94.25
229.262	90.25
229.496	105.25
229.73	124.25
229.964	121.25
230.199	119.25
230.433	105.25
230.667	105.25
230.901	115.25
231.136	99.25
231.37	102.25
231.604	103.25
231.838	95.25
232.072	110.25
232.306	114.25
232.541	98.25
232.775	108.25
233.009	118.25
233.243	109.25
233.477	116.25
233.711	91.25
233.945	95.25
234.179	110.25
234.413	110.25
234.647	111.25
234.881	114.25
235.115	116.25
235.349	104.25
235.583	114.25
235.817	115.25
236.051	120.25
236.285	103.25
236.519	124.25
236.753	132.25
236.987	134.25
237.221	165.25
237.455	214.25
237.689	158.25
237.922	108.25
238.156	106.25
238.39	105.25
238.624	118.25
238.858	124.25
239.091	124.25
239.325	114.25
239.559	113.25
239.793	123.25
240.027	115.25
240.26	132.25
240.494	145.25
240.728	132.25
240.961	133.25
241.195	124.25
241.429	120.25
241.662	115.25
241.896	111.25
242.13	132.25
242.363	135.25
242.597	122.25
242.83	132.25
243.064	132.25
243.298	127.25
243.531	151.25
243.765	133.25
243.998	137.25
244.232	140.25
244.465	136.25
244.699	145.25
244.932	132.25
245.166	118.25
245.399	141.25
245.633	123.25
245.866	144.25
246.099	139.25
246.333	135.25
246.566	134.25
246.8	148.25
247.033	154.25
247.266	126.25
247.5	150.25
247.733	159.25
247.966	177.25
248.2	175.25
248.433	162.25
248.666	154.25
248.899	183.25
249.133	177.25
249.366	176.25
249.599	185.25
249.832	164.25
250.066	162.25
250.299	150.25
250.532	164.25
250.765	187.25
250.998	185.25
251.231	194.25
251.465	193.25
251.698	202.25
251.931	165.25
252.164	181.25
252.397	177.25
252.63	178.25
252.863	193.25
253.096	192.25
253.329	204.25
253.562	207.25
253.795	193.25
254.028	182.25
254.261	197.25
254.494	200.25
254.727	219.25
254.96	263.25
255.193	241.25
255.426	214.25
255.659	198.25
255.892	203.25
256.124	208.25
256.357	219.25
256.59	204.25
256.823	196.25
257.056	206.25
257.289	184.25
257.521	198.25
257.754	204.25
257.987	189.25
258.22	204.25
258.452	194.25
258.685	192.25
258.918	185.25
259.151	190.25
259.383	196.25
259.616	207.25
259.849	201.25
260.081	197.25
260.314	223.25
260.547	230.25
260.779	225.25
261.012	197.25
261.244	209.25
261.477	212.25
261.71	191.25
261.942	203.25
262.175	215.25
262.407	204.25
262.64	194.25
262.872	185.25
263.105	194.25
263.337	197.25
263.57	212.25
263.802	199.25
264.035	203.25
264.267	210.25
264.499	209.25
264.732	206.25
264.964	207.25
265.197	194.25
265.429	204.25
265.661	195.25
265.894	201.25
266.126	200.25
266.358	206.25
266.591	202.25
266.823	205.25
267.055	224.25
267.287	214.25
267.52	220.25
267.752	214.25
267.984	222.25
268.216	223.25
268.448	218.25
268.681	230.25
268.913	218.25
269.145	252.25
269.377	274.25
269.609	259.25
269.841	252.25
270.073	242.25
270.306	266.25
270.538	269.25
270.77	291.25
271.002	267.25
271.234	278.25
271.466	268.25
271.698	275.25
271.93	278.25
272.162	281.25
272.394	269.25
272.626	268.25
272.858	272.25
273.09	242.25
273.322	247.25
273.553	240.25
273.785	227.25
274.017	235.25
274.249	240.25
274.481	249.25
274.713	238.25
274.945	252.25
275.176	250.25
275.408	247.25
275.64	262.25
275.872	255.25
276.104	250.25
276.335	240.25
276.567	243.25
276.799	257.25
277.031	288.25
277.262	279.25
277.494	293.25
277.726	265.25
277.957	272.25
278.189	264.25
278.421	237.25
278.652	262.25
278.884	253.25
279.115	247.25
279.347	262.25
279.579	234.25
279.81	242.25
280.042	267.25
280.273	262.25
280.505	260.25
280.736	246.25
280.968	250.25
281.199	257.25
281.431	260.25
281.662	238.25
281.894	246.25
282.125	268.25
282.356	272.25
282.588	279.25
282.819	284.25
283.051	279.25
283.282	266.25
283.513	268.25
283.745	256.25
283.976	260.25
284.207	260.25
284.439	249.25
284.67	295.25
284.901	284.25
285.132	259.25
285.364	273.25
285.595	291.25
285.826	257.25
286.057	266.25
286.288	264.25
286.52	263.25
286.751	275.25
286.982	263.25
287.213	254.25
287.444	263.25
287.675	287.25
287.906	268.25
288.138	281.25
288.369	276.25
288.6	266.25
288.831	278.25
289.062	301.25
289.293	290.25
289.524	260.25
289.755	284.25
289.986	275.25
290.217	291.25
290.448	282.25
290.679	294.25
290.91	274.25
291.141	287.25
291.371	287.25
291.602	286.25
291.833	279.25
292.064	299.25
292.295	288.25
292.526	280.25
292.757	296.25
292.987	265.25
293.218	277.25
293.449	273.25
293.68	279.25
293.91	259.25
294.141	264.25
294.372	290.25
294.603	284.25
294.833	288.25
295.064	279.25
295.295	282.25
295.525	280.25
295.756	289.25
295.987	290.25
296.217	318.25
296.448	290.25
296.679	278.25
296.909	281.25
297.14	296.25
297.37	295.25
297.601	290.25
297.831	282.25
298.062	290.25
298.292	284.25
298.523	283.25
298.753	313.25
298.984	289.25
299.214	284.25
299.445	296.25
299.675	288.25
299.905	295.25
300.136	288.25
300.366	289.25
300.597	309.25
300.827	299.25
301.057	306.25
301.288	310.25
301.518	309.25
301.748	307.25
301.979	309.25
302.209	318.25
302.439	305.25
302.669	312.25
302.9	305.25
303.13	311.25
303.36	332.25
303.59	319.25
303.82	315.25
304.051	326.25
304.281	303.25
304.511	326.25
304.741	331.25
304.971	327.25
305.201	308.25
305.431	324.25
305.661	302.25
305.891	323.25
306.121	310.25
306.352	326.25
306.582	326.25
306.812	326.25
307.042	311.25
307.272	305.25
307.502	311.25
307.731	305.25
307.961	313.25
308.191	311.25
308.421	300.25
308.651	298.25
308.881	325.25
309.111	329.25
309.341	324.25
309.571	324.25
309.8	313.25
310.03	342.25
310.26	330.25
310.49	341.25
310.72	331.25
310.949	348.25
311.179	352.25
311.409	360.25
311.639	342.25
311.868	329.25
312.098	342.25
312.328	356.25
312.557	348.25
312.787	343.25
313.017	340.25
313.246	365.25
313.476	331.25
313.706	347.25
313.935	330.25
314.165	336.25
314.394	349.25
314.624	359.25
314.853	357.25
315.083	352.25
315.312	358.25
315.542	347.25
315.771	347.25
316.001	346.25
316.23	351.25
316.46	338.25
316.689	352.25
316.919	348.25
317.148	348.25
317.377	365.25
317.607	359.25
317.836	359.25
318.065	357.25
318.295	344.25
318.524	355.25
318.753	332.25
318.983	342.25
319.212	330.25
319.441	341.25
319.67	345.25
319.9	358.25
320.129	351.25
320.358	339.25
320.587	345.25
320.816	348.25
321.046	373.25
321.275	356.25
321.504	360.25
321.733	355.25
321.962	357.25
322.191	392.25
322.42	375.25
322.649	379.25
322.878	375.25
323.108	392.25
323.337	389.25
323.566	403.25
323.795	412.25
324.024	431.25
324.253	497.25
324.482	673.25
324.71	1043.25
324.939	1504.25
325.168	1352.25
325.397	668.25
325.626	486.25
325.855	418.25
326.084	417.25
326.313	427.25
326.542	420.25
326.77	430.25
326.999	504.25
327.228	652.25
327.457	930.25
327.686	1188.25
327.914	778.25
328.143	510.25
328.372	475.25
328.6	458.25
328.829	438.25
329.058	451.25
329.287	461.25
329.515	442.25
329.744	439.25
329.972	444.25
330.201	447.25
330.43	450.25
330.658	483.25
330.887	478.25
331.115	474.25
331.344	451.25
331.572	410.25
331.801	412.25
332.03	433.25
332.258	451.25
332.486	425.25
332.715	421.25
332.943	426.25
333.172	420.25
333.4	408.25
333.629	438.25
333.857	426.25
334.085	451.25
334.314	470.25
334.542	501.25
334.771	481.25
334.999	470.25
335.227	446.25
335.455	449.25
335.684	434.25
335.912	421.25
336.14	430.25
336.369	422.25
336.597	417.25
336.825	414.25
337.053	414.25
337.281	418.25
337.51	433.25
337.738	401.25
337.966	411.25
338.194	418.25
338.422	391.25
338.65	421.25
338.878	406.25
339.106	412.25
339.334	432.25
339.562	398.25
339.79	406.25
340.018	376.25
340.246	378.25
340.474	413.25
340.702	379.25
340.93	410.25
341.158	393.25
341.386	408.25
341.614	408.25
341.842	418.25
342.07	404.25
342.298	398.25
342.526	388.25
342.754	409.25
342.981	400.25
343.209	384.25
343.437	405.25
343.665	411.25
343.893	433.25
344.12	415.25
344.348	428.25
344.576	421.25
344.804	428.25
345.031	397.25
345.259	418.25
345.487	420.25
345.714	383.25
345.942	387.25
346.17	405.25
346.397	388.25
346.625	390.25
346.853	389.25
347.08	399.25
347.308	389.25
347.535	393.25
347.763	363.25
347.99	396.25
348.218	382.25
348.445	396.25
348.673	387.25
348.9	395.25
349.128	374.25
349.355	380.25
349.583	372.25
349.81	378.25
350.037	387.25
350.265	387.25
350.492	392.25
350.72	397.25
350.947	396.25
351.174	406.25
351.402	396.25
351.629	374.25
351.856	377.25
352.083	381.25
352.311	404.25
352.538	382.25
352.765	382.25
352.992	391.25
353.22	378.25
353.447	370.25
353.674	395.25
353.901	371.25
354.128	367.25
354.355	361.25
354.583	372.25
354.81	354.25
355.037	376.25
355.264	371.25
355.491	364.25
355.718	374.25
355.945	378.25
356.172	366.25
356.399	370.25
356.626	355.25
356.853	376.25
357.08	380.25
357.307	368.25
357.534	371.25
357.761	392.25
357.988	378.25
358.215	365.25
358.441	391.25
358.668	363.25
358.895	373.25
359.122	380.25
359.349	395.25
359.576	383.25
359.802	404.25
360.029	414.25
360.256	418.25
360.483	399.25
360.709	380.25
360.936	410.25
361.163	386.25
361.39	387.25
361.616	394.25
361.843	385.25
362.07	393.25
362.296	383.25
362.523	389.25
362.749	376.25
362.976	390.25
363.203	402.25
363.429	380.25
363.656	373.25
363.882	382.25
364.109	382.25
364.335	375.25
364.562	359.25
364.788	390.25
365.015	406.25
365.241	357.25
365.468	384.25
365.694	382.25
365.92	383.25
366.147	380.25
366.373	387.25
366.599	358.25
366.826	390.25
367.052	378.25
367.278	399.25
367.505	368.25
367.731	382.25
367.957	371.25
368.184	357.25
368.41	384.25
368.636	383.25
368.862	397.25
369.089	374.25
369.315	389.25
369.541	377.25
369.767	377.25
369.993	392.25
370.219	400.25
370.445	375.25
370.672	379.25
370.898	382.25
371.124	382.25
371.35	402.25
371.576	384.25
371.802	381.25
372.028	363.25
372.254	380.25
372.48	393.25
372.706	386.25
372.932	385.25
373.158	391.25
373.384	385.25
373.61	374.25
373.835	390.25
374.061	390.25
374.287	383.25
374.513	408.25
374.739	392.25
374.965	387.25
375.191	398.25
375.416	399.25
375.642	395.25
375.868	411.25
376.094	414.25
376.319	412.25
376.545	398.25
376.771	403.25
376.997	392.25
377.222	388.25
377.448	391.25
377.674	403.25
377.899	386.25
378.125	388.25
378.35	390.25
378.576	372.25
378.802	381.25
379.027	389.25
379.253	398.25
379.478	388.25
379.704	404.25
379.929	390.25
380.155	400.25
380.38	372.25
380.606	393.25
380.831	382.25
381.057	394.25
381.282	408.25
381.507	399.25
381.733	389.25
381.958	404.25
382.184	395.25
382.409	403.25
382.634	413.25
382.86	403.25
383.085	431.25
383.31	401.25
383.535	410.25
383.761	408.25
383.986	445.25
384.211	423.25
384.436	421.25
384.662	440.25
384.887	443.25
385.112	418.25
385.337	447.25
385.562	464.25
385.787	446.25
386.013	456.25
386.238	457.25
386.463	464.25
386.688	442.25
386.913	441.25
387.138	445.25
387.363	446.25
387.588	435.25
387.813	456.25
388.038	441.25
388.263	447.25
388.488	475.25
388.713	446.25
388.938	450.25
389.163	442.25
389.387	440.25
389.612	447.25
389.837	452.25
390.062	436.25
390.287	441.25
390.512	450.25
390.736	430.25
390.961	436.25
391.186	441.25
391.411	469.25
391.636	466.25
391.86	460.25
392.085	455.25
392.31	454.25
392.534	471.25
392.759	454.25
392.984	456.25
393.208	458.25
393.433	463.25
393.658	438.25
393.882	447.25
394.107	443.25
394.331	440.25
394.556	451.25
394.78	456.25
395.005	482.25
395.229	466.25
395.454	445.25
395.678	458.25
395.903	481.25
396.127	483.25
396.352	497.25
396.576	447.25
396.801	462.25
397.025	464.25
397.249	467.25
397.474	465.25
397.698	468.25
397.922	482.25
398.147	511.25
398.371	500.25
398.595	514.25
398.82	488.25
399.044	505.25
399.268	525.25
399.492	597.25
399.717	611.25
399.941	680.25
400.165	652.25
400.389	640.25
400.613	586.25
400.837	546.25
401.062	515.25
401.286	519.25
401.51	522.25
401.734	512.25
401.958	521.25
402.182	524.25
402.406	522.25
402.63	523.25
402.854	535.25
403.078	510.25
403.302	527.25
403.526	529.25
403.75	524.25
403.974	554.25
404.198	536.25
404.422	546.25
404.645	566.25
404.869	535.25
405.093	582.25
405.317	617.25
405.541	632.25
405.765	593.25
405.988	584.25
406.212	568.25
406.436	572.25
406.66	577.25
406.883	554.25
407.107	569.25
407.331	638.25
407.555	697.25
407.778	696.25
408.002	632.25
408.226	583.25
408.449	609.25
408.673	566.25
408.896	616.25
409.12	644.25
409.344	609.25
409.567	576.25
409.791	535.25
410.014	560.25
410.238	533.25
410.461	542.25
410.685	560.25
410.908	552.25
411.132	584.25
411.355	611.25
411.578	601.25
411.802	527.25
412.025	524.25
412.249	522.25
412.472	566.25
412.695	576.25
412.919	595.25
413.142	550.25
413.365	503.25
413.589	528.25
413.812	511.25
414.035	542.25
414.258	506.25
414.482	499.25
414.705	530.25
414.928	507.25
415.151	520.25
415.374	521.25
415.597	505.25
415.821	502.25
416.044	509.25
416.267	532.25
416.49	488.25
416.713	496.25
416.936	500.25
417.159	517.25
417.382	496.25
417.605	490.25
417.828	523.25
418.051	538.25
418.274	512.25
418.497	507.25
418.72	491.25
418.943	486.25
419.166	530.25
419.389	562.25
419.611	534.25
419.834	548.25
420.057	543.25
420.28	546.25
420.503	519.25
420.726	518.25
420.948	528.25
421.171	575.25
421.394	594.25
421.617	534.25
421.839	522.25
422.062	520.25
422.285	533.25
422.507	596.25
422.73	651.25
422.953	649.25
423.175	567.25
423.398	573.25
423.621	544.25
423.843	555.25
424.066	566.25
424.288	550.25
424.511	578.25
424.733	626.25
424.956	707.25
425.178	644.25
425.401	665.25
425.623	657.25
425.846	584.25
426.068	547.25
426.291	542.25
426.513	538.25
426.735	531.25
426.958	568.25
427.18	662.25
427.402	774.25
427.625	851.25
427.847	708.25
428.069	637.25
428.292	571.25
428.514	515.25
428.736	479.25
428.958	518.25
429.181	485.25
429.403	504.25
429.625	510.25
429.847	525.25
430.069	606.25
430.292	591.25
430.514	526.25
430.736	514.25
430.958	512.25
431.18	492.25
431.402	497.25
431.624	503.25
431.846	485.25
432.068	479.25
432.29	480.25
432.512	486.25
432.734	500.25
432.956	479.25
433.178	500.25
433.4	500.25
433.622	507.25
433.844	487.25
434.066	499.25
434.287	447.25
434.509	520.25
434.731	495.25
434.953	511.25
435.175	519.25
435.397	548.25
435.618	536.25
435.84	586.25
436.062	670.25
436.284	731.25
436.505	610.25
436.727	535.25
436.949	506.25
437.17	516.25
437.392	523.25
437.614	525.25
437.835	518.25
438.057	617.25
438.278	696.25
438.5	709.25
438.721	772.25
438.943	750.25
439.165	629.25
439.386	536.25
439.608	561.25
439.829	562.25
440.05	563.25
440.272	600.25
440.493	584.25
440.715	540.25
440.936	545.25
441.158	513.25
441.379	516.25
441.6	530.25
441.822	544.25
442.043	581.25
442.264	660.25
442.486	718.25
442.707	594.25
442.928	551.25
443.149	564.25
443.371	568.25
443.592	617.25
443.813	700.25
444.034	764.25
444.255	629.25
444.476	586.25
444.698	568.25
444.919	593.25
445.14	685.25
445.361	625.25
445.582	582.25
445.803	611.25
446.024	703.25
446.245	728.25
446.466	651.25
446.687	581.25
446.908	520.25
447.129	530.25
447.35	480.25
447.571	494.25
447.792	489.25
448.013	523.25
448.234	512.25
448.455	547.25
448.675	667.25
448.896	789.25
449.117	640.25
449.338	606.25
449.559	709.25
449.779	819.25
450	622.25
450.221	545.25
450.442	498.25
450.662	491.25
450.883	485.25
451.104	480.25
451.324	478.25
451.545	473.25
451.766	450.25
451.986	442.25
452.207	447.25
452.428	430.25
452.648	441.25
452.869	438.25
453.089	442.25
453.31	436.25
453.53	450.25
453.751	442.25
453.971	453.25
454.192	456.25
454.412	465.25
454.633	458.25
454.853	427.25
455.073	412.25
455.294	480.25
455.514	531.25
455.734	518.25
455.955	432.25
456.175	422.25
456.395	449.25
456.616	411.25
456.836	411.25
457.056	426.25
457.276	432.25
457.497	431.25
457.717	421.25
457.937	434.25
458.157	447.25
458.377	425.25
458.598	450.25
458.818	495.25
459.038	549.25
459.258	591.25
459.478	519.25
459.698	485.25
459.918	481.25
460.138	487.25
460.358	515.25
460.578	532.25
460.798	522.25
461.018	516.25
461.238	503.25
461.458	516.25
461.678	516.25
461.898	526.25
462.118	532.25
462.338	530.25
462.558	520.25
462.777	546.25
462.997	545.25
463.217	593.25
463.437	609.25
463.657	556.25
463.876	545.25
464.096	566.25
464.316	547.25
464.536	572.25
464.755	551.25
464.975	538.25
465.195	571.25
465.414	562.25
465.634	527.25
465.854	513.25
466.073	489.25
466.293	486.25
466.512	476.25
466.732	466.25
466.951	468.25
467.171	440.25
467.391	471.25
467.61	491.25
467.829	441.25
468.049	466.25
468.268	475.25
468.488	448.25
468.707	466.25
468.927	456.25
469.146	462.25
469.365	462.25
469.585	468.25
469.804	464.25
470.023	489.25
470.243	473.25
470.462	468.25
470.681	483.25
470.901	468.25
471.12	478.25
471.339	480.25
471.558	463.25
471.777	467.25
471.997	462.25
472.216	496.25
472.435	505.25
472.654	479.25
472.873	458.25
473.092	472.25
473.311	479.25
473.53	443.25
473.749	488.25
473.968	496.25
474.187	592.25
474.406	631.25
474.625	516.25
474.844	469.25
475.063	487.25
475.282	472.25
475.501	470.25
475.72	476.25
475.939	484.25
476.158	490.25
476.377	466.25
476.596	479.25
476.814	517.25
477.033	478.25
477.252	507.25
477.471	488.25
477.69	510.25
477.908	508.25
478.127	519.25
478.346	536.25
478.564	524.25
478.783	533.25
479.002	542.25
479.22	538.25
479.439	567.25
479.658	558.25
479.876	582.25
480.095	609.25
480.313	611.25
480.532	606.25
480.751	571.25
480.969	589.25
481.188	606.25
481.406	622.25
481.624	572.25
481.843	576.25
482.061	553.25
482.28	572.25
482.498	554.25
482.717	558.25
482.935	548.25
483.153	569.25
483.372	552.25
483.59	570.25
483.808	538.25
484.027	549.25
484.245	546.25
484.463	562.25
484.681	596.25
484.9	566.25
485.118	571.25
485.336	572.25
485.554	583.25
485.772	579.25
485.99	586.25
486.209	588.25
486.427	591.25
486.645	580.25
486.863	586.25
487.081	606.25
487.299	591.25
487.517	612.25
487.735	599.25
487.953	591.25
488.171	599.25
488.389	595.25
488.607	598.25
488.825	606.25
489.043	585.25
489.261	599.25
489.479	611.25
489.696	587.25
489.914	597.25
490.132	614.25
490.35	626.25
490.568	634.25
490.786	625.25
491.003	634.25
491.221	653.25
491.439	656.25
491.657	659.25
491.874	671.25
492.092	683.25
492.31	700.25
492.527	686.25
492.745	698.25
492.963	694.25
493.18	698.25
493.398	690.25
493.615	681.25
493.833	706.25
494.05	676.25
494.268	712.25
494.485	697.25
494.703	697.25
494.92	691.25
495.138	683.25
495.355	693.25
495.573	702.25
495.79	692.25
496.008	735.25
496.225	680.25
496.442	714.25
496.66	703.25
496.877	729.25
497.094	698.25
497.312	711.25
497.529	719.25
497.746	731.25
497.963	732.25
498.181	784.25
498.398	792.25
498.615	787.25
498.832	828.25
499.049	859.25
499.267	895.25
499.484	910.25
499.701	969.25
499.918	994.25
500.135	1069.25
500.352	1144.25
500.569	1125.25
500.786	1164.25
501.003	1095.25
501.22	1100.25
501.437	1038.25
501.654	983.25
