Data from 1975.PennyLincolnUp.Lamp.En5.5.200Scan.071719.P1.Changed Mount._HRD10591_15-57-34-860.txt Node
Date: Thu Jul 18 15:57:34 EDT 2019
User: cochatt
Spectrometer: HR+D1059
Trigger mode: 1
Integration Time (sec): 1.000000E-1
Scans to average: 1
Electric dark correction enabled: true
Nonlinearity correction enabled: false
Boxcar width: 0
XAxis mode: Wavelengths
Number of Pixels in Spectrum: 2048
>>>>>Begin Spectral Data<<<<<
223.165	-13.56
223.4	-13.56
223.635	-13.56
223.869	-19.56
224.104	3.44
224.338	-18.56
224.573	-20.56
224.808	-12.56
225.042	-21.56
225.277	-0.56
225.511	5.44
225.746	4.44
225.98	10.44
226.215	5.44
226.449	15.44
226.683	21.44
226.918	16.44
227.152	24.44
227.387	38.44
227.621	48.44
227.856	41.44
228.09	50.44
228.324	38.44
228.559	59.44
228.793	59.44
229.027	113.44
229.262	106.44
229.496	113.44
229.73	133.44
229.964	139.44
230.199	134.44
230.433	113.44
230.667	120.44
230.901	119.44
231.136	108.44
231.37	118.44
231.604	127.44
231.838	113.44
232.072	119.44
232.306	117.44
232.541	105.44
232.775	119.44
233.009	108.44
233.243	115.44
233.477	111.44
233.711	118.44
233.945	117.44
234.179	125.44
234.413	117.44
234.647	119.44
234.881	117.44
235.115	127.44
235.349	119.44
235.583	122.44
235.817	120.44
236.051	120.44
236.285	121.44
236.519	115.44
236.753	134.44
236.987	147.44
237.221	187.44
237.455	236.44
237.689	203.44
237.922	141.44
238.156	141.44
238.39	141.44
238.624	131.44
238.858	123.44
239.091	132.44
239.325	135.44
239.559	137.44
239.793	138.44
240.027	131.44
240.26	154.44
240.494	144.44
240.728	169.44
240.961	157.44
241.195	171.44
241.429	138.44
241.662	135.44
241.896	122.44
242.13	151.44
242.363	145.44
242.597	147.44
242.83	142.44
243.064	139.44
243.298	139.44
243.531	137.44
243.765	134.44
243.998	149.44
244.232	143.44
244.465	147.44
244.699	147.44
244.932	157.44
245.166	152.44
245.399	147.44
245.633	154.44
245.866	151.44
246.099	151.44
246.333	152.44
246.566	151.44
246.8	157.44
247.033	153.44
247.266	167.44
247.5	171.44
247.733	181.44
247.966	191.44
248.2	168.44
248.433	177.44
248.666	185.44
248.899	195.44
249.133	209.44
249.366	218.44
249.599	198.44
249.832	183.44
250.066	191.44
250.299	187.44
250.532	183.44
250.765	218.44
250.998	229.44
251.231	233.44
251.465	209.44
251.698	205.44
251.931	207.44
252.164	199.44
252.397	208.44
252.63	195.44
252.863	212.44
253.096	223.44
253.329	233.44
253.562	229.44
253.795	221.44
254.028	213.44
254.261	224.44
254.494	250.44
254.727	263.44
254.96	281.44
255.193	273.44
255.426	254.44
255.659	243.44
255.892	241.44
256.124	222.44
256.357	231.44
256.59	222.44
256.823	220.44
257.056	212.44
257.289	226.44
257.521	217.44
257.754	225.44
257.987	204.44
258.22	222.44
258.452	220.44
258.685	211.44
258.918	222.44
259.151	208.44
259.383	222.44
259.616	235.44
259.849	216.44
260.081	231.44
260.314	261.44
260.547	275.44
260.779	253.44
261.012	239.44
261.244	230.44
261.477	217.44
261.71	213.44
261.942	237.44
262.175	228.44
262.407	238.44
262.64	221.44
262.872	226.44
263.105	213.44
263.337	210.44
263.57	220.44
263.802	203.44
264.035	230.44
264.267	228.44
264.499	213.44
264.732	226.44
264.964	213.44
265.197	227.44
265.429	220.44
265.661	217.44
265.894	222.44
266.126	215.44
266.358	217.44
266.591	235.44
266.823	232.44
267.055	230.44
267.287	244.44
267.52	235.44
267.752	229.44
267.984	226.44
268.216	238.44
268.448	246.44
268.681	234.44
268.913	257.44
269.145	276.44
269.377	307.44
269.609	297.44
269.841	275.44
270.073	284.44
270.306	315.44
270.538	329.44
270.77	332.44
271.002	317.44
271.234	281.44
271.466	309.44
271.698	314.44
271.93	331.44
272.162	329.44
272.394	317.44
272.626	298.44
272.858	284.44
273.09	289.44
273.322	275.44
273.553	279.44
273.785	273.44
274.017	275.44
274.249	287.44
274.481	281.44
274.713	289.44
274.945	290.44
275.176	285.44
275.408	290.44
275.64	273.44
275.872	289.44
276.104	292.44
276.335	280.44
276.567	283.44
276.799	300.44
277.031	320.44
277.262	309.44
277.494	326.44
277.726	321.44
277.957	293.44
278.189	305.44
278.421	280.44
278.652	280.44
278.884	294.44
279.115	284.44
279.347	301.44
279.579	287.44
279.81	276.44
280.042	284.44
280.273	303.44
280.505	284.44
280.736	278.44
280.968	294.44
281.199	285.44
281.431	293.44
281.662	290.44
281.894	283.44
282.125	290.44
282.356	302.44
282.588	306.44
282.819	342.44
283.051	285.44
283.282	288.44
283.513	291.44
283.745	274.44
283.976	280.44
284.207	303.44
284.439	298.44
284.67	306.44
284.901	300.44
285.132	301.44
285.364	307.44
285.595	306.44
285.826	291.44
286.057	299.44
286.288	296.44
286.52	283.44
286.751	286.44
286.982	313.44
287.213	301.44
287.444	310.44
287.675	286.44
287.906	309.44
288.138	303.44
288.369	307.44
288.6	325.44
288.831	329.44
289.062	315.44
289.293	319.44
289.524	310.44
289.755	302.44
289.986	319.44
290.217	308.44
290.448	301.44
290.679	305.44
290.91	316.44
291.141	282.44
291.371	305.44
291.602	307.44
291.833	320.44
292.064	298.44
292.295	315.44
292.526	321.44
292.757	333.44
292.987	331.44
293.218	329.44
293.449	326.44
293.68	318.44
293.91	288.44
294.141	313.44
294.372	309.44
294.603	319.44
294.833	315.44
295.064	315.44
295.295	307.44
295.525	313.44
295.756	303.44
295.987	331.44
296.217	353.44
296.448	335.44
296.679	332.44
296.909	316.44
297.14	328.44
297.37	318.44
297.601	317.44
297.831	324.44
298.062	322.44
298.292	330.44
298.523	330.44
298.753	328.44
298.984	322.44
299.214	329.44
299.445	337.44
299.675	332.44
299.905	325.44
300.136	335.44
300.366	321.44
300.597	340.44
300.827	354.44
301.057	342.44
301.288	350.44
301.518	354.44
301.748	340.44
301.979	342.44
302.209	360.44
302.439	358.44
302.669	351.44
302.9	346.44
303.13	351.44
303.36	358.44
303.59	357.44
303.82	356.44
304.051	357.44
304.281	343.44
304.511	362.44
304.741	334.44
304.971	339.44
305.201	365.44
305.431	354.44
305.661	355.44
305.891	345.44
306.121	365.44
306.352	347.44
306.582	343.44
306.812	370.44
307.042	334.44
307.272	355.44
307.502	343.44
307.731	358.44
307.961	346.44
308.191	350.44
308.421	351.44
308.651	362.44
308.881	356.44
309.111	348.44
309.341	361.44
309.571	356.44
309.8	375.44
310.03	381.44
310.26	392.44
310.49	393.44
310.72	385.44
310.949	381.44
311.179	389.44
311.409	410.44
311.639	374.44
311.868	397.44
312.098	386.44
312.328	398.44
312.557	411.44
312.787	403.44
313.017	409.44
313.246	377.44
313.476	373.44
313.706	389.44
313.935	391.44
314.165	394.44
314.394	408.44
314.624	406.44
314.853	390.44
315.083	398.44
315.312	409.44
315.542	400.44
315.771	390.44
316.001	391.44
316.23	376.44
316.46	389.44
316.689	399.44
316.919	391.44
317.148	404.44
317.377	402.44
317.607	405.44
317.836	393.44
318.065	413.44
318.295	385.44
318.524	400.44
318.753	395.44
318.983	410.44
319.212	387.44
319.441	399.44
319.67	405.44
319.9	391.44
320.129	373.44
320.358	406.44
320.587	425.44
320.816	414.44
321.046	410.44
321.275	397.44
321.504	411.44
321.733	405.44
321.962	407.44
322.191	425.44
322.42	427.44
322.649	457.44
322.878	433.44
323.108	438.44
323.337	450.44
323.566	485.44
323.795	510.44
324.024	535.44
324.253	591.44
324.482	827.44
324.71	1323.44
324.939	1902.44
325.168	1671.44
325.397	862.44
325.626	606.44
325.855	515.44
326.084	489.44
326.313	463.44
326.542	474.44
326.77	532.44
326.999	617.44
327.228	744.44
327.457	1149.44
327.686	1454.44
327.914	981.44
328.143	669.44
328.372	583.44
328.6	564.44
328.829	527.44
329.058	549.44
329.287	543.44
329.515	521.44
329.744	521.44
329.972	514.44
330.201	530.44
330.43	540.44
330.658	567.44
330.887	590.44
331.115	586.44
331.344	511.44
331.572	529.44
331.801	498.44
332.03	501.44
332.258	499.44
332.486	474.44
332.715	484.44
332.943	509.44
333.172	479.44
333.4	479.44
333.629	529.44
333.857	517.44
334.085	536.44
334.314	569.44
334.542	545.44
334.771	591.44
334.999	537.44
335.227	497.44
335.455	484.44
335.684	486.44
335.912	478.44
336.14	471.44
336.369	467.44
336.597	490.44
336.825	484.44
337.053	485.44
337.281	461.44
337.51	459.44
337.738	463.44
337.966	465.44
338.194	475.44
338.422	471.44
338.65	467.44
338.878	473.44
339.106	477.44
339.334	466.44
339.562	438.44
339.79	435.44
340.018	456.44
340.246	452.44
340.474	446.44
340.702	459.44
340.93	453.44
341.158	450.44
341.386	462.44
341.614	439.44
341.842	463.44
342.07	451.44
342.298	435.44
342.526	440.44
342.754	435.44
342.981	425.44
343.209	433.44
343.437	444.44
343.665	472.44
343.893	469.44
344.12	474.44
344.348	463.44
344.576	467.44
344.804	469.44
345.031	466.44
345.259	467.44
345.487	474.44
345.714	448.44
345.942	439.44
346.17	441.44
346.397	433.44
346.625	435.44
346.853	425.44
347.08	433.44
347.308	433.44
347.535	458.44
347.763	448.44
347.99	454.44
348.218	436.44
348.445	443.44
348.673	449.44
348.9	439.44
349.128	412.44
349.355	415.44
349.583	426.44
349.81	427.44
350.037	437.44
350.265	433.44
350.492	421.44
350.72	428.44
350.947	428.44
351.174	441.44
351.402	427.44
351.629	439.44
351.856	443.44
352.083	441.44
352.311	430.44
352.538	451.44
352.765	454.44
352.992	420.44
353.22	433.44
353.447	419.44
353.674	431.44
353.901	408.44
354.128	418.44
354.355	399.44
354.583	426.44
354.81	418.44
355.037	410.44
355.264	407.44
355.491	410.44
355.718	428.44
355.945	427.44
356.172	427.44
356.399	411.44
356.626	421.44
356.853	419.44
357.08	420.44
357.307	407.44
357.534	422.44
357.761	404.44
357.988	421.44
358.215	414.44
358.441	439.44
358.668	401.44
358.895	424.44
359.122	424.44
359.349	433.44
359.576	424.44
359.802	435.44
360.029	499.44
360.256	474.44
360.483	465.44
360.709	437.44
360.936	450.44
361.163	424.44
361.39	435.44
361.616	437.44
361.843	409.44
362.07	422.44
362.296	446.44
362.523	446.44
362.749	432.44
362.976	432.44
363.203	449.44
363.429	438.44
363.656	414.44
363.882	431.44
364.109	425.44
364.335	427.44
364.562	410.44
364.788	428.44
365.015	426.44
365.241	432.44
365.468	422.44
365.694	426.44
365.92	434.44
366.147	421.44
366.373	415.44
366.599	414.44
366.826	430.44
367.052	436.44
367.278	449.44
367.505	439.44
367.731	441.44
367.957	422.44
368.184	425.44
368.41	443.44
368.636	422.44
368.862	461.44
369.089	439.44
369.315	430.44
369.541	416.44
369.767	423.44
369.993	420.44
370.219	439.44
370.445	425.44
370.672	419.44
370.898	434.44
371.124	431.44
371.35	428.44
371.576	443.44
371.802	453.44
372.028	436.44
372.254	435.44
372.48	437.44
372.706	443.44
372.932	453.44
373.158	436.44
373.384	454.44
373.61	438.44
373.835	437.44
374.061	454.44
374.287	458.44
374.513	444.44
374.739	457.44
374.965	466.44
375.191	466.44
375.416	454.44
375.642	466.44
375.868	429.44
376.094	441.44
376.319	434.44
376.545	437.44
376.771	459.44
376.997	425.44
377.222	433.44
377.448	433.44
377.674	423.44
377.899	430.44
378.125	443.44
378.35	435.44
378.576	431.44
378.802	431.44
379.027	437.44
379.253	430.44
379.478	434.44
379.704	430.44
379.929	443.44
380.155	435.44
380.38	427.44
380.606	441.44
380.831	447.44
381.057	452.44
381.282	437.44
381.507	437.44
381.733	447.44
381.958	444.44
382.184	433.44
382.409	451.44
382.634	452.44
382.86	454.44
383.085	428.44
383.31	462.44
383.535	455.44
383.761	468.44
383.986	451.44
384.211	476.44
384.436	476.44
384.662	469.44
384.887	453.44
385.112	479.44
385.337	467.44
385.562	476.44
385.787	456.44
386.013	483.44
386.238	489.44
386.463	484.44
386.688	518.44
386.913	487.44
387.138	490.44
387.363	511.44
387.588	484.44
387.813	463.44
388.038	464.44
388.263	484.44
388.488	490.44
388.713	497.44
388.938	498.44
389.163	499.44
389.387	486.44
389.612	474.44
389.837	498.44
390.062	460.44
390.287	490.44
390.512	487.44
390.736	475.44
390.961	481.44
391.186	497.44
391.411	508.44
391.636	493.44
391.86	506.44
392.085	517.44
392.31	489.44
392.534	484.44
392.759	494.44
392.984	487.44
393.208	498.44
393.433	497.44
393.658	494.44
393.882	519.44
394.107	513.44
394.331	505.44
394.556	516.44
394.78	517.44
395.005	507.44
395.229	509.44
395.454	526.44
395.678	500.44
395.903	513.44
396.127	523.44
396.352	545.44
396.576	529.44
396.801	515.44
397.025	512.44
397.249	523.44
397.474	536.44
397.698	538.44
397.922	551.44
398.147	536.44
398.371	565.44
398.595	528.44
398.82	555.44
399.044	577.44
399.268	597.44
399.492	613.44
399.717	681.44
399.941	709.44
400.165	714.44
400.389	725.44
400.613	661.44
400.837	637.44
401.062	598.44
401.286	587.44
401.51	585.44
401.734	584.44
401.958	583.44
402.182	569.44
402.406	587.44
402.63	589.44
402.854	605.44
403.078	578.44
403.302	594.44
403.526	606.44
403.75	590.44
403.974	595.44
404.198	587.44
404.422	580.44
404.645	596.44
404.869	599.44
405.093	654.44
405.317	686.44
405.541	737.44
405.765	666.44
405.988	647.44
406.212	625.44
406.436	647.44
406.66	638.44
406.883	643.44
407.107	682.44
407.331	700.44
407.555	792.44
407.778	774.44
408.002	691.44
408.226	637.44
408.449	654.44
408.673	653.44
408.896	686.44
409.12	737.44
409.344	681.44
409.567	607.44
409.791	587.44
410.014	590.44
410.238	592.44
410.461	601.44
410.685	606.44
410.908	613.44
411.132	617.44
411.355	649.44
411.578	641.44
411.802	602.44
412.025	596.44
412.249	602.44
412.472	601.44
412.695	646.44
412.919	652.44
413.142	635.44
413.365	591.44
413.589	610.44
413.812	585.44
414.035	584.44
414.258	603.44
414.482	553.44
414.705	563.44
414.928	571.44
415.151	555.44
415.374	565.44
415.597	547.44
415.821	559.44
416.044	555.44
416.267	564.44
416.49	536.44
416.713	568.44
416.936	545.44
417.159	553.44
417.382	564.44
417.605	529.44
417.828	554.44
418.051	597.44
418.274	590.44
418.497	568.44
418.72	572.44
418.943	549.44
419.166	592.44
419.389	617.44
419.611	631.44
419.834	611.44
420.057	594.44
420.28	587.44
420.503	598.44
420.726	594.44
420.948	610.44
421.171	635.44
421.394	678.44
421.617	598.44
421.839	569.44
422.062	591.44
422.285	575.44
422.507	667.44
422.73	723.44
422.953	692.44
423.175	606.44
423.398	622.44
423.621	595.44
423.843	635.44
424.066	631.44
424.288	645.44
424.511	654.44
424.733	702.44
424.956	775.44
425.178	742.44
425.401	766.44
425.623	750.44
425.846	653.44
426.068	614.44
426.291	598.44
426.513	610.44
426.735	630.44
426.958	652.44
427.18	729.44
427.402	882.44
427.625	950.44
427.847	827.44
428.069	718.44
428.292	651.44
428.514	619.44
428.736	585.44
428.958	573.44
429.181	583.44
429.403	570.44
429.625	569.44
429.847	603.44
430.069	661.44
430.292	658.44
430.514	601.44
430.736	567.44
430.958	561.44
431.18	545.44
431.402	553.44
431.624	539.44
431.846	531.44
432.068	544.44
432.29	540.44
432.512	542.44
432.734	554.44
432.956	548.44
433.178	561.44
433.4	563.44
433.622	550.44
433.844	535.44
434.066	547.44
434.287	526.44
434.509	549.44
434.731	572.44
434.953	583.44
435.175	591.44
435.397	621.44
435.618	630.44
435.84	651.44
436.062	740.44
436.284	814.44
436.505	660.44
436.727	591.44
436.949	595.44
437.17	570.44
437.392	571.44
437.614	557.44
437.835	606.44
438.057	711.44
438.278	794.44
438.5	809.44
438.721	878.44
438.943	849.44
439.165	681.44
439.386	639.44
439.608	607.44
439.829	613.44
440.05	641.44
440.272	699.44
440.493	656.44
440.715	609.44
440.936	570.44
441.158	587.44
441.379	575.44
441.6	591.44
441.822	606.44
442.043	643.44
442.264	739.44
442.486	788.44
442.707	671.44
442.928	627.44
443.149	645.44
443.371	660.44
443.592	678.44
443.813	786.44
444.034	851.44
444.255	726.44
444.476	680.44
444.698	645.44
444.919	639.44
445.14	769.44
445.361	695.44
445.582	643.44
445.803	705.44
446.024	809.44
446.245	849.44
446.466	738.44
446.687	648.44
446.908	617.44
447.129	578.44
447.35	556.44
447.571	565.44
447.792	558.44
448.013	554.44
448.234	581.44
448.455	635.44
448.675	739.44
448.896	854.44
449.117	715.44
449.338	685.44
449.559	789.44
449.779	898.44
450	720.44
450.221	610.44
450.442	584.44
450.662	545.44
450.883	568.44
451.104	541.44
451.324	544.44
451.545	545.44
451.766	528.44
451.986	498.44
452.207	493.44
452.428	493.44
452.648	502.44
452.869	496.44
453.089	521.44
453.31	523.44
453.53	479.44
453.751	506.44
453.971	492.44
454.192	502.44
454.412	513.44
454.633	489.44
454.853	472.44
455.073	473.44
455.294	519.44
455.514	573.44
455.734	570.44
455.955	494.44
456.175	479.44
456.395	492.44
456.616	461.44
456.836	503.44
457.056	454.44
457.276	447.44
457.497	483.44
457.717	486.44
457.937	491.44
458.157	498.44
458.377	493.44
458.598	517.44
458.818	555.44
459.038	641.44
459.258	656.44
459.478	597.44
459.698	544.44
459.918	569.44
460.138	545.44
460.358	568.44
460.578	593.44
460.798	560.44
461.018	583.44
461.238	556.44
461.458	550.44
461.678	546.44
461.898	552.44
462.118	547.44
462.338	597.44
462.558	592.44
462.777	593.44
462.997	622.44
463.217	655.44
463.437	677.44
463.657	617.44
463.876	613.44
464.096	636.44
464.316	585.44
464.536	596.44
464.755	618.44
464.975	622.44
465.195	622.44
465.414	668.44
465.634	597.44
465.854	573.44
466.073	569.44
466.293	541.44
466.512	516.44
466.732	505.44
466.951	511.44
467.171	516.44
467.391	525.44
467.61	501.44
467.829	519.44
468.049	533.44
468.268	525.44
468.488	517.44
468.707	517.44
468.927	502.44
469.146	488.44
469.365	514.44
469.585	499.44
469.804	533.44
470.023	533.44
470.243	530.44
470.462	526.44
470.681	558.44
470.901	531.44
471.12	544.44
471.339	543.44
471.558	526.44
471.777	545.44
471.997	526.44
472.216	527.44
472.435	579.44
472.654	566.44
472.873	533.44
473.092	531.44
473.311	515.44
473.53	518.44
473.749	532.44
473.968	571.44
474.187	659.44
474.406	700.44
474.625	575.44
474.844	549.44
475.063	527.44
475.282	542.44
475.501	528.44
475.72	533.44
475.939	520.44
476.158	551.44
476.377	543.44
476.596	569.44
476.814	549.44
477.033	545.44
477.252	547.44
477.471	577.44
477.69	585.44
477.908	590.44
478.127	596.44
478.346	581.44
478.564	614.44
478.783	615.44
479.002	603.44
479.22	617.44
479.439	607.44
479.658	617.44
479.876	645.44
480.095	643.44
480.313	678.44
480.532	681.44
480.751	650.44
480.969	652.44
481.188	719.44
481.406	725.44
481.624	666.44
481.843	640.44
482.061	619.44
482.28	607.44
482.498	616.44
482.717	615.44
482.935	625.44
483.153	579.44
483.372	604.44
483.59	595.44
483.808	609.44
484.027	632.44
484.245	625.44
484.463	619.44
484.681	613.44
484.9	629.44
485.118	624.44
485.336	642.44
485.554	645.44
485.772	649.44
485.99	635.44
486.209	643.44
486.427	643.44
486.645	654.44
486.863	645.44
487.081	669.44
487.299	659.44
487.517	665.44
487.735	622.44
487.953	657.44
488.171	644.44
488.389	654.44
488.607	647.44
488.825	667.44
489.043	650.44
489.261	675.44
489.479	683.44
489.696	654.44
489.914	671.44
490.132	686.44
490.35	706.44
490.568	697.44
490.786	707.44
491.003	716.44
491.221	734.44
491.439	761.44
491.657	740.44
491.874	753.44
492.092	754.44
492.31	760.44
492.527	759.44
492.745	748.44
492.963	765.44
493.18	807.44
493.398	776.44
493.615	757.44
493.833	797.44
494.05	796.44
494.268	775.44
494.485	782.44
494.703	775.44
494.92	761.44
495.138	773.44
495.355	810.44
495.573	783.44
495.79	791.44
496.008	793.44
496.225	778.44
496.442	789.44
496.66	790.44
496.877	787.44
497.094	784.44
497.312	806.44
497.529	802.44
497.746	821.44
497.963	830.44
498.181	863.44
498.398	884.44
498.615	904.44
498.832	943.44
499.049	939.44
499.267	955.44
499.484	988.44
499.701	1064.44
499.918	1100.44
500.135	1183.44
500.352	1209.44
500.569	1244.44
500.786	1275.44
501.003	1217.44
501.22	1193.44
501.437	1148.44
501.654	1051.44
