Data from 1975.PennyLincolnUp.Lamp.En5.5.200Scan.071719.P1.Changed Mount._HRD10591_15-55-31-858.txt Node
Date: Thu Jul 18 15:55:31 EDT 2019
User: cochatt
Spectrometer: HR+D1059
Trigger mode: 1
Integration Time (sec): 1.000000E-1
Scans to average: 1
Electric dark correction enabled: true
Nonlinearity correction enabled: false
Boxcar width: 0
XAxis mode: Wavelengths
Number of Pixels in Spectrum: 2048
>>>>>Begin Spectral Data<<<<<
223.165	-5.31
223.4	-5.31
223.635	-5.31
223.869	-10.31
224.104	-18.31
224.338	-26.31
224.573	-27.31
224.808	-17.31
225.042	7.69
225.277	-1.31
225.511	-6.31
225.746	14.69
225.98	5.69
226.215	5.69
226.449	13.69
226.683	16.69
226.918	20.69
227.152	27.69
227.387	39.69
227.621	32.69
227.856	35.69
228.09	39.69
228.324	51.69
228.559	65.69
228.793	60.69
229.027	86.69
229.262	83.69
229.496	104.69
229.73	121.69
229.964	141.69
230.199	115.69
230.433	102.69
230.667	106.69
230.901	103.69
231.136	110.69
231.37	97.69
231.604	116.69
231.838	104.69
232.072	103.69
232.306	99.69
232.541	105.69
232.775	104.69
233.009	111.69
233.243	115.69
233.477	106.69
233.711	127.69
233.945	111.69
234.179	121.69
234.413	108.69
234.647	115.69
234.881	108.69
235.115	115.69
235.349	106.69
235.583	114.69
235.817	105.69
236.051	117.69
236.285	116.69
236.519	128.69
236.753	124.69
236.987	129.69
237.221	167.69
237.455	195.69
237.689	157.69
237.922	139.69
238.156	124.69
238.39	125.69
238.624	115.69
238.858	126.69
239.091	121.69
239.325	119.69
239.559	115.69
239.793	126.69
240.027	135.69
240.26	133.69
240.494	140.69
240.728	133.69
240.961	133.69
241.195	136.69
241.429	121.69
241.662	129.69
241.896	119.69
242.13	129.69
242.363	122.69
242.597	137.69
242.83	118.69
243.064	133.69
243.298	127.69
243.531	122.69
243.765	119.69
243.998	131.69
244.232	125.69
244.465	129.69
244.699	134.69
244.932	137.69
245.166	121.69
245.399	143.69
245.633	147.69
245.866	138.69
246.099	136.69
246.333	141.69
246.566	136.69
246.8	148.69
247.033	136.69
247.266	149.69
247.5	154.69
247.733	162.69
247.966	159.69
248.2	175.69
248.433	168.69
248.666	156.69
248.899	161.69
249.133	172.69
249.366	186.69
249.599	158.69
249.832	159.69
250.066	163.69
250.299	173.69
250.532	163.69
250.765	182.69
250.998	166.69
251.231	195.69
251.465	191.69
251.698	183.69
251.931	183.69
252.164	168.69
252.397	169.69
252.63	193.69
252.863	187.69
253.096	187.69
253.329	201.69
253.562	197.69
253.795	196.69
254.028	184.69
254.261	167.69
254.494	207.69
254.727	224.69
254.96	259.69
255.193	223.69
255.426	224.69
255.659	216.69
255.892	216.69
256.124	205.69
256.357	214.69
256.59	201.69
256.823	184.69
257.056	188.69
257.289	189.69
257.521	197.69
257.754	196.69
257.987	184.69
258.22	193.69
258.452	194.69
258.685	198.69
258.918	200.69
259.151	197.69
259.383	190.69
259.616	203.69
259.849	211.69
260.081	207.69
260.314	226.69
260.547	230.69
260.779	207.69
261.012	181.69
261.244	217.69
261.477	210.69
261.71	211.69
261.942	202.69
262.175	223.69
262.407	193.69
262.64	196.69
262.872	214.69
263.105	195.69
263.337	185.69
263.57	193.69
263.802	172.69
264.035	201.69
264.267	200.69
264.499	192.69
264.732	189.69
264.964	202.69
265.197	196.69
265.429	210.69
265.661	192.69
265.894	209.69
266.126	204.69
266.358	200.69
266.591	193.69
266.823	195.69
267.055	200.69
267.287	204.69
267.52	199.69
267.752	209.69
267.984	212.69
268.216	209.69
268.448	206.69
268.681	223.69
268.913	217.69
269.145	232.69
269.377	226.69
269.609	238.69
269.841	230.69
270.073	231.69
270.306	244.69
270.538	261.69
270.77	267.69
271.002	264.69
271.234	257.69
271.466	258.69
271.698	279.69
271.93	247.69
272.162	276.69
272.394	279.69
272.626	256.69
272.858	239.69
273.09	244.69
273.322	241.69
273.553	236.69
273.785	229.69
274.017	224.69
274.249	250.69
274.481	243.69
274.713	232.69
274.945	231.69
275.176	233.69
275.408	251.69
275.64	237.69
275.872	230.69
276.104	236.69
276.335	243.69
276.567	247.69
276.799	257.69
277.031	247.69
277.262	276.69
277.494	276.69
277.726	274.69
277.957	267.69
278.189	257.69
278.421	236.69
278.652	252.69
278.884	258.69
279.115	241.69
279.347	268.69
279.579	260.69
279.81	240.69
280.042	230.69
280.273	250.69
280.505	263.69
280.736	241.69
280.968	246.69
281.199	268.69
281.431	253.69
281.662	254.69
281.894	256.69
282.125	244.69
282.356	260.69
282.588	274.69
282.819	294.69
283.051	261.69
283.282	249.69
283.513	269.69
283.745	259.69
283.976	254.69
284.207	269.69
284.439	266.69
284.67	266.69
284.901	261.69
285.132	260.69
285.364	271.69
285.595	263.69
285.826	256.69
286.057	250.69
286.288	254.69
286.52	281.69
286.751	244.69
286.982	283.69
287.213	263.69
287.444	269.69
287.675	279.69
287.906	279.69
288.138	291.69
288.369	281.69
288.6	281.69
288.831	266.69
289.062	255.69
289.293	278.69
289.524	265.69
289.755	281.69
289.986	279.69
290.217	263.69
290.448	277.69
290.679	275.69
290.91	300.69
291.141	295.69
291.371	290.69
291.602	270.69
291.833	272.69
292.064	287.69
292.295	272.69
292.526	281.69
292.757	269.69
292.987	271.69
293.218	290.69
293.449	279.69
293.68	281.69
293.91	268.69
294.141	287.69
294.372	275.69
294.603	279.69
294.833	281.69
295.064	266.69
295.295	277.69
295.525	270.69
295.756	282.69
295.987	276.69
296.217	292.69
296.448	304.69
296.679	287.69
296.909	277.69
297.14	267.69
297.37	277.69
297.601	277.69
297.831	295.69
298.062	289.69
298.292	277.69
298.523	312.69
298.753	282.69
298.984	300.69
299.214	311.69
299.445	296.69
299.675	298.69
299.905	295.69
300.136	281.69
300.366	283.69
300.597	283.69
300.827	286.69
301.057	290.69
301.288	291.69
301.518	290.69
301.748	296.69
301.979	300.69
302.209	309.69
302.439	305.69
302.669	316.69
302.9	301.69
303.13	287.69
303.36	313.69
303.59	317.69
303.82	300.69
304.051	317.69
304.281	323.69
304.511	307.69
304.741	283.69
304.971	315.69
305.201	311.69
305.431	308.69
305.661	312.69
305.891	317.69
306.121	304.69
306.352	314.69
306.582	300.69
306.812	303.69
307.042	322.69
307.272	287.69
307.502	304.69
307.731	315.69
307.961	296.69
308.191	307.69
308.421	321.69
308.651	325.69
308.881	309.69
309.111	321.69
309.341	311.69
309.571	304.69
309.8	339.69
310.03	311.69
310.26	335.69
310.49	341.69
310.72	315.69
310.949	359.69
311.179	348.69
311.409	337.69
311.639	335.69
311.868	329.69
312.098	329.69
312.328	342.69
312.557	340.69
312.787	342.69
313.017	350.69
313.246	345.69
313.476	332.69
313.706	323.69
313.935	328.69
314.165	337.69
314.394	352.69
314.624	347.69
314.853	367.69
315.083	344.69
315.312	325.69
315.542	340.69
315.771	360.69
316.001	332.69
316.23	332.69
316.46	344.69
316.689	341.69
316.919	335.69
317.148	349.69
317.377	352.69
317.607	341.69
317.836	337.69
318.065	334.69
318.295	335.69
318.524	338.69
318.753	328.69
318.983	341.69
319.212	359.69
319.441	345.69
319.67	339.69
319.9	353.69
320.129	333.69
320.358	341.69
320.587	333.69
320.816	343.69
321.046	337.69
321.275	344.69
321.504	383.69
321.733	362.69
321.962	356.69
322.191	378.69
322.42	368.69
322.649	358.69
322.878	361.69
323.108	369.69
323.337	380.69
323.566	405.69
323.795	429.69
324.024	448.69
324.253	471.69
324.482	655.69
324.71	985.69
324.939	1478.69
325.168	1305.69
325.397	649.69
325.626	473.69
325.855	420.69
326.084	383.69
326.313	393.69
326.542	416.69
326.77	443.69
326.999	475.69
327.228	599.69
327.457	921.69
327.686	1138.69
327.914	748.69
328.143	513.69
328.372	480.69
328.6	444.69
328.829	448.69
329.058	447.69
329.287	479.69
329.515	436.69
329.744	414.69
329.972	434.69
330.201	425.69
330.43	423.69
330.658	443.69
330.887	463.69
331.115	492.69
331.344	437.69
331.572	433.69
331.801	437.69
332.03	427.69
332.258	413.69
332.486	397.69
332.715	403.69
332.943	412.69
333.172	413.69
333.4	435.69
333.629	448.69
333.857	446.69
334.085	432.69
334.314	448.69
334.542	457.69
334.771	482.69
334.999	478.69
335.227	454.69
335.455	418.69
335.684	417.69
335.912	410.69
336.14	412.69
336.369	414.69
336.597	409.69
336.825	411.69
337.053	418.69
337.281	397.69
337.51	403.69
337.738	406.69
337.966	411.69
338.194	388.69
338.422	404.69
338.65	408.69
338.878	415.69
339.106	391.69
339.334	380.69
339.562	395.69
339.79	391.69
340.018	399.69
340.246	373.69
340.474	379.69
340.702	378.69
340.93	388.69
341.158	401.69
341.386	394.69
341.614	391.69
341.842	386.69
342.07	392.69
342.298	380.69
342.526	379.69
342.754	391.69
342.981	411.69
343.209	371.69
343.437	410.69
343.665	409.69
343.893	412.69
344.12	418.69
344.348	419.69
344.576	421.69
344.804	413.69
345.031	399.69
345.259	404.69
345.487	387.69
345.714	394.69
345.942	379.69
346.17	374.69
346.397	381.69
346.625	380.69
346.853	377.69
347.08	370.69
347.308	406.69
347.535	352.69
347.763	384.69
347.99	369.69
348.218	370.69
348.445	387.69
348.673	372.69
348.9	375.69
349.128	369.69
349.355	376.69
349.583	379.69
349.81	377.69
350.037	362.69
350.265	371.69
350.492	383.69
350.72	386.69
350.947	372.69
351.174	374.69
351.402	375.69
351.629	395.69
351.856	368.69
352.083	370.69
352.311	377.69
352.538	378.69
352.765	395.69
352.992	383.69
353.22	380.69
353.447	396.69
353.674	355.69
353.901	367.69
354.128	372.69
354.355	355.69
354.583	346.69
354.81	363.69
355.037	359.69
355.264	375.69
355.491	371.69
355.718	371.69
355.945	358.69
356.172	344.69
356.399	378.69
356.626	346.69
356.853	360.69
357.08	369.69
357.307	370.69
357.534	360.69
357.761	363.69
357.988	376.69
358.215	375.69
358.441	359.69
358.668	377.69
358.895	385.69
359.122	371.69
359.349	364.69
359.576	387.69
359.802	375.69
360.029	397.69
360.256	406.69
360.483	384.69
360.709	391.69
360.936	373.69
361.163	374.69
361.39	394.69
361.616	385.69
361.843	378.69
362.07	385.69
362.296	380.69
362.523	367.69
362.749	393.69
362.976	384.69
363.203	386.69
363.429	374.69
363.656	379.69
363.882	367.69
364.109	348.69
364.335	381.69
364.562	369.69
364.788	364.69
365.015	367.69
365.241	378.69
365.468	371.69
365.694	382.69
365.92	384.69
366.147	379.69
366.373	353.69
366.599	393.69
366.826	377.69
367.052	373.69
367.278	369.69
367.505	357.69
367.731	371.69
367.957	373.69
368.184	371.69
368.41	384.69
368.636	375.69
368.862	367.69
369.089	377.69
369.315	377.69
369.541	389.69
369.767	399.69
369.993	404.69
370.219	375.69
370.445	385.69
370.672	378.69
370.898	395.69
371.124	368.69
371.35	389.69
371.576	388.69
371.802	379.69
372.028	388.69
372.254	377.69
372.48	359.69
372.706	373.69
372.932	403.69
373.158	406.69
373.384	387.69
373.61	380.69
373.835	412.69
374.061	410.69
374.287	380.69
374.513	392.69
374.739	422.69
374.965	408.69
375.191	417.69
375.416	411.69
375.642	409.69
375.868	405.69
376.094	390.69
376.319	381.69
376.545	407.69
376.771	393.69
376.997	387.69
377.222	407.69
377.448	397.69
377.674	382.69
377.899	357.69
378.125	389.69
378.35	397.69
378.576	391.69
378.802	373.69
379.027	397.69
379.253	415.69
379.478	408.69
379.704	390.69
379.929	382.69
380.155	398.69
380.38	404.69
380.606	386.69
380.831	400.69
381.057	406.69
381.282	406.69
381.507	416.69
381.733	422.69
381.958	403.69
382.184	405.69
382.409	413.69
382.634	433.69
382.86	433.69
383.085	420.69
383.31	404.69
383.535	428.69
383.761	422.69
383.986	419.69
384.211	432.69
384.436	441.69
384.662	445.69
384.887	445.69
385.112	463.69
385.337	455.69
385.562	478.69
385.787	449.69
386.013	465.69
386.238	475.69
386.463	488.69
386.688	462.69
386.913	449.69
387.138	475.69
387.363	474.69
387.588	445.69
387.813	484.69
388.038	439.69
388.263	461.69
388.488	477.69
388.713	455.69
388.938	440.69
389.163	437.69
389.387	453.69
389.612	421.69
389.837	423.69
390.062	416.69
390.287	438.69
390.512	417.69
390.736	439.69
390.961	455.69
391.186	448.69
391.411	460.69
391.636	436.69
391.86	480.69
392.085	482.69
392.31	457.69
392.534	463.69
392.759	450.69
392.984	458.69
393.208	458.69
393.433	498.69
393.658	500.69
393.882	452.69
394.107	455.69
394.331	435.69
394.556	446.69
394.78	441.69
395.005	466.69
395.229	449.69
395.454	468.69
395.678	458.69
395.903	471.69
396.127	495.69
396.352	488.69
396.576	478.69
396.801	504.69
397.025	504.69
397.249	497.69
397.474	459.69
397.698	485.69
397.922	485.69
398.147	499.69
398.371	490.69
398.595	527.69
398.82	517.69
399.044	540.69
399.268	555.69
399.492	551.69
399.717	624.69
399.941	604.69
400.165	651.69
400.389	629.69
400.613	582.69
400.837	545.69
401.062	537.69
401.286	499.69
401.51	510.69
401.734	498.69
401.958	514.69
402.182	527.69
402.406	514.69
402.63	515.69
402.854	523.69
403.078	530.69
403.302	531.69
403.526	519.69
403.75	513.69
403.974	525.69
404.198	540.69
404.422	541.69
404.645	536.69
404.869	581.69
405.093	576.69
405.317	569.69
405.541	626.69
405.765	581.69
405.988	571.69
406.212	564.69
406.436	571.69
406.66	555.69
406.883	571.69
407.107	599.69
407.331	617.69
407.555	673.69
407.778	674.69
408.002	658.69
408.226	595.69
408.449	585.69
408.673	575.69
408.896	601.69
409.12	637.69
409.344	608.69
409.567	559.69
409.791	541.69
410.014	525.69
410.238	530.69
410.461	530.69
410.685	534.69
410.908	550.69
411.132	561.69
411.355	602.69
411.578	567.69
411.802	552.69
412.025	564.69
412.249	545.69
412.472	539.69
412.695	604.69
412.919	561.69
413.142	526.69
413.365	524.69
413.589	525.69
413.812	492.69
414.035	519.69
414.258	533.69
414.482	513.69
414.705	520.69
414.928	515.69
415.151	509.69
415.374	505.69
415.597	508.69
415.821	518.69
416.044	540.69
416.267	496.69
416.49	480.69
416.713	474.69
416.936	481.69
417.159	481.69
417.382	486.69
417.605	511.69
417.828	530.69
418.051	504.69
418.274	477.69
418.497	504.69
418.72	513.69
418.943	491.69
419.166	538.69
419.389	569.69
419.611	563.69
419.834	535.69
420.057	542.69
420.28	537.69
420.503	531.69
420.726	518.69
420.948	492.69
421.171	538.69
421.394	583.69
421.617	539.69
421.839	519.69
422.062	501.69
422.285	535.69
422.507	572.69
422.73	658.69
422.953	622.69
423.175	585.69
423.398	567.69
423.621	536.69
423.843	561.69
424.066	561.69
424.288	570.69
424.511	571.69
424.733	578.69
424.956	669.69
425.178	645.69
425.401	643.69
425.623	666.69
425.846	596.69
426.068	527.69
426.291	545.69
426.513	545.69
426.735	531.69
426.958	589.69
427.18	617.69
427.402	762.69
427.625	823.69
427.847	699.69
428.069	629.69
428.292	560.69
428.514	530.69
428.736	514.69
428.958	500.69
429.181	522.69
429.403	499.69
429.625	504.69
429.847	506.69
430.069	579.69
430.292	576.69
430.514	495.69
430.736	507.69
430.958	519.69
431.18	498.69
431.402	472.69
431.624	482.69
431.846	470.69
432.068	471.69
432.29	483.69
432.512	490.69
432.734	506.69
432.956	493.69
433.178	477.69
433.4	517.69
433.622	513.69
433.844	488.69
434.066	483.69
434.287	483.69
434.509	516.69
434.731	501.69
434.953	523.69
435.175	511.69
435.397	533.69
435.618	548.69
435.84	574.69
436.062	646.69
436.284	705.69
436.505	596.69
436.727	535.69
436.949	526.69
437.17	506.69
437.392	519.69
437.614	517.69
437.835	533.69
438.057	604.69
438.278	673.69
438.5	678.69
438.721	753.69
438.943	751.69
439.165	576.69
439.386	540.69
439.608	523.69
439.829	516.69
440.05	533.69
440.272	577.69
440.493	539.69
440.715	534.69
440.936	521.69
441.158	499.69
441.379	504.69
441.6	546.69
441.822	543.69
442.043	555.69
442.264	636.69
442.486	652.69
442.707	575.69
442.928	561.69
443.149	555.69
443.371	571.69
443.592	603.69
443.813	696.69
444.034	738.69
444.255	620.69
444.476	571.69
444.698	556.69
444.919	549.69
445.14	677.69
445.361	617.69
445.582	589.69
445.803	619.69
446.024	700.69
446.245	692.69
446.466	612.69
446.687	567.69
446.908	562.69
447.129	517.69
447.35	505.69
447.571	496.69
447.792	497.69
448.013	459.69
448.234	506.69
448.455	553.69
448.675	632.69
448.896	741.69
449.117	636.69
449.338	591.69
449.559	676.69
449.779	783.69
450	625.69
450.221	518.69
450.442	514.69
450.662	439.69
450.883	510.69
451.104	493.69
451.324	484.69
451.545	485.69
451.766	473.69
451.986	443.69
452.207	423.69
452.428	462.69
452.648	467.69
452.869	435.69
453.089	459.69
453.31	470.69
453.53	459.69
453.751	434.69
453.971	440.69
454.192	458.69
454.412	447.69
454.633	444.69
454.853	426.69
455.073	435.69
455.294	459.69
455.514	499.69
455.734	496.69
455.955	445.69
456.175	419.69
456.395	417.69
456.616	417.69
456.836	421.69
457.056	412.69
457.276	434.69
457.497	441.69
457.717	433.69
457.937	416.69
458.157	437.69
458.377	446.69
458.598	447.69
458.818	500.69
459.038	543.69
459.258	566.69
459.478	505.69
459.698	505.69
459.918	480.69
460.138	456.69
460.358	525.69
460.578	500.69
460.798	525.69
461.018	548.69
461.238	509.69
461.458	523.69
461.678	527.69
461.898	535.69
462.118	497.69
462.338	535.69
462.558	540.69
462.777	561.69
462.997	563.69
463.217	591.69
463.437	569.69
463.657	582.69
463.876	562.69
464.096	576.69
464.316	563.69
464.536	559.69
464.755	559.69
464.975	547.69
465.195	555.69
465.414	596.69
465.634	518.69
465.854	501.69
466.073	490.69
466.293	500.69
466.512	482.69
466.732	478.69
466.951	454.69
467.171	485.69
467.391	476.69
467.61	468.69
467.829	488.69
468.049	472.69
468.268	479.69
468.488	481.69
468.707	444.69
468.927	471.69
469.146	449.69
469.365	464.69
469.585	454.69
469.804	484.69
470.023	476.69
470.243	461.69
470.462	465.69
470.681	479.69
470.901	493.69
471.12	468.69
471.339	465.69
471.558	483.69
471.777	456.69
471.997	476.69
472.216	468.69
472.435	473.69
472.654	486.69
472.873	481.69
473.092	479.69
473.311	459.69
473.53	480.69
473.749	466.69
473.968	500.69
474.187	582.69
474.406	589.69
474.625	515.69
474.844	518.69
475.063	464.69
475.282	474.69
475.501	495.69
475.72	485.69
475.939	500.69
476.158	476.69
476.377	503.69
476.596	484.69
476.814	495.69
477.033	502.69
477.252	497.69
477.471	508.69
477.69	514.69
477.908	520.69
478.127	531.69
478.346	525.69
478.564	533.69
478.783	534.69
479.002	531.69
479.22	552.69
479.439	567.69
479.658	575.69
479.876	569.69
480.095	567.69
480.313	608.69
480.532	600.69
480.751	592.69
480.969	592.69
481.188	620.69
481.406	636.69
481.624	605.69
481.843	565.69
482.061	570.69
482.28	556.69
482.498	547.69
482.717	567.69
482.935	587.69
483.153	580.69
483.372	572.69
483.59	561.69
483.808	577.69
484.027	569.69
484.245	567.69
484.463	567.69
484.681	581.69
484.9	561.69
485.118	577.69
485.336	590.69
485.554	595.69
485.772	576.69
485.99	587.69
486.209	581.69
486.427	572.69
486.645	594.69
486.863	608.69
487.081	607.69
487.299	617.69
487.517	584.69
487.735	604.69
487.953	615.69
488.171	592.69
488.389	607.69
488.607	602.69
488.825	580.69
489.043	581.69
489.261	576.69
489.479	574.69
489.696	600.69
489.914	606.69
490.132	615.69
490.35	621.69
490.568	626.69
490.786	633.69
491.003	635.69
491.221	654.69
491.439	675.69
491.657	664.69
491.874	675.69
492.092	669.69
492.31	654.69
492.527	671.69
492.745	681.69
492.963	669.69
493.18	660.69
493.398	666.69
493.615	697.69
493.833	683.69
494.05	682.69
494.268	698.69
494.485	704.69
494.703	689.69
494.92	681.69
495.138	674.69
495.355	684.69
495.573	693.69
495.79	692.69
496.008	714.69
496.225	713.69
496.442	689.69
496.66	681.69
496.877	714.69
497.094	729.69
497.312	698.69
497.529	734.69
497.746	734.69
497.963	752.69
498.181	781.69
498.398	779.69
498.615	835.69
498.832	827.69
499.049	837.69
499.267	873.69
499.484	905.69
499.701	944.69
499.918	1007.69
500.135	1045.69
500.352	1137.69
500.569	1135.69
500.786	1146.69
501.003	1142.69
501.22	1097.69
501.437	1037.69
501.654	980.69
