Data from 1975.PennyLincolnUp.Lamp.En5.5.200Scan.071719.P1.Changed Mount._HRD10591_15-58-22-859.txt Node
Date: Thu Jul 18 15:58:22 EDT 2019
User: cochatt
Spectrometer: HR+D1059
Trigger mode: 1
Integration Time (sec): 1.000000E-1
Scans to average: 1
Electric dark correction enabled: true
Nonlinearity correction enabled: false
Boxcar width: 0
XAxis mode: Wavelengths
Number of Pixels in Spectrum: 2048
>>>>>Begin Spectral Data<<<<<
223.165	-18.44
223.4	-18.44
223.635	-18.44
223.869	-16.44
224.104	-23.44
224.338	-8.44
224.573	-18.44
224.808	-14.44
225.042	-3.44
225.277	-4.44
225.511	-3.44
225.746	12.56
225.98	10.56
226.215	10.56
226.449	7.56
226.683	20.56
226.918	21.56
227.152	27.56
227.387	23.56
227.621	39.56
227.856	31.56
228.09	51.56
228.324	54.56
228.559	50.56
228.793	66.56
229.027	99.56
229.262	106.56
229.496	92.56
229.73	111.56
229.964	138.56
230.199	121.56
230.433	116.56
230.667	113.56
230.901	104.56
231.136	108.56
231.37	102.56
231.604	107.56
231.838	122.56
232.072	108.56
232.306	117.56
232.541	107.56
232.775	99.56
233.009	117.56
233.243	112.56
233.477	112.56
233.711	112.56
233.945	118.56
234.179	119.56
234.413	126.56
234.647	117.56
234.881	120.56
235.115	117.56
235.349	106.56
235.583	123.56
235.817	121.56
236.051	128.56
236.285	128.56
236.519	124.56
236.753	124.56
236.987	130.56
237.221	199.56
237.455	230.56
237.689	178.56
237.922	143.56
238.156	136.56
238.39	127.56
238.624	125.56
238.858	116.56
239.091	128.56
239.325	114.56
239.559	123.56
239.793	131.56
240.027	126.56
240.26	146.56
240.494	168.56
240.728	137.56
240.961	149.56
241.195	162.56
241.429	133.56
241.662	145.56
241.896	145.56
242.13	129.56
242.363	135.56
242.597	147.56
242.83	133.56
243.064	151.56
243.298	136.56
243.531	140.56
243.765	132.56
243.998	137.56
244.232	155.56
244.465	146.56
244.699	141.56
244.932	153.56
245.166	172.56
245.399	164.56
245.633	159.56
245.866	157.56
246.099	149.56
246.333	140.56
246.566	145.56
246.8	156.56
247.033	146.56
247.266	175.56
247.5	172.56
247.733	199.56
247.966	171.56
248.2	161.56
248.433	177.56
248.666	176.56
248.899	197.56
249.133	217.56
249.366	207.56
249.599	211.56
249.832	195.56
250.066	189.56
250.299	180.56
250.532	198.56
250.765	204.56
250.998	225.56
251.231	227.56
251.465	227.56
251.698	203.56
251.931	203.56
252.164	201.56
252.397	188.56
252.63	216.56
252.863	216.56
253.096	213.56
253.329	212.56
253.562	233.56
253.795	217.56
254.028	223.56
254.261	234.56
254.494	222.56
254.727	245.56
254.96	266.56
255.193	298.56
255.426	264.56
255.659	265.56
255.892	242.56
256.124	241.56
256.357	258.56
256.59	241.56
256.823	229.56
257.056	248.56
257.289	223.56
257.521	223.56
257.754	209.56
257.987	221.56
258.22	210.56
258.452	225.56
258.685	206.56
258.918	198.56
259.151	221.56
259.383	223.56
259.616	224.56
259.849	237.56
260.081	244.56
260.314	252.56
260.547	260.56
260.779	257.56
261.012	256.56
261.244	226.56
261.477	219.56
261.71	226.56
261.942	241.56
262.175	241.56
262.407	223.56
262.64	215.56
262.872	224.56
263.105	216.56
263.337	229.56
263.57	227.56
263.802	221.56
264.035	225.56
264.267	217.56
264.499	232.56
264.732	232.56
264.964	219.56
265.197	234.56
265.429	212.56
265.661	232.56
265.894	219.56
266.126	219.56
266.358	220.56
266.591	234.56
266.823	245.56
267.055	258.56
267.287	245.56
267.52	243.56
267.752	242.56
267.984	240.56
268.216	239.56
268.448	234.56
268.681	257.56
268.913	267.56
269.145	277.56
269.377	271.56
269.609	270.56
269.841	271.56
270.073	274.56
270.306	307.56
270.538	321.56
270.77	309.56
271.002	303.56
271.234	295.56
271.466	307.56
271.698	316.56
271.93	308.56
272.162	314.56
272.394	313.56
272.626	305.56
272.858	295.56
273.09	289.56
273.322	284.56
273.553	267.56
273.785	275.56
274.017	282.56
274.249	261.56
274.481	283.56
274.713	258.56
274.945	263.56
275.176	276.56
275.408	269.56
275.64	281.56
275.872	276.56
276.104	286.56
276.335	290.56
276.567	283.56
276.799	278.56
277.031	308.56
277.262	341.56
277.494	317.56
277.726	304.56
277.957	307.56
278.189	292.56
278.421	286.56
278.652	297.56
278.884	264.56
279.115	287.56
279.347	283.56
279.579	276.56
279.81	287.56
280.042	267.56
280.273	273.56
280.505	269.56
280.736	276.56
280.968	287.56
281.199	293.56
281.431	261.56
281.662	290.56
281.894	301.56
282.125	294.56
282.356	289.56
282.588	303.56
282.819	321.56
283.051	303.56
283.282	289.56
283.513	282.56
283.745	303.56
283.976	308.56
284.207	290.56
284.439	295.56
284.67	296.56
284.901	298.56
285.132	300.56
285.364	303.56
285.595	292.56
285.826	292.56
286.057	291.56
286.288	285.56
286.52	297.56
286.751	288.56
286.982	303.56
287.213	306.56
287.444	305.56
287.675	301.56
287.906	313.56
288.138	321.56
288.369	307.56
288.6	328.56
288.831	333.56
289.062	311.56
289.293	319.56
289.524	304.56
289.755	316.56
289.986	301.56
290.217	307.56
290.448	310.56
290.679	308.56
290.91	305.56
291.141	296.56
291.371	321.56
291.602	307.56
291.833	308.56
292.064	288.56
292.295	308.56
292.526	319.56
292.757	315.56
292.987	331.56
293.218	318.56
293.449	306.56
293.68	308.56
293.91	317.56
294.141	305.56
294.372	306.56
294.603	329.56
294.833	312.56
295.064	315.56
295.295	319.56
295.525	326.56
295.756	312.56
295.987	309.56
296.217	329.56
296.448	348.56
296.679	338.56
296.909	321.56
297.14	327.56
297.37	349.56
297.601	340.56
297.831	299.56
298.062	322.56
298.292	327.56
298.523	318.56
298.753	343.56
298.984	307.56
299.214	353.56
299.445	327.56
299.675	344.56
299.905	336.56
300.136	325.56
300.366	333.56
300.597	326.56
300.827	336.56
301.057	350.56
301.288	334.56
301.518	340.56
301.748	348.56
301.979	343.56
302.209	346.56
302.439	351.56
302.669	346.56
302.9	359.56
303.13	339.56
303.36	347.56
303.59	353.56
303.82	360.56
304.051	360.56
304.281	347.56
304.511	337.56
304.741	348.56
304.971	336.56
305.201	343.56
305.431	349.56
305.661	369.56
305.891	350.56
306.121	347.56
306.352	364.56
306.582	360.56
306.812	348.56
307.042	344.56
307.272	356.56
307.502	360.56
307.731	367.56
307.961	356.56
308.191	345.56
308.421	344.56
308.651	347.56
308.881	348.56
309.111	328.56
309.341	364.56
309.571	368.56
309.8	379.56
310.03	360.56
310.26	377.56
310.49	389.56
310.72	401.56
310.949	399.56
311.179	409.56
311.409	381.56
311.639	381.56
311.868	387.56
312.098	389.56
312.328	384.56
312.557	403.56
312.787	402.56
313.017	412.56
313.246	392.56
313.476	392.56
313.706	396.56
313.935	390.56
314.165	403.56
314.394	394.56
314.624	420.56
314.853	398.56
315.083	403.56
315.312	386.56
315.542	381.56
315.771	401.56
316.001	409.56
316.23	399.56
316.46	381.56
316.689	399.56
316.919	393.56
317.148	397.56
317.377	409.56
317.607	419.56
317.836	393.56
318.065	383.56
318.295	387.56
318.524	396.56
318.753	380.56
318.983	383.56
319.212	397.56
319.441	416.56
319.67	400.56
319.9	376.56
320.129	383.56
320.358	411.56
320.587	398.56
320.816	410.56
321.046	419.56
321.275	413.56
321.504	399.56
321.733	409.56
321.962	417.56
322.191	441.56
322.42	436.56
322.649	437.56
322.878	446.56
323.108	447.56
323.337	460.56
323.566	494.56
323.795	516.56
324.024	517.56
324.253	640.56
324.482	828.56
324.71	1299.56
324.939	1909.56
325.168	1668.56
325.397	868.56
325.626	612.56
325.855	519.56
326.084	469.56
326.313	479.56
326.542	485.56
326.77	513.56
326.999	578.56
327.228	802.56
327.457	1166.56
327.686	1473.56
327.914	991.56
328.143	676.56
328.372	597.56
328.6	560.56
328.829	533.56
329.058	559.56
329.287	549.56
329.515	529.56
329.744	515.56
329.972	486.56
330.201	513.56
330.43	551.56
330.658	559.56
330.887	564.56
331.115	582.56
331.344	531.56
331.572	511.56
331.801	489.56
332.03	509.56
332.258	498.56
332.486	469.56
332.715	470.56
332.943	500.56
333.172	487.56
333.4	529.56
333.629	505.56
333.857	512.56
334.085	528.56
334.314	545.56
334.542	583.56
334.771	587.56
334.999	539.56
335.227	498.56
335.455	499.56
335.684	472.56
335.912	483.56
336.14	457.56
336.369	483.56
336.597	474.56
336.825	487.56
337.053	476.56
337.281	454.56
337.51	434.56
337.738	481.56
337.966	465.56
338.194	471.56
338.422	449.56
338.65	466.56
338.878	479.56
339.106	437.56
339.334	470.56
339.562	443.56
339.79	464.56
340.018	462.56
340.246	460.56
340.474	440.56
340.702	449.56
340.93	461.56
341.158	449.56
341.386	427.56
341.614	449.56
341.842	461.56
342.07	456.56
342.298	449.56
342.526	423.56
342.754	435.56
342.981	420.56
343.209	442.56
343.437	448.56
343.665	462.56
343.893	474.56
344.12	468.56
344.348	475.56
344.576	468.56
344.804	458.56
345.031	478.56
345.259	472.56
345.487	457.56
345.714	459.56
345.942	430.56
346.17	414.56
346.397	425.56
346.625	448.56
346.853	441.56
347.08	445.56
347.308	457.56
347.535	436.56
347.763	444.56
347.99	444.56
348.218	440.56
348.445	428.56
348.673	440.56
348.9	438.56
349.128	431.56
349.355	444.56
349.583	420.56
349.81	412.56
350.037	421.56
350.265	431.56
350.492	406.56
350.72	411.56
350.947	438.56
351.174	439.56
351.402	459.56
351.629	440.56
351.856	456.56
352.083	431.56
352.311	444.56
352.538	443.56
352.765	456.56
352.992	451.56
353.22	444.56
353.447	435.56
353.674	408.56
353.901	397.56
354.128	426.56
354.355	440.56
354.583	437.56
354.81	403.56
355.037	399.56
355.264	423.56
355.491	417.56
355.718	409.56
355.945	404.56
356.172	415.56
356.399	431.56
356.626	411.56
356.853	416.56
357.08	425.56
357.307	423.56
357.534	436.56
357.761	397.56
357.988	413.56
358.215	424.56
358.441	415.56
358.668	425.56
358.895	432.56
359.122	405.56
359.349	439.56
359.576	449.56
359.802	449.56
360.029	455.56
360.256	472.56
360.483	449.56
360.709	437.56
360.936	442.56
361.163	443.56
361.39	439.56
361.616	453.56
361.843	422.56
362.07	431.56
362.296	444.56
362.523	437.56
362.749	444.56
362.976	439.56
363.203	439.56
363.429	426.56
363.656	425.56
363.882	432.56
364.109	471.56
364.335	415.56
364.562	429.56
364.788	415.56
365.015	437.56
365.241	406.56
365.468	428.56
365.694	421.56
365.92	436.56
366.147	429.56
366.373	421.56
366.599	430.56
366.826	431.56
367.052	425.56
367.278	436.56
367.505	428.56
367.731	419.56
367.957	411.56
368.184	440.56
368.41	421.56
368.636	435.56
368.862	427.56
369.089	429.56
369.315	428.56
369.541	439.56
369.767	427.56
369.993	436.56
370.219	448.56
370.445	417.56
370.672	412.56
370.898	423.56
371.124	423.56
371.35	421.56
371.576	426.56
371.802	426.56
372.028	450.56
372.254	431.56
372.48	411.56
372.706	422.56
372.932	436.56
373.158	425.56
373.384	445.56
373.61	443.56
373.835	440.56
374.061	456.56
374.287	424.56
374.513	453.56
374.739	437.56
374.965	457.56
375.191	435.56
375.416	446.56
375.642	434.56
375.868	435.56
376.094	421.56
376.319	455.56
376.545	428.56
376.771	431.56
376.997	445.56
377.222	424.56
377.448	433.56
377.674	436.56
377.899	442.56
378.125	450.56
378.35	428.56
378.576	438.56
378.802	427.56
379.027	443.56
379.253	435.56
379.478	424.56
379.704	426.56
379.929	441.56
380.155	443.56
380.38	427.56
380.606	428.56
380.831	423.56
381.057	445.56
381.282	449.56
381.507	435.56
381.733	435.56
381.958	439.56
382.184	442.56
382.409	455.56
382.634	453.56
382.86	451.56
383.085	448.56
383.31	442.56
383.535	471.56
383.761	434.56
383.986	457.56
384.211	465.56
384.436	487.56
384.662	455.56
384.887	473.56
385.112	473.56
385.337	464.56
385.562	468.56
385.787	471.56
386.013	489.56
386.238	495.56
386.463	495.56
386.688	482.56
386.913	487.56
387.138	492.56
387.363	473.56
387.588	479.56
387.813	467.56
388.038	476.56
388.263	474.56
388.488	474.56
388.713	499.56
388.938	490.56
389.163	497.56
389.387	481.56
389.612	489.56
389.837	495.56
390.062	481.56
390.287	479.56
390.512	476.56
390.736	475.56
390.961	487.56
391.186	497.56
391.411	503.56
391.636	484.56
391.86	503.56
392.085	490.56
392.31	505.56
392.534	519.56
392.759	504.56
392.984	510.56
393.208	477.56
393.433	481.56
393.658	506.56
393.882	488.56
394.107	492.56
394.331	495.56
394.556	494.56
394.78	496.56
395.005	504.56
395.229	492.56
395.454	482.56
395.678	534.56
395.903	539.56
396.127	539.56
396.352	548.56
396.576	508.56
396.801	492.56
397.025	520.56
397.249	524.56
397.474	503.56
397.698	526.56
397.922	531.56
398.147	547.56
398.371	555.56
398.595	559.56
398.82	573.56
399.044	597.56
399.268	587.56
399.492	630.56
399.717	689.56
399.941	725.56
400.165	744.56
400.389	712.56
400.613	632.56
400.837	601.56
401.062	573.56
401.286	562.56
401.51	594.56
401.734	564.56
401.958	567.56
402.182	590.56
402.406	603.56
402.63	595.56
402.854	601.56
403.078	597.56
403.302	589.56
403.526	599.56
403.75	604.56
403.974	606.56
404.198	609.56
404.422	584.56
404.645	598.56
404.869	615.56
405.093	637.56
405.317	685.56
405.541	732.56
405.765	672.56
405.988	625.56
406.212	631.56
406.436	637.56
406.66	659.56
406.883	643.56
407.107	647.56
407.331	715.56
407.555	788.56
407.778	759.56
408.002	729.56
408.226	665.56
408.449	664.56
408.673	648.56
408.896	675.56
409.12	701.56
409.344	665.56
409.567	619.56
409.791	599.56
410.014	593.56
410.238	608.56
410.461	603.56
410.685	611.56
410.908	613.56
411.132	638.56
411.355	634.56
411.578	632.56
411.802	620.56
412.025	596.56
412.249	588.56
412.472	632.56
412.695	665.56
412.919	649.56
413.142	610.56
413.365	566.56
413.589	601.56
413.812	554.56
414.035	561.56
414.258	579.56
414.482	591.56
414.705	574.56
414.928	563.56
415.151	543.56
415.374	572.56
415.597	553.56
415.821	554.56
416.044	541.56
416.267	541.56
416.49	550.56
416.713	538.56
416.936	552.56
417.159	537.56
417.382	567.56
417.605	567.56
417.828	564.56
418.051	590.56
418.274	575.56
418.497	555.56
418.72	563.56
418.943	549.56
419.166	602.56
419.389	612.56
419.611	604.56
419.834	603.56
420.057	576.56
420.28	608.56
420.503	596.56
420.726	582.56
420.948	593.56
421.171	647.56
421.394	679.56
421.617	592.56
421.839	571.56
422.062	604.56
422.285	591.56
422.507	653.56
422.73	721.56
422.953	718.56
423.175	637.56
423.398	604.56
423.621	601.56
423.843	633.56
424.066	633.56
424.288	617.56
424.511	640.56
424.733	700.56
424.956	757.56
425.178	734.56
425.401	751.56
425.623	763.56
425.846	669.56
426.068	603.56
426.291	621.56
426.513	634.56
426.735	619.56
426.958	659.56
427.18	731.56
427.402	863.56
427.625	951.56
427.847	841.56
428.069	727.56
428.292	654.56
428.514	604.56
428.736	590.56
428.958	585.56
429.181	560.56
429.403	552.56
429.625	580.56
429.847	617.56
430.069	675.56
430.292	648.56
430.514	579.56
430.736	563.56
430.958	559.56
431.18	551.56
431.402	517.56
431.624	526.56
431.846	543.56
432.068	549.56
432.29	536.56
432.512	539.56
432.734	552.56
432.956	558.56
433.178	545.56
433.4	558.56
433.622	575.56
433.844	540.56
434.066	530.56
434.287	550.56
434.509	530.56
434.731	568.56
434.953	574.56
435.175	604.56
435.397	616.56
435.618	631.56
435.84	643.56
436.062	749.56
436.284	808.56
436.505	665.56
436.727	619.56
436.949	571.56
437.17	563.56
437.392	562.56
437.614	567.56
437.835	590.56
438.057	662.56
438.278	817.56
438.5	800.56
438.721	895.56
438.943	852.56
439.165	669.56
439.386	638.56
439.608	603.56
439.829	611.56
440.05	649.56
440.272	657.56
440.493	632.56
440.715	600.56
440.936	597.56
441.158	572.56
441.379	572.56
441.6	604.56
441.822	611.56
442.043	666.56
442.264	765.56
442.486	772.56
442.707	658.56
442.928	624.56
443.149	626.56
443.371	665.56
443.592	674.56
443.813	805.56
444.034	858.56
444.255	698.56
444.476	644.56
444.698	637.56
444.919	651.56
445.14	749.56
445.361	703.56
445.582	669.56
445.803	717.56
446.024	816.56
446.245	836.56
446.466	771.56
446.687	689.56
446.908	619.56
447.129	578.56
447.35	563.56
447.571	556.56
447.792	543.56
448.013	567.56
448.234	570.56
448.455	620.56
448.675	733.56
448.896	850.56
449.117	711.56
449.338	693.56
449.559	781.56
449.779	908.56
450	732.56
450.221	606.56
450.442	567.56
450.662	543.56
450.883	547.56
451.104	542.56
451.324	542.56
451.545	504.56
451.766	504.56
451.986	528.56
452.207	491.56
452.428	499.56
452.648	515.56
452.869	504.56
453.089	483.56
453.31	533.56
453.53	511.56
453.751	502.56
453.971	499.56
454.192	507.56
454.412	514.56
454.633	503.56
454.853	495.56
455.073	506.56
455.294	508.56
455.514	585.56
455.734	571.56
455.955	509.56
456.175	490.56
456.395	468.56
456.616	476.56
456.836	457.56
457.056	479.56
457.276	475.56
457.497	479.56
457.717	478.56
457.937	491.56
458.157	493.56
458.377	481.56
458.598	513.56
458.818	561.56
459.038	626.56
459.258	661.56
459.478	564.56
459.698	547.56
459.918	537.56
460.138	550.56
460.358	570.56
460.578	571.56
460.798	565.56
461.018	564.56
461.238	553.56
461.458	580.56
461.678	553.56
461.898	559.56
462.118	544.56
462.338	582.56
462.558	572.56
462.777	616.56
462.997	619.56
463.217	644.56
463.437	641.56
463.657	608.56
463.876	598.56
464.096	590.56
464.316	606.56
464.536	618.56
464.755	592.56
464.975	602.56
465.195	607.56
465.414	652.56
465.634	599.56
465.854	568.56
466.073	553.56
466.293	513.56
466.512	526.56
466.732	519.56
466.951	512.56
467.171	521.56
467.391	531.56
467.61	525.56
467.829	529.56
468.049	519.56
468.268	535.56
468.488	515.56
468.707	509.56
468.927	510.56
469.146	514.56
469.365	523.56
469.585	515.56
469.804	520.56
470.023	525.56
470.243	525.56
470.462	560.56
470.681	545.56
470.901	537.56
471.12	522.56
471.339	523.56
471.558	554.56
471.777	506.56
471.997	484.56
472.216	539.56
472.435	539.56
472.654	539.56
472.873	514.56
473.092	514.56
473.311	505.56
473.53	507.56
473.749	541.56
473.968	574.56
474.187	678.56
474.406	708.56
474.625	583.56
474.844	533.56
475.063	523.56
475.282	539.56
475.501	529.56
475.72	525.56
475.939	533.56
476.158	532.56
476.377	550.56
476.596	550.56
476.814	541.56
477.033	547.56
477.252	552.56
477.471	535.56
477.69	563.56
477.908	568.56
478.127	601.56
478.346	572.56
478.564	585.56
478.783	626.56
479.002	598.56
479.22	619.56
479.439	629.56
479.658	631.56
479.876	611.56
480.095	652.56
480.313	675.56
480.532	657.56
480.751	655.56
480.969	653.56
481.188	691.56
481.406	745.56
481.624	680.56
481.843	648.56
482.061	643.56
482.28	603.56
482.498	634.56
482.717	609.56
482.935	633.56
483.153	613.56
483.372	620.56
483.59	604.56
483.808	621.56
484.027	614.56
484.245	620.56
484.463	624.56
484.681	621.56
484.9	649.56
485.118	636.56
485.336	634.56
485.554	654.56
485.772	609.56
485.99	619.56
486.209	624.56
486.427	631.56
486.645	674.56
486.863	655.56
487.081	644.56
487.299	662.56
487.517	659.56
487.735	635.56
487.953	674.56
488.171	675.56
488.389	668.56
488.607	634.56
488.825	653.56
489.043	663.56
489.261	671.56
489.479	656.56
489.696	670.56
489.914	690.56
490.132	716.56
490.35	676.56
490.568	684.56
490.786	703.56
491.003	739.56
491.221	741.56
491.439	739.56
491.657	728.56
491.874	772.56
492.092	744.56
492.31	762.56
492.527	772.56
492.745	754.56
492.963	765.56
493.18	764.56
493.398	787.56
493.615	779.56
493.833	785.56
494.05	771.56
494.268	760.56
494.485	779.56
494.703	795.56
494.92	800.56
495.138	795.56
495.355	807.56
495.573	799.56
495.79	800.56
496.008	796.56
496.225	781.56
496.442	782.56
496.66	778.56
496.877	794.56
497.094	800.56
497.312	801.56
497.529	810.56
497.746	825.56
497.963	853.56
498.181	856.56
498.398	851.56
498.615	894.56
498.832	917.56
499.049	948.56
499.267	960.56
499.484	962.56
499.701	1060.56
499.918	1100.56
500.135	1169.56
500.352	1241.56
500.569	1229.56
500.786	1245.56
501.003	1239.56
501.22	1142.56
501.437	1136.56
501.654	1104.56
