Data from 1975.PennyLincolnUp.Lamp.En5.5.200Scan.071719.P1.Changed Mount._HRD10591_15-58-01-861.txt Node
Date: Thu Jul 18 15:58:01 EDT 2019
User: cochatt
Spectrometer: HR+D1059
Trigger mode: 1
Integration Time (sec): 1.000000E-1
Scans to average: 1
Electric dark correction enabled: true
Nonlinearity correction enabled: false
Boxcar width: 0
XAxis mode: Wavelengths
Number of Pixels in Spectrum: 2048
>>>>>Begin Spectral Data<<<<<
223.165	-9.19
223.4	-9.19
223.635	-9.19
223.869	-25.19
224.104	-0.19
224.338	-8.19
224.573	-15.19
224.808	-10.19
225.042	-21.19
225.277	1.81
225.511	-8.19
225.746	7.81
225.98	3.81
226.215	9.81
226.449	4.81
226.683	13.81
226.918	18.81
227.152	36.81
227.387	21.81
227.621	24.81
227.856	29.81
228.09	40.81
228.324	45.81
228.559	44.81
228.793	77.81
229.027	108.81
229.262	104.81
229.496	117.81
229.73	124.81
229.964	172.81
230.199	126.81
230.433	110.81
230.667	123.81
230.901	103.81
231.136	101.81
231.37	118.81
231.604	100.81
231.838	100.81
232.072	131.81
232.306	115.81
232.541	112.81
232.775	120.81
233.009	101.81
233.243	116.81
233.477	121.81
233.711	132.81
233.945	113.81
234.179	113.81
234.413	119.81
234.647	124.81
234.881	120.81
235.115	127.81
235.349	116.81
235.583	118.81
235.817	124.81
236.051	133.81
236.285	124.81
236.519	127.81
236.753	120.81
236.987	154.81
237.221	182.81
237.455	251.81
237.689	205.81
237.922	132.81
238.156	146.81
238.39	119.81
238.624	129.81
238.858	121.81
239.091	130.81
239.325	137.81
239.559	145.81
239.793	125.81
240.027	129.81
240.26	155.81
240.494	156.81
240.728	154.81
240.961	166.81
241.195	145.81
241.429	154.81
241.662	141.81
241.896	137.81
242.13	144.81
242.363	149.81
242.597	142.81
242.83	139.81
243.064	125.81
243.298	154.81
243.531	131.81
243.765	149.81
243.998	160.81
244.232	130.81
244.465	150.81
244.699	144.81
244.932	147.81
245.166	162.81
245.399	142.81
245.633	156.81
245.866	145.81
246.099	149.81
246.333	154.81
246.566	167.81
246.8	162.81
247.033	147.81
247.266	134.81
247.5	152.81
247.733	182.81
247.966	172.81
248.2	185.81
248.433	169.81
248.666	163.81
248.899	195.81
249.133	197.81
249.366	212.81
249.599	197.81
249.832	184.81
250.066	180.81
250.299	186.81
250.532	201.81
250.765	213.81
250.998	252.81
251.231	232.81
251.465	219.81
251.698	211.81
251.931	205.81
252.164	199.81
252.397	214.81
252.63	191.81
252.863	217.81
253.096	194.81
253.329	231.81
253.562	229.81
253.795	222.81
254.028	228.81
254.261	245.81
254.494	225.81
254.727	259.81
254.96	284.81
255.193	269.81
255.426	253.81
255.659	250.81
255.892	253.81
256.124	247.81
256.357	259.81
256.59	244.81
256.823	233.81
257.056	208.81
257.289	219.81
257.521	214.81
257.754	212.81
257.987	227.81
258.22	223.81
258.452	214.81
258.685	201.81
258.918	217.81
259.151	212.81
259.383	211.81
259.616	219.81
259.849	229.81
260.081	237.81
260.314	270.81
260.547	287.81
260.779	255.81
261.012	237.81
261.244	234.81
261.477	220.81
261.71	213.81
261.942	229.81
262.175	239.81
262.407	246.81
262.64	223.81
262.872	234.81
263.105	212.81
263.337	227.81
263.57	234.81
263.802	208.81
264.035	212.81
264.267	240.81
264.499	234.81
264.732	208.81
264.964	239.81
265.197	230.81
265.429	223.81
265.661	213.81
265.894	220.81
266.126	221.81
266.358	244.81
266.591	215.81
266.823	225.81
267.055	249.81
267.287	220.81
267.52	257.81
267.752	228.81
267.984	243.81
268.216	236.81
268.448	252.81
268.681	228.81
268.913	261.81
269.145	253.81
269.377	293.81
269.609	276.81
269.841	282.81
270.073	288.81
270.306	292.81
270.538	315.81
270.77	325.81
271.002	309.81
271.234	306.81
271.466	311.81
271.698	301.81
271.93	329.81
272.162	324.81
272.394	335.81
272.626	319.81
272.858	308.81
273.09	285.81
273.322	291.81
273.553	283.81
273.785	276.81
274.017	275.81
274.249	278.81
274.481	269.81
274.713	281.81
274.945	281.81
275.176	288.81
275.408	265.81
275.64	289.81
275.872	269.81
276.104	276.81
276.335	264.81
276.567	277.81
276.799	296.81
277.031	322.81
277.262	328.81
277.494	338.81
277.726	318.81
277.957	301.81
278.189	300.81
278.421	289.81
278.652	273.81
278.884	287.81
279.115	288.81
279.347	295.81
279.579	298.81
279.81	271.81
280.042	275.81
280.273	288.81
280.505	303.81
280.736	286.81
280.968	292.81
281.199	291.81
281.431	290.81
281.662	283.81
281.894	276.81
282.125	284.81
282.356	291.81
282.588	315.81
282.819	320.81
283.051	293.81
283.282	308.81
283.513	305.81
283.745	296.81
283.976	313.81
284.207	327.81
284.439	316.81
284.67	313.81
284.901	293.81
285.132	303.81
285.364	311.81
285.595	292.81
285.826	299.81
286.057	297.81
286.288	301.81
286.52	292.81
286.751	304.81
286.982	317.81
287.213	305.81
287.444	308.81
287.675	308.81
287.906	291.81
288.138	319.81
288.369	337.81
288.6	308.81
288.831	324.81
289.062	314.81
289.293	331.81
289.524	327.81
289.755	296.81
289.986	303.81
290.217	308.81
290.448	313.81
290.679	313.81
290.91	321.81
291.141	324.81
291.371	310.81
291.602	313.81
291.833	303.81
292.064	293.81
292.295	310.81
292.526	297.81
292.757	312.81
292.987	320.81
293.218	318.81
293.449	308.81
293.68	311.81
293.91	329.81
294.141	335.81
294.372	326.81
294.603	311.81
294.833	283.81
295.064	323.81
295.295	323.81
295.525	319.81
295.756	311.81
295.987	319.81
296.217	323.81
296.448	345.81
296.679	332.81
296.909	319.81
297.14	312.81
297.37	342.81
297.601	331.81
297.831	340.81
298.062	332.81
298.292	331.81
298.523	343.81
298.753	330.81
298.984	318.81
299.214	349.81
299.445	320.81
299.675	321.81
299.905	324.81
300.136	330.81
300.366	335.81
300.597	345.81
300.827	346.81
301.057	354.81
301.288	332.81
301.518	324.81
301.748	357.81
301.979	353.81
302.209	337.81
302.439	337.81
302.669	339.81
302.9	344.81
303.13	354.81
303.36	364.81
303.59	345.81
303.82	359.81
304.051	370.81
304.281	371.81
304.511	337.81
304.741	343.81
304.971	360.81
305.201	335.81
305.431	339.81
305.661	358.81
305.891	343.81
306.121	333.81
306.352	359.81
306.582	348.81
306.812	357.81
307.042	338.81
307.272	342.81
307.502	347.81
307.731	346.81
307.961	361.81
308.191	347.81
308.421	340.81
308.651	359.81
308.881	363.81
309.111	343.81
309.341	373.81
309.571	348.81
309.8	356.81
310.03	388.81
310.26	383.81
310.49	365.81
310.72	369.81
310.949	387.81
311.179	388.81
311.409	378.81
311.639	380.81
311.868	380.81
312.098	399.81
312.328	415.81
312.557	410.81
312.787	419.81
313.017	417.81
313.246	390.81
313.476	411.81
313.706	383.81
313.935	399.81
314.165	414.81
314.394	396.81
314.624	408.81
314.853	406.81
315.083	403.81
315.312	401.81
315.542	406.81
315.771	397.81
316.001	389.81
316.23	395.81
316.46	391.81
316.689	403.81
316.919	414.81
317.148	401.81
317.377	412.81
317.607	392.81
317.836	390.81
318.065	397.81
318.295	403.81
318.524	386.81
318.753	388.81
318.983	403.81
319.212	368.81
319.441	401.81
319.67	413.81
319.9	413.81
320.129	379.81
320.358	370.81
320.587	397.81
320.816	417.81
321.046	416.81
321.275	423.81
321.504	397.81
321.733	386.81
321.962	411.81
322.191	418.81
322.42	447.81
322.649	439.81
322.878	455.81
323.108	449.81
323.337	460.81
323.566	482.81
323.795	507.81
324.024	541.81
324.253	616.81
324.482	856.81
324.71	1306.81
324.939	2028.81
325.168	1755.81
325.397	887.81
325.626	627.81
325.855	522.81
326.084	499.81
326.313	508.81
326.542	510.81
326.77	552.81
326.999	598.81
327.228	804.81
327.457	1189.81
327.686	1510.81
327.914	996.81
328.143	652.81
328.372	601.81
328.6	556.81
328.829	541.81
329.058	554.81
329.287	543.81
329.515	553.81
329.744	508.81
329.972	515.81
330.201	533.81
330.43	552.81
330.658	585.81
330.887	591.81
331.115	569.81
331.344	544.81
331.572	472.81
331.801	501.81
332.03	521.81
332.258	500.81
332.486	471.81
332.715	486.81
332.943	489.81
333.172	500.81
333.4	490.81
333.629	519.81
333.857	525.81
334.085	515.81
334.314	531.81
334.542	572.81
334.771	587.81
334.999	545.81
335.227	518.81
335.455	506.81
335.684	477.81
335.912	472.81
336.14	479.81
336.369	473.81
336.597	474.81
336.825	479.81
337.053	483.81
337.281	465.81
337.51	459.81
337.738	461.81
337.966	477.81
338.194	484.81
338.422	493.81
338.65	456.81
338.878	450.81
339.106	459.81
339.334	451.81
339.562	452.81
339.79	450.81
340.018	449.81
340.246	429.81
340.474	457.81
340.702	466.81
340.93	456.81
341.158	447.81
341.386	470.81
341.614	461.81
341.842	438.81
342.07	451.81
342.298	455.81
342.526	445.81
342.754	452.81
342.981	441.81
343.209	443.81
343.437	461.81
343.665	468.81
343.893	481.81
344.12	499.81
344.348	475.81
344.576	475.81
344.804	482.81
345.031	467.81
345.259	475.81
345.487	470.81
345.714	457.81
345.942	450.81
346.17	441.81
346.397	455.81
346.625	444.81
346.853	437.81
347.08	427.81
347.308	435.81
347.535	431.81
347.763	451.81
347.99	449.81
348.218	455.81
348.445	440.81
348.673	429.81
348.9	445.81
349.128	426.81
349.355	432.81
349.583	443.81
349.81	440.81
350.037	427.81
350.265	415.81
350.492	438.81
350.72	451.81
350.947	448.81
351.174	426.81
351.402	418.81
351.629	423.81
351.856	433.81
352.083	435.81
352.311	427.81
352.538	423.81
352.765	432.81
352.992	449.81
353.22	443.81
353.447	424.81
353.674	407.81
353.901	406.81
354.128	418.81
354.355	417.81
354.583	423.81
354.81	422.81
355.037	416.81
355.264	404.81
355.491	457.81
355.718	417.81
355.945	417.81
356.172	419.81
356.399	401.81
356.626	422.81
356.853	412.81
357.08	413.81
357.307	404.81
357.534	398.81
357.761	413.81
357.988	428.81
358.215	416.81
358.441	395.81
358.668	417.81
358.895	416.81
359.122	424.81
359.349	420.81
359.576	435.81
359.802	461.81
360.029	490.81
360.256	477.81
360.483	458.81
360.709	426.81
360.936	435.81
361.163	438.81
361.39	445.81
361.616	438.81
361.843	429.81
362.07	435.81
362.296	452.81
362.523	432.81
362.749	440.81
362.976	420.81
363.203	437.81
363.429	449.81
363.656	436.81
363.882	426.81
364.109	421.81
364.335	425.81
364.562	418.81
364.788	418.81
365.015	433.81
365.241	422.81
365.468	437.81
365.694	435.81
365.92	427.81
366.147	424.81
366.373	422.81
366.599	422.81
366.826	411.81
367.052	415.81
367.278	407.81
367.505	420.81
367.731	437.81
367.957	427.81
368.184	426.81
368.41	433.81
368.636	427.81
368.862	437.81
369.089	453.81
369.315	416.81
369.541	422.81
369.767	407.81
369.993	421.81
370.219	441.81
370.445	425.81
370.672	416.81
370.898	406.81
371.124	415.81
371.35	424.81
371.576	420.81
371.802	419.81
372.028	451.81
372.254	429.81
372.48	426.81
372.706	448.81
372.932	453.81
373.158	445.81
373.384	453.81
373.61	429.81
373.835	448.81
374.061	452.81
374.287	429.81
374.513	433.81
374.739	435.81
374.965	448.81
375.191	461.81
375.416	451.81
375.642	432.81
375.868	467.81
376.094	437.81
376.319	442.81
376.545	435.81
376.771	435.81
376.997	431.81
377.222	435.81
377.448	440.81
377.674	450.81
377.899	440.81
378.125	430.81
378.35	433.81
378.576	417.81
378.802	435.81
379.027	423.81
379.253	431.81
379.478	423.81
379.704	439.81
379.929	440.81
380.155	426.81
380.38	418.81
380.606	435.81
380.831	418.81
381.057	438.81
381.282	415.81
381.507	428.81
381.733	446.81
381.958	420.81
382.184	442.81
382.409	451.81
382.634	470.81
382.86	443.81
383.085	447.81
383.31	455.81
383.535	436.81
383.761	466.81
383.986	452.81
384.211	453.81
384.436	476.81
384.662	476.81
384.887	470.81
385.112	499.81
385.337	482.81
385.562	464.81
385.787	478.81
386.013	500.81
386.238	485.81
386.463	488.81
386.688	497.81
386.913	476.81
387.138	495.81
387.363	482.81
387.588	474.81
387.813	477.81
388.038	465.81
388.263	492.81
388.488	475.81
388.713	488.81
388.938	483.81
389.163	496.81
389.387	488.81
389.612	477.81
389.837	496.81
390.062	481.81
390.287	485.81
390.512	490.81
390.736	476.81
390.961	474.81
391.186	487.81
391.411	496.81
391.636	508.81
391.86	520.81
392.085	518.81
392.31	492.81
392.534	523.81
392.759	524.81
392.984	480.81
393.208	475.81
393.433	464.81
393.658	489.81
393.882	486.81
394.107	495.81
394.331	505.81
394.556	491.81
394.78	499.81
395.005	476.81
395.229	499.81
395.454	527.81
395.678	529.81
395.903	521.81
396.127	555.81
396.352	549.81
396.576	523.81
396.801	514.81
397.025	513.81
397.249	504.81
397.474	503.81
397.698	515.81
397.922	549.81
398.147	559.81
398.371	554.81
398.595	535.81
398.82	564.81
399.044	598.81
399.268	621.81
399.492	646.81
399.717	671.81
399.941	699.81
400.165	723.81
400.389	721.81
400.613	651.81
400.837	597.81
401.062	589.81
401.286	585.81
401.51	569.81
401.734	553.81
401.958	569.81
402.182	550.81
402.406	597.81
402.63	603.81
402.854	605.81
403.078	602.81
403.302	604.81
403.526	607.81
403.75	619.81
403.974	576.81
404.198	591.81
404.422	625.81
404.645	596.81
404.869	606.81
405.093	645.81
405.317	691.81
405.541	710.81
405.765	665.81
405.988	636.81
406.212	625.81
406.436	648.81
406.66	639.81
406.883	665.81
407.107	681.81
407.331	704.81
407.555	804.81
407.778	783.81
408.002	710.81
408.226	678.81
408.449	652.81
408.673	635.81
408.896	691.81
409.12	714.81
409.344	676.81
409.567	635.81
409.791	611.81
410.014	591.81
410.238	597.81
410.461	587.81
410.685	601.81
410.908	613.81
411.132	625.81
411.355	671.81
411.578	648.81
411.802	602.81
412.025	597.81
412.249	591.81
412.472	639.81
412.695	693.81
412.919	680.81
413.142	616.81
413.365	580.81
413.589	579.81
413.812	578.81
414.035	578.81
414.258	585.81
414.482	552.81
414.705	556.81
414.928	565.81
415.151	551.81
415.374	536.81
415.597	573.81
415.821	562.81
416.044	584.81
416.267	565.81
416.49	526.81
416.713	563.81
416.936	568.81
417.159	556.81
417.382	553.81
417.605	570.81
417.828	568.81
418.051	585.81
418.274	548.81
418.497	553.81
418.72	549.81
418.943	566.81
419.166	577.81
419.389	609.81
419.611	600.81
419.834	588.81
420.057	613.81
420.28	601.81
420.503	603.81
420.726	578.81
420.948	605.81
421.171	630.81
421.394	677.81
421.617	621.81
421.839	596.81
422.062	577.81
422.285	588.81
422.507	636.81
422.73	707.81
422.953	715.81
423.175	632.81
423.398	636.81
423.621	601.81
423.843	613.81
424.066	630.81
424.288	638.81
424.511	658.81
424.733	698.81
424.956	791.81
425.178	764.81
425.401	747.81
425.623	769.81
425.846	652.81
426.068	615.81
426.291	597.81
426.513	591.81
426.735	633.81
426.958	668.81
427.18	728.81
427.402	906.81
427.625	973.81
427.847	849.81
428.069	735.81
428.292	661.81
428.514	601.81
428.736	583.81
428.958	573.81
429.181	580.81
429.403	563.81
429.625	567.81
429.847	619.81
430.069	673.81
430.292	687.81
430.514	592.81
430.736	569.81
430.958	569.81
431.18	542.81
431.402	545.81
431.624	531.81
431.846	540.81
432.068	554.81
432.29	543.81
432.512	547.81
432.734	567.81
432.956	562.81
433.178	556.81
433.4	550.81
433.622	545.81
433.844	547.81
434.066	548.81
434.287	547.81
434.509	551.81
434.731	572.81
434.953	573.81
435.175	591.81
435.397	609.81
435.618	628.81
435.84	655.81
436.062	712.81
436.284	807.81
436.505	683.81
436.727	611.81
436.949	553.81
437.17	569.81
437.392	584.81
437.614	551.81
437.835	617.81
438.057	715.81
438.278	811.81
438.5	812.81
438.721	889.81
438.943	856.81
439.165	691.81
439.386	623.81
439.608	632.81
439.829	635.81
440.05	645.81
440.272	679.81
440.493	644.81
440.715	600.81
440.936	575.81
441.158	584.81
441.379	585.81
441.6	609.81
441.822	578.81
442.043	661.81
442.264	758.81
442.486	783.81
442.707	687.81
442.928	630.81
443.149	646.81
443.371	660.81
443.592	704.81
443.813	791.81
444.034	877.81
444.255	728.81
444.476	676.81
444.698	649.81
444.919	639.81
445.14	755.81
445.361	683.81
445.582	660.81
445.803	735.81
446.024	837.81
446.245	837.81
446.466	767.81
446.687	645.81
446.908	641.81
447.129	586.81
447.35	572.81
447.571	579.81
447.792	539.81
448.013	579.81
448.234	590.81
448.455	650.81
448.675	742.81
448.896	892.81
449.117	746.81
449.338	703.81
449.559	796.81
449.779	923.81
450	714.81
450.221	606.81
450.442	569.81
450.662	546.81
450.883	555.81
451.104	564.81
451.324	529.81
451.545	524.81
451.766	522.81
451.986	513.81
452.207	503.81
452.428	483.81
452.648	484.81
452.869	490.81
453.089	521.81
453.31	531.81
453.53	527.81
453.751	509.81
453.971	523.81
454.192	524.81
454.412	498.81
454.633	483.81
454.853	493.81
455.073	476.81
455.294	533.81
455.514	597.81
455.734	575.81
455.955	488.81
456.175	473.81
456.395	459.81
456.616	473.81
456.836	465.81
457.056	482.81
457.276	467.81
457.497	479.81
457.717	488.81
457.937	498.81
458.157	481.81
458.377	515.81
458.598	503.81
458.818	563.81
459.038	640.81
459.258	646.81
459.478	579.81
459.698	555.81
459.918	542.81
460.138	536.81
460.358	547.81
460.578	554.81
460.798	573.81
461.018	549.81
461.238	563.81
461.458	559.81
461.678	571.81
461.898	557.81
462.118	563.81
462.338	579.81
462.558	590.81
462.777	615.81
462.997	626.81
463.217	639.81
463.437	665.81
463.657	622.81
463.876	617.81
464.096	618.81
464.316	598.81
464.536	602.81
464.755	626.81
464.975	618.81
465.195	628.81
465.414	665.81
465.634	603.81
465.854	570.81
466.073	535.81
466.293	511.81
466.512	539.81
466.732	523.81
466.951	521.81
467.171	527.81
467.391	533.81
467.61	545.81
467.829	538.81
468.049	534.81
468.268	542.81
468.488	516.81
468.707	504.81
468.927	504.81
469.146	515.81
469.365	515.81
469.585	508.81
469.804	536.81
470.023	518.81
470.243	546.81
470.462	521.81
470.681	555.81
470.901	550.81
471.12	519.81
471.339	539.81
471.558	550.81
471.777	519.81
471.997	507.81
472.216	523.81
472.435	553.81
472.654	560.81
472.873	541.81
473.092	526.81
473.311	519.81
473.53	545.81
473.749	539.81
473.968	593.81
474.187	661.81
474.406	697.81
474.625	574.81
474.844	527.81
475.063	526.81
475.282	533.81
475.501	527.81
475.72	523.81
475.939	544.81
476.158	547.81
476.377	541.81
476.596	516.81
476.814	537.81
477.033	552.81
477.252	553.81
477.471	563.81
477.69	577.81
477.908	583.81
478.127	589.81
478.346	601.81
478.564	607.81
478.783	606.81
479.002	600.81
479.22	604.81
479.439	604.81
479.658	632.81
479.876	625.81
480.095	649.81
480.313	672.81
480.532	671.81
480.751	633.81
480.969	652.81
481.188	703.81
481.406	757.81
481.624	690.81
481.843	648.81
482.061	639.81
482.28	650.81
482.498	632.81
482.717	601.81
482.935	605.81
483.153	592.81
483.372	619.81
483.59	612.81
483.808	594.81
484.027	604.81
484.245	619.81
484.463	611.81
484.681	612.81
484.9	629.81
485.118	649.81
485.336	640.81
485.554	654.81
485.772	671.81
485.99	634.81
486.209	665.81
486.427	643.81
486.645	633.81
486.863	662.81
487.081	667.81
487.299	663.81
487.517	668.81
487.735	668.81
487.953	634.81
488.171	656.81
488.389	657.81
488.607	671.81
488.825	653.81
489.043	663.81
489.261	683.81
489.479	684.81
489.696	668.81
489.914	675.81
490.132	683.81
490.35	710.81
490.568	679.81
490.786	712.81
491.003	727.81
491.221	734.81
491.439	748.81
491.657	732.81
491.874	743.81
492.092	773.81
492.31	754.81
492.527	793.81
492.745	761.81
492.963	748.81
493.18	783.81
493.398	791.81
493.615	779.81
493.833	785.81
494.05	759.81
494.268	744.81
494.485	761.81
494.703	780.81
494.92	797.81
495.138	782.81
495.355	787.81
495.573	753.81
495.79	781.81
496.008	804.81
496.225	782.81
496.442	797.81
496.66	786.81
496.877	817.81
497.094	792.81
497.312	803.81
497.529	803.81
497.746	835.81
497.963	854.81
498.181	881.81
498.398	888.81
498.615	908.81
498.832	933.81
499.049	922.81
499.267	996.81
499.484	1028.81
499.701	1061.81
499.918	1116.81
500.135	1187.81
500.352	1213.81
500.569	1250.81
500.786	1239.81
501.003	1263.81
501.22	1202.81
501.437	1143.81
501.654	1091.81
