Data from 1975.PennyLincolnUp.Lamp.En5.5.200Scan.071719.P1.Changed Mount._HRD10591_15-55-43-858.txt Node
Date: Thu Jul 18 15:55:43 EDT 2019
User: cochatt
Spectrometer: HR+D1059
Trigger mode: 1
Integration Time (sec): 1.000000E-1
Scans to average: 1
Electric dark correction enabled: true
Nonlinearity correction enabled: false
Boxcar width: 0
XAxis mode: Wavelengths
Number of Pixels in Spectrum: 2048
>>>>>Begin Spectral Data<<<<<
223.165	2.31
223.4	2.31
223.635	2.31
223.869	-16.69
224.104	-21.69
224.338	-6.69
224.573	-5.69
224.808	-25.69
225.042	-6.69
225.277	-15.69
225.511	2.31
225.746	13.31
225.98	8.31
226.215	7.31
226.449	11.31
226.683	15.31
226.918	5.31
227.152	33.31
227.387	36.31
227.621	37.31
227.856	41.31
228.09	47.31
228.324	35.31
228.559	55.31
228.793	55.31
229.027	94.31
229.262	92.31
229.496	103.31
229.73	115.31
229.964	139.31
230.199	126.31
230.433	99.31
230.667	103.31
230.901	115.31
231.136	109.31
231.37	120.31
231.604	110.31
231.838	110.31
232.072	98.31
232.306	107.31
232.541	105.31
232.775	123.31
233.009	124.31
233.243	110.31
233.477	114.31
233.711	124.31
233.945	110.31
234.179	110.31
234.413	107.31
234.647	124.31
234.881	114.31
235.115	120.31
235.349	111.31
235.583	115.31
235.817	123.31
236.051	121.31
236.285	117.31
236.519	128.31
236.753	134.31
236.987	129.31
237.221	162.31
237.455	213.31
237.689	168.31
237.922	133.31
238.156	122.31
238.39	124.31
238.624	119.31
238.858	126.31
239.091	119.31
239.325	126.31
239.559	119.31
239.793	132.31
240.027	124.31
240.26	136.31
240.494	154.31
240.728	142.31
240.961	142.31
241.195	135.31
241.429	138.31
241.662	126.31
241.896	136.31
242.13	123.31
242.363	131.31
242.597	136.31
242.83	135.31
243.064	136.31
243.298	135.31
243.531	131.31
243.765	151.31
243.998	134.31
244.232	133.31
244.465	147.31
244.699	154.31
244.932	142.31
245.166	126.31
245.399	141.31
245.633	143.31
245.866	141.31
246.099	138.31
246.333	140.31
246.566	153.31
246.8	159.31
247.033	148.31
247.266	146.31
247.5	157.31
247.733	164.31
247.966	158.31
248.2	178.31
248.433	171.31
248.666	168.31
248.899	169.31
249.133	172.31
249.366	200.31
249.599	198.31
249.832	175.31
250.066	174.31
250.299	165.31
250.532	194.31
250.765	187.31
250.998	212.31
251.231	201.31
251.465	199.31
251.698	201.31
251.931	191.31
252.164	196.31
252.397	191.31
252.63	177.31
252.863	190.31
253.096	214.31
253.329	213.31
253.562	214.31
253.795	191.31
254.028	203.31
254.261	199.31
254.494	211.31
254.727	225.31
254.96	235.31
255.193	250.31
255.426	235.31
255.659	208.31
255.892	218.31
256.124	228.31
256.357	222.31
256.59	210.31
256.823	198.31
257.056	206.31
257.289	213.31
257.521	216.31
257.754	187.31
257.987	203.31
258.22	207.31
258.452	190.31
258.685	197.31
258.918	189.31
259.151	194.31
259.383	219.31
259.616	223.31
259.849	237.31
260.081	226.31
260.314	213.31
260.547	242.31
260.779	233.31
261.012	205.31
261.244	209.31
261.477	208.31
261.71	218.31
261.942	204.31
262.175	228.31
262.407	225.31
262.64	215.31
262.872	207.31
263.105	205.31
263.337	200.31
263.57	213.31
263.802	201.31
264.035	214.31
264.267	206.31
264.499	205.31
264.732	230.31
264.964	198.31
265.197	203.31
265.429	217.31
265.661	216.31
265.894	205.31
266.126	218.31
266.358	207.31
266.591	234.31
266.823	222.31
267.055	218.31
267.287	219.31
267.52	236.31
267.752	213.31
267.984	221.31
268.216	227.31
268.448	224.31
268.681	213.31
268.913	222.31
269.145	264.31
269.377	269.31
269.609	238.31
269.841	252.31
270.073	264.31
270.306	267.31
270.538	286.31
270.77	280.31
271.002	256.31
271.234	271.31
271.466	272.31
271.698	291.31
271.93	308.31
272.162	298.31
272.394	289.31
272.626	291.31
272.858	275.31
273.09	268.31
273.322	263.31
273.553	269.31
273.785	265.31
274.017	243.31
274.249	248.31
274.481	260.31
274.713	258.31
274.945	266.31
275.176	262.31
275.408	248.31
275.64	248.31
275.872	245.31
276.104	259.31
276.335	243.31
276.567	246.31
276.799	258.31
277.031	267.31
277.262	295.31
277.494	288.31
277.726	289.31
277.957	287.31
278.189	257.31
278.421	264.31
278.652	273.31
278.884	267.31
279.115	260.31
279.347	263.31
279.579	258.31
279.81	251.31
280.042	258.31
280.273	262.31
280.505	267.31
280.736	241.31
280.968	264.31
281.199	271.31
281.431	276.31
281.662	260.31
281.894	258.31
282.125	263.31
282.356	276.31
282.588	283.31
282.819	275.31
283.051	282.31
283.282	264.31
283.513	278.31
283.745	271.31
283.976	294.31
284.207	280.31
284.439	286.31
284.67	284.31
284.901	276.31
285.132	253.31
285.364	278.31
285.595	281.31
285.826	258.31
286.057	269.31
286.288	272.31
286.52	282.31
286.751	270.31
286.982	277.31
287.213	278.31
287.444	283.31
287.675	277.31
287.906	285.31
288.138	282.31
288.369	295.31
288.6	303.31
288.831	294.31
289.062	276.31
289.293	282.31
289.524	270.31
289.755	303.31
289.986	295.31
290.217	294.31
290.448	296.31
290.679	298.31
290.91	262.31
291.141	302.31
291.371	271.31
291.602	272.31
291.833	281.31
292.064	292.31
292.295	307.31
292.526	276.31
292.757	291.31
292.987	290.31
293.218	276.31
293.449	294.31
293.68	274.31
293.91	287.31
294.141	294.31
294.372	274.31
294.603	288.31
294.833	306.31
295.064	300.31
295.295	281.31
295.525	284.31
295.756	300.31
295.987	301.31
296.217	326.31
296.448	314.31
296.679	306.31
296.909	292.31
297.14	302.31
297.37	304.31
297.601	294.31
297.831	289.31
298.062	311.31
298.292	289.31
298.523	303.31
298.753	293.31
298.984	280.31
299.214	290.31
299.445	299.31
299.675	285.31
299.905	303.31
300.136	304.31
300.366	298.31
300.597	294.31
300.827	293.31
301.057	291.31
301.288	298.31
301.518	313.31
301.748	325.31
301.979	326.31
302.209	326.31
302.439	340.31
302.669	318.31
302.9	312.31
303.13	317.31
303.36	328.31
303.59	341.31
303.82	330.31
304.051	330.31
304.281	334.31
304.511	321.31
304.741	304.31
304.971	312.31
305.201	311.31
305.431	313.31
305.661	306.31
305.891	316.31
306.121	325.31
306.352	335.31
306.582	313.31
306.812	326.31
307.042	333.31
307.272	342.31
307.502	310.31
307.731	336.31
307.961	327.31
308.191	320.31
308.421	315.31
308.651	334.31
308.881	336.31
309.111	333.31
309.341	325.31
309.571	337.31
309.8	346.31
310.03	325.31
310.26	346.31
310.49	342.31
310.72	339.31
310.949	340.31
311.179	351.31
311.409	351.31
311.639	346.31
311.868	350.31
312.098	361.31
312.328	347.31
312.557	365.31
312.787	356.31
313.017	367.31
313.246	352.31
313.476	336.31
313.706	350.31
313.935	352.31
314.165	354.31
314.394	359.31
314.624	364.31
314.853	346.31
315.083	363.31
315.312	362.31
315.542	343.31
315.771	382.31
316.001	347.31
316.23	365.31
316.46	360.31
316.689	359.31
316.919	363.31
317.148	373.31
317.377	366.31
317.607	356.31
317.836	345.31
318.065	357.31
318.295	358.31
318.524	356.31
318.753	345.31
318.983	357.31
319.212	355.31
319.441	342.31
319.67	371.31
319.9	382.31
320.129	379.31
320.358	374.31
320.587	378.31
320.816	356.31
321.046	380.31
321.275	371.31
321.504	372.31
321.733	370.31
321.962	380.31
322.191	363.31
322.42	378.31
322.649	405.31
322.878	402.31
323.108	377.31
323.337	398.31
323.566	423.31
323.795	426.31
324.024	462.31
324.253	522.31
324.482	717.31
324.71	1062.31
324.939	1579.31
325.168	1364.31
325.397	732.31
325.626	501.31
325.855	423.31
326.084	422.31
326.313	441.31
326.542	414.31
326.77	443.31
326.999	511.31
327.228	663.31
327.457	986.31
327.686	1176.31
327.914	818.31
328.143	554.31
328.372	490.31
328.6	499.31
328.829	479.31
329.058	454.31
329.287	498.31
329.515	454.31
329.744	426.31
329.972	444.31
330.201	454.31
330.43	475.31
330.658	472.31
330.887	511.31
331.115	479.31
331.344	443.31
331.572	434.31
331.801	429.31
332.03	442.31
332.258	439.31
332.486	441.31
332.715	426.31
332.943	420.31
333.172	442.31
333.4	429.31
333.629	450.31
333.857	453.31
334.085	459.31
334.314	471.31
334.542	498.31
334.771	522.31
334.999	470.31
335.227	465.31
335.455	459.31
335.684	445.31
335.912	431.31
336.14	430.31
336.369	426.31
336.597	416.31
336.825	429.31
337.053	425.31
337.281	420.31
337.51	424.31
337.738	431.31
337.966	411.31
338.194	411.31
338.422	427.31
338.65	420.31
338.878	415.31
339.106	428.31
339.334	406.31
339.562	406.31
339.79	407.31
340.018	400.31
340.246	420.31
340.474	406.31
340.702	432.31
340.93	417.31
341.158	417.31
341.386	392.31
341.614	404.31
341.842	419.31
342.07	395.31
342.298	396.31
342.526	400.31
342.754	431.31
342.981	397.31
343.209	404.31
343.437	433.31
343.665	407.31
343.893	430.31
344.12	442.31
344.348	443.31
344.576	443.31
344.804	424.31
345.031	422.31
345.259	418.31
345.487	407.31
345.714	420.31
345.942	398.31
346.17	403.31
346.397	402.31
346.625	398.31
346.853	374.31
347.08	400.31
347.308	408.31
347.535	390.31
347.763	411.31
347.99	402.31
348.218	411.31
348.445	407.31
348.673	400.31
348.9	404.31
349.128	388.31
349.355	393.31
349.583	395.31
349.81	392.31
350.037	383.31
350.265	397.31
350.492	388.31
350.72	369.31
350.947	396.31
351.174	400.31
351.402	386.31
351.629	393.31
351.856	426.31
352.083	401.31
352.311	415.31
352.538	402.31
352.765	406.31
352.992	392.31
353.22	401.31
353.447	398.31
353.674	394.31
353.901	399.31
354.128	408.31
354.355	378.31
354.583	390.31
354.81	404.31
355.037	391.31
355.264	378.31
355.491	372.31
355.718	379.31
355.945	375.31
356.172	396.31
356.399	386.31
356.626	384.31
356.853	392.31
357.08	385.31
357.307	386.31
357.534	399.31
357.761	378.31
357.988	387.31
358.215	394.31
358.441	378.31
358.668	358.31
358.895	404.31
359.122	390.31
359.349	390.31
359.576	391.31
359.802	408.31
360.029	404.31
360.256	435.31
360.483	406.31
360.709	381.31
360.936	412.31
361.163	392.31
361.39	403.31
361.616	389.31
361.843	405.31
362.07	395.31
362.296	389.31
362.523	388.31
362.749	407.31
362.976	382.31
363.203	380.31
363.429	400.31
363.656	385.31
363.882	396.31
364.109	414.31
364.335	390.31
364.562	388.31
364.788	393.31
365.015	390.31
365.241	370.31
365.468	400.31
365.694	386.31
365.92	384.31
366.147	390.31
366.373	388.31
366.599	396.31
366.826	395.31
367.052	379.31
367.278	388.31
367.505	401.31
367.731	397.31
367.957	382.31
368.184	391.31
368.41	383.31
368.636	403.31
368.862	390.31
369.089	404.31
369.315	399.31
369.541	386.31
369.767	406.31
369.993	392.31
370.219	400.31
370.445	395.31
370.672	395.31
370.898	412.31
371.124	391.31
371.35	393.31
371.576	394.31
371.802	385.31
372.028	400.31
372.254	412.31
372.48	392.31
372.706	399.31
372.932	415.31
373.158	413.31
373.384	417.31
373.61	395.31
373.835	406.31
374.061	406.31
374.287	400.31
374.513	408.31
374.739	395.31
374.965	410.31
375.191	428.31
375.416	406.31
375.642	428.31
375.868	402.31
376.094	404.31
376.319	414.31
376.545	390.31
376.771	405.31
376.997	401.31
377.222	404.31
377.448	418.31
377.674	393.31
377.899	394.31
378.125	388.31
378.35	394.31
378.576	391.31
378.802	395.31
379.027	405.31
379.253	390.31
379.478	418.31
379.704	387.31
379.929	404.31
380.155	414.31
380.38	428.31
380.606	401.31
380.831	395.31
381.057	426.31
381.282	397.31
381.507	414.31
381.733	416.31
381.958	409.31
382.184	402.31
382.409	440.31
382.634	428.31
382.86	416.31
383.085	440.31
383.31	450.31
383.535	434.31
383.761	428.31
383.986	435.31
384.211	462.31
384.436	438.31
384.662	437.31
384.887	456.31
385.112	457.31
385.337	467.31
385.562	454.31
385.787	452.31
386.013	480.31
386.238	447.31
386.463	417.31
386.688	471.31
386.913	451.31
387.138	450.31
387.363	438.31
387.588	447.31
387.813	439.31
388.038	458.31
388.263	467.31
388.488	470.31
388.713	475.31
388.938	455.31
389.163	468.31
389.387	466.31
389.612	459.31
389.837	434.31
390.062	438.31
390.287	448.31
390.512	450.31
390.736	442.31
390.961	448.31
391.186	455.31
391.411	455.31
391.636	472.31
391.86	466.31
392.085	463.31
392.31	483.31
392.534	464.31
392.759	472.31
392.984	461.31
393.208	457.31
393.433	461.31
393.658	437.31
393.882	460.31
394.107	438.31
394.331	479.31
394.556	449.31
394.78	436.31
395.005	442.31
395.229	478.31
395.454	489.31
395.678	488.31
395.903	477.31
396.127	504.31
396.352	504.31
396.576	470.31
396.801	481.31
397.025	467.31
397.249	466.31
397.474	485.31
397.698	476.31
397.922	474.31
398.147	490.31
398.371	518.31
398.595	520.31
398.82	533.31
399.044	548.31
399.268	564.31
399.492	590.31
399.717	623.31
399.941	636.31
400.165	666.31
400.389	660.31
400.613	603.31
400.837	571.31
401.062	556.31
401.286	548.31
401.51	540.31
401.734	538.31
401.958	505.31
402.182	538.31
402.406	536.31
402.63	546.31
402.854	549.31
403.078	540.31
403.302	566.31
403.526	549.31
403.75	562.31
403.974	576.31
404.198	556.31
404.422	558.31
404.645	574.31
404.869	560.31
405.093	606.31
405.317	648.31
405.541	646.31
405.765	619.31
405.988	592.31
406.212	579.31
406.436	558.31
406.66	578.31
406.883	566.31
407.107	626.31
407.331	647.31
407.555	727.31
407.778	711.31
408.002	655.31
408.226	612.31
408.449	610.31
408.673	629.31
408.896	631.31
409.12	671.31
409.344	631.31
409.567	568.31
409.791	551.31
410.014	571.31
410.238	548.31
410.461	566.31
410.685	533.31
410.908	567.31
411.132	580.31
411.355	615.31
411.578	588.31
411.802	542.31
412.025	542.31
412.249	566.31
412.472	595.31
412.695	607.31
412.919	612.31
413.142	556.31
413.365	555.31
413.589	533.31
413.812	543.31
414.035	511.31
414.258	528.31
414.482	519.31
414.705	512.31
414.928	512.31
415.151	535.31
415.374	491.31
415.597	495.31
415.821	499.31
416.044	524.31
416.267	541.31
416.49	498.31
416.713	521.31
416.936	513.31
417.159	521.31
417.382	546.31
417.605	508.31
417.828	522.31
418.051	550.31
418.274	539.31
418.497	538.31
418.72	528.31
418.943	501.31
419.166	551.31
419.389	572.31
419.611	558.31
419.834	536.31
420.057	565.31
420.28	564.31
420.503	544.31
420.726	553.31
420.948	554.31
421.171	567.31
421.394	618.31
421.617	572.31
421.839	504.31
422.062	544.31
422.285	555.31
422.507	598.31
422.73	660.31
422.953	637.31
423.175	578.31
423.398	564.31
423.621	552.31
423.843	564.31
424.066	587.31
424.288	578.31
424.511	601.31
424.733	616.31
424.956	710.31
425.178	682.31
425.401	644.31
425.623	704.31
425.846	596.31
426.068	578.31
426.291	536.31
426.513	532.31
426.735	559.31
426.958	600.31
427.18	662.31
427.402	783.31
427.625	845.31
427.847	737.31
428.069	627.31
428.292	589.31
428.514	558.31
428.736	531.31
428.958	540.31
429.181	516.31
429.403	516.31
429.625	564.31
429.847	572.31
430.069	627.31
430.292	591.31
430.514	532.31
430.736	504.31
430.958	534.31
431.18	493.31
431.402	490.31
431.624	496.31
431.846	504.31
432.068	514.31
432.29	516.31
432.512	506.31
432.734	493.31
432.956	518.31
433.178	526.31
433.4	506.31
433.622	496.31
433.844	494.31
434.066	488.31
434.287	522.31
434.509	520.31
434.731	545.31
434.953	525.31
435.175	534.31
435.397	547.31
435.618	574.31
435.84	591.31
436.062	676.31
436.284	743.31
436.505	622.31
436.727	558.31
436.949	540.31
437.17	503.31
437.392	517.31
437.614	539.31
437.835	540.31
438.057	604.31
438.278	728.31
438.5	747.31
438.721	813.31
438.943	788.31
439.165	613.31
439.386	555.31
439.608	549.31
439.829	552.31
440.05	570.31
440.272	611.31
440.493	596.31
440.715	541.31
440.936	517.31
441.158	521.31
441.379	537.31
441.6	532.31
441.822	537.31
442.043	593.31
442.264	649.31
442.486	736.31
442.707	632.31
442.928	585.31
443.149	598.31
443.371	598.31
443.592	621.31
443.813	711.31
444.034	786.31
444.255	667.31
444.476	603.31
444.698	596.31
444.919	591.31
445.14	693.31
445.361	642.31
445.582	612.31
445.803	655.31
446.024	715.31
446.245	748.31
446.466	685.31
446.687	575.31
446.908	553.31
447.129	526.31
447.35	518.31
447.571	513.31
447.792	501.31
448.013	519.31
448.234	529.31
448.455	569.31
448.675	676.31
448.896	815.31
449.117	659.31
449.338	618.31
449.559	718.31
449.779	808.31
450	658.31
450.221	544.31
450.442	516.31
450.662	497.31
450.883	492.31
451.104	490.31
451.324	501.31
451.545	477.31
451.766	482.31
451.986	480.31
452.207	472.31
452.428	457.31
452.648	479.31
452.869	472.31
453.089	468.31
453.31	458.31
453.53	441.31
453.751	459.31
453.971	456.31
454.192	454.31
454.412	453.31
454.633	441.31
454.853	453.31
455.073	435.31
455.294	472.31
455.514	532.31
455.734	531.31
455.955	444.31
456.175	446.31
456.395	448.31
456.616	457.31
456.836	436.31
457.056	442.31
457.276	423.31
457.497	458.31
457.717	444.31
457.937	454.31
458.157	445.31
458.377	446.31
458.598	462.31
458.818	483.31
459.038	572.31
459.258	584.31
459.478	520.31
459.698	519.31
459.918	500.31
460.138	513.31
460.358	526.31
460.578	523.31
460.798	502.31
461.018	525.31
461.238	514.31
461.458	525.31
461.678	528.31
461.898	521.31
462.118	517.31
462.338	548.31
462.558	540.31
462.777	567.31
462.997	581.31
463.217	589.31
463.437	604.31
463.657	566.31
463.876	580.31
464.096	563.31
464.316	567.31
464.536	564.31
464.755	554.31
464.975	556.31
465.195	580.31
465.414	606.31
465.634	552.31
465.854	509.31
466.073	493.31
466.293	480.31
466.512	484.31
466.732	479.31
466.951	514.31
467.171	490.31
467.391	491.31
467.61	474.31
467.829	493.31
468.049	488.31
468.268	482.31
468.488	485.31
468.707	451.31
468.927	462.31
469.146	468.31
469.365	456.31
469.585	461.31
469.804	483.31
470.023	473.31
470.243	479.31
470.462	481.31
470.681	523.31
470.901	521.31
471.12	511.31
471.339	489.31
471.558	482.31
471.777	492.31
471.997	476.31
472.216	483.31
472.435	502.31
472.654	480.31
472.873	473.31
473.092	486.31
473.311	485.31
473.53	494.31
473.749	474.31
473.968	508.31
474.187	606.31
474.406	620.31
474.625	542.31
474.844	506.31
475.063	471.31
475.282	486.31
475.501	506.31
475.72	494.31
475.939	499.31
476.158	498.31
476.377	492.31
476.596	475.31
476.814	517.31
477.033	501.31
477.252	524.31
477.471	511.31
477.69	506.31
477.908	530.31
478.127	515.31
478.346	556.31
478.564	574.31
478.783	534.31
479.002	589.31
479.22	568.31
479.439	565.31
479.658	587.31
479.876	594.31
480.095	574.31
480.313	621.31
480.532	617.31
480.751	597.31
480.969	605.31
481.188	629.31
481.406	657.31
481.624	585.31
481.843	589.31
482.061	582.31
482.28	580.31
482.498	561.31
482.717	574.31
482.935	578.31
483.153	578.31
483.372	573.31
483.59	575.31
483.808	579.31
484.027	580.31
484.245	568.31
484.463	568.31
484.681	601.31
484.9	565.31
485.118	589.31
485.336	576.31
485.554	591.31
485.772	618.31
485.99	595.31
486.209	585.31
486.427	597.31
486.645	608.31
486.863	596.31
487.081	609.31
487.299	630.31
487.517	590.31
487.735	632.31
487.953	596.31
488.171	612.31
488.389	599.31
488.607	619.31
488.825	636.31
489.043	611.31
489.261	628.31
489.479	620.31
489.696	615.31
489.914	610.31
490.132	630.31
490.35	639.31
490.568	648.31
490.786	657.31
491.003	650.31
491.221	681.31
491.439	678.31
491.657	682.31
491.874	695.31
492.092	700.31
492.31	702.31
492.527	719.31
492.745	688.31
492.963	714.31
493.18	686.31
493.398	717.31
493.615	700.31
493.833	731.31
494.05	700.31
494.268	707.31
494.485	716.31
494.703	729.31
494.92	717.31
495.138	713.31
495.355	706.31
495.573	742.31
495.79	731.31
496.008	704.31
496.225	727.31
496.442	716.31
496.66	719.31
496.877	738.31
497.094	754.31
497.312	726.31
497.529	783.31
497.746	743.31
497.963	772.31
498.181	780.31
498.398	811.31
498.615	813.31
498.832	836.31
499.049	876.31
499.267	872.31
499.484	919.31
499.701	959.31
499.918	1003.31
500.135	1078.31
500.352	1154.31
500.569	1162.31
500.786	1175.31
501.003	1148.31
501.22	1088.31
501.437	1070.31
501.654	1024.31
501.871	955.31
