Data from 1975.PennyLincolnUp.Lamp.En5.5.200Scan.071719.P1.Changed Mount._HRD10591_15-57-47-859.txt Node
Date: Thu Jul 18 15:57:47 EDT 2019
User: cochatt
Spectrometer: HR+D1059
Trigger mode: 1
Integration Time (sec): 1.000000E-1
Scans to average: 1
Electric dark correction enabled: true
Nonlinearity correction enabled: false
Boxcar width: 0
XAxis mode: Wavelengths
Number of Pixels in Spectrum: 2048
>>>>>Begin Spectral Data<<<<<
223.165	-12.44
223.4	-12.44
223.635	-12.44
223.869	-10.44
224.104	-10.44
224.338	-9.44
224.573	-12.44
224.808	-18.44
225.042	-0.44
225.277	-12.44
225.511	-22.44
225.746	0.56
225.98	-7.44
226.215	6.56
226.449	19.56
226.683	31.56
226.918	33.56
227.152	24.56
227.387	30.56
227.621	32.56
227.856	36.56
228.09	34.56
228.324	42.56
228.559	57.56
228.793	70.56
229.027	120.56
229.262	122.56
229.496	122.56
229.73	131.56
229.964	152.56
230.199	130.56
230.433	102.56
230.667	104.56
230.901	93.56
231.136	114.56
231.37	100.56
231.604	119.56
231.838	113.56
232.072	119.56
232.306	118.56
232.541	120.56
232.775	98.56
233.009	106.56
233.243	116.56
233.477	115.56
233.711	125.56
233.945	122.56
234.179	105.56
234.413	121.56
234.647	120.56
234.881	128.56
235.115	120.56
235.349	117.56
235.583	132.56
235.817	131.56
236.051	118.56
236.285	130.56
236.519	117.56
236.753	134.56
236.987	128.56
237.221	175.56
237.455	222.56
237.689	192.56
237.922	150.56
238.156	139.56
238.39	124.56
238.624	140.56
238.858	137.56
239.091	131.56
239.325	135.56
239.559	131.56
239.793	126.56
240.027	138.56
240.26	147.56
240.494	161.56
240.728	140.56
240.961	161.56
241.195	160.56
241.429	147.56
241.662	142.56
241.896	121.56
242.13	152.56
242.363	128.56
242.597	135.56
242.83	132.56
243.064	132.56
243.298	153.56
243.531	144.56
243.765	145.56
243.998	151.56
244.232	140.56
244.465	147.56
244.699	159.56
244.932	148.56
245.166	164.56
245.399	146.56
245.633	163.56
245.866	159.56
246.099	124.56
246.333	151.56
246.566	156.56
246.8	160.56
247.033	161.56
247.266	156.56
247.5	153.56
247.733	181.56
247.966	172.56
248.2	175.56
248.433	177.56
248.666	186.56
248.899	176.56
249.133	199.56
249.366	224.56
249.599	209.56
249.832	188.56
250.066	185.56
250.299	198.56
250.532	194.56
250.765	201.56
250.998	236.56
251.231	229.56
251.465	220.56
251.698	212.56
251.931	197.56
252.164	197.56
252.397	210.56
252.63	208.56
252.863	206.56
253.096	219.56
253.329	242.56
253.562	215.56
253.795	217.56
254.028	225.56
254.261	208.56
254.494	232.56
254.727	262.56
254.96	290.56
255.193	279.56
255.426	255.56
255.659	245.56
255.892	257.56
256.124	232.56
256.357	268.56
256.59	220.56
256.823	220.56
257.056	215.56
257.289	207.56
257.521	226.56
257.754	202.56
257.987	217.56
258.22	212.56
258.452	213.56
258.685	221.56
258.918	223.56
259.151	217.56
259.383	214.56
259.616	226.56
259.849	220.56
260.081	236.56
260.314	255.56
260.547	259.56
260.779	264.56
261.012	242.56
261.244	237.56
261.477	230.56
261.71	230.56
261.942	232.56
262.175	240.56
262.407	227.56
262.64	227.56
262.872	232.56
263.105	224.56
263.337	213.56
263.57	211.56
263.802	226.56
264.035	225.56
264.267	229.56
264.499	220.56
264.732	215.56
264.964	202.56
265.197	216.56
265.429	228.56
265.661	213.56
265.894	216.56
266.126	222.56
266.358	227.56
266.591	257.56
266.823	236.56
267.055	250.56
267.287	243.56
267.52	236.56
267.752	249.56
267.984	236.56
268.216	233.56
268.448	237.56
268.681	264.56
268.913	248.56
269.145	280.56
269.377	297.56
269.609	272.56
269.841	274.56
270.073	284.56
270.306	303.56
270.538	332.56
270.77	324.56
271.002	323.56
271.234	300.56
271.466	303.56
271.698	313.56
271.93	335.56
272.162	341.56
272.394	346.56
272.626	314.56
272.858	307.56
273.09	274.56
273.322	293.56
273.553	279.56
273.785	280.56
274.017	291.56
274.249	265.56
274.481	292.56
274.713	277.56
274.945	265.56
275.176	303.56
275.408	268.56
275.64	267.56
275.872	270.56
276.104	275.56
276.335	275.56
276.567	283.56
276.799	287.56
277.031	312.56
277.262	348.56
277.494	340.56
277.726	311.56
277.957	321.56
278.189	298.56
278.421	286.56
278.652	272.56
278.884	284.56
279.115	290.56
279.347	282.56
279.579	282.56
279.81	269.56
280.042	280.56
280.273	279.56
280.505	298.56
280.736	287.56
280.968	292.56
281.199	299.56
281.431	276.56
281.662	308.56
281.894	292.56
282.125	291.56
282.356	309.56
282.588	320.56
282.819	303.56
283.051	309.56
283.282	288.56
283.513	288.56
283.745	286.56
283.976	308.56
284.207	309.56
284.439	297.56
284.67	319.56
284.901	299.56
285.132	313.56
285.364	295.56
285.595	301.56
285.826	290.56
286.057	293.56
286.288	309.56
286.52	307.56
286.751	319.56
286.982	316.56
287.213	319.56
287.444	298.56
287.675	310.56
287.906	317.56
288.138	330.56
288.369	335.56
288.6	313.56
288.831	316.56
289.062	313.56
289.293	316.56
289.524	327.56
289.755	325.56
289.986	297.56
290.217	305.56
290.448	320.56
290.679	307.56
290.91	316.56
291.141	316.56
291.371	322.56
291.602	301.56
291.833	314.56
292.064	309.56
292.295	327.56
292.526	319.56
292.757	313.56
292.987	288.56
293.218	324.56
293.449	325.56
293.68	308.56
293.91	307.56
294.141	314.56
294.372	307.56
294.603	318.56
294.833	323.56
295.064	343.56
295.295	317.56
295.525	321.56
295.756	322.56
295.987	335.56
296.217	365.56
296.448	345.56
296.679	323.56
296.909	322.56
297.14	327.56
297.37	335.56
297.601	328.56
297.831	315.56
298.062	309.56
298.292	321.56
298.523	335.56
298.753	327.56
298.984	329.56
299.214	355.56
299.445	315.56
299.675	339.56
299.905	319.56
300.136	348.56
300.366	325.56
300.597	328.56
300.827	335.56
301.057	337.56
301.288	355.56
301.518	347.56
301.748	353.56
301.979	365.56
302.209	362.56
302.439	328.56
302.669	338.56
302.9	348.56
303.13	340.56
303.36	342.56
303.59	336.56
303.82	351.56
304.051	355.56
304.281	355.56
304.511	334.56
304.741	340.56
304.971	348.56
305.201	340.56
305.431	349.56
305.661	359.56
305.891	336.56
306.121	359.56
306.352	386.56
306.582	349.56
306.812	343.56
307.042	353.56
307.272	347.56
307.502	340.56
307.731	357.56
307.961	358.56
308.191	356.56
308.421	352.56
308.651	346.56
308.881	364.56
309.111	361.56
309.341	371.56
309.571	379.56
309.8	382.56
310.03	364.56
310.26	389.56
310.49	358.56
310.72	396.56
310.949	396.56
311.179	389.56
311.409	402.56
311.639	397.56
311.868	391.56
312.098	396.56
312.328	397.56
312.557	406.56
312.787	407.56
313.017	426.56
313.246	403.56
313.476	385.56
313.706	385.56
313.935	390.56
314.165	400.56
314.394	395.56
314.624	429.56
314.853	398.56
315.083	411.56
315.312	401.56
315.542	413.56
315.771	390.56
316.001	379.56
316.23	394.56
316.46	385.56
316.689	390.56
316.919	393.56
317.148	408.56
317.377	415.56
317.607	407.56
317.836	395.56
318.065	386.56
318.295	376.56
318.524	395.56
318.753	416.56
318.983	379.56
319.212	396.56
319.441	403.56
319.67	407.56
319.9	395.56
320.129	383.56
320.358	404.56
320.587	396.56
320.816	394.56
321.046	413.56
321.275	403.56
321.504	427.56
321.733	409.56
321.962	423.56
322.191	440.56
322.42	447.56
322.649	470.56
322.878	439.56
323.108	449.56
323.337	444.56
323.566	480.56
323.795	507.56
324.024	529.56
324.253	617.56
324.482	837.56
324.71	1276.56
324.939	1914.56
325.168	1713.56
325.397	872.56
325.626	602.56
325.855	515.56
326.084	487.56
326.313	484.56
326.542	488.56
326.77	515.56
326.999	612.56
327.228	800.56
327.457	1201.56
327.686	1541.56
327.914	1003.56
328.143	679.56
328.372	588.56
328.6	557.56
328.829	541.56
329.058	547.56
329.287	580.56
329.515	537.56
329.744	492.56
329.972	507.56
330.201	511.56
330.43	569.56
330.658	573.56
330.887	615.56
331.115	567.56
331.344	528.56
331.572	506.56
331.801	520.56
332.03	500.56
332.258	498.56
332.486	484.56
332.715	473.56
332.943	474.56
333.172	481.56
333.4	486.56
333.629	480.56
333.857	524.56
334.085	527.56
334.314	535.56
334.542	585.56
334.771	583.56
334.999	544.56
335.227	519.56
335.455	486.56
335.684	491.56
335.912	482.56
336.14	489.56
336.369	472.56
336.597	482.56
336.825	499.56
337.053	503.56
337.281	446.56
337.51	461.56
337.738	475.56
337.966	486.56
338.194	457.56
338.422	451.56
338.65	448.56
338.878	458.56
339.106	438.56
339.334	470.56
339.562	458.56
339.79	438.56
340.018	461.56
340.246	453.56
340.474	456.56
340.702	469.56
340.93	443.56
341.158	460.56
341.386	456.56
341.614	468.56
341.842	445.56
342.07	444.56
342.298	439.56
342.526	430.56
342.754	447.56
342.981	451.56
343.209	451.56
343.437	456.56
343.665	454.56
343.893	483.56
344.12	499.56
344.348	471.56
344.576	483.56
344.804	481.56
345.031	481.56
345.259	474.56
345.487	464.56
345.714	460.56
345.942	469.56
346.17	428.56
346.397	459.56
346.625	453.56
346.853	441.56
347.08	442.56
347.308	441.56
347.535	440.56
347.763	465.56
347.99	438.56
348.218	449.56
348.445	447.56
348.673	448.56
348.9	441.56
349.128	440.56
349.355	404.56
349.583	439.56
349.81	424.56
350.037	432.56
350.265	427.56
350.492	428.56
350.72	421.56
350.947	423.56
351.174	446.56
351.402	433.56
351.629	445.56
351.856	436.56
352.083	433.56
352.311	441.56
352.538	466.56
352.765	465.56
352.992	446.56
353.22	447.56
353.447	412.56
353.674	416.56
353.901	406.56
354.128	433.56
354.355	422.56
354.583	415.56
354.81	417.56
355.037	426.56
355.264	426.56
355.491	419.56
355.718	413.56
355.945	408.56
356.172	430.56
356.399	411.56
356.626	408.56
356.853	404.56
357.08	412.56
357.307	435.56
357.534	415.56
357.761	427.56
357.988	397.56
358.215	406.56
358.441	409.56
358.668	432.56
358.895	416.56
359.122	407.56
359.349	433.56
359.576	459.56
359.802	461.56
360.029	468.56
360.256	477.56
360.483	472.56
360.709	441.56
360.936	448.56
361.163	445.56
361.39	443.56
361.616	445.56
361.843	426.56
362.07	429.56
362.296	436.56
362.523	431.56
362.749	439.56
362.976	413.56
363.203	421.56
363.429	423.56
363.656	432.56
363.882	417.56
364.109	433.56
364.335	457.56
364.562	425.56
364.788	441.56
365.015	418.56
365.241	420.56
365.468	442.56
365.694	435.56
365.92	434.56
366.147	421.56
366.373	440.56
366.599	412.56
366.826	422.56
367.052	423.56
367.278	435.56
367.505	408.56
367.731	443.56
367.957	445.56
368.184	460.56
368.41	432.56
368.636	450.56
368.862	444.56
369.089	419.56
369.315	431.56
369.541	432.56
369.767	431.56
369.993	432.56
370.219	394.56
370.445	421.56
370.672	448.56
370.898	417.56
371.124	414.56
371.35	428.56
371.576	444.56
371.802	435.56
372.028	421.56
372.254	435.56
372.48	433.56
372.706	446.56
372.932	447.56
373.158	435.56
373.384	448.56
373.61	450.56
373.835	441.56
374.061	433.56
374.287	447.56
374.513	448.56
374.739	456.56
374.965	429.56
375.191	454.56
375.416	451.56
375.642	466.56
375.868	431.56
376.094	445.56
376.319	434.56
376.545	442.56
376.771	453.56
376.997	444.56
377.222	435.56
377.448	445.56
377.674	439.56
377.899	431.56
378.125	438.56
378.35	455.56
378.576	436.56
378.802	459.56
379.027	445.56
379.253	443.56
379.478	423.56
379.704	438.56
379.929	445.56
380.155	407.56
380.38	436.56
380.606	414.56
380.831	431.56
381.057	437.56
381.282	440.56
381.507	447.56
381.733	467.56
381.958	452.56
382.184	442.56
382.409	435.56
382.634	467.56
382.86	456.56
383.085	434.56
383.31	465.56
383.535	447.56
383.761	461.56
383.986	464.56
384.211	475.56
384.436	470.56
384.662	476.56
384.887	464.56
385.112	467.56
385.337	499.56
385.562	499.56
385.787	469.56
386.013	497.56
386.238	484.56
386.463	482.56
386.688	474.56
386.913	484.56
387.138	483.56
387.363	489.56
387.588	499.56
387.813	472.56
388.038	501.56
388.263	471.56
388.488	494.56
388.713	480.56
388.938	464.56
389.163	484.56
389.387	471.56
389.612	482.56
389.837	492.56
390.062	472.56
390.287	504.56
390.512	503.56
390.736	479.56
390.961	475.56
391.186	490.56
391.411	477.56
391.636	511.56
391.86	516.56
392.085	515.56
392.31	506.56
392.534	499.56
392.759	506.56
392.984	504.56
393.208	500.56
393.433	486.56
393.658	488.56
393.882	496.56
394.107	492.56
394.331	506.56
394.556	518.56
394.78	505.56
395.005	502.56
395.229	503.56
395.454	514.56
395.678	488.56
395.903	525.56
396.127	547.56
396.352	541.56
396.576	516.56
396.801	510.56
397.025	531.56
397.249	511.56
397.474	519.56
397.698	537.56
397.922	551.56
398.147	564.56
398.371	556.56
398.595	559.56
398.82	563.56
399.044	592.56
399.268	600.56
399.492	632.56
399.717	697.56
399.941	767.56
400.165	732.56
400.389	731.56
400.613	656.56
400.837	612.56
401.062	586.56
401.286	603.56
401.51	567.56
401.734	561.56
401.958	594.56
402.182	585.56
402.406	579.56
402.63	583.56
402.854	587.56
403.078	579.56
403.302	608.56
403.526	609.56
403.75	602.56
403.974	593.56
404.198	586.56
404.422	609.56
404.645	613.56
404.869	634.56
405.093	656.56
405.317	685.56
405.541	743.56
405.765	683.56
405.988	633.56
406.212	628.56
406.436	647.56
406.66	642.56
406.883	642.56
407.107	664.56
407.331	720.56
407.555	775.56
407.778	775.56
408.002	739.56
408.226	689.56
408.449	659.56
408.673	669.56
408.896	657.56
409.12	724.56
409.344	675.56
409.567	601.56
409.791	607.56
410.014	597.56
410.238	600.56
410.461	597.56
410.685	611.56
410.908	592.56
411.132	639.56
411.355	701.56
411.578	668.56
411.802	617.56
412.025	595.56
412.249	617.56
412.472	636.56
412.695	679.56
412.919	651.56
413.142	617.56
413.365	611.56
413.589	615.56
413.812	578.56
414.035	572.56
414.258	557.56
414.482	566.56
414.705	549.56
414.928	554.56
415.151	573.56
415.374	576.56
415.597	540.56
415.821	556.56
416.044	563.56
416.267	550.56
416.49	541.56
416.713	559.56
416.936	541.56
417.159	551.56
417.382	548.56
417.605	563.56
417.828	588.56
418.051	595.56
418.274	568.56
418.497	559.56
418.72	567.56
418.943	577.56
419.166	594.56
419.389	633.56
419.611	630.56
419.834	613.56
420.057	619.56
420.28	580.56
420.503	582.56
420.726	604.56
420.948	581.56
421.171	634.56
421.394	679.56
421.617	600.56
421.839	607.56
422.062	579.56
422.285	603.56
422.507	666.56
422.73	743.56
422.953	706.56
423.175	639.56
423.398	611.56
423.621	621.56
423.843	639.56
424.066	671.56
424.288	614.56
424.511	654.56
424.733	721.56
424.956	797.56
425.178	756.56
425.401	734.56
425.623	785.56
425.846	667.56
426.068	639.56
426.291	620.56
426.513	617.56
426.735	630.56
426.958	625.56
427.18	751.56
427.402	895.56
427.625	961.56
427.847	848.56
428.069	709.56
428.292	661.56
428.514	595.56
428.736	579.56
428.958	599.56
429.181	589.56
429.403	568.56
429.625	570.56
429.847	593.56
430.069	676.56
430.292	668.56
430.514	605.56
430.736	577.56
430.958	579.56
431.18	555.56
431.402	554.56
431.624	540.56
431.846	546.56
432.068	530.56
432.29	564.56
432.512	541.56
432.734	546.56
432.956	559.56
433.178	549.56
433.4	549.56
433.622	548.56
433.844	554.56
434.066	565.56
434.287	547.56
434.509	555.56
434.731	554.56
434.953	580.56
435.175	572.56
435.397	605.56
435.618	620.56
435.84	665.56
436.062	741.56
436.284	822.56
436.505	692.56
436.727	626.56
436.949	598.56
437.17	580.56
437.392	595.56
437.614	590.56
437.835	614.56
438.057	680.56
438.278	792.56
438.5	805.56
438.721	909.56
438.943	872.56
439.165	687.56
439.386	625.56
439.608	621.56
439.829	618.56
440.05	631.56
440.272	655.56
440.493	635.56
440.715	601.56
440.936	552.56
441.158	605.56
441.379	573.56
441.6	613.56
441.822	617.56
442.043	657.56
442.264	776.56
442.486	807.56
442.707	682.56
442.928	641.56
443.149	640.56
443.371	661.56
443.592	687.56
443.813	809.56
444.034	875.56
444.255	757.56
444.476	663.56
444.698	651.56
444.919	636.56
445.14	775.56
445.361	723.56
445.582	674.56
445.803	727.56
446.024	834.56
446.245	847.56
446.466	763.56
446.687	639.56
446.908	618.56
447.129	576.56
447.35	573.56
447.571	568.56
447.792	556.56
448.013	549.56
448.234	580.56
448.455	628.56
448.675	753.56
448.896	883.56
449.117	720.56
449.338	698.56
449.559	792.56
449.779	910.56
450	728.56
450.221	604.56
450.442	556.56
450.662	569.56
450.883	538.56
451.104	556.56
451.324	534.56
451.545	523.56
451.766	502.56
451.986	502.56
452.207	494.56
452.428	538.56
452.648	512.56
452.869	490.56
453.089	537.56
453.31	540.56
453.53	519.56
453.751	508.56
453.971	481.56
454.192	510.56
454.412	489.56
454.633	488.56
454.853	487.56
455.073	502.56
455.294	510.56
455.514	608.56
455.734	593.56
455.955	506.56
456.175	486.56
456.395	483.56
456.616	481.56
456.836	491.56
457.056	481.56
457.276	472.56
457.497	493.56
457.717	485.56
457.937	480.56
458.157	493.56
458.377	509.56
458.598	503.56
458.818	561.56
459.038	628.56
459.258	671.56
459.478	598.56
459.698	541.56
459.918	531.56
460.138	568.56
460.358	541.56
460.578	567.56
460.798	564.56
461.018	594.56
461.238	565.56
461.458	551.56
461.678	562.56
461.898	587.56
462.118	572.56
462.338	593.56
462.558	617.56
462.777	577.56
462.997	618.56
463.217	636.56
463.437	649.56
463.657	648.56
463.876	601.56
464.096	626.56
464.316	625.56
464.536	639.56
464.755	608.56
464.975	620.56
465.195	622.56
465.414	699.56
465.634	595.56
465.854	588.56
466.073	548.56
466.293	543.56
466.512	517.56
466.732	519.56
466.951	517.56
467.171	523.56
467.391	521.56
467.61	512.56
467.829	533.56
468.049	523.56
468.268	499.56
468.488	519.56
468.707	488.56
468.927	517.56
469.146	519.56
469.365	521.56
469.585	501.56
469.804	526.56
470.023	527.56
470.243	531.56
470.462	539.56
470.681	527.56
470.901	536.56
471.12	520.56
471.339	521.56
471.558	520.56
471.777	539.56
471.997	548.56
472.216	519.56
472.435	550.56
472.654	536.56
472.873	532.56
473.092	526.56
473.311	527.56
473.53	521.56
473.749	538.56
473.968	581.56
474.187	675.56
474.406	686.56
474.625	581.56
474.844	557.56
475.063	511.56
475.282	531.56
475.501	523.56
475.72	536.56
475.939	526.56
476.158	530.56
476.377	549.56
476.596	530.56
476.814	554.56
477.033	546.56
477.252	544.56
477.471	567.56
477.69	574.56
477.908	586.56
478.127	584.56
478.346	591.56
478.564	589.56
478.783	584.56
479.002	629.56
479.22	611.56
479.439	613.56
479.658	610.56
479.876	620.56
480.095	645.56
480.313	665.56
480.532	671.56
480.751	670.56
480.969	664.56
481.188	711.56
481.406	732.56
481.624	655.56
481.843	634.56
482.061	641.56
482.28	633.56
482.498	613.56
482.717	616.56
482.935	625.56
483.153	598.56
483.372	615.56
483.59	623.56
483.808	587.56
484.027	597.56
484.245	618.56
484.463	617.56
484.681	625.56
484.9	635.56
485.118	625.56
485.336	612.56
485.554	645.56
485.772	659.56
485.99	641.56
486.209	640.56
486.427	638.56
486.645	653.56
486.863	646.56
487.081	662.56
487.299	671.56
487.517	660.56
487.735	643.56
487.953	653.56
488.171	654.56
488.389	643.56
488.607	636.56
488.825	667.56
489.043	662.56
489.261	685.56
489.479	679.56
489.696	698.56
489.914	680.56
490.132	677.56
490.35	691.56
490.568	705.56
490.786	691.56
491.003	708.56
491.221	733.56
491.439	736.56
491.657	738.56
491.874	761.56
492.092	748.56
492.31	761.56
492.527	769.56
492.745	774.56
492.963	790.56
493.18	784.56
493.398	782.56
493.615	772.56
493.833	781.56
494.05	762.56
494.268	795.56
494.485	772.56
494.703	786.56
494.92	789.56
495.138	770.56
495.355	766.56
495.573	803.56
495.79	796.56
496.008	823.56
496.225	776.56
496.442	795.56
496.66	808.56
496.877	795.56
497.094	808.56
497.312	810.56
497.529	822.56
497.746	811.56
497.963	846.56
498.181	874.56
498.398	882.56
498.615	889.56
498.832	908.56
499.049	961.56
499.267	974.56
499.484	1016.56
499.701	1073.56
499.918	1101.56
500.135	1195.56
500.352	1235.56
500.569	1267.56
500.786	1292.56
501.003	1233.56
501.22	1177.56
501.437	1120.56
501.654	1090.56
