Data from 1975.PennyLincolnUp.Lamp.En5.5.200Scan.071719.P1.Changed Mount._HRD10591_15-57-02-859.txt Node
Date: Thu Jul 18 15:57:02 EDT 2019
User: cochatt
Spectrometer: HR+D1059
Trigger mode: 1
Integration Time (sec): 1.000000E-1
Scans to average: 1
Electric dark correction enabled: true
Nonlinearity correction enabled: false
Boxcar width: 0
XAxis mode: Wavelengths
Number of Pixels in Spectrum: 2048
>>>>>Begin Spectral Data<<<<<
223.165	-2.19
223.4	-2.19
223.635	-2.19
223.869	-20.19
224.104	-18.19
224.338	-10.19
224.573	-9.19
224.808	-8.19
225.042	-20.19
225.277	-4.19
225.511	12.81
225.746	0.81
225.98	2.81
226.215	3.81
226.449	6.81
226.683	13.81
226.918	21.81
227.152	29.81
227.387	35.81
227.621	42.81
227.856	51.81
228.09	47.81
228.324	48.81
228.559	68.81
228.793	78.81
229.027	92.81
229.262	94.81
229.496	110.81
229.73	135.81
229.964	147.81
230.199	126.81
230.433	104.81
230.667	104.81
230.901	121.81
231.136	104.81
231.37	119.81
231.604	118.81
231.838	119.81
232.072	104.81
232.306	108.81
232.541	120.81
232.775	120.81
233.009	109.81
233.243	104.81
233.477	123.81
233.711	119.81
233.945	117.81
234.179	125.81
234.413	114.81
234.647	121.81
234.881	127.81
235.115	117.81
235.349	114.81
235.583	117.81
235.817	130.81
236.051	113.81
236.285	125.81
236.519	119.81
236.753	113.81
236.987	143.81
237.221	170.81
237.455	212.81
237.689	186.81
237.922	141.81
238.156	141.81
238.39	136.81
238.624	129.81
238.858	139.81
239.091	142.81
239.325	128.81
239.559	128.81
239.793	126.81
240.027	132.81
240.26	159.81
240.494	147.81
240.728	159.81
240.961	159.81
241.195	151.81
241.429	142.81
241.662	144.81
241.896	135.81
242.13	140.81
242.363	138.81
242.597	144.81
242.83	138.81
243.064	138.81
243.298	151.81
243.531	135.81
243.765	151.81
243.998	143.81
244.232	144.81
244.465	143.81
244.699	167.81
244.932	151.81
245.166	149.81
245.399	156.81
245.633	142.81
245.866	160.81
246.099	157.81
246.333	157.81
246.566	150.81
246.8	148.81
247.033	155.81
247.266	153.81
247.5	164.81
247.733	174.81
247.966	177.81
248.2	171.81
248.433	176.81
248.666	183.81
248.899	187.81
249.133	203.81
249.366	202.81
249.599	206.81
249.832	179.81
250.066	185.81
250.299	192.81
250.532	198.81
250.765	195.81
250.998	218.81
251.231	244.81
251.465	216.81
251.698	201.81
251.931	192.81
252.164	215.81
252.397	196.81
252.63	201.81
252.863	226.81
253.096	226.81
253.329	230.81
253.562	229.81
253.795	232.81
254.028	208.81
254.261	221.81
254.494	230.81
254.727	246.81
254.96	271.81
255.193	267.81
255.426	239.81
255.659	237.81
255.892	220.81
256.124	247.81
256.357	235.81
256.59	229.81
256.823	222.81
257.056	217.81
257.289	209.81
257.521	216.81
257.754	212.81
257.987	213.81
258.22	212.81
258.452	215.81
258.685	208.81
258.918	220.81
259.151	203.81
259.383	199.81
259.616	223.81
259.849	208.81
260.081	239.81
260.314	228.81
260.547	256.81
260.779	244.81
261.012	238.81
261.244	222.81
261.477	230.81
261.71	225.81
261.942	219.81
262.175	252.81
262.407	223.81
262.64	224.81
262.872	224.81
263.105	223.81
263.337	215.81
263.57	202.81
263.802	229.81
264.035	223.81
264.267	213.81
264.499	210.81
264.732	205.81
264.964	222.81
265.197	208.81
265.429	230.81
265.661	226.81
265.894	219.81
266.126	232.81
266.358	214.81
266.591	214.81
266.823	237.81
267.055	236.81
267.287	227.81
267.52	225.81
267.752	235.81
267.984	238.81
268.216	233.81
268.448	230.81
268.681	241.81
268.913	243.81
269.145	257.81
269.377	283.81
269.609	284.81
269.841	256.81
270.073	256.81
270.306	288.81
270.538	309.81
270.77	301.81
271.002	297.81
271.234	295.81
271.466	297.81
271.698	324.81
271.93	332.81
272.162	314.81
272.394	319.81
272.626	320.81
272.858	270.81
273.09	276.81
273.322	286.81
273.553	275.81
273.785	287.81
274.017	247.81
274.249	289.81
274.481	275.81
274.713	254.81
274.945	267.81
275.176	263.81
275.408	273.81
275.64	256.81
275.872	266.81
276.104	269.81
276.335	272.81
276.567	251.81
276.799	295.81
277.031	309.81
277.262	329.81
277.494	315.81
277.726	313.81
277.957	285.81
278.189	286.81
278.421	271.81
278.652	279.81
278.884	281.81
279.115	261.81
279.347	262.81
279.579	273.81
279.81	289.81
280.042	259.81
280.273	291.81
280.505	261.81
280.736	273.81
280.968	273.81
281.199	276.81
281.431	286.81
281.662	280.81
281.894	284.81
282.125	291.81
282.356	295.81
282.588	292.81
282.819	295.81
283.051	297.81
283.282	272.81
283.513	294.81
283.745	295.81
283.976	288.81
284.207	310.81
284.439	302.81
284.67	292.81
284.901	298.81
285.132	305.81
285.364	276.81
285.595	292.81
285.826	280.81
286.057	275.81
286.288	281.81
286.52	264.81
286.751	274.81
286.982	287.81
287.213	276.81
287.444	298.81
287.675	302.81
287.906	312.81
288.138	327.81
288.369	317.81
288.6	315.81
288.831	307.81
289.062	309.81
289.293	309.81
289.524	284.81
289.755	303.81
289.986	293.81
290.217	287.81
290.448	295.81
290.679	297.81
290.91	308.81
291.141	295.81
291.371	296.81
291.602	282.81
291.833	303.81
292.064	316.81
292.295	303.81
292.526	295.81
292.757	289.81
292.987	293.81
293.218	294.81
293.449	314.81
293.68	302.81
293.91	284.81
294.141	288.81
294.372	298.81
294.603	314.81
294.833	307.81
295.064	301.81
295.295	300.81
295.525	314.81
295.756	309.81
295.987	310.81
296.217	315.81
296.448	317.81
296.679	322.81
296.909	315.81
297.14	317.81
297.37	318.81
297.601	325.81
297.831	301.81
298.062	321.81
298.292	328.81
298.523	301.81
298.753	316.81
298.984	303.81
299.214	320.81
299.445	337.81
299.675	317.81
299.905	317.81
300.136	321.81
300.366	326.81
300.597	319.81
300.827	337.81
301.057	342.81
301.288	343.81
301.518	326.81
301.748	317.81
301.979	341.81
302.209	329.81
302.439	331.81
302.669	342.81
302.9	350.81
303.13	335.81
303.36	348.81
303.59	348.81
303.82	347.81
304.051	357.81
304.281	335.81
304.511	344.81
304.741	336.81
304.971	319.81
305.201	330.81
305.431	327.81
305.661	347.81
305.891	346.81
306.121	353.81
306.352	350.81
306.582	320.81
306.812	331.81
307.042	339.81
307.272	325.81
307.502	341.81
307.731	329.81
307.961	342.81
308.191	333.81
308.421	336.81
308.651	347.81
308.881	335.81
309.111	322.81
309.341	339.81
309.571	355.81
309.8	361.81
310.03	375.81
310.26	384.81
310.49	373.81
310.72	377.81
310.949	380.81
311.179	397.81
311.409	389.81
311.639	363.81
311.868	368.81
312.098	381.81
312.328	373.81
312.557	390.81
312.787	421.81
313.017	416.81
313.246	393.81
313.476	371.81
313.706	389.81
313.935	382.81
314.165	389.81
314.394	407.81
314.624	400.81
314.853	389.81
315.083	393.81
315.312	395.81
315.542	385.81
315.771	375.81
316.001	392.81
316.23	370.81
316.46	365.81
316.689	368.81
316.919	389.81
317.148	383.81
317.377	379.81
317.607	383.81
317.836	392.81
318.065	371.81
318.295	367.81
318.524	395.81
318.753	375.81
318.983	380.81
319.212	363.81
319.441	379.81
319.67	395.81
319.9	383.81
320.129	376.81
320.358	381.81
320.587	385.81
320.816	385.81
321.046	366.81
321.275	396.81
321.504	389.81
321.733	391.81
321.962	395.81
322.191	415.81
322.42	417.81
322.649	438.81
322.878	429.81
323.108	426.81
323.337	452.81
323.566	452.81
323.795	481.81
324.024	515.81
324.253	599.81
324.482	805.81
324.71	1214.81
324.939	1805.81
325.168	1578.81
325.397	826.81
325.626	577.81
325.855	479.81
326.084	481.81
326.313	483.81
326.542	468.81
326.77	503.81
326.999	554.81
327.228	737.81
327.457	1086.81
327.686	1361.81
327.914	925.81
328.143	614.81
328.372	561.81
328.6	540.81
328.829	507.81
329.058	531.81
329.287	507.81
329.515	502.81
329.744	473.81
329.972	483.81
330.201	502.81
330.43	545.81
330.658	535.81
330.887	543.81
331.115	549.81
331.344	501.81
331.572	478.81
331.801	486.81
332.03	499.81
332.258	481.81
332.486	454.81
332.715	459.81
332.943	476.81
333.172	461.81
333.4	452.81
333.629	480.81
333.857	471.81
334.085	500.81
334.314	524.81
334.542	544.81
334.771	545.81
334.999	492.81
335.227	497.81
335.455	474.81
335.684	475.81
335.912	447.81
336.14	447.81
336.369	455.81
336.597	464.81
336.825	457.81
337.053	469.81
337.281	447.81
337.51	464.81
337.738	449.81
337.966	463.81
338.194	454.81
338.422	457.81
338.65	443.81
338.878	446.81
339.106	444.81
339.334	451.81
339.562	439.81
339.79	439.81
340.018	424.81
340.246	454.81
340.474	435.81
340.702	438.81
340.93	424.81
341.158	438.81
341.386	437.81
341.614	423.81
341.842	426.81
342.07	451.81
342.298	428.81
342.526	446.81
342.754	420.81
342.981	434.81
343.209	436.81
343.437	440.81
343.665	449.81
343.893	465.81
344.12	455.81
344.348	473.81
344.576	463.81
344.804	458.81
345.031	452.81
345.259	440.81
345.487	447.81
345.714	446.81
345.942	430.81
346.17	424.81
346.397	435.81
346.625	428.81
346.853	437.81
347.08	405.81
347.308	420.81
347.535	427.81
347.763	427.81
347.99	428.81
348.218	413.81
348.445	423.81
348.673	427.81
348.9	414.81
349.128	423.81
349.355	409.81
349.583	406.81
349.81	401.81
350.037	405.81
350.265	419.81
350.492	400.81
350.72	411.81
350.947	410.81
351.174	413.81
351.402	415.81
351.629	417.81
351.856	417.81
352.083	424.81
352.311	435.81
352.538	429.81
352.765	413.81
352.992	421.81
353.22	418.81
353.447	424.81
353.674	424.81
353.901	420.81
354.128	413.81
354.355	408.81
354.583	400.81
354.81	409.81
355.037	401.81
355.264	397.81
355.491	391.81
355.718	401.81
355.945	398.81
356.172	388.81
356.399	416.81
356.626	416.81
356.853	395.81
357.08	400.81
357.307	396.81
357.534	391.81
357.761	402.81
357.988	399.81
358.215	395.81
358.441	396.81
358.668	414.81
358.895	408.81
359.122	399.81
359.349	432.81
359.576	423.81
359.802	416.81
360.029	439.81
360.256	465.81
360.483	454.81
360.709	416.81
360.936	425.81
361.163	417.81
361.39	414.81
361.616	428.81
361.843	420.81
362.07	420.81
362.296	427.81
362.523	419.81
362.749	413.81
362.976	440.81
363.203	408.81
363.429	403.81
363.656	421.81
363.882	414.81
364.109	415.81
364.335	402.81
364.562	431.81
364.788	413.81
365.015	414.81
365.241	390.81
365.468	396.81
365.694	409.81
365.92	412.81
366.147	397.81
366.373	414.81
366.599	411.81
366.826	404.81
367.052	433.81
367.278	417.81
367.505	412.81
367.731	423.81
367.957	400.81
368.184	409.81
368.41	406.81
368.636	435.81
368.862	431.81
369.089	415.81
369.315	409.81
369.541	422.81
369.767	417.81
369.993	418.81
370.219	414.81
370.445	413.81
370.672	393.81
370.898	429.81
371.124	418.81
371.35	414.81
371.576	439.81
371.802	421.81
372.028	421.81
372.254	423.81
372.48	445.81
372.706	408.81
372.932	429.81
373.158	425.81
373.384	417.81
373.61	415.81
373.835	433.81
374.061	441.81
374.287	438.81
374.513	437.81
374.739	436.81
374.965	431.81
375.191	435.81
375.416	435.81
375.642	426.81
375.868	446.81
376.094	430.81
376.319	432.81
376.545	420.81
376.771	436.81
376.997	439.81
377.222	414.81
377.448	417.81
377.674	451.81
377.899	413.81
378.125	432.81
378.35	432.81
378.576	422.81
378.802	402.81
379.027	413.81
379.253	413.81
379.478	415.81
379.704	418.81
379.929	423.81
380.155	409.81
380.38	421.81
380.606	435.81
380.831	411.81
381.057	423.81
381.282	415.81
381.507	437.81
381.733	436.81
381.958	412.81
382.184	429.81
382.409	431.81
382.634	425.81
382.86	436.81
383.085	430.81
383.31	448.81
383.535	447.81
383.761	421.81
383.986	451.81
384.211	437.81
384.436	443.81
384.662	459.81
384.887	457.81
385.112	460.81
385.337	457.81
385.562	482.81
385.787	488.81
386.013	482.81
386.238	482.81
386.463	476.81
386.688	485.81
386.913	463.81
387.138	472.81
387.363	476.81
387.588	466.81
387.813	477.81
388.038	442.81
388.263	473.81
388.488	474.81
388.713	482.81
388.938	497.81
389.163	501.81
389.387	494.81
389.612	484.81
389.837	463.81
390.062	469.81
390.287	461.81
390.512	473.81
390.736	473.81
390.961	447.81
391.186	467.81
391.411	474.81
391.636	455.81
391.86	505.81
392.085	501.81
392.31	519.81
392.534	501.81
392.759	484.81
392.984	486.81
393.208	474.81
393.433	490.81
393.658	475.81
393.882	476.81
394.107	452.81
394.331	466.81
394.556	496.81
394.78	479.81
395.005	480.81
395.229	507.81
395.454	501.81
395.678	480.81
395.903	522.81
396.127	523.81
396.352	533.81
396.576	501.81
396.801	504.81
397.025	492.81
397.249	477.81
397.474	524.81
397.698	510.81
397.922	523.81
398.147	544.81
398.371	565.81
398.595	527.81
398.82	525.81
399.044	554.81
399.268	588.81
399.492	634.81
399.717	673.81
399.941	675.81
400.165	699.81
400.389	678.81
400.613	636.81
400.837	601.81
401.062	565.81
401.286	566.81
401.51	563.81
401.734	536.81
401.958	540.81
402.182	547.81
402.406	545.81
402.63	558.81
402.854	586.81
403.078	575.81
403.302	584.81
403.526	581.81
403.75	588.81
403.974	569.81
404.198	566.81
404.422	601.81
404.645	592.81
404.869	599.81
405.093	622.81
405.317	664.81
405.541	707.81
405.765	632.81
405.988	622.81
406.212	606.81
406.436	600.81
406.66	642.81
406.883	631.81
407.107	652.81
407.331	681.81
407.555	743.81
407.778	735.81
408.002	680.81
408.226	669.81
408.449	629.81
408.673	633.81
408.896	646.81
409.12	670.81
409.344	634.81
409.567	601.81
409.791	594.81
410.014	557.81
410.238	590.81
410.461	583.81
410.685	578.81
410.908	592.81
411.132	617.81
411.355	655.81
411.578	623.81
411.802	585.81
412.025	563.81
412.249	581.81
412.472	592.81
412.695	643.81
412.919	637.81
413.142	581.81
413.365	585.81
413.589	589.81
413.812	552.81
414.035	547.81
414.258	542.81
414.482	551.81
414.705	554.81
414.928	540.81
415.151	546.81
415.374	545.81
415.597	536.81
415.821	538.81
416.044	537.81
416.267	552.81
416.49	539.81
416.713	529.81
416.936	582.81
417.159	555.81
417.382	545.81
417.605	543.81
417.828	551.81
418.051	575.81
418.274	549.81
418.497	551.81
418.72	556.81
418.943	542.81
419.166	557.81
419.389	593.81
419.611	578.81
419.834	598.81
420.057	563.81
420.28	569.81
420.503	562.81
420.726	577.81
420.948	599.81
421.171	604.81
421.394	631.81
421.617	579.81
421.839	571.81
422.062	573.81
422.285	561.81
422.507	591.81
422.73	725.81
422.953	663.81
423.175	628.81
423.398	613.81
423.621	593.81
423.843	588.81
424.066	615.81
424.288	592.81
424.511	629.81
424.733	680.81
424.956	761.81
425.178	710.81
425.401	701.81
425.623	761.81
425.846	640.81
426.068	607.81
426.291	597.81
426.513	582.81
426.735	603.81
426.958	647.81
427.18	696.81
427.402	848.81
427.625	940.81
427.847	779.81
428.069	728.81
428.292	636.81
428.514	585.81
428.736	581.81
428.958	570.81
429.181	569.81
429.403	535.81
429.625	564.81
429.847	585.81
430.069	637.81
430.292	639.81
430.514	544.81
430.736	544.81
430.958	526.81
431.18	537.81
431.402	544.81
431.624	533.81
431.846	532.81
432.068	497.81
432.29	535.81
432.512	517.81
432.734	521.81
432.956	540.81
433.178	529.81
433.4	541.81
433.622	545.81
433.844	512.81
434.066	542.81
434.287	525.81
434.509	543.81
434.731	531.81
434.953	551.81
435.175	567.81
435.397	622.81
435.618	591.81
435.84	627.81
436.062	726.81
436.284	789.81
436.505	655.81
436.727	604.81
436.949	577.81
437.17	536.81
437.392	550.81
437.614	571.81
437.835	586.81
438.057	656.81
438.278	776.81
438.5	751.81
438.721	851.81
438.943	810.81
439.165	637.81
439.386	596.81
439.608	588.81
439.829	591.81
440.05	614.81
440.272	664.81
440.493	633.81
440.715	595.81
440.936	567.81
441.158	565.81
441.379	560.81
441.6	551.81
441.822	589.81
442.043	630.81
442.264	716.81
442.486	767.81
442.707	652.81
442.928	610.81
443.149	616.81
443.371	631.81
443.592	650.81
443.813	759.81
444.034	814.81
444.255	680.81
444.476	630.81
444.698	615.81
444.919	616.81
445.14	736.81
445.361	688.81
445.582	646.81
445.803	700.81
446.024	785.81
446.245	793.81
446.466	715.81
446.687	642.81
446.908	586.81
447.129	571.81
447.35	559.81
447.571	555.81
447.792	499.81
448.013	535.81
448.234	547.81
448.455	613.81
448.675	708.81
448.896	831.81
449.117	689.81
449.338	673.81
449.559	765.81
449.779	889.81
450	676.81
450.221	581.81
450.442	558.81
450.662	558.81
450.883	543.81
451.104	548.81
451.324	539.81
451.545	523.81
451.766	480.81
451.986	490.81
452.207	482.81
452.428	489.81
452.648	506.81
452.869	511.81
453.089	484.81
453.31	487.81
453.53	495.81
453.751	485.81
453.971	503.81
454.192	496.81
454.412	475.81
454.633	489.81
454.853	485.81
455.073	477.81
455.294	487.81
455.514	551.81
455.734	546.81
455.955	490.81
456.175	459.81
456.395	449.81
456.616	453.81
456.836	464.81
457.056	458.81
457.276	453.81
457.497	453.81
457.717	472.81
457.937	473.81
458.157	485.81
458.377	470.81
458.598	489.81
458.818	545.81
459.038	597.81
459.258	621.81
459.478	559.81
459.698	543.81
459.918	527.81
460.138	531.81
460.358	537.81
460.578	542.81
460.798	551.81
461.018	550.81
461.238	559.81
461.458	553.81
461.678	538.81
461.898	571.81
462.118	581.81
462.338	558.81
462.558	573.81
462.777	565.81
462.997	582.81
463.217	618.81
463.437	630.81
463.657	605.81
463.876	589.81
464.096	589.81
464.316	593.81
464.536	611.81
464.755	580.81
464.975	563.81
465.195	611.81
465.414	639.81
465.634	585.81
465.854	555.81
466.073	511.81
466.293	527.81
466.512	495.81
466.732	508.81
466.951	515.81
467.171	505.81
467.391	495.81
467.61	501.81
467.829	509.81
468.049	519.81
468.268	527.81
468.488	502.81
468.707	492.81
468.927	489.81
469.146	488.81
469.365	472.81
469.585	478.81
469.804	519.81
470.023	506.81
470.243	528.81
470.462	518.81
470.681	512.81
470.901	515.81
471.12	512.81
471.339	507.81
471.558	507.81
471.777	510.81
471.997	492.81
472.216	533.81
472.435	538.81
472.654	542.81
472.873	507.81
473.092	495.81
473.311	486.81
473.53	512.81
473.749	507.81
473.968	551.81
474.187	634.81
474.406	663.81
474.625	551.81
474.844	522.81
475.063	512.81
475.282	510.81
475.501	509.81
475.72	523.81
475.939	506.81
476.158	511.81
476.377	517.81
476.596	513.81
476.814	532.81
477.033	552.81
477.252	550.81
477.471	530.81
477.69	548.81
477.908	549.81
478.127	551.81
478.346	564.81
478.564	559.81
478.783	603.81
479.002	573.81
479.22	599.81
479.439	606.81
479.658	603.81
479.876	619.81
480.095	622.81
480.313	640.81
480.532	645.81
480.751	619.81
480.969	643.81
481.188	681.81
481.406	730.81
481.624	666.81
481.843	607.81
482.061	591.81
482.28	619.81
482.498	619.81
482.717	598.81
482.935	583.81
483.153	596.81
483.372	592.81
483.59	601.81
483.808	591.81
484.027	593.81
484.245	590.81
484.463	588.81
484.681	615.81
484.9	600.81
485.118	607.81
485.336	604.81
485.554	597.81
485.772	606.81
485.99	630.81
486.209	608.81
486.427	630.81
486.645	627.81
486.863	627.81
487.081	606.81
487.299	649.81
487.517	610.81
487.735	655.81
487.953	635.81
488.171	630.81
488.389	629.81
488.607	660.81
488.825	635.81
489.043	641.81
489.261	636.81
489.479	641.81
489.696	642.81
489.914	623.81
490.132	675.81
490.35	643.81
490.568	677.81
490.786	672.81
491.003	696.81
491.221	701.81
491.439	701.81
491.657	720.81
491.874	731.81
492.092	750.81
492.31	740.81
492.527	728.81
492.745	741.81
492.963	751.81
493.18	752.81
493.398	756.81
493.615	771.81
493.833	776.81
494.05	766.81
494.268	757.81
494.485	751.81
494.703	723.81
494.92	743.81
495.138	763.81
495.355	742.81
495.573	767.81
495.79	732.81
496.008	757.81
496.225	731.81
496.442	785.81
496.66	740.81
496.877	753.81
497.094	761.81
497.312	777.81
497.529	781.81
497.746	794.81
497.963	839.81
498.181	816.81
498.398	847.81
498.615	856.81
498.832	858.81
499.049	890.81
499.267	968.81
499.484	966.81
499.701	1027.81
499.918	1055.81
500.135	1118.81
500.352	1171.81
500.569	1217.81
500.786	1213.81
501.003	1169.81
501.22	1115.81
501.437	1075.81
501.654	1076.81
