Data from 1975.PennyLincolnUp.Lamp.En5.5.200Scan.071719.P1.Changed Mount._HRD10591_15-55-58-858.txt Node
Date: Thu Jul 18 15:55:58 EDT 2019
User: cochatt
Spectrometer: HR+D1059
Trigger mode: 1
Integration Time (sec): 1.000000E-1
Scans to average: 1
Electric dark correction enabled: true
Nonlinearity correction enabled: false
Boxcar width: 0
XAxis mode: Wavelengths
Number of Pixels in Spectrum: 2048
>>>>>Begin Spectral Data<<<<<
223.165	-18.56
223.4	-18.56
223.635	-18.56
223.869	-4.56
224.104	-18.56
224.338	-2.56
224.573	-5.56
224.808	-15.56
225.042	-5.56
225.277	-4.56
225.511	-8.56
225.746	-6.56
225.98	6.44
226.215	13.44
226.449	7.44
226.683	10.44
226.918	29.44
227.152	23.44
227.387	41.44
227.621	45.44
227.856	44.44
228.09	54.44
228.324	53.44
228.559	51.44
228.793	58.44
229.027	76.44
229.262	95.44
229.496	110.44
229.73	122.44
229.964	137.44
230.199	105.44
230.433	107.44
230.667	102.44
230.901	103.44
231.136	101.44
231.37	111.44
231.604	125.44
231.838	108.44
232.072	99.44
232.306	100.44
232.541	120.44
232.775	120.44
233.009	116.44
233.243	102.44
233.477	120.44
233.711	120.44
233.945	123.44
234.179	118.44
234.413	120.44
234.647	123.44
234.881	120.44
235.115	107.44
235.349	123.44
235.583	121.44
235.817	111.44
236.051	120.44
236.285	119.44
236.519	125.44
236.753	134.44
236.987	147.44
237.221	157.44
237.455	211.44
237.689	175.44
237.922	139.44
238.156	133.44
238.39	137.44
238.624	109.44
238.858	122.44
239.091	129.44
239.325	127.44
239.559	119.44
239.793	110.44
240.027	125.44
240.26	133.44
240.494	172.44
240.728	160.44
240.961	148.44
241.195	135.44
241.429	158.44
241.662	148.44
241.896	138.44
242.13	127.44
242.363	128.44
242.597	130.44
242.83	152.44
243.064	136.44
243.298	135.44
243.531	150.44
243.765	145.44
243.998	139.44
244.232	150.44
244.465	139.44
244.699	139.44
244.932	139.44
245.166	151.44
245.399	154.44
245.633	167.44
245.866	150.44
246.099	150.44
246.333	157.44
246.566	143.44
246.8	151.44
247.033	149.44
247.266	142.44
247.5	158.44
247.733	167.44
247.966	170.44
248.2	177.44
248.433	158.44
248.666	164.44
248.899	181.44
249.133	194.44
249.366	193.44
249.599	190.44
249.832	169.44
250.066	170.44
250.299	171.44
250.532	182.44
250.765	193.44
250.998	218.44
251.231	221.44
251.465	197.44
251.698	194.44
251.931	190.44
252.164	205.44
252.397	200.44
252.63	191.44
252.863	206.44
253.096	214.44
253.329	212.44
253.562	221.44
253.795	222.44
254.028	208.44
254.261	205.44
254.494	220.44
254.727	237.44
254.96	252.44
255.193	251.44
255.426	231.44
255.659	230.44
255.892	210.44
256.124	229.44
256.357	243.44
256.59	221.44
256.823	205.44
257.056	198.44
257.289	201.44
257.521	209.44
257.754	208.44
257.987	205.44
258.22	204.44
258.452	210.44
258.685	209.44
258.918	208.44
259.151	191.44
259.383	230.44
259.616	217.44
259.849	221.44
260.081	244.44
260.314	248.44
260.547	247.44
260.779	243.44
261.012	235.44
261.244	231.44
261.477	233.44
261.71	207.44
261.942	221.44
262.175	212.44
262.407	227.44
262.64	203.44
262.872	207.44
263.105	215.44
263.337	208.44
263.57	212.44
263.802	203.44
264.035	198.44
264.267	201.44
264.499	215.44
264.732	202.44
264.964	201.44
265.197	205.44
265.429	222.44
265.661	212.44
265.894	209.44
266.126	229.44
266.358	215.44
266.591	216.44
266.823	221.44
267.055	225.44
267.287	238.44
267.52	234.44
267.752	231.44
267.984	234.44
268.216	226.44
268.448	240.44
268.681	239.44
268.913	237.44
269.145	271.44
269.377	279.44
269.609	265.44
269.841	261.44
270.073	263.44
270.306	289.44
270.538	317.44
270.77	299.44
271.002	286.44
271.234	289.44
271.466	274.44
271.698	286.44
271.93	303.44
272.162	308.44
272.394	315.44
272.626	273.44
272.858	279.44
273.09	279.44
273.322	261.44
273.553	277.44
273.785	256.44
274.017	261.44
274.249	266.44
274.481	271.44
274.713	269.44
274.945	271.44
275.176	267.44
275.408	247.44
275.64	259.44
275.872	235.44
276.104	252.44
276.335	261.44
276.567	270.44
276.799	272.44
277.031	298.44
277.262	316.44
277.494	305.44
277.726	306.44
277.957	288.44
278.189	290.44
278.421	279.44
278.652	267.44
278.884	279.44
279.115	254.44
279.347	260.44
279.579	255.44
279.81	278.44
280.042	286.44
280.273	260.44
280.505	267.44
280.736	258.44
280.968	264.44
281.199	267.44
281.431	267.44
281.662	265.44
281.894	263.44
282.125	264.44
282.356	295.44
282.588	282.44
282.819	296.44
283.051	269.44
283.282	277.44
283.513	269.44
283.745	289.44
283.976	296.44
284.207	293.44
284.439	284.44
284.67	281.44
284.901	281.44
285.132	271.44
285.364	283.44
285.595	292.44
285.826	284.44
286.057	285.44
286.288	275.44
286.52	288.44
286.751	280.44
286.982	270.44
287.213	288.44
287.444	291.44
287.675	289.44
287.906	277.44
288.138	303.44
288.369	299.44
288.6	318.44
288.831	315.44
289.062	291.44
289.293	284.44
289.524	297.44
289.755	295.44
289.986	303.44
290.217	278.44
290.448	270.44
290.679	298.44
290.91	293.44
291.141	291.44
291.371	279.44
291.602	291.44
291.833	277.44
292.064	271.44
292.295	283.44
292.526	289.44
292.757	296.44
292.987	299.44
293.218	296.44
293.449	283.44
293.68	281.44
293.91	283.44
294.141	281.44
294.372	295.44
294.603	308.44
294.833	300.44
295.064	303.44
295.295	305.44
295.525	312.44
295.756	299.44
295.987	293.44
296.217	318.44
296.448	315.44
296.679	299.44
296.909	293.44
297.14	283.44
297.37	316.44
297.601	299.44
297.831	311.44
298.062	303.44
298.292	301.44
298.523	325.44
298.753	304.44
298.984	308.44
299.214	316.44
299.445	342.44
299.675	317.44
299.905	310.44
300.136	329.44
300.366	309.44
300.597	335.44
300.827	318.44
301.057	317.44
301.288	327.44
301.518	330.44
301.748	300.44
301.979	321.44
302.209	337.44
302.439	318.44
302.669	335.44
302.9	331.44
303.13	350.44
303.36	338.44
303.59	321.44
303.82	319.44
304.051	343.44
304.281	339.44
304.511	329.44
304.741	315.44
304.971	323.44
305.201	334.44
305.431	312.44
305.661	330.44
305.891	322.44
306.121	324.44
306.352	325.44
306.582	355.44
306.812	343.44
307.042	340.44
307.272	324.44
307.502	328.44
307.731	331.44
307.961	322.44
308.191	313.44
308.421	334.44
308.651	329.44
308.881	352.44
309.111	331.44
309.341	324.44
309.571	334.44
309.8	358.44
310.03	366.44
310.26	340.44
310.49	372.44
310.72	363.44
310.949	366.44
311.179	391.44
311.409	371.44
311.639	336.44
311.868	360.44
312.098	352.44
312.328	380.44
312.557	365.44
312.787	371.44
313.017	371.44
313.246	351.44
313.476	345.44
313.706	360.44
313.935	369.44
314.165	372.44
314.394	387.44
314.624	368.44
314.853	373.44
315.083	377.44
315.312	373.44
315.542	376.44
315.771	378.44
316.001	352.44
316.23	354.44
316.46	359.44
316.689	352.44
316.919	364.44
317.148	381.44
317.377	397.44
317.607	365.44
317.836	376.44
318.065	374.44
318.295	372.44
318.524	357.44
318.753	375.44
318.983	381.44
319.212	368.44
319.441	371.44
319.67	375.44
319.9	382.44
320.129	368.44
320.358	380.44
320.587	369.44
320.816	381.44
321.046	360.44
321.275	377.44
321.504	387.44
321.733	369.44
321.962	373.44
322.191	379.44
322.42	390.44
322.649	403.44
322.878	397.44
323.108	423.44
323.337	424.44
323.566	455.44
323.795	445.44
324.024	460.44
324.253	541.44
324.482	737.44
324.71	1127.44
324.939	1653.44
325.168	1415.44
325.397	748.44
325.626	520.44
325.855	440.44
326.084	417.44
326.313	435.44
326.542	459.44
326.77	486.44
326.999	532.44
327.228	689.44
327.457	1036.44
327.686	1233.44
327.914	833.44
328.143	559.44
328.372	517.44
328.6	501.44
328.829	477.44
329.058	477.44
329.287	515.44
329.515	500.44
329.744	464.44
329.972	456.44
330.201	479.44
330.43	490.44
330.658	519.44
330.887	517.44
331.115	518.44
331.344	484.44
331.572	442.44
331.801	486.44
332.03	474.44
332.258	467.44
332.486	440.44
332.715	443.44
332.943	443.44
333.172	459.44
333.4	479.44
333.629	469.44
333.857	471.44
334.085	473.44
334.314	483.44
334.542	505.44
334.771	518.44
334.999	489.44
335.227	477.44
335.455	464.44
335.684	470.44
335.912	460.44
336.14	429.44
336.369	443.44
336.597	451.44
336.825	451.44
337.053	446.44
337.281	435.44
337.51	441.44
337.738	439.44
337.966	418.44
338.194	447.44
338.422	422.44
338.65	417.44
338.878	446.44
339.106	442.44
339.334	422.44
339.562	439.44
339.79	419.44
340.018	425.44
340.246	422.44
340.474	418.44
340.702	422.44
340.93	428.44
341.158	431.44
341.386	428.44
341.614	435.44
341.842	424.44
342.07	431.44
342.298	416.44
342.526	416.44
342.754	411.44
342.981	410.44
343.209	421.44
343.437	427.44
343.665	440.44
343.893	451.44
344.12	465.44
344.348	450.44
344.576	441.44
344.804	441.44
345.031	424.44
345.259	455.44
345.487	451.44
345.714	416.44
345.942	413.44
346.17	399.44
346.397	407.44
346.625	401.44
346.853	421.44
347.08	389.44
347.308	416.44
347.535	397.44
347.763	391.44
347.99	410.44
348.218	422.44
348.445	416.44
348.673	427.44
348.9	394.44
349.128	409.44
349.355	399.44
349.583	391.44
349.81	404.44
350.037	383.44
350.265	409.44
350.492	387.44
350.72	401.44
350.947	410.44
351.174	410.44
351.402	396.44
351.629	403.44
351.856	427.44
352.083	421.44
352.311	407.44
352.538	403.44
352.765	404.44
352.992	421.44
353.22	411.44
353.447	381.44
353.674	387.44
353.901	400.44
354.128	403.44
354.355	382.44
354.583	406.44
354.81	384.44
355.037	386.44
355.264	384.44
355.491	387.44
355.718	376.44
355.945	367.44
356.172	383.44
356.399	389.44
356.626	407.44
356.853	383.44
357.08	393.44
357.307	382.44
357.534	397.44
357.761	384.44
357.988	394.44
358.215	392.44
358.441	402.44
358.668	387.44
358.895	393.44
359.122	416.44
359.349	394.44
359.576	430.44
359.802	423.44
360.029	433.44
360.256	436.44
360.483	447.44
360.709	413.44
360.936	415.44
361.163	421.44
361.39	397.44
361.616	424.44
361.843	408.44
362.07	411.44
362.296	411.44
362.523	416.44
362.749	407.44
362.976	399.44
363.203	395.44
363.429	384.44
363.656	399.44
363.882	392.44
364.109	408.44
364.335	386.44
364.562	401.44
364.788	382.44
365.015	405.44
365.241	391.44
365.468	409.44
365.694	413.44
365.92	400.44
366.147	399.44
366.373	378.44
366.599	389.44
366.826	400.44
367.052	397.44
367.278	386.44
367.505	397.44
367.731	399.44
367.957	399.44
368.184	405.44
368.41	404.44
368.636	404.44
368.862	414.44
369.089	403.44
369.315	402.44
369.541	400.44
369.767	389.44
369.993	414.44
370.219	416.44
370.445	426.44
370.672	391.44
370.898	410.44
371.124	392.44
371.35	394.44
371.576	413.44
371.802	425.44
372.028	417.44
372.254	398.44
372.48	412.44
372.706	405.44
372.932	441.44
373.158	422.44
373.384	413.44
373.61	415.44
373.835	416.44
374.061	424.44
374.287	408.44
374.513	423.44
374.739	430.44
374.965	435.44
375.191	417.44
375.416	424.44
375.642	439.44
375.868	439.44
376.094	403.44
376.319	404.44
376.545	411.44
376.771	399.44
376.997	413.44
377.222	416.44
377.448	423.44
377.674	414.44
377.899	412.44
378.125	402.44
378.35	414.44
378.576	398.44
378.802	418.44
379.027	421.44
379.253	383.44
379.478	403.44
379.704	433.44
379.929	430.44
380.155	399.44
380.38	406.44
380.606	406.44
380.831	414.44
381.057	410.44
381.282	421.44
381.507	412.44
381.733	421.44
381.958	433.44
382.184	419.44
382.409	406.44
382.634	434.44
382.86	442.44
383.085	449.44
383.31	426.44
383.535	440.44
383.761	457.44
383.986	440.44
384.211	432.44
384.436	453.44
384.662	435.44
384.887	473.44
385.112	439.44
385.337	465.44
385.562	458.44
385.787	471.44
386.013	474.44
386.238	479.44
386.463	490.44
386.688	480.44
386.913	471.44
387.138	466.44
387.363	457.44
387.588	466.44
387.813	488.44
388.038	471.44
388.263	473.44
388.488	467.44
388.713	461.44
388.938	445.44
389.163	455.44
389.387	451.44
389.612	461.44
389.837	469.44
390.062	460.44
390.287	467.44
390.512	435.44
390.736	488.44
390.961	472.44
391.186	479.44
391.411	456.44
391.636	456.44
391.86	472.44
392.085	493.44
392.31	464.44
392.534	474.44
392.759	454.44
392.984	459.44
393.208	481.44
393.433	492.44
393.658	473.44
393.882	469.44
394.107	462.44
394.331	479.44
394.556	460.44
394.78	474.44
395.005	475.44
395.229	486.44
395.454	486.44
395.678	491.44
395.903	496.44
396.127	493.44
396.352	518.44
396.576	501.44
396.801	495.44
397.025	505.44
397.249	503.44
397.474	527.44
397.698	508.44
397.922	520.44
398.147	527.44
398.371	530.44
398.595	525.44
398.82	521.44
399.044	538.44
399.268	584.44
399.492	625.44
399.717	610.44
399.941	660.44
400.165	659.44
400.389	670.44
400.613	618.44
400.837	558.44
401.062	567.44
401.286	545.44
401.51	545.44
401.734	544.44
401.958	544.44
402.182	557.44
402.406	537.44
402.63	537.44
402.854	530.44
403.078	547.44
403.302	566.44
403.526	579.44
403.75	576.44
403.974	565.44
404.198	552.44
404.422	599.44
404.645	588.44
404.869	584.44
405.093	614.44
405.317	641.44
405.541	690.44
405.765	622.44
405.988	601.44
406.212	577.44
406.436	613.44
406.66	608.44
406.883	605.44
407.107	649.44
407.331	693.44
407.555	727.44
407.778	744.44
408.002	692.44
408.226	627.44
408.449	627.44
408.673	614.44
408.896	636.44
409.12	667.44
409.344	637.44
409.567	579.44
409.791	579.44
410.014	590.44
410.238	571.44
410.461	561.44
410.685	558.44
410.908	567.44
411.132	620.44
411.355	657.44
411.578	614.44
411.802	577.44
412.025	547.44
412.249	567.44
412.472	587.44
412.695	629.44
412.919	621.44
413.142	579.44
413.365	551.44
413.589	549.44
413.812	545.44
414.035	530.44
414.258	527.44
414.482	533.44
414.705	544.44
414.928	556.44
415.151	533.44
415.374	533.44
415.597	538.44
415.821	535.44
416.044	527.44
416.267	538.44
416.49	497.44
416.713	540.44
416.936	525.44
417.159	526.44
417.382	515.44
417.605	505.44
417.828	526.44
418.051	556.44
418.274	538.44
418.497	529.44
418.72	525.44
418.943	543.44
419.166	555.44
419.389	579.44
419.611	576.44
419.834	557.44
420.057	561.44
420.28	579.44
420.503	567.44
420.726	553.44
420.948	569.44
421.171	603.44
421.394	645.44
421.617	561.44
421.839	544.44
422.062	553.44
422.285	560.44
422.507	605.44
422.73	692.44
422.953	660.44
423.175	601.44
423.398	561.44
423.621	568.44
423.843	599.44
424.066	612.44
424.288	595.44
424.511	620.44
424.733	649.44
424.956	718.44
425.178	693.44
425.401	688.44
425.623	699.44
425.846	634.44
426.068	577.44
426.291	583.44
426.513	581.44
426.735	563.44
426.958	598.44
427.18	693.44
427.402	821.44
427.625	883.44
427.847	763.44
428.069	662.44
428.292	625.44
428.514	560.44
428.736	526.44
428.958	537.44
429.181	529.44
429.403	523.44
429.625	523.44
429.847	568.44
430.069	648.44
430.292	631.44
430.514	536.44
430.736	528.44
430.958	532.44
431.18	507.44
431.402	480.44
431.624	482.44
431.846	505.44
432.068	505.44
432.29	495.44
432.512	499.44
432.734	513.44
432.956	543.44
433.178	525.44
433.4	532.44
433.622	521.44
433.844	519.44
434.066	508.44
434.287	515.44
434.509	541.44
434.731	539.44
434.953	531.44
435.175	562.44
435.397	596.44
435.618	587.44
435.84	606.44
436.062	704.44
436.284	793.44
436.505	650.44
436.727	587.44
436.949	545.44
437.17	545.44
437.392	544.44
437.614	553.44
437.835	582.44
438.057	653.44
438.278	712.44
438.5	727.44
438.721	836.44
438.943	794.44
439.165	636.44
439.386	581.44
439.608	576.44
439.829	582.44
440.05	585.44
440.272	647.44
440.493	613.44
440.715	567.44
440.936	545.44
441.158	547.44
441.379	550.44
441.6	574.44
441.822	591.44
442.043	609.44
442.264	695.44
442.486	726.44
442.707	623.44
442.928	609.44
443.149	615.44
443.371	634.44
443.592	665.44
443.813	760.44
444.034	815.44
444.255	697.44
444.476	617.44
444.698	614.44
444.919	613.44
445.14	676.44
445.361	649.44
445.582	636.44
445.803	695.44
446.024	761.44
446.245	764.44
446.466	713.44
446.687	624.44
446.908	559.44
447.129	545.44
447.35	526.44
447.571	528.44
447.792	531.44
448.013	528.44
448.234	575.44
448.455	592.44
448.675	695.44
448.896	826.44
449.117	691.44
449.338	650.44
449.559	773.44
449.779	871.44
450	671.44
450.221	565.44
450.442	530.44
450.662	526.44
450.883	507.44
451.104	515.44
451.324	500.44
451.545	499.44
451.766	489.44
451.986	488.44
452.207	481.44
452.428	465.44
452.648	465.44
452.869	475.44
453.089	480.44
453.31	493.44
453.53	481.44
453.751	486.44
453.971	461.44
454.192	481.44
454.412	456.44
454.633	457.44
454.853	471.44
455.073	461.44
455.294	495.44
455.514	541.44
455.734	524.44
455.955	465.44
456.175	453.44
456.395	455.44
456.616	453.44
456.836	458.44
457.056	459.44
457.276	430.44
457.497	447.44
457.717	441.44
457.937	451.44
458.157	467.44
458.377	481.44
458.598	494.44
458.818	534.44
459.038	595.44
459.258	592.44
459.478	537.44
459.698	508.44
459.918	515.44
460.138	521.44
460.358	507.44
460.578	522.44
460.798	536.44
461.018	541.44
461.238	547.44
461.458	540.44
461.678	531.44
461.898	545.44
462.118	545.44
462.338	536.44
462.558	547.44
462.777	583.44
462.997	584.44
463.217	605.44
463.437	606.44
463.657	573.44
463.876	566.44
464.096	588.44
464.316	567.44
464.536	603.44
464.755	576.44
464.975	591.44
465.195	569.44
465.414	608.44
465.634	561.44
465.854	549.44
466.073	496.44
466.293	497.44
466.512	467.44
466.732	483.44
466.951	508.44
467.171	494.44
467.391	493.44
467.61	504.44
467.829	506.44
468.049	486.44
468.268	504.44
468.488	491.44
468.707	473.44
468.927	489.44
469.146	468.44
469.365	488.44
469.585	477.44
469.804	499.44
470.023	491.44
470.243	480.44
470.462	490.44
470.681	501.44
470.901	514.44
471.12	503.44
471.339	505.44
471.558	506.44
471.777	490.44
471.997	475.44
472.216	479.44
472.435	533.44
472.654	499.44
472.873	493.44
473.092	488.44
473.311	461.44
473.53	516.44
473.749	516.44
473.968	525.44
474.187	635.44
474.406	668.44
474.625	545.44
474.844	511.44
475.063	479.44
475.282	471.44
475.501	493.44
475.72	500.44
475.939	511.44
476.158	497.44
476.377	508.44
476.596	521.44
476.814	525.44
477.033	522.44
477.252	524.44
477.471	529.44
477.69	544.44
477.908	524.44
478.127	540.44
478.346	548.44
478.564	583.44
478.783	580.44
479.002	575.44
479.22	583.44
479.439	607.44
479.658	595.44
479.876	569.44
480.095	622.44
480.313	590.44
480.532	640.44
480.751	624.44
480.969	605.44
481.188	671.44
481.406	661.44
481.624	626.44
481.843	615.44
482.061	607.44
482.28	575.44
482.498	588.44
482.717	578.44
482.935	599.44
483.153	564.44
483.372	560.44
483.59	584.44
483.808	589.44
484.027	572.44
484.245	573.44
484.463	592.44
484.681	590.44
484.9	604.44
485.118	613.44
485.336	601.44
485.554	602.44
485.772	604.44
485.99	607.44
486.209	602.44
486.427	596.44
486.645	601.44
486.863	621.44
487.081	623.44
487.299	618.44
487.517	614.44
487.735	628.44
487.953	635.44
488.171	613.44
488.389	603.44
488.607	624.44
488.825	617.44
489.043	589.44
489.261	641.44
489.479	637.44
489.696	647.44
489.914	653.44
490.132	646.44
490.35	649.44
490.568	678.44
490.786	665.44
491.003	683.44
491.221	698.44
491.439	709.44
491.657	703.44
491.874	688.44
492.092	689.44
492.31	703.44
492.527	744.44
492.745	736.44
492.963	717.44
493.18	708.44
493.398	728.44
493.615	756.44
493.833	757.44
494.05	729.44
494.268	725.44
494.485	720.44
494.703	737.44
494.92	720.44
495.138	726.44
495.355	727.44
495.573	756.44
495.79	705.44
496.008	747.44
496.225	741.44
496.442	718.44
496.66	727.44
496.877	751.44
497.094	731.44
497.312	733.44
497.529	765.44
497.746	755.44
497.963	769.44
498.181	816.44
498.398	802.44
498.615	852.44
498.832	863.44
499.049	887.44
499.267	922.44
499.484	927.44
499.701	995.44
499.918	1022.44
500.135	1106.44
500.352	1157.44
500.569	1189.44
500.786	1191.44
501.003	1147.44
501.22	1125.44
501.437	1079.44
501.654	1006.44
