Data from 1975.PennyLincolnUp.Lamp.En5.5.200Scan.071719.P1.Changed Mount._HRD10591_15-57-10-859.txt Node
Date: Thu Jul 18 15:57:10 EDT 2019
User: cochatt
Spectrometer: HR+D1059
Trigger mode: 1
Integration Time (sec): 1.000000E-1
Scans to average: 1
Electric dark correction enabled: true
Nonlinearity correction enabled: false
Boxcar width: 0
XAxis mode: Wavelengths
Number of Pixels in Spectrum: 2048
>>>>>Begin Spectral Data<<<<<
223.165	-13.75
223.4	-13.75
223.635	-13.75
223.869	-16.75
224.104	-18.75
224.338	-1.75
224.573	-13.75
224.808	-12.75
225.042	-15.75
225.277	-2.75
225.511	-8.75
225.746	12.25
225.98	-2.75
226.215	0.25
226.449	11.25
226.683	25.25
226.918	25.25
227.152	33.25
227.387	38.25
227.621	40.25
227.856	44.25
228.09	51.25
228.324	48.25
228.559	67.25
228.793	65.25
229.027	102.25
229.262	96.25
229.496	115.25
229.73	141.25
229.964	142.25
230.199	117.25
230.433	112.25
230.667	124.25
230.901	121.25
231.136	95.25
231.37	90.25
231.604	106.25
231.838	104.25
232.072	109.25
232.306	113.25
232.541	121.25
232.775	118.25
233.009	119.25
233.243	99.25
233.477	129.25
233.711	101.25
233.945	109.25
234.179	114.25
234.413	119.25
234.647	124.25
234.881	118.25
235.115	107.25
235.349	109.25
235.583	125.25
235.817	119.25
236.051	130.25
236.285	137.25
236.519	134.25
236.753	130.25
236.987	146.25
237.221	163.25
237.455	238.25
237.689	191.25
237.922	148.25
238.156	149.25
238.39	139.25
238.624	120.25
238.858	130.25
239.091	121.25
239.325	140.25
239.559	134.25
239.793	129.25
240.027	133.25
240.26	161.25
240.494	157.25
240.728	154.25
240.961	146.25
241.195	135.25
241.429	125.25
241.662	129.25
241.896	132.25
242.13	137.25
242.363	137.25
242.597	124.25
242.83	144.25
243.064	158.25
243.298	134.25
243.531	143.25
243.765	153.25
243.998	136.25
244.232	163.25
244.465	148.25
244.699	148.25
244.932	148.25
245.166	155.25
245.399	149.25
245.633	137.25
245.866	156.25
246.099	159.25
246.333	160.25
246.566	151.25
246.8	151.25
247.033	164.25
247.266	155.25
247.5	171.25
247.733	184.25
247.966	170.25
248.2	177.25
248.433	176.25
248.666	182.25
248.899	178.25
249.133	209.25
249.366	205.25
249.599	197.25
249.832	198.25
250.066	187.25
250.299	192.25
250.532	197.25
250.765	214.25
250.998	225.25
251.231	236.25
251.465	204.25
251.698	204.25
251.931	201.25
252.164	201.25
252.397	217.25
252.63	211.25
252.863	195.25
253.096	222.25
253.329	214.25
253.562	217.25
253.795	223.25
254.028	229.25
254.261	209.25
254.494	243.25
254.727	250.25
254.96	295.25
255.193	273.25
255.426	232.25
255.659	239.25
255.892	232.25
256.124	231.25
256.357	238.25
256.59	220.25
256.823	209.25
257.056	197.25
257.289	206.25
257.521	214.25
257.754	221.25
257.987	209.25
258.22	212.25
258.452	213.25
258.685	216.25
258.918	206.25
259.151	222.25
259.383	209.25
259.616	210.25
259.849	238.25
260.081	263.25
260.314	262.25
260.547	251.25
260.779	248.25
261.012	234.25
261.244	235.25
261.477	211.25
261.71	241.25
261.942	238.25
262.175	228.25
262.407	222.25
262.64	230.25
262.872	220.25
263.105	209.25
263.337	209.25
263.57	197.25
263.802	211.25
264.035	220.25
264.267	215.25
264.499	227.25
264.732	223.25
264.964	211.25
265.197	218.25
265.429	221.25
265.661	223.25
265.894	244.25
266.126	221.25
266.358	216.25
266.591	227.25
266.823	224.25
267.055	234.25
267.287	238.25
267.52	214.25
267.752	239.25
267.984	239.25
268.216	237.25
268.448	218.25
268.681	247.25
268.913	269.25
269.145	253.25
269.377	273.25
269.609	285.25
269.841	274.25
270.073	281.25
270.306	299.25
270.538	292.25
270.77	313.25
271.002	298.25
271.234	287.25
271.466	287.25
271.698	295.25
271.93	302.25
272.162	317.25
272.394	314.25
272.626	301.25
272.858	290.25
273.09	263.25
273.322	281.25
273.553	274.25
273.785	273.25
274.017	272.25
274.249	262.25
274.481	266.25
274.713	275.25
274.945	275.25
275.176	291.25
275.408	256.25
275.64	259.25
275.872	259.25
276.104	273.25
276.335	260.25
276.567	270.25
276.799	276.25
277.031	309.25
277.262	307.25
277.494	315.25
277.726	301.25
277.957	309.25
278.189	274.25
278.421	280.25
278.652	287.25
278.884	285.25
279.115	290.25
279.347	302.25
279.579	270.25
279.81	279.25
280.042	276.25
280.273	278.25
280.505	256.25
280.736	266.25
280.968	284.25
281.199	281.25
281.431	282.25
281.662	281.25
281.894	272.25
282.125	278.25
282.356	298.25
282.588	295.25
282.819	306.25
283.051	277.25
283.282	281.25
283.513	293.25
283.745	301.25
283.976	291.25
284.207	309.25
284.439	300.25
284.67	308.25
284.901	305.25
285.132	291.25
285.364	273.25
285.595	299.25
285.826	298.25
286.057	304.25
286.288	293.25
286.52	295.25
286.751	289.25
286.982	275.25
287.213	285.25
287.444	305.25
287.675	310.25
287.906	304.25
288.138	315.25
288.369	313.25
288.6	314.25
288.831	312.25
289.062	309.25
289.293	326.25
289.524	306.25
289.755	309.25
289.986	297.25
290.217	306.25
290.448	307.25
290.679	297.25
290.91	304.25
291.141	307.25
291.371	295.25
291.602	311.25
291.833	293.25
292.064	304.25
292.295	312.25
292.526	324.25
292.757	300.25
292.987	306.25
293.218	303.25
293.449	310.25
293.68	326.25
293.91	305.25
294.141	318.25
294.372	298.25
294.603	297.25
294.833	295.25
295.064	304.25
295.295	320.25
295.525	313.25
295.756	324.25
295.987	314.25
296.217	333.25
296.448	331.25
296.679	321.25
296.909	312.25
297.14	309.25
297.37	306.25
297.601	311.25
297.831	322.25
298.062	306.25
298.292	306.25
298.523	330.25
298.753	314.25
298.984	316.25
299.214	300.25
299.445	323.25
299.675	315.25
299.905	326.25
300.136	333.25
300.366	320.25
300.597	333.25
300.827	334.25
301.057	333.25
301.288	334.25
301.518	335.25
301.748	322.25
301.979	337.25
302.209	332.25
302.439	339.25
302.669	345.25
302.9	333.25
303.13	335.25
303.36	319.25
303.59	353.25
303.82	355.25
304.051	347.25
304.281	359.25
304.511	334.25
304.741	338.25
304.971	353.25
305.201	350.25
305.431	337.25
305.661	328.25
305.891	349.25
306.121	332.25
306.352	356.25
306.582	350.25
306.812	317.25
307.042	339.25
307.272	335.25
307.502	330.25
307.731	355.25
307.961	340.25
308.191	363.25
308.421	347.25
308.651	342.25
308.881	343.25
309.111	355.25
309.341	346.25
309.571	354.25
309.8	356.25
310.03	352.25
310.26	382.25
310.49	378.25
310.72	374.25
310.949	404.25
311.179	389.25
311.409	385.25
311.639	382.25
311.868	394.25
312.098	379.25
312.328	393.25
312.557	391.25
312.787	397.25
313.017	390.25
313.246	383.25
313.476	386.25
313.706	371.25
313.935	375.25
314.165	387.25
314.394	410.25
314.624	402.25
314.853	385.25
315.083	376.25
315.312	369.25
315.542	370.25
315.771	388.25
316.001	373.25
316.23	381.25
316.46	363.25
316.689	365.25
316.919	375.25
317.148	393.25
317.377	397.25
317.607	376.25
317.836	365.25
318.065	376.25
318.295	363.25
318.524	384.25
318.753	381.25
318.983	373.25
319.212	370.25
319.441	397.25
319.67	382.25
319.9	385.25
320.129	383.25
320.358	394.25
320.587	401.25
320.816	405.25
321.046	402.25
321.275	407.25
321.504	398.25
321.733	386.25
321.962	395.25
322.191	417.25
322.42	428.25
322.649	438.25
322.878	431.25
323.108	420.25
323.337	450.25
323.566	461.25
323.795	497.25
324.024	521.25
324.253	577.25
324.482	788.25
324.71	1163.25
324.939	1751.25
325.168	1546.25
325.397	821.25
325.626	571.25
325.855	505.25
326.084	471.25
326.313	459.25
326.542	462.25
326.77	491.25
326.999	558.25
327.228	731.25
327.457	1110.25
327.686	1320.25
327.914	903.25
328.143	659.25
328.372	541.25
328.6	539.25
328.829	511.25
329.058	539.25
329.287	538.25
329.515	510.25
329.744	491.25
329.972	491.25
330.201	504.25
330.43	533.25
330.658	551.25
330.887	549.25
331.115	543.25
331.344	483.25
331.572	482.25
331.801	479.25
332.03	475.25
332.258	482.25
332.486	451.25
332.715	460.25
332.943	457.25
333.172	464.25
333.4	467.25
333.629	463.25
333.857	502.25
334.085	483.25
334.314	526.25
334.542	545.25
334.771	549.25
334.999	506.25
335.227	515.25
335.455	457.25
335.684	460.25
335.912	460.25
336.14	464.25
336.369	469.25
336.597	437.25
336.825	474.25
337.053	453.25
337.281	479.25
337.51	435.25
337.738	472.25
337.966	443.25
338.194	443.25
338.422	471.25
338.65	453.25
338.878	442.25
339.106	447.25
339.334	435.25
339.562	433.25
339.79	432.25
340.018	432.25
340.246	433.25
340.474	462.25
340.702	439.25
340.93	445.25
341.158	449.25
341.386	426.25
341.614	442.25
341.842	443.25
342.07	415.25
342.298	423.25
342.526	421.25
342.754	424.25
342.981	425.25
343.209	428.25
343.437	427.25
343.665	429.25
343.893	454.25
344.12	451.25
344.348	445.25
344.576	437.25
344.804	462.25
345.031	448.25
345.259	447.25
345.487	436.25
345.714	447.25
345.942	453.25
346.17	419.25
346.397	443.25
346.625	431.25
346.853	433.25
347.08	423.25
347.308	428.25
347.535	443.25
347.763	446.25
347.99	434.25
348.218	411.25
348.445	401.25
348.673	417.25
348.9	437.25
349.128	425.25
349.355	382.25
349.583	416.25
349.81	417.25
350.037	424.25
350.265	413.25
350.492	416.25
350.72	403.25
350.947	402.25
351.174	407.25
351.402	424.25
351.629	419.25
351.856	426.25
352.083	410.25
352.311	417.25
352.538	424.25
352.765	430.25
352.992	441.25
353.22	429.25
353.447	429.25
353.674	420.25
353.901	398.25
354.128	415.25
354.355	403.25
354.583	396.25
354.81	394.25
355.037	412.25
355.264	419.25
355.491	382.25
355.718	385.25
355.945	388.25
356.172	410.25
356.399	389.25
356.626	409.25
356.853	410.25
357.08	395.25
357.307	400.25
357.534	404.25
357.761	393.25
357.988	421.25
358.215	403.25
358.441	405.25
358.668	410.25
358.895	396.25
359.122	434.25
359.349	397.25
359.576	411.25
359.802	439.25
360.029	465.25
360.256	467.25
360.483	448.25
360.709	439.25
360.936	415.25
361.163	439.25
361.39	415.25
361.616	426.25
361.843	420.25
362.07	421.25
362.296	416.25
362.523	423.25
362.749	422.25
362.976	426.25
363.203	402.25
363.429	399.25
363.656	415.25
363.882	414.25
364.109	410.25
364.335	413.25
364.562	423.25
364.788	387.25
365.015	389.25
365.241	413.25
365.468	403.25
365.694	434.25
365.92	412.25
366.147	409.25
366.373	404.25
366.599	420.25
366.826	399.25
367.052	411.25
367.278	427.25
367.505	408.25
367.731	419.25
367.957	416.25
368.184	408.25
368.41	418.25
368.636	419.25
368.862	428.25
369.089	427.25
369.315	410.25
369.541	418.25
369.767	419.25
369.993	397.25
370.219	405.25
370.445	403.25
370.672	423.25
370.898	413.25
371.124	394.25
371.35	425.25
371.576	437.25
371.802	434.25
372.028	434.25
372.254	423.25
372.48	422.25
372.706	426.25
372.932	424.25
373.158	419.25
373.384	414.25
373.61	441.25
373.835	426.25
374.061	400.25
374.287	440.25
374.513	426.25
374.739	466.25
374.965	434.25
375.191	444.25
375.416	449.25
375.642	412.25
375.868	423.25
376.094	433.25
376.319	421.25
376.545	422.25
376.771	417.25
376.997	426.25
377.222	414.25
377.448	419.25
377.674	424.25
377.899	411.25
378.125	409.25
378.35	412.25
378.576	422.25
378.802	408.25
379.027	409.25
379.253	445.25
379.478	415.25
379.704	425.25
379.929	421.25
380.155	423.25
380.38	415.25
380.606	423.25
380.831	426.25
381.057	430.25
381.282	421.25
381.507	418.25
381.733	433.25
381.958	417.25
382.184	423.25
382.409	419.25
382.634	431.25
382.86	453.25
383.085	445.25
383.31	447.25
383.535	449.25
383.761	466.25
383.986	448.25
384.211	455.25
384.436	449.25
384.662	473.25
384.887	459.25
385.112	455.25
385.337	464.25
385.562	472.25
385.787	486.25
386.013	482.25
386.238	469.25
386.463	463.25
386.688	486.25
386.913	482.25
387.138	489.25
387.363	486.25
387.588	471.25
387.813	464.25
388.038	474.25
388.263	453.25
388.488	495.25
388.713	469.25
388.938	475.25
389.163	470.25
389.387	490.25
389.612	494.25
389.837	472.25
390.062	449.25
390.287	485.25
390.512	458.25
390.736	473.25
390.961	485.25
391.186	489.25
391.411	480.25
391.636	473.25
391.86	502.25
392.085	468.25
392.31	486.25
392.534	504.25
392.759	489.25
392.984	486.25
393.208	473.25
393.433	497.25
393.658	473.25
393.882	491.25
394.107	473.25
394.331	487.25
394.556	485.25
394.78	482.25
395.005	508.25
395.229	487.25
395.454	523.25
395.678	482.25
395.903	526.25
396.127	531.25
396.352	529.25
396.576	520.25
396.801	504.25
397.025	508.25
397.249	521.25
397.474	517.25
397.698	528.25
397.922	525.25
398.147	547.25
398.371	531.25
398.595	558.25
398.82	573.25
399.044	575.25
399.268	581.25
399.492	626.25
399.717	651.25
399.941	689.25
400.165	691.25
400.389	672.25
400.613	618.25
400.837	604.25
401.062	573.25
401.286	567.25
401.51	569.25
401.734	549.25
401.958	553.25
402.182	560.25
402.406	559.25
402.63	545.25
402.854	577.25
403.078	577.25
403.302	588.25
403.526	559.25
403.75	589.25
403.974	597.25
404.198	581.25
404.422	594.25
404.645	575.25
404.869	565.25
405.093	619.25
405.317	669.25
405.541	693.25
405.765	648.25
405.988	605.25
406.212	613.25
406.436	620.25
406.66	657.25
406.883	614.25
407.107	631.25
407.331	669.25
407.555	749.25
407.778	740.25
408.002	706.25
408.226	630.25
408.449	635.25
408.673	610.25
408.896	637.25
409.12	699.25
409.344	663.25
409.567	611.25
409.791	597.25
410.014	577.25
410.238	570.25
410.461	590.25
410.685	580.25
410.908	603.25
411.132	637.25
411.355	663.25
411.578	632.25
411.802	590.25
412.025	580.25
412.249	577.25
412.472	624.25
412.695	641.25
412.919	644.25
413.142	603.25
413.365	598.25
413.589	576.25
413.812	565.25
414.035	559.25
414.258	538.25
414.482	556.25
414.705	552.25
414.928	551.25
415.151	541.25
415.374	539.25
415.597	536.25
415.821	541.25
416.044	551.25
416.267	548.25
416.49	537.25
416.713	545.25
416.936	536.25
417.159	537.25
417.382	553.25
417.605	556.25
417.828	554.25
418.051	593.25
418.274	565.25
418.497	532.25
418.72	527.25
418.943	557.25
419.166	554.25
419.389	602.25
419.611	585.25
419.834	577.25
420.057	554.25
420.28	571.25
420.503	563.25
420.726	585.25
420.948	566.25
421.171	626.25
421.394	631.25
421.617	581.25
421.839	573.25
422.062	570.25
422.285	559.25
422.507	654.25
422.73	703.25
422.953	685.25
423.175	611.25
423.398	588.25
423.621	601.25
423.843	619.25
424.066	606.25
424.288	608.25
424.511	622.25
424.733	679.25
424.956	742.25
425.178	713.25
425.401	706.25
425.623	760.25
425.846	647.25
426.068	598.25
426.291	599.25
426.513	593.25
426.735	593.25
426.958	625.25
427.18	696.25
427.402	850.25
427.625	916.25
427.847	775.25
428.069	691.25
428.292	639.25
428.514	590.25
428.736	582.25
428.958	556.25
429.181	550.25
429.403	535.25
429.625	553.25
429.847	599.25
430.069	660.25
430.292	643.25
430.514	569.25
430.736	539.25
430.958	516.25
431.18	526.25
431.402	530.25
431.624	538.25
431.846	553.25
432.068	519.25
432.29	544.25
432.512	537.25
432.734	529.25
432.956	517.25
433.178	529.25
433.4	540.25
433.622	551.25
433.844	547.25
434.066	529.25
434.287	537.25
434.509	532.25
434.731	542.25
434.953	564.25
435.175	573.25
435.397	582.25
435.618	566.25
435.84	610.25
436.062	737.25
436.284	772.25
436.505	651.25
436.727	593.25
436.949	552.25
437.17	545.25
437.392	547.25
437.614	556.25
437.835	554.25
438.057	664.25
438.278	762.25
438.5	754.25
438.721	852.25
438.943	795.25
439.165	652.25
439.386	598.25
439.608	608.25
439.829	595.25
440.05	621.25
440.272	646.25
440.493	629.25
440.715	582.25
440.936	582.25
441.158	569.25
441.379	565.25
441.6	575.25
441.822	582.25
442.043	615.25
442.264	710.25
442.486	776.25
442.707	635.25
442.928	605.25
443.149	635.25
443.371	629.25
443.592	688.25
443.813	777.25
444.034	796.25
444.255	681.25
444.476	629.25
444.698	605.25
444.919	616.25
445.14	733.25
445.361	669.25
445.582	626.25
445.803	674.25
446.024	775.25
446.245	779.25
446.466	727.25
446.687	647.25
446.908	597.25
447.129	543.25
447.35	557.25
447.571	513.25
447.792	529.25
448.013	558.25
448.234	538.25
448.455	612.25
448.675	714.25
448.896	834.25
449.117	681.25
449.338	670.25
449.559	775.25
449.779	882.25
450	697.25
450.221	569.25
450.442	563.25
450.662	522.25
450.883	521.25
451.104	547.25
451.324	523.25
451.545	507.25
451.766	511.25
451.986	496.25
452.207	487.25
452.428	471.25
452.648	499.25
452.869	473.25
453.089	494.25
453.31	503.25
453.53	485.25
453.751	498.25
453.971	463.25
454.192	522.25
454.412	489.25
454.633	482.25
454.853	461.25
455.073	481.25
455.294	500.25
455.514	569.25
455.734	576.25
455.955	481.25
456.175	453.25
456.395	461.25
456.616	445.25
456.836	451.25
457.056	457.25
457.276	444.25
457.497	441.25
457.717	481.25
457.937	480.25
458.157	486.25
458.377	472.25
458.598	489.25
458.818	555.25
459.038	604.25
459.258	663.25
459.478	587.25
459.698	531.25
459.918	501.25
460.138	533.25
460.358	552.25
460.578	543.25
460.798	538.25
461.018	549.25
461.238	557.25
461.458	549.25
461.678	543.25
461.898	559.25
462.118	550.25
462.338	545.25
462.558	567.25
462.777	588.25
462.997	591.25
463.217	598.25
463.437	641.25
463.657	597.25
463.876	599.25
464.096	583.25
464.316	589.25
464.536	606.25
464.755	563.25
464.975	590.25
465.195	574.25
465.414	624.25
465.634	602.25
465.854	569.25
466.073	557.25
466.293	521.25
466.512	524.25
466.732	497.25
466.951	502.25
467.171	493.25
467.391	511.25
467.61	516.25
467.829	498.25
468.049	501.25
468.268	497.25
468.488	498.25
468.707	489.25
468.927	500.25
469.146	488.25
469.365	508.25
469.585	494.25
469.804	506.25
470.023	501.25
470.243	510.25
470.462	513.25
470.681	527.25
470.901	526.25
471.12	518.25
471.339	498.25
471.558	514.25
471.777	510.25
471.997	544.25
472.216	495.25
472.435	530.25
472.654	536.25
472.873	523.25
473.092	489.25
473.311	507.25
473.53	499.25
473.749	522.25
473.968	541.25
474.187	641.25
474.406	669.25
474.625	562.25
474.844	514.25
475.063	509.25
475.282	509.25
475.501	513.25
475.72	519.25
475.939	539.25
476.158	527.25
476.377	536.25
476.596	522.25
476.814	527.25
477.033	540.25
477.252	536.25
477.471	541.25
477.69	553.25
477.908	559.25
478.127	570.25
478.346	567.25
478.564	567.25
478.783	582.25
479.002	571.25
479.22	597.25
479.439	595.25
479.658	604.25
479.876	621.25
480.095	601.25
480.313	659.25
480.532	623.25
480.751	625.25
480.969	640.25
481.188	677.25
481.406	699.25
481.624	638.25
481.843	649.25
482.061	624.25
482.28	608.25
482.498	599.25
482.717	580.25
482.935	598.25
483.153	617.25
483.372	592.25
483.59	611.25
483.808	613.25
484.027	603.25
484.245	583.25
484.463	621.25
484.681	592.25
484.9	598.25
485.118	626.25
485.336	609.25
485.554	605.25
485.772	608.25
485.99	603.25
486.209	606.25
486.427	629.25
486.645	606.25
486.863	633.25
487.081	631.25
487.299	637.25
487.517	618.25
487.735	606.25
487.953	638.25
488.171	651.25
488.389	645.25
488.607	635.25
488.825	656.25
489.043	621.25
489.261	626.25
489.479	655.25
489.696	637.25
489.914	675.25
490.132	650.25
490.35	653.25
490.568	646.25
490.786	705.25
491.003	691.25
491.221	690.25
491.439	693.25
491.657	716.25
491.874	728.25
492.092	712.25
492.31	726.25
492.527	730.25
492.745	705.25
492.963	750.25
493.18	751.25
493.398	746.25
493.615	761.25
493.833	764.25
494.05	779.25
494.268	749.25
494.485	738.25
494.703	721.25
494.92	745.25
495.138	787.25
495.355	770.25
495.573	761.25
495.79	729.25
496.008	741.25
496.225	734.25
496.442	782.25
496.66	754.25
496.877	744.25
497.094	762.25
497.312	736.25
497.529	775.25
497.746	808.25
497.963	809.25
498.181	830.25
498.398	848.25
498.615	849.25
498.832	860.25
499.049	889.25
499.267	929.25
499.484	962.25
499.701	1017.25
499.918	1054.25
500.135	1118.25
500.352	1166.25
500.569	1226.25
500.786	1216.25
501.003	1159.25
501.22	1137.25
501.437	1098.25
501.654	1035.25
