Data from 1975.PennyLincolnUp.Lamp.En5.5.200Scan.071719.P1.Changed Mount._HRD10591_15-57-39-859.txt Node
Date: Thu Jul 18 15:57:39 EDT 2019
User: cochatt
Spectrometer: HR+D1059
Trigger mode: 1
Integration Time (sec): 1.000000E-1
Scans to average: 1
Electric dark correction enabled: true
Nonlinearity correction enabled: false
Boxcar width: 0
XAxis mode: Wavelengths
Number of Pixels in Spectrum: 2048
>>>>>Begin Spectral Data<<<<<
223.165	-13.94
223.4	-13.94
223.635	-13.94
223.869	-22.94
224.104	-18.94
224.338	-17.94
224.573	-13.94
224.808	-14.94
225.042	-2.94
225.277	-12.94
225.511	4.06
225.746	13.06
225.98	9.06
226.215	5.06
226.449	13.06
226.683	34.06
226.918	17.06
227.152	23.06
227.387	18.06
227.621	28.06
227.856	45.06
228.09	44.06
228.324	51.06
228.559	53.06
228.793	56.06
229.027	96.06
229.262	115.06
229.496	105.06
229.73	144.06
229.964	149.06
230.199	133.06
230.433	118.06
230.667	104.06
230.901	102.06
231.136	109.06
231.37	105.06
231.604	117.06
231.838	122.06
232.072	115.06
232.306	103.06
232.541	114.06
232.775	113.06
233.009	115.06
233.243	128.06
233.477	108.06
233.711	104.06
233.945	113.06
234.179	122.06
234.413	104.06
234.647	97.06
234.881	116.06
235.115	118.06
235.349	117.06
235.583	113.06
235.817	126.06
236.051	135.06
236.285	132.06
236.519	131.06
236.753	140.06
236.987	142.06
237.221	171.06
237.455	228.06
237.689	170.06
237.922	148.06
238.156	136.06
238.39	122.06
238.624	129.06
238.858	129.06
239.091	129.06
239.325	124.06
239.559	137.06
239.793	117.06
240.027	117.06
240.26	150.06
240.494	157.06
240.728	159.06
240.961	173.06
241.195	138.06
241.429	150.06
241.662	126.06
241.896	128.06
242.13	146.06
242.363	139.06
242.597	143.06
242.83	140.06
243.064	130.06
243.298	148.06
243.531	131.06
243.765	127.06
243.998	130.06
244.232	123.06
244.465	131.06
244.699	148.06
244.932	143.06
245.166	137.06
245.399	160.06
245.633	145.06
245.866	141.06
246.099	154.06
246.333	141.06
246.566	172.06
246.8	158.06
247.033	164.06
247.266	160.06
247.5	161.06
247.733	163.06
247.966	170.06
248.2	169.06
248.433	179.06
248.666	178.06
248.899	178.06
249.133	193.06
249.366	196.06
249.599	187.06
249.832	181.06
250.066	188.06
250.299	193.06
250.532	193.06
250.765	204.06
250.998	206.06
251.231	216.06
251.465	213.06
251.698	192.06
251.931	205.06
252.164	188.06
252.397	196.06
252.63	196.06
252.863	199.06
253.096	215.06
253.329	217.06
253.562	208.06
253.795	185.06
254.028	224.06
254.261	194.06
254.494	214.06
254.727	244.06
254.96	255.06
255.193	258.06
255.426	240.06
255.659	228.06
255.892	219.06
256.124	226.06
256.357	238.06
256.59	214.06
256.823	220.06
257.056	205.06
257.289	213.06
257.521	194.06
257.754	201.06
257.987	204.06
258.22	205.06
258.452	216.06
258.685	213.06
258.918	221.06
259.151	209.06
259.383	224.06
259.616	226.06
259.849	231.06
260.081	251.06
260.314	245.06
260.547	240.06
260.779	260.06
261.012	229.06
261.244	247.06
261.477	230.06
261.71	226.06
261.942	223.06
262.175	230.06
262.407	237.06
262.64	200.06
262.872	218.06
263.105	204.06
263.337	212.06
263.57	226.06
263.802	215.06
264.035	226.06
264.267	213.06
264.499	224.06
264.732	220.06
264.964	223.06
265.197	201.06
265.429	219.06
265.661	220.06
265.894	217.06
266.126	243.06
266.358	222.06
266.591	223.06
266.823	221.06
267.055	229.06
267.287	229.06
267.52	235.06
267.752	234.06
267.984	225.06
268.216	221.06
268.448	234.06
268.681	229.06
268.913	256.06
269.145	270.06
269.377	279.06
269.609	279.06
269.841	240.06
270.073	267.06
270.306	271.06
270.538	317.06
270.77	317.06
271.002	289.06
271.234	288.06
271.466	297.06
271.698	276.06
271.93	309.06
272.162	321.06
272.394	333.06
272.626	288.06
272.858	284.06
273.09	290.06
273.322	277.06
273.553	257.06
273.785	275.06
274.017	278.06
274.249	274.06
274.481	259.06
274.713	252.06
274.945	263.06
275.176	283.06
275.408	274.06
275.64	268.06
275.872	268.06
276.104	270.06
276.335	285.06
276.567	260.06
276.799	274.06
277.031	300.06
277.262	298.06
277.494	329.06
277.726	318.06
277.957	306.06
278.189	283.06
278.421	260.06
278.652	273.06
278.884	284.06
279.115	265.06
279.347	276.06
279.579	259.06
279.81	275.06
280.042	285.06
280.273	289.06
280.505	282.06
280.736	281.06
280.968	270.06
281.199	270.06
281.431	279.06
281.662	292.06
281.894	268.06
282.125	277.06
282.356	291.06
282.588	300.06
282.819	315.06
283.051	286.06
283.282	272.06
283.513	283.06
283.745	282.06
283.976	276.06
284.207	285.06
284.439	275.06
284.67	296.06
284.901	294.06
285.132	285.06
285.364	270.06
285.595	292.06
285.826	283.06
286.057	294.06
286.288	294.06
286.52	288.06
286.751	293.06
286.982	299.06
287.213	301.06
287.444	310.06
287.675	297.06
287.906	306.06
288.138	318.06
288.369	301.06
288.6	315.06
288.831	307.06
289.062	316.06
289.293	316.06
289.524	305.06
289.755	304.06
289.986	290.06
290.217	307.06
290.448	309.06
290.679	310.06
290.91	279.06
291.141	281.06
291.371	302.06
291.602	318.06
291.833	318.06
292.064	290.06
292.295	308.06
292.526	288.06
292.757	289.06
292.987	300.06
293.218	293.06
293.449	316.06
293.68	299.06
293.91	297.06
294.141	301.06
294.372	290.06
294.603	300.06
294.833	305.06
295.064	294.06
295.295	302.06
295.525	314.06
295.756	320.06
295.987	316.06
296.217	322.06
296.448	338.06
296.679	309.06
296.909	296.06
297.14	322.06
297.37	338.06
297.601	328.06
297.831	299.06
298.062	324.06
298.292	314.06
298.523	327.06
298.753	317.06
298.984	311.06
299.214	326.06
299.445	321.06
299.675	311.06
299.905	334.06
300.136	321.06
300.366	327.06
300.597	319.06
300.827	338.06
301.057	316.06
301.288	329.06
301.518	327.06
301.748	322.06
301.979	319.06
302.209	359.06
302.439	341.06
302.669	336.06
302.9	318.06
303.13	337.06
303.36	322.06
303.59	335.06
303.82	328.06
304.051	347.06
304.281	338.06
304.511	328.06
304.741	339.06
304.971	352.06
305.201	332.06
305.431	336.06
305.661	332.06
305.891	341.06
306.121	338.06
306.352	330.06
306.582	345.06
306.812	344.06
307.042	353.06
307.272	345.06
307.502	341.06
307.731	344.06
307.961	338.06
308.191	327.06
308.421	335.06
308.651	372.06
308.881	353.06
309.111	360.06
309.341	350.06
309.571	349.06
309.8	361.06
310.03	366.06
310.26	371.06
310.49	368.06
310.72	378.06
310.949	388.06
311.179	389.06
311.409	372.06
311.639	373.06
311.868	371.06
312.098	388.06
312.328	381.06
312.557	398.06
312.787	404.06
313.017	375.06
313.246	385.06
313.476	380.06
313.706	376.06
313.935	384.06
314.165	390.06
314.394	399.06
314.624	403.06
314.853	387.06
315.083	384.06
315.312	365.06
315.542	376.06
315.771	366.06
316.001	370.06
316.23	378.06
316.46	393.06
316.689	400.06
316.919	382.06
317.148	389.06
317.377	397.06
317.607	377.06
317.836	376.06
318.065	386.06
318.295	373.06
318.524	366.06
318.753	370.06
318.983	386.06
319.212	375.06
319.441	381.06
319.67	378.06
319.9	399.06
320.129	377.06
320.358	396.06
320.587	394.06
320.816	402.06
321.046	382.06
321.275	402.06
321.504	386.06
321.733	387.06
321.962	398.06
322.191	410.06
322.42	423.06
322.649	408.06
322.878	434.06
323.108	444.06
323.337	450.06
323.566	496.06
323.795	477.06
324.024	505.06
324.253	592.06
324.482	798.06
324.71	1221.06
324.939	1820.06
325.168	1618.06
325.397	846.06
325.626	568.06
325.855	505.06
326.084	474.06
326.313	448.06
326.542	467.06
326.77	499.06
326.999	555.06
327.228	750.06
327.457	1110.06
327.686	1408.06
327.914	948.06
328.143	616.06
328.372	576.06
328.6	523.06
328.829	514.06
329.058	540.06
329.287	548.06
329.515	530.06
329.744	521.06
329.972	473.06
330.201	512.06
330.43	535.06
330.658	552.06
330.887	561.06
331.115	562.06
331.344	497.06
331.572	482.06
331.801	475.06
332.03	483.06
332.258	460.06
332.486	459.06
332.715	472.06
332.943	459.06
333.172	452.06
333.4	472.06
333.629	480.06
333.857	473.06
334.085	505.06
334.314	545.06
334.542	520.06
334.771	553.06
334.999	524.06
335.227	516.06
335.455	483.06
335.684	489.06
335.912	451.06
336.14	448.06
336.369	449.06
336.597	450.06
336.825	458.06
337.053	465.06
337.281	436.06
337.51	450.06
337.738	467.06
337.966	433.06
338.194	448.06
338.422	452.06
338.65	466.06
338.878	456.06
339.106	449.06
339.334	459.06
339.562	434.06
339.79	441.06
340.018	438.06
340.246	436.06
340.474	442.06
340.702	432.06
340.93	444.06
341.158	438.06
341.386	446.06
341.614	426.06
341.842	446.06
342.07	420.06
342.298	444.06
342.526	412.06
342.754	425.06
342.981	414.06
343.209	428.06
343.437	427.06
343.665	443.06
343.893	456.06
344.12	447.06
344.348	457.06
344.576	441.06
344.804	433.06
345.031	459.06
345.259	462.06
345.487	435.06
345.714	442.06
345.942	423.06
346.17	428.06
346.397	440.06
346.625	441.06
346.853	413.06
347.08	406.06
347.308	423.06
347.535	418.06
347.763	418.06
347.99	436.06
348.218	408.06
348.445	426.06
348.673	430.06
348.9	427.06
349.128	429.06
349.355	402.06
349.583	426.06
349.81	422.06
350.037	421.06
350.265	385.06
350.492	392.06
350.72	413.06
350.947	410.06
351.174	386.06
351.402	422.06
351.629	425.06
351.856	416.06
352.083	426.06
352.311	417.06
352.538	423.06
352.765	421.06
352.992	404.06
353.22	418.06
353.447	435.06
353.674	420.06
353.901	400.06
354.128	407.06
354.355	421.06
354.583	398.06
354.81	406.06
355.037	379.06
355.264	402.06
355.491	384.06
355.718	396.06
355.945	412.06
356.172	410.06
356.399	428.06
356.626	407.06
356.853	390.06
357.08	416.06
357.307	400.06
357.534	405.06
357.761	394.06
357.988	390.06
358.215	403.06
358.441	386.06
358.668	382.06
358.895	409.06
359.122	399.06
359.349	408.06
359.576	406.06
359.802	415.06
360.029	430.06
360.256	479.06
360.483	446.06
360.709	416.06
360.936	404.06
361.163	413.06
361.39	406.06
361.616	427.06
361.843	427.06
362.07	418.06
362.296	422.06
362.523	417.06
362.749	419.06
362.976	410.06
363.203	422.06
363.429	427.06
363.656	409.06
363.882	403.06
364.109	426.06
364.335	413.06
364.562	427.06
364.788	406.06
365.015	404.06
365.241	417.06
365.468	433.06
365.694	409.06
365.92	433.06
366.147	425.06
366.373	418.06
366.599	406.06
366.826	408.06
367.052	384.06
367.278	407.06
367.505	411.06
367.731	441.06
367.957	418.06
368.184	408.06
368.41	427.06
368.636	427.06
368.862	441.06
369.089	430.06
369.315	416.06
369.541	417.06
369.767	392.06
369.993	387.06
370.219	406.06
370.445	410.06
370.672	406.06
370.898	398.06
371.124	417.06
371.35	414.06
371.576	398.06
371.802	410.06
372.028	398.06
372.254	428.06
372.48	401.06
372.706	416.06
372.932	436.06
373.158	400.06
373.384	407.06
373.61	420.06
373.835	432.06
374.061	419.06
374.287	425.06
374.513	435.06
374.739	413.06
374.965	446.06
375.191	432.06
375.416	438.06
375.642	448.06
375.868	428.06
376.094	443.06
376.319	399.06
376.545	429.06
376.771	428.06
376.997	422.06
377.222	429.06
377.448	431.06
377.674	395.06
377.899	406.06
378.125	434.06
378.35	413.06
378.576	435.06
378.802	425.06
379.027	426.06
379.253	416.06
379.478	417.06
379.704	427.06
379.929	434.06
380.155	408.06
380.38	414.06
380.606	421.06
380.831	398.06
381.057	419.06
381.282	404.06
381.507	419.06
381.733	445.06
381.958	414.06
382.184	406.06
382.409	405.06
382.634	418.06
382.86	430.06
383.085	440.06
383.31	435.06
383.535	441.06
383.761	433.06
383.986	450.06
384.211	462.06
384.436	466.06
384.662	450.06
384.887	457.06
385.112	473.06
385.337	469.06
385.562	492.06
385.787	489.06
386.013	481.06
386.238	474.06
386.463	461.06
386.688	473.06
386.913	487.06
387.138	461.06
387.363	489.06
387.588	461.06
387.813	451.06
388.038	474.06
388.263	476.06
388.488	477.06
388.713	470.06
388.938	477.06
389.163	452.06
389.387	455.06
389.612	454.06
389.837	453.06
390.062	440.06
390.287	479.06
390.512	436.06
390.736	475.06
390.961	466.06
391.186	473.06
391.411	473.06
391.636	471.06
391.86	473.06
392.085	491.06
392.31	485.06
392.534	488.06
392.759	485.06
392.984	467.06
393.208	486.06
393.433	485.06
393.658	461.06
393.882	466.06
394.107	467.06
394.331	475.06
394.556	476.06
394.78	484.06
395.005	485.06
395.229	468.06
395.454	514.06
395.678	501.06
395.903	507.06
396.127	516.06
396.352	536.06
396.576	505.06
396.801	488.06
397.025	481.06
397.249	498.06
397.474	518.06
397.698	523.06
397.922	518.06
398.147	538.06
398.371	542.06
398.595	534.06
398.82	530.06
399.044	547.06
399.268	586.06
399.492	636.06
399.717	660.06
399.941	667.06
400.165	693.06
400.389	674.06
400.613	612.06
400.837	576.06
401.062	568.06
401.286	580.06
401.51	575.06
401.734	555.06
401.958	574.06
402.182	545.06
402.406	568.06
402.63	570.06
402.854	564.06
403.078	565.06
403.302	570.06
403.526	555.06
403.75	572.06
403.974	568.06
404.198	557.06
404.422	604.06
404.645	587.06
404.869	596.06
405.093	617.06
405.317	654.06
405.541	693.06
405.765	627.06
405.988	608.06
406.212	600.06
406.436	618.06
406.66	609.06
406.883	622.06
407.107	641.06
407.331	646.06
407.555	753.06
407.778	738.06
408.002	673.06
408.226	649.06
408.449	649.06
408.673	626.06
408.896	654.06
409.12	688.06
409.344	658.06
409.567	604.06
409.791	615.06
410.014	583.06
410.238	570.06
410.461	579.06
410.685	600.06
410.908	575.06
411.132	624.06
411.355	637.06
411.578	613.06
411.802	589.06
412.025	566.06
412.249	572.06
412.472	617.06
412.695	646.06
412.919	628.06
413.142	595.06
413.365	556.06
413.589	545.06
413.812	547.06
414.035	567.06
414.258	571.06
414.482	548.06
414.705	555.06
414.928	539.06
415.151	543.06
415.374	568.06
415.597	515.06
415.821	518.06
416.044	542.06
416.267	546.06
416.49	532.06
416.713	549.06
416.936	526.06
417.159	530.06
417.382	563.06
417.605	542.06
417.828	561.06
418.051	574.06
418.274	548.06
418.497	521.06
418.72	536.06
418.943	553.06
419.166	576.06
419.389	585.06
419.611	570.06
419.834	584.06
420.057	578.06
420.28	579.06
420.503	555.06
420.726	550.06
420.948	576.06
421.171	612.06
421.394	637.06
421.617	584.06
421.839	548.06
422.062	570.06
422.285	574.06
422.507	636.06
422.73	733.06
422.953	677.06
423.175	593.06
423.398	573.06
423.621	596.06
423.843	609.06
424.066	588.06
424.288	603.06
424.511	604.06
424.733	643.06
424.956	756.06
425.178	720.06
425.401	712.06
425.623	726.06
425.846	638.06
426.068	595.06
426.291	602.06
426.513	597.06
426.735	611.06
426.958	639.06
427.18	731.06
427.402	840.06
427.625	908.06
427.847	787.06
428.069	701.06
428.292	635.06
428.514	586.06
428.736	567.06
428.958	587.06
429.181	547.06
429.403	546.06
429.625	568.06
429.847	590.06
430.069	655.06
430.292	642.06
430.514	563.06
430.736	548.06
430.958	536.06
431.18	526.06
431.402	535.06
431.624	487.06
431.846	514.06
432.068	516.06
432.29	514.06
432.512	521.06
432.734	507.06
432.956	523.06
433.178	532.06
433.4	548.06
433.622	508.06
433.844	532.06
434.066	522.06
434.287	524.06
434.509	527.06
434.731	557.06
434.953	550.06
435.175	564.06
435.397	610.06
435.618	589.06
435.84	612.06
436.062	708.06
436.284	802.06
436.505	660.06
436.727	589.06
436.949	568.06
437.17	545.06
437.392	544.06
437.614	558.06
437.835	570.06
438.057	653.06
438.278	756.06
438.5	769.06
438.721	851.06
438.943	800.06
439.165	654.06
439.386	608.06
439.608	601.06
439.829	584.06
440.05	605.06
440.272	658.06
440.493	613.06
440.715	573.06
440.936	541.06
441.158	546.06
441.379	565.06
441.6	572.06
441.822	598.06
442.043	625.06
442.264	734.06
442.486	748.06
442.707	646.06
442.928	624.06
443.149	621.06
443.371	646.06
443.592	668.06
443.813	758.06
444.034	827.06
444.255	684.06
444.476	646.06
444.698	629.06
444.919	611.06
445.14	735.06
445.361	679.06
445.582	654.06
445.803	693.06
446.024	792.06
446.245	821.06
446.466	760.06
446.687	614.06
446.908	587.06
447.129	563.06
447.35	528.06
447.571	534.06
447.792	533.06
448.013	541.06
448.234	541.06
448.455	604.06
448.675	712.06
448.896	846.06
449.117	709.06
449.338	647.06
449.559	765.06
449.779	867.06
450	710.06
450.221	596.06
450.442	537.06
450.662	498.06
450.883	524.06
451.104	535.06
451.324	520.06
451.545	515.06
451.766	501.06
451.986	464.06
452.207	463.06
452.428	472.06
452.648	493.06
452.869	488.06
453.089	494.06
453.31	508.06
453.53	495.06
453.751	475.06
453.971	478.06
454.192	484.06
454.412	488.06
454.633	509.06
454.853	466.06
455.073	490.06
455.294	497.06
455.514	572.06
455.734	543.06
455.955	466.06
456.175	461.06
456.395	462.06
456.616	455.06
456.836	462.06
457.056	440.06
457.276	459.06
457.497	458.06
457.717	453.06
457.937	477.06
458.157	470.06
458.377	481.06
458.598	515.06
458.818	548.06
459.038	604.06
459.258	627.06
459.478	554.06
459.698	511.06
459.918	519.06
460.138	540.06
460.358	548.06
460.578	544.06
460.798	540.06
461.018	544.06
461.238	551.06
461.458	530.06
461.678	552.06
461.898	552.06
462.118	525.06
462.338	563.06
462.558	547.06
462.777	542.06
462.997	606.06
463.217	609.06
463.437	621.06
463.657	591.06
463.876	573.06
464.096	599.06
464.316	607.06
464.536	585.06
464.755	583.06
464.975	578.06
465.195	597.06
465.414	638.06
465.634	591.06
465.854	553.06
466.073	526.06
466.293	493.06
466.512	522.06
466.732	502.06
466.951	502.06
467.171	484.06
467.391	497.06
467.61	530.06
467.829	527.06
468.049	509.06
468.268	504.06
468.488	501.06
468.707	487.06
468.927	507.06
469.146	489.06
469.365	498.06
469.585	491.06
469.804	493.06
470.023	498.06
470.243	482.06
470.462	515.06
470.681	519.06
470.901	525.06
471.12	489.06
471.339	491.06
471.558	525.06
471.777	527.06
471.997	506.06
472.216	527.06
472.435	555.06
472.654	522.06
472.873	516.06
473.092	482.06
473.311	508.06
473.53	496.06
473.749	539.06
473.968	548.06
474.187	642.06
474.406	661.06
474.625	587.06
474.844	516.06
475.063	513.06
475.282	484.06
475.501	502.06
475.72	517.06
475.939	530.06
476.158	506.06
476.377	515.06
476.596	516.06
476.814	522.06
477.033	535.06
477.252	546.06
477.471	555.06
477.69	541.06
477.908	562.06
478.127	584.06
478.346	552.06
478.564	575.06
478.783	580.06
479.002	590.06
479.22	589.06
479.439	594.06
479.658	610.06
479.876	619.06
480.095	643.06
480.313	662.06
480.532	640.06
480.751	629.06
480.969	627.06
481.188	678.06
481.406	715.06
481.624	621.06
481.843	608.06
482.061	601.06
482.28	607.06
482.498	580.06
482.717	590.06
482.935	594.06
483.153	580.06
483.372	604.06
483.59	601.06
483.808	594.06
484.027	588.06
484.245	589.06
484.463	606.06
484.681	605.06
484.9	601.06
485.118	601.06
485.336	631.06
485.554	603.06
485.772	606.06
485.99	619.06
486.209	623.06
486.427	608.06
486.645	620.06
486.863	640.06
487.081	630.06
487.299	636.06
487.517	622.06
487.735	619.06
487.953	644.06
488.171	644.06
488.389	610.06
488.607	652.06
488.825	619.06
489.043	629.06
489.261	638.06
489.479	649.06
489.696	664.06
489.914	650.06
490.132	646.06
490.35	621.06
490.568	685.06
490.786	667.06
491.003	701.06
491.221	720.06
491.439	710.06
491.657	706.06
491.874	686.06
492.092	729.06
492.31	726.06
492.527	745.06
492.745	732.06
492.963	733.06
493.18	722.06
493.398	708.06
493.615	781.06
493.833	748.06
494.05	756.06
494.268	746.06
494.485	733.06
494.703	747.06
494.92	748.06
495.138	776.06
495.355	760.06
495.573	763.06
495.79	769.06
496.008	754.06
496.225	772.06
496.442	779.06
496.66	756.06
496.877	766.06
497.094	769.06
497.312	777.06
497.529	790.06
497.746	780.06
497.963	789.06
498.181	821.06
498.398	833.06
498.615	878.06
498.832	882.06
499.049	918.06
499.267	934.06
499.484	972.06
499.701	997.06
499.918	1050.06
500.135	1131.06
500.352	1164.06
500.569	1208.06
500.786	1242.06
501.003	1184.06
501.22	1156.06
501.437	1068.06
501.654	1021.06
