Data from 1975.PennyLincolnUp.Lamp.En5.5.200Scan.071719.P1.Changed Mount._HRD10591_15-57-18-860.txt Node
Date: Thu Jul 18 15:57:18 EDT 2019
User: cochatt
Spectrometer: HR+D1059
Trigger mode: 1
Integration Time (sec): 1.000000E-1
Scans to average: 1
Electric dark correction enabled: true
Nonlinearity correction enabled: false
Boxcar width: 0
XAxis mode: Wavelengths
Number of Pixels in Spectrum: 2048
>>>>>Begin Spectral Data<<<<<
223.165	-8.56
223.4	-8.56
223.635	-8.56
223.869	-6.56
224.104	-11.56
224.338	-14.56
224.573	-3.56
224.808	-15.56
225.042	-13.56
225.277	-15.56
225.511	-2.56
225.746	1.44
225.98	-6.56
226.215	-2.56
226.449	26.44
226.683	15.44
226.918	32.44
227.152	25.44
227.387	33.44
227.621	45.44
227.856	49.44
228.09	23.44
228.324	60.44
228.559	68.44
228.793	69.44
229.027	99.44
229.262	112.44
229.496	117.44
229.73	128.44
229.964	168.44
230.199	130.44
230.433	122.44
230.667	116.44
230.901	121.44
231.136	113.44
231.37	103.44
231.604	113.44
231.838	119.44
232.072	116.44
232.306	119.44
232.541	111.44
232.775	118.44
233.009	109.44
233.243	112.44
233.477	126.44
233.711	122.44
233.945	125.44
234.179	114.44
234.413	121.44
234.647	125.44
234.881	116.44
235.115	123.44
235.349	118.44
235.583	116.44
235.817	122.44
236.051	127.44
236.285	134.44
236.519	122.44
236.753	134.44
236.987	148.44
237.221	188.44
237.455	236.44
237.689	183.44
237.922	138.44
238.156	144.44
238.39	135.44
238.624	124.44
238.858	123.44
239.091	130.44
239.325	119.44
239.559	134.44
239.793	137.44
240.027	139.44
240.26	138.44
240.494	160.44
240.728	152.44
240.961	167.44
241.195	158.44
241.429	132.44
241.662	141.44
241.896	157.44
242.13	153.44
242.363	141.44
242.597	126.44
242.83	131.44
243.064	155.44
243.298	139.44
243.531	144.44
243.765	153.44
243.998	140.44
244.232	142.44
244.465	148.44
244.699	150.44
244.932	156.44
245.166	145.44
245.399	150.44
245.633	150.44
245.866	149.44
246.099	140.44
246.333	147.44
246.566	172.44
246.8	168.44
247.033	144.44
247.266	158.44
247.5	172.44
247.733	196.44
247.966	175.44
248.2	170.44
248.433	190.44
248.666	184.44
248.899	208.44
249.133	200.44
249.366	211.44
249.599	195.44
249.832	199.44
250.066	210.44
250.299	187.44
250.532	206.44
250.765	200.44
250.998	227.44
251.231	236.44
251.465	234.44
251.698	215.44
251.931	193.44
252.164	203.44
252.397	203.44
252.63	209.44
252.863	198.44
253.096	226.44
253.329	229.44
253.562	212.44
253.795	223.44
254.028	226.44
254.261	220.44
254.494	239.44
254.727	261.44
254.96	297.44
255.193	263.44
255.426	262.44
255.659	247.44
255.892	240.44
256.124	243.44
256.357	267.44
256.59	231.44
256.823	219.44
257.056	217.44
257.289	220.44
257.521	201.44
257.754	210.44
257.987	209.44
258.22	197.44
258.452	230.44
258.685	216.44
258.918	218.44
259.151	229.44
259.383	224.44
259.616	228.44
259.849	225.44
260.081	240.44
260.314	280.44
260.547	266.44
260.779	254.44
261.012	258.44
261.244	235.44
261.477	246.44
261.71	237.44
261.942	233.44
262.175	248.44
262.407	236.44
262.64	220.44
262.872	220.44
263.105	211.44
263.337	225.44
263.57	231.44
263.802	234.44
264.035	206.44
264.267	220.44
264.499	228.44
264.732	218.44
264.964	213.44
265.197	228.44
265.429	223.44
265.661	241.44
265.894	218.44
266.126	229.44
266.358	224.44
266.591	230.44
266.823	233.44
267.055	231.44
267.287	254.44
267.52	233.44
267.752	235.44
267.984	245.44
268.216	257.44
268.448	236.44
268.681	226.44
268.913	236.44
269.145	266.44
269.377	292.44
269.609	301.44
269.841	281.44
270.073	282.44
270.306	301.44
270.538	336.44
270.77	335.44
271.002	304.44
271.234	312.44
271.466	317.44
271.698	315.44
271.93	333.44
272.162	336.44
272.394	337.44
272.626	311.44
272.858	301.44
273.09	294.44
273.322	271.44
273.553	284.44
273.785	263.44
274.017	269.44
274.249	275.44
274.481	278.44
274.713	269.44
274.945	270.44
275.176	274.44
275.408	269.44
275.64	283.44
275.872	263.44
276.104	286.44
276.335	295.44
276.567	285.44
276.799	293.44
277.031	306.44
277.262	320.44
277.494	344.44
277.726	337.44
277.957	308.44
278.189	276.44
278.421	299.44
278.652	274.44
278.884	295.44
279.115	292.44
279.347	277.44
279.579	262.44
279.81	285.44
280.042	287.44
280.273	274.44
280.505	280.44
280.736	284.44
280.968	310.44
281.199	272.44
281.431	278.44
281.662	292.44
281.894	287.44
282.125	292.44
282.356	298.44
282.588	323.44
282.819	322.44
283.051	294.44
283.282	312.44
283.513	314.44
283.745	302.44
283.976	300.44
284.207	304.44
284.439	293.44
284.67	302.44
284.901	305.44
285.132	309.44
285.364	305.44
285.595	305.44
285.826	293.44
286.057	292.44
286.288	306.44
286.52	307.44
286.751	310.44
286.982	314.44
287.213	316.44
287.444	319.44
287.675	314.44
287.906	330.44
288.138	341.44
288.369	318.44
288.6	339.44
288.831	316.44
289.062	326.44
289.293	317.44
289.524	313.44
289.755	323.44
289.986	315.44
290.217	321.44
290.448	318.44
290.679	304.44
290.91	298.44
291.141	318.44
291.371	308.44
291.602	308.44
291.833	312.44
292.064	339.44
292.295	332.44
292.526	319.44
292.757	321.44
292.987	334.44
293.218	329.44
293.449	323.44
293.68	329.44
293.91	317.44
294.141	305.44
294.372	320.44
294.603	293.44
294.833	320.44
295.064	330.44
295.295	325.44
295.525	312.44
295.756	325.44
295.987	324.44
296.217	328.44
296.448	355.44
296.679	341.44
296.909	315.44
297.14	321.44
297.37	330.44
297.601	335.44
297.831	343.44
298.062	326.44
298.292	329.44
298.523	326.44
298.753	305.44
298.984	341.44
299.214	343.44
299.445	349.44
299.675	334.44
299.905	329.44
300.136	328.44
300.366	336.44
300.597	325.44
300.827	343.44
301.057	365.44
301.288	334.44
301.518	346.44
301.748	350.44
301.979	353.44
302.209	352.44
302.439	362.44
302.669	339.44
302.9	357.44
303.13	361.44
303.36	351.44
303.59	335.44
303.82	364.44
304.051	366.44
304.281	373.44
304.511	350.44
304.741	338.44
304.971	358.44
305.201	372.44
305.431	344.44
305.661	344.44
305.891	350.44
306.121	334.44
306.352	351.44
306.582	364.44
306.812	343.44
307.042	354.44
307.272	346.44
307.502	351.44
307.731	349.44
307.961	365.44
308.191	355.44
308.421	338.44
308.651	375.44
308.881	342.44
309.111	372.44
309.341	359.44
309.571	368.44
309.8	368.44
310.03	383.44
310.26	383.44
310.49	385.44
310.72	394.44
310.949	386.44
311.179	420.44
311.409	393.44
311.639	383.44
311.868	403.44
312.098	407.44
312.328	403.44
312.557	388.44
312.787	413.44
313.017	412.44
313.246	398.44
313.476	395.44
313.706	390.44
313.935	375.44
314.165	397.44
314.394	416.44
314.624	395.44
314.853	398.44
315.083	391.44
315.312	381.44
315.542	412.44
315.771	399.44
316.001	387.44
316.23	388.44
316.46	388.44
316.689	377.44
316.919	384.44
317.148	420.44
317.377	399.44
317.607	398.44
317.836	380.44
318.065	396.44
318.295	405.44
318.524	386.44
318.753	394.44
318.983	389.44
319.212	380.44
319.441	402.44
319.67	410.44
319.9	416.44
320.129	390.44
320.358	397.44
320.587	393.44
320.816	406.44
321.046	413.44
321.275	417.44
321.504	398.44
321.733	406.44
321.962	414.44
322.191	446.44
322.42	432.44
322.649	460.44
322.878	468.44
323.108	434.44
323.337	485.44
323.566	492.44
323.795	483.44
324.024	521.44
324.253	610.44
324.482	832.44
324.71	1281.44
324.939	1912.44
325.168	1722.44
325.397	872.44
325.626	606.44
325.855	530.44
326.084	492.44
326.313	472.44
326.542	494.44
326.77	538.44
326.999	598.44
327.228	784.44
327.457	1183.44
327.686	1467.44
327.914	989.44
328.143	651.44
328.372	568.44
328.6	544.44
328.829	525.44
329.058	538.44
329.287	570.44
329.515	545.44
329.744	506.44
329.972	495.44
330.201	527.44
330.43	585.44
330.658	600.44
330.887	596.44
331.115	586.44
331.344	531.44
331.572	490.44
331.801	496.44
332.03	493.44
332.258	471.44
332.486	469.44
332.715	478.44
332.943	478.44
333.172	489.44
333.4	471.44
333.629	508.44
333.857	512.44
334.085	525.44
334.314	544.44
334.542	567.44
334.771	600.44
334.999	518.44
335.227	496.44
335.455	489.44
335.684	493.44
335.912	489.44
336.14	474.44
336.369	484.44
336.597	486.44
336.825	471.44
337.053	458.44
337.281	485.44
337.51	453.44
337.738	454.44
337.966	466.44
338.194	493.44
338.422	491.44
338.65	453.44
338.878	456.44
339.106	473.44
339.334	459.44
339.562	456.44
339.79	459.44
340.018	464.44
340.246	450.44
340.474	469.44
340.702	462.44
340.93	440.44
341.158	436.44
341.386	422.44
341.614	439.44
341.842	462.44
342.07	440.44
342.298	430.44
342.526	449.44
342.754	444.44
342.981	442.44
343.209	443.44
343.437	474.44
343.665	470.44
343.893	491.44
344.12	479.44
344.348	484.44
344.576	484.44
344.804	473.44
345.031	461.44
345.259	492.44
345.487	474.44
345.714	488.44
345.942	454.44
346.17	431.44
346.397	436.44
346.625	440.44
346.853	437.44
347.08	420.44
347.308	436.44
347.535	429.44
347.763	427.44
347.99	440.44
348.218	446.44
348.445	448.44
348.673	440.44
348.9	437.44
349.128	424.44
349.355	441.44
349.583	414.44
349.81	421.44
350.037	420.44
350.265	440.44
350.492	424.44
350.72	416.44
350.947	413.44
351.174	431.44
351.402	452.44
351.629	446.44
351.856	441.44
352.083	441.44
352.311	458.44
352.538	442.44
352.765	440.44
352.992	452.44
353.22	431.44
353.447	442.44
353.674	429.44
353.901	425.44
354.128	408.44
354.355	426.44
354.583	425.44
354.81	423.44
355.037	418.44
355.264	415.44
355.491	410.44
355.718	417.44
355.945	422.44
356.172	424.44
356.399	426.44
356.626	425.44
356.853	414.44
357.08	404.44
357.307	405.44
357.534	419.44
357.761	415.44
357.988	414.44
358.215	414.44
358.441	401.44
358.668	395.44
358.895	432.44
359.122	427.44
359.349	433.44
359.576	450.44
359.802	446.44
360.029	482.44
360.256	471.44
360.483	442.44
360.709	444.44
360.936	436.44
361.163	437.44
361.39	432.44
361.616	452.44
361.843	434.44
362.07	434.44
362.296	438.44
362.523	454.44
362.749	427.44
362.976	431.44
363.203	429.44
363.429	447.44
363.656	410.44
363.882	448.44
364.109	413.44
364.335	408.44
364.562	424.44
364.788	424.44
365.015	432.44
365.241	431.44
365.468	436.44
365.694	448.44
365.92	431.44
366.147	431.44
366.373	413.44
366.599	406.44
366.826	422.44
367.052	430.44
367.278	424.44
367.505	414.44
367.731	442.44
367.957	440.44
368.184	430.44
368.41	440.44
368.636	435.44
368.862	447.44
369.089	433.44
369.315	438.44
369.541	436.44
369.767	440.44
369.993	455.44
370.219	431.44
370.445	438.44
370.672	422.44
370.898	436.44
371.124	431.44
371.35	427.44
371.576	439.44
371.802	418.44
372.028	434.44
372.254	441.44
372.48	432.44
372.706	422.44
372.932	432.44
373.158	416.44
373.384	432.44
373.61	429.44
373.835	434.44
374.061	433.44
374.287	429.44
374.513	446.44
374.739	433.44
374.965	454.44
375.191	454.44
375.416	463.44
375.642	439.44
375.868	417.44
376.094	449.44
376.319	455.44
376.545	417.44
376.771	438.44
376.997	438.44
377.222	428.44
377.448	426.44
377.674	444.44
377.899	416.44
378.125	433.44
378.35	425.44
378.576	425.44
378.802	435.44
379.027	442.44
379.253	429.44
379.478	422.44
379.704	437.44
379.929	421.44
380.155	443.44
380.38	446.44
380.606	452.44
380.831	444.44
381.057	447.44
381.282	441.44
381.507	426.44
381.733	462.44
381.958	437.44
382.184	442.44
382.409	434.44
382.634	418.44
382.86	458.44
383.085	448.44
383.31	442.44
383.535	459.44
383.761	465.44
383.986	469.44
384.211	462.44
384.436	473.44
384.662	498.44
384.887	473.44
385.112	467.44
385.337	472.44
385.562	484.44
385.787	487.44
386.013	520.44
386.238	482.44
386.463	498.44
386.688	487.44
386.913	480.44
387.138	476.44
387.363	486.44
387.588	476.44
387.813	464.44
388.038	473.44
388.263	480.44
388.488	496.44
388.713	494.44
388.938	482.44
389.163	490.44
389.387	497.44
389.612	489.44
389.837	502.44
390.062	493.44
390.287	484.44
390.512	486.44
390.736	468.44
390.961	472.44
391.186	482.44
391.411	491.44
391.636	492.44
391.86	489.44
392.085	496.44
392.31	513.44
392.534	495.44
392.759	500.44
392.984	502.44
393.208	500.44
393.433	490.44
393.658	477.44
393.882	469.44
394.107	486.44
394.331	497.44
394.556	494.44
394.78	503.44
395.005	497.44
395.229	510.44
395.454	500.44
395.678	500.44
395.903	513.44
396.127	544.44
396.352	542.44
396.576	526.44
396.801	505.44
397.025	485.44
397.249	510.44
397.474	505.44
397.698	538.44
397.922	533.44
398.147	570.44
398.371	570.44
398.595	559.44
398.82	547.44
399.044	568.44
399.268	605.44
399.492	644.44
399.717	685.44
399.941	689.44
400.165	730.44
400.389	725.44
400.613	650.44
400.837	607.44
401.062	592.44
401.286	584.44
401.51	575.44
401.734	573.44
401.958	586.44
402.182	567.44
402.406	589.44
402.63	592.44
402.854	593.44
403.078	603.44
403.302	597.44
403.526	615.44
403.75	607.44
403.974	597.44
404.198	603.44
404.422	599.44
404.645	619.44
404.869	619.44
405.093	636.44
405.317	681.44
405.541	694.44
405.765	642.44
405.988	608.44
406.212	607.44
406.436	637.44
406.66	644.44
406.883	646.44
407.107	668.44
407.331	709.44
407.555	780.44
407.778	773.44
408.002	740.44
408.226	666.44
408.449	656.44
408.673	643.44
408.896	670.44
409.12	738.44
409.344	678.44
409.567	622.44
409.791	614.44
410.014	609.44
410.238	602.44
410.461	603.44
410.685	616.44
410.908	618.44
411.132	639.44
411.355	668.44
411.578	633.44
411.802	614.44
412.025	598.44
412.249	630.44
412.472	625.44
412.695	678.44
412.919	648.44
413.142	603.44
413.365	564.44
413.589	577.44
413.812	564.44
414.035	578.44
414.258	556.44
414.482	586.44
414.705	554.44
414.928	559.44
415.151	558.44
415.374	578.44
415.597	546.44
415.821	560.44
416.044	565.44
416.267	541.44
416.49	582.44
416.713	556.44
416.936	565.44
417.159	568.44
417.382	558.44
417.605	548.44
417.828	552.44
418.051	578.44
418.274	572.44
418.497	564.44
418.72	576.44
418.943	560.44
419.166	587.44
419.389	623.44
419.611	609.44
419.834	600.44
420.057	622.44
420.28	599.44
420.503	578.44
420.726	594.44
420.948	596.44
421.171	640.44
421.394	663.44
421.617	612.44
421.839	623.44
422.062	588.44
422.285	595.44
422.507	664.44
422.73	720.44
422.953	695.44
423.175	625.44
423.398	600.44
423.621	607.44
423.843	629.44
424.066	633.44
424.288	613.44
424.511	638.44
424.733	694.44
424.956	794.44
425.178	735.44
425.401	734.44
425.623	782.44
425.846	688.44
426.068	625.44
426.291	612.44
426.513	619.44
426.735	598.44
426.958	648.44
427.18	736.44
427.402	885.44
427.625	948.44
427.847	805.44
428.069	704.44
428.292	667.44
428.514	599.44
428.736	560.44
428.958	558.44
429.181	552.44
429.403	575.44
429.625	575.44
429.847	601.44
430.069	676.44
430.292	675.44
430.514	564.44
430.736	583.44
430.958	552.44
431.18	543.44
431.402	553.44
431.624	544.44
431.846	532.44
432.068	543.44
432.29	558.44
432.512	526.44
432.734	573.44
432.956	540.44
433.178	545.44
433.4	553.44
433.622	577.44
433.844	542.44
434.066	538.44
434.287	547.44
434.509	554.44
434.731	553.44
434.953	585.44
435.175	598.44
435.397	615.44
435.618	624.44
435.84	658.44
436.062	769.44
436.284	817.44
436.505	680.44
436.727	604.44
436.949	587.44
437.17	592.44
437.392	557.44
437.614	607.44
437.835	601.44
438.057	703.44
438.278	800.44
438.5	801.44
438.721	903.44
438.943	848.44
439.165	680.44
439.386	638.44
439.608	625.44
439.829	608.44
440.05	628.44
440.272	687.44
440.493	641.44
440.715	609.44
440.936	580.44
441.158	559.44
441.379	596.44
441.6	611.44
441.822	617.44
442.043	667.44
442.264	749.44
442.486	796.44
442.707	695.44
442.928	634.44
443.149	635.44
443.371	634.44
443.592	716.44
443.813	791.44
444.034	872.44
444.255	737.44
444.476	656.44
444.698	659.44
444.919	658.44
445.14	760.44
445.361	700.44
445.582	666.44
445.803	719.44
446.024	824.44
446.245	811.44
446.466	772.44
446.687	653.44
446.908	619.44
447.129	577.44
447.35	557.44
447.571	577.44
447.792	544.44
448.013	551.44
448.234	552.44
448.455	629.44
448.675	756.44
448.896	854.44
449.117	715.44
449.338	685.44
449.559	802.44
449.779	916.44
450	729.44
450.221	628.44
450.442	594.44
450.662	541.44
450.883	547.44
451.104	554.44
451.324	539.44
451.545	532.44
451.766	493.44
451.986	511.44
452.207	500.44
452.428	468.44
452.648	501.44
452.869	520.44
453.089	504.44
453.31	525.44
453.53	516.44
453.751	511.44
453.971	481.44
454.192	548.44
454.412	507.44
454.633	475.44
454.853	504.44
455.073	486.44
455.294	522.44
455.514	585.44
455.734	564.44
455.955	498.44
456.175	475.44
456.395	477.44
456.616	468.44
456.836	478.44
457.056	466.44
457.276	441.44
457.497	485.44
457.717	468.44
457.937	489.44
458.157	504.44
458.377	479.44
458.598	520.44
458.818	578.44
459.038	611.44
459.258	673.44
459.478	572.44
459.698	544.44
459.918	520.44
460.138	546.44
460.358	553.44
460.578	590.44
460.798	572.44
461.018	569.44
461.238	582.44
461.458	558.44
461.678	567.44
461.898	574.44
462.118	582.44
462.338	570.44
462.558	574.44
462.777	595.44
462.997	609.44
463.217	619.44
463.437	652.44
463.657	604.44
463.876	623.44
464.096	612.44
464.316	609.44
464.536	612.44
464.755	617.44
464.975	597.44
465.195	612.44
465.414	657.44
465.634	597.44
465.854	576.44
466.073	550.44
466.293	513.44
466.512	533.44
466.732	508.44
466.951	526.44
467.171	513.44
467.391	508.44
467.61	532.44
467.829	528.44
468.049	531.44
468.268	536.44
468.488	509.44
468.707	507.44
468.927	522.44
469.146	517.44
469.365	521.44
469.585	509.44
469.804	517.44
470.023	523.44
470.243	526.44
470.462	536.44
470.681	540.44
470.901	542.44
471.12	524.44
471.339	519.44
471.558	525.44
471.777	530.44
471.997	532.44
472.216	536.44
472.435	562.44
472.654	544.44
472.873	527.44
473.092	524.44
473.311	507.44
473.53	502.44
473.749	540.44
473.968	575.44
474.187	663.44
474.406	694.44
474.625	602.44
474.844	517.44
475.063	528.44
475.282	524.44
475.501	536.44
475.72	526.44
475.939	534.44
476.158	545.44
476.377	553.44
476.596	537.44
476.814	550.44
477.033	560.44
477.252	552.44
477.471	560.44
477.69	569.44
477.908	568.44
478.127	592.44
478.346	605.44
478.564	578.44
478.783	612.44
479.002	592.44
479.22	622.44
479.439	618.44
479.658	628.44
479.876	612.44
480.095	624.44
480.313	649.44
480.532	686.44
480.751	648.44
480.969	649.44
481.188	714.44
481.406	743.44
481.624	664.44
481.843	651.44
482.061	634.44
482.28	608.44
482.498	605.44
482.717	601.44
482.935	622.44
483.153	600.44
483.372	618.44
483.59	622.44
483.808	606.44
484.027	612.44
484.245	604.44
484.463	614.44
484.681	618.44
484.9	621.44
485.118	628.44
485.336	623.44
485.554	635.44
485.772	616.44
485.99	636.44
486.209	644.44
486.427	641.44
486.645	638.44
486.863	659.44
487.081	662.44
487.299	662.44
487.517	671.44
487.735	664.44
487.953	642.44
488.171	661.44
488.389	684.44
488.607	649.44
488.825	640.44
489.043	654.44
489.261	652.44
489.479	680.44
489.696	680.44
489.914	687.44
490.132	686.44
490.35	676.44
490.568	680.44
490.786	711.44
491.003	704.44
491.221	745.44
491.439	740.44
491.657	741.44
491.874	790.44
492.092	748.44
492.31	771.44
492.527	754.44
492.745	772.44
492.963	764.44
493.18	767.44
493.398	781.44
493.615	775.44
493.833	774.44
494.05	780.44
494.268	786.44
494.485	775.44
494.703	769.44
494.92	792.44
495.138	770.44
495.355	810.44
495.573	797.44
495.79	783.44
496.008	801.44
496.225	809.44
496.442	820.44
496.66	785.44
496.877	778.44
497.094	800.44
497.312	806.44
497.529	809.44
497.746	825.44
497.963	834.44
498.181	859.44
498.398	880.44
498.615	885.44
498.832	929.44
499.049	907.44
499.267	950.44
499.484	1020.44
499.701	1058.44
499.918	1120.44
500.135	1171.44
500.352	1206.44
500.569	1279.44
500.786	1291.44
501.003	1230.44
501.22	1170.44
501.437	1136.44
501.654	1060.44
