Data from 1975.PennyLincolnUp.Lamp.En5.5.200Scan.071719.P1.Changed Mount._HRD10591_15-56-06-859.txt Node
Date: Thu Jul 18 15:56:06 EDT 2019
User: cochatt
Spectrometer: HR+D1059
Trigger mode: 1
Integration Time (sec): 1.000000E-1
Scans to average: 1
Electric dark correction enabled: true
Nonlinearity correction enabled: false
Boxcar width: 0
XAxis mode: Wavelengths
Number of Pixels in Spectrum: 2048
>>>>>Begin Spectral Data<<<<<
223.165	-26.81
223.4	-26.81
223.635	-26.81
223.869	-18.81
224.104	-14.81
224.338	-21.81
224.573	-25.81
224.808	-15.81
225.042	-12.81
225.277	-3.81
225.511	1.19
225.746	8.19
225.98	7.19
226.215	4.19
226.449	21.19
226.683	19.19
226.918	36.19
227.152	43.19
227.387	44.19
227.621	41.19
227.856	52.19
228.09	34.19
228.324	51.19
228.559	46.19
228.793	60.19
229.027	98.19
229.262	96.19
229.496	104.19
229.73	108.19
229.964	137.19
230.199	115.19
230.433	98.19
230.667	106.19
230.901	104.19
231.136	96.19
231.37	103.19
231.604	107.19
231.838	108.19
232.072	104.19
232.306	115.19
232.541	111.19
232.775	98.19
233.009	123.19
233.243	106.19
233.477	104.19
233.711	121.19
233.945	113.19
234.179	100.19
234.413	109.19
234.647	106.19
234.881	111.19
235.115	108.19
235.349	115.19
235.583	117.19
235.817	121.19
236.051	121.19
236.285	128.19
236.519	112.19
236.753	120.19
236.987	132.19
237.221	176.19
237.455	207.19
237.689	161.19
237.922	138.19
238.156	127.19
238.39	125.19
238.624	111.19
238.858	121.19
239.091	125.19
239.325	122.19
239.559	115.19
239.793	121.19
240.027	131.19
240.26	143.19
240.494	143.19
240.728	134.19
240.961	161.19
241.195	151.19
241.429	125.19
241.662	137.19
241.896	128.19
242.13	123.19
242.363	125.19
242.597	123.19
242.83	136.19
243.064	148.19
243.298	144.19
243.531	129.19
243.765	131.19
243.998	136.19
244.232	140.19
244.465	132.19
244.699	134.19
244.932	127.19
245.166	133.19
245.399	153.19
245.633	137.19
245.866	137.19
246.099	144.19
246.333	149.19
246.566	147.19
246.8	156.19
247.033	149.19
247.266	146.19
247.5	148.19
247.733	163.19
247.966	143.19
248.2	168.19
248.433	172.19
248.666	179.19
248.899	179.19
249.133	196.19
249.366	191.19
249.599	188.19
249.832	187.19
250.066	185.19
250.299	155.19
250.532	166.19
250.765	200.19
250.998	198.19
251.231	204.19
251.465	228.19
251.698	189.19
251.931	191.19
252.164	207.19
252.397	191.19
252.63	198.19
252.863	202.19
253.096	215.19
253.329	231.19
253.562	233.19
253.795	222.19
254.028	216.19
254.261	200.19
254.494	209.19
254.727	242.19
254.96	253.19
255.193	235.19
255.426	222.19
255.659	217.19
255.892	224.19
256.124	228.19
256.357	235.19
256.59	212.19
256.823	198.19
257.056	213.19
257.289	208.19
257.521	200.19
257.754	195.19
257.987	204.19
258.22	201.19
258.452	203.19
258.685	204.19
258.918	202.19
259.151	203.19
259.383	211.19
259.616	212.19
259.849	202.19
260.081	229.19
260.314	233.19
260.547	225.19
260.779	232.19
261.012	226.19
261.244	205.19
261.477	211.19
261.71	217.19
261.942	227.19
262.175	229.19
262.407	205.19
262.64	214.19
262.872	198.19
263.105	217.19
263.337	219.19
263.57	196.19
263.802	215.19
264.035	217.19
264.267	196.19
264.499	196.19
264.732	224.19
264.964	231.19
265.197	210.19
265.429	219.19
265.661	217.19
265.894	208.19
266.126	213.19
266.358	205.19
266.591	214.19
266.823	199.19
267.055	211.19
267.287	214.19
267.52	228.19
267.752	225.19
267.984	232.19
268.216	222.19
268.448	227.19
268.681	233.19
268.913	233.19
269.145	242.19
269.377	243.19
269.609	259.19
269.841	265.19
270.073	252.19
270.306	272.19
270.538	314.19
270.77	316.19
271.002	287.19
271.234	297.19
271.466	290.19
271.698	300.19
271.93	285.19
272.162	276.19
272.394	288.19
272.626	286.19
272.858	274.19
273.09	279.19
273.322	258.19
273.553	256.19
273.785	262.19
274.017	252.19
274.249	243.19
274.481	241.19
274.713	266.19
274.945	265.19
275.176	265.19
275.408	249.19
275.64	263.19
275.872	261.19
276.104	259.19
276.335	244.19
276.567	266.19
276.799	276.19
277.031	280.19
277.262	307.19
277.494	299.19
277.726	275.19
277.957	255.19
278.189	262.19
278.421	267.19
278.652	283.19
278.884	266.19
279.115	261.19
279.347	277.19
279.579	279.19
279.81	249.19
280.042	260.19
280.273	264.19
280.505	273.19
280.736	261.19
280.968	259.19
281.199	256.19
281.431	288.19
281.662	267.19
281.894	264.19
282.125	269.19
282.356	282.19
282.588	274.19
282.819	273.19
283.051	277.19
283.282	265.19
283.513	284.19
283.745	260.19
283.976	264.19
284.207	291.19
284.439	279.19
284.67	284.19
284.901	282.19
285.132	268.19
285.364	248.19
285.595	283.19
285.826	266.19
286.057	282.19
286.288	267.19
286.52	270.19
286.751	264.19
286.982	298.19
287.213	281.19
287.444	292.19
287.675	284.19
287.906	294.19
288.138	305.19
288.369	280.19
288.6	297.19
288.831	300.19
289.062	304.19
289.293	296.19
289.524	292.19
289.755	283.19
289.986	276.19
290.217	293.19
290.448	284.19
290.679	285.19
290.91	289.19
291.141	288.19
291.371	304.19
291.602	293.19
291.833	280.19
292.064	284.19
292.295	284.19
292.526	287.19
292.757	296.19
292.987	298.19
293.218	285.19
293.449	288.19
293.68	310.19
293.91	303.19
294.141	288.19
294.372	287.19
294.603	317.19
294.833	305.19
295.064	300.19
295.295	281.19
295.525	274.19
295.756	290.19
295.987	290.19
296.217	298.19
296.448	312.19
296.679	295.19
296.909	291.19
297.14	311.19
297.37	295.19
297.601	316.19
297.831	296.19
298.062	297.19
298.292	324.19
298.523	309.19
298.753	300.19
298.984	309.19
299.214	327.19
299.445	307.19
299.675	319.19
299.905	309.19
300.136	319.19
300.366	299.19
300.597	325.19
300.827	295.19
301.057	327.19
301.288	313.19
301.518	341.19
301.748	323.19
301.979	348.19
302.209	357.19
302.439	335.19
302.669	326.19
302.9	342.19
303.13	315.19
303.36	325.19
303.59	333.19
303.82	328.19
304.051	343.19
304.281	327.19
304.511	332.19
304.741	322.19
304.971	336.19
305.201	333.19
305.431	328.19
305.661	337.19
305.891	341.19
306.121	346.19
306.352	324.19
306.582	335.19
306.812	325.19
307.042	323.19
307.272	320.19
307.502	329.19
307.731	325.19
307.961	340.19
308.191	335.19
308.421	337.19
308.651	327.19
308.881	314.19
309.111	340.19
309.341	327.19
309.571	346.19
309.8	340.19
310.03	348.19
310.26	335.19
310.49	359.19
310.72	374.19
310.949	364.19
311.179	379.19
311.409	357.19
311.639	347.19
311.868	371.19
312.098	335.19
312.328	363.19
312.557	361.19
312.787	392.19
313.017	396.19
313.246	361.19
313.476	359.19
313.706	359.19
313.935	374.19
314.165	373.19
314.394	347.19
314.624	371.19
314.853	389.19
315.083	370.19
315.312	362.19
315.542	348.19
315.771	365.19
316.001	367.19
316.23	367.19
316.46	388.19
316.689	355.19
316.919	369.19
317.148	371.19
317.377	388.19
317.607	398.19
317.836	344.19
318.065	356.19
318.295	356.19
318.524	363.19
318.753	352.19
318.983	360.19
319.212	367.19
319.441	363.19
319.67	357.19
319.9	378.19
320.129	380.19
320.358	361.19
320.587	379.19
320.816	378.19
321.046	379.19
321.275	376.19
321.504	375.19
321.733	403.19
321.962	387.19
322.191	379.19
322.42	376.19
322.649	408.19
322.878	411.19
323.108	417.19
323.337	432.19
323.566	446.19
323.795	442.19
324.024	471.19
324.253	539.19
324.482	714.19
324.71	1095.19
324.939	1624.19
325.168	1471.19
325.397	753.19
325.626	515.19
325.855	461.19
326.084	440.19
326.313	443.19
326.542	444.19
326.77	490.19
326.999	536.19
327.228	668.19
327.457	999.19
327.686	1233.19
327.914	840.19
328.143	587.19
328.372	529.19
328.6	502.19
328.829	470.19
329.058	510.19
329.287	510.19
329.515	484.19
329.744	435.19
329.972	443.19
330.201	453.19
330.43	509.19
330.658	515.19
330.887	516.19
331.115	517.19
331.344	473.19
331.572	461.19
331.801	467.19
332.03	456.19
332.258	443.19
332.486	445.19
332.715	433.19
332.943	467.19
333.172	464.19
333.4	460.19
333.629	471.19
333.857	455.19
334.085	485.19
334.314	517.19
334.542	529.19
334.771	522.19
334.999	495.19
335.227	443.19
335.455	452.19
335.684	445.19
335.912	439.19
336.14	435.19
336.369	428.19
336.597	434.19
336.825	443.19
337.053	455.19
337.281	418.19
337.51	433.19
337.738	423.19
337.966	443.19
338.194	428.19
338.422	448.19
338.65	431.19
338.878	419.19
339.106	434.19
339.334	423.19
339.562	426.19
339.79	431.19
340.018	411.19
340.246	435.19
340.474	423.19
340.702	407.19
340.93	426.19
341.158	399.19
341.386	408.19
341.614	417.19
341.842	426.19
342.07	403.19
342.298	409.19
342.526	420.19
342.754	423.19
342.981	418.19
343.209	409.19
343.437	418.19
343.665	421.19
343.893	450.19
344.12	455.19
344.348	468.19
344.576	430.19
344.804	413.19
345.031	427.19
345.259	440.19
345.487	429.19
345.714	421.19
345.942	410.19
346.17	404.19
346.397	392.19
346.625	395.19
346.853	409.19
347.08	404.19
347.308	421.19
347.535	398.19
347.763	401.19
347.99	379.19
348.218	405.19
348.445	407.19
348.673	398.19
348.9	408.19
349.128	380.19
349.355	387.19
349.583	379.19
349.81	394.19
350.037	402.19
350.265	398.19
350.492	387.19
350.72	392.19
350.947	413.19
351.174	381.19
351.402	420.19
351.629	401.19
351.856	392.19
352.083	406.19
352.311	415.19
352.538	399.19
352.765	417.19
352.992	407.19
353.22	391.19
353.447	380.19
353.674	420.19
353.901	394.19
354.128	391.19
354.355	389.19
354.583	392.19
354.81	380.19
355.037	380.19
355.264	392.19
355.491	392.19
355.718	407.19
355.945	387.19
356.172	385.19
356.399	396.19
356.626	392.19
356.853	391.19
357.08	371.19
357.307	388.19
357.534	377.19
357.761	388.19
357.988	375.19
358.215	380.19
358.441	395.19
358.668	397.19
358.895	398.19
359.122	400.19
359.349	385.19
359.576	421.19
359.802	447.19
360.029	427.19
360.256	443.19
360.483	430.19
360.709	415.19
360.936	435.19
361.163	420.19
361.39	422.19
361.616	429.19
361.843	403.19
362.07	407.19
362.296	404.19
362.523	401.19
362.749	401.19
362.976	398.19
363.203	404.19
363.429	391.19
363.656	401.19
363.882	404.19
364.109	409.19
364.335	390.19
364.562	395.19
364.788	378.19
365.015	403.19
365.241	411.19
365.468	381.19
365.694	407.19
365.92	393.19
366.147	381.19
366.373	376.19
366.599	395.19
366.826	378.19
367.052	404.19
367.278	398.19
367.505	395.19
367.731	416.19
367.957	399.19
368.184	387.19
368.41	391.19
368.636	390.19
368.862	411.19
369.089	406.19
369.315	392.19
369.541	391.19
369.767	393.19
369.993	407.19
370.219	405.19
370.445	388.19
370.672	398.19
370.898	413.19
371.124	397.19
371.35	384.19
371.576	401.19
371.802	427.19
372.028	414.19
372.254	415.19
372.48	395.19
372.706	397.19
372.932	427.19
373.158	422.19
373.384	418.19
373.61	415.19
373.835	417.19
374.061	407.19
374.287	418.19
374.513	432.19
374.739	423.19
374.965	421.19
375.191	439.19
375.416	411.19
375.642	416.19
375.868	426.19
376.094	422.19
376.319	404.19
376.545	419.19
376.771	396.19
376.997	404.19
377.222	404.19
377.448	400.19
377.674	400.19
377.899	397.19
378.125	400.19
378.35	401.19
378.576	393.19
378.802	387.19
379.027	389.19
379.253	418.19
379.478	427.19
379.704	386.19
379.929	414.19
380.155	382.19
380.38	412.19
380.606	413.19
380.831	420.19
381.057	409.19
381.282	406.19
381.507	408.19
381.733	416.19
381.958	415.19
382.184	416.19
382.409	432.19
382.634	421.19
382.86	428.19
383.085	416.19
383.31	420.19
383.535	423.19
383.761	437.19
383.986	436.19
384.211	434.19
384.436	443.19
384.662	452.19
384.887	451.19
385.112	454.19
385.337	436.19
385.562	437.19
385.787	454.19
386.013	493.19
386.238	458.19
386.463	469.19
386.688	471.19
386.913	463.19
387.138	460.19
387.363	435.19
387.588	445.19
387.813	471.19
388.038	454.19
388.263	423.19
388.488	446.19
388.713	463.19
388.938	457.19
389.163	471.19
389.387	438.19
389.612	442.19
389.837	462.19
390.062	451.19
390.287	439.19
390.512	440.19
390.736	451.19
390.961	461.19
391.186	467.19
391.411	466.19
391.636	463.19
391.86	493.19
392.085	474.19
392.31	470.19
392.534	471.19
392.759	488.19
392.984	460.19
393.208	457.19
393.433	470.19
393.658	467.19
393.882	448.19
394.107	482.19
394.331	468.19
394.556	463.19
394.78	451.19
395.005	472.19
395.229	498.19
395.454	484.19
395.678	495.19
395.903	497.19
396.127	529.19
396.352	534.19
396.576	485.19
396.801	505.19
397.025	501.19
397.249	480.19
397.474	505.19
397.698	480.19
397.922	501.19
398.147	521.19
398.371	536.19
398.595	532.19
398.82	523.19
399.044	535.19
399.268	582.19
399.492	626.19
399.717	654.19
399.941	661.19
400.165	689.19
400.389	705.19
400.613	609.19
400.837	571.19
401.062	563.19
401.286	548.19
401.51	521.19
401.734	532.19
401.958	553.19
402.182	546.19
402.406	545.19
402.63	531.19
402.854	544.19
403.078	541.19
403.302	554.19
403.526	565.19
403.75	571.19
403.974	554.19
404.198	579.19
404.422	559.19
404.645	570.19
404.869	583.19
405.093	618.19
405.317	637.19
405.541	659.19
405.765	631.19
405.988	566.19
406.212	594.19
406.436	591.19
406.66	612.19
406.883	568.19
407.107	618.19
407.331	677.19
407.555	714.19
407.778	723.19
408.002	663.19
408.226	634.19
408.449	614.19
408.673	607.19
408.896	634.19
409.12	678.19
409.344	630.19
409.567	586.19
409.791	590.19
410.014	565.19
410.238	569.19
410.461	565.19
410.685	551.19
410.908	565.19
411.132	601.19
411.355	654.19
411.578	622.19
411.802	577.19
412.025	571.19
412.249	541.19
412.472	587.19
412.695	606.19
412.919	603.19
413.142	559.19
413.365	551.19
413.589	554.19
413.812	538.19
414.035	546.19
414.258	545.19
414.482	521.19
414.705	552.19
414.928	508.19
415.151	504.19
415.374	509.19
415.597	503.19
415.821	529.19
416.044	511.19
416.267	549.19
416.49	522.19
416.713	498.19
416.936	521.19
417.159	511.19
417.382	544.19
417.605	542.19
417.828	536.19
418.051	549.19
418.274	540.19
418.497	508.19
418.72	540.19
418.943	543.19
419.166	564.19
419.389	612.19
419.611	603.19
419.834	578.19
420.057	567.19
420.28	558.19
420.503	555.19
420.726	556.19
420.948	541.19
421.171	602.19
421.394	617.19
421.617	569.19
421.839	569.19
422.062	536.19
422.285	547.19
422.507	597.19
422.73	682.19
422.953	639.19
423.175	563.19
423.398	567.19
423.621	587.19
423.843	571.19
424.066	573.19
424.288	575.19
424.511	595.19
424.733	645.19
424.956	736.19
425.178	686.19
425.401	710.19
425.623	727.19
425.846	622.19
426.068	569.19
426.291	552.19
426.513	565.19
426.735	564.19
426.958	611.19
427.18	693.19
427.402	811.19
427.625	888.19
427.847	745.19
428.069	666.19
428.292	590.19
428.514	561.19
428.736	540.19
428.958	531.19
429.181	518.19
429.403	517.19
429.625	546.19
429.847	573.19
430.069	641.19
430.292	618.19
430.514	540.19
430.736	515.19
430.958	535.19
431.18	492.19
431.402	492.19
431.624	478.19
431.846	478.19
432.068	504.19
432.29	503.19
432.512	492.19
432.734	519.19
432.956	511.19
433.178	527.19
433.4	516.19
433.622	515.19
433.844	522.19
434.066	513.19
434.287	502.19
434.509	532.19
434.731	517.19
434.953	542.19
435.175	557.19
435.397	565.19
435.618	559.19
435.84	599.19
436.062	694.19
436.284	801.19
436.505	629.19
436.727	589.19
436.949	517.19
437.17	519.19
437.392	531.19
437.614	540.19
437.835	569.19
438.057	633.19
438.278	729.19
438.5	728.19
438.721	783.19
438.943	785.19
439.165	619.19
439.386	563.19
439.608	570.19
439.829	565.19
440.05	577.19
440.272	623.19
440.493	577.19
440.715	567.19
440.936	551.19
441.158	549.19
441.379	536.19
441.6	553.19
441.822	568.19
442.043	595.19
442.264	680.19
442.486	730.19
442.707	643.19
442.928	588.19
443.149	595.19
443.371	598.19
443.592	643.19
443.813	705.19
444.034	839.19
444.255	678.19
444.476	627.19
444.698	602.19
444.919	594.19
445.14	672.19
445.361	641.19
445.582	613.19
445.803	651.19
446.024	739.19
446.245	776.19
446.466	698.19
446.687	594.19
446.908	577.19
447.129	544.19
447.35	526.19
447.571	513.19
447.792	533.19
448.013	521.19
448.234	536.19
448.455	555.19
448.675	699.19
448.896	821.19
449.117	681.19
449.338	625.19
449.559	735.19
449.779	866.19
450	665.19
450.221	552.19
450.442	515.19
450.662	517.19
450.883	519.19
451.104	515.19
451.324	505.19
451.545	490.19
451.766	497.19
451.986	481.19
452.207	474.19
452.428	476.19
452.648	466.19
452.869	459.19
453.089	476.19
453.31	484.19
453.53	464.19
453.751	466.19
453.971	479.19
454.192	481.19
454.412	451.19
454.633	473.19
454.853	470.19
455.073	453.19
455.294	492.19
455.514	535.19
455.734	533.19
455.955	484.19
456.175	460.19
456.395	438.19
456.616	448.19
456.836	451.19
457.056	437.19
457.276	418.19
457.497	428.19
457.717	447.19
457.937	457.19
458.157	466.19
458.377	465.19
458.598	473.19
458.818	492.19
459.038	589.19
459.258	599.19
459.478	539.19
459.698	511.19
459.918	493.19
460.138	497.19
460.358	523.19
460.578	536.19
460.798	549.19
461.018	552.19
461.238	498.19
461.458	519.19
461.678	507.19
461.898	544.19
462.118	535.19
462.338	548.19
462.558	571.19
462.777	577.19
462.997	599.19
463.217	615.19
463.437	618.19
463.657	574.19
463.876	565.19
464.096	588.19
464.316	565.19
464.536	574.19
464.755	569.19
464.975	579.19
465.195	581.19
465.414	623.19
465.634	560.19
465.854	554.19
466.073	509.19
466.293	480.19
466.512	485.19
466.732	507.19
466.951	494.19
467.171	490.19
467.391	487.19
467.61	509.19
467.829	501.19
468.049	500.19
468.268	499.19
468.488	456.19
468.707	477.19
468.927	464.19
469.146	463.19
469.365	464.19
469.585	476.19
469.804	469.19
470.023	509.19
470.243	522.19
470.462	504.19
470.681	513.19
470.901	515.19
471.12	495.19
471.339	489.19
471.558	505.19
471.777	501.19
471.997	494.19
472.216	480.19
472.435	529.19
472.654	504.19
472.873	519.19
473.092	469.19
473.311	475.19
473.53	486.19
473.749	496.19
473.968	516.19
474.187	609.19
474.406	659.19
474.625	545.19
474.844	498.19
475.063	479.19
475.282	492.19
475.501	505.19
475.72	510.19
475.939	513.19
476.158	490.19
476.377	513.19
476.596	509.19
476.814	498.19
477.033	508.19
477.252	540.19
477.471	528.19
477.69	535.19
477.908	545.19
478.127	542.19
478.346	554.19
478.564	558.19
478.783	554.19
479.002	559.19
479.22	575.19
479.439	591.19
479.658	597.19
479.876	605.19
480.095	610.19
480.313	641.19
480.532	613.19
480.751	600.19
480.969	621.19
481.188	638.19
481.406	688.19
481.624	645.19
481.843	590.19
482.061	601.19
482.28	592.19
482.498	583.19
482.717	588.19
482.935	570.19
483.153	585.19
483.372	564.19
483.59	589.19
483.808	568.19
484.027	569.19
484.245	568.19
484.463	581.19
484.681	615.19
484.9	575.19
485.118	607.19
485.336	598.19
485.554	598.19
485.772	613.19
485.99	594.19
486.209	594.19
486.427	612.19
486.645	627.19
486.863	610.19
487.081	623.19
487.299	591.19
487.517	621.19
487.735	607.19
487.953	640.19
488.171	625.19
488.389	615.19
488.607	596.19
488.825	638.19
489.043	614.19
489.261	639.19
489.479	610.19
489.696	608.19
489.914	625.19
490.132	651.19
490.35	648.19
490.568	640.19
490.786	647.19
491.003	677.19
491.221	667.19
491.439	693.19
491.657	691.19
491.874	707.19
492.092	702.19
492.31	707.19
492.527	726.19
492.745	713.19
492.963	707.19
493.18	696.19
493.398	740.19
493.615	737.19
493.833	716.19
494.05	710.19
494.268	716.19
494.485	725.19
494.703	717.19
494.92	721.19
495.138	745.19
495.355	740.19
495.573	731.19
495.79	712.19
496.008	736.19
496.225	729.19
496.442	759.19
496.66	737.19
496.877	729.19
497.094	748.19
497.312	782.19
497.529	761.19
497.746	769.19
497.963	791.19
498.181	807.19
498.398	807.19
498.615	826.19
498.832	848.19
499.049	862.19
499.267	897.19
499.484	939.19
499.701	1007.19
499.918	1022.19
500.135	1104.19
500.352	1172.19
500.569	1195.19
500.786	1189.19
501.003	1175.19
501.22	1099.19
501.437	1073.19
501.654	1000.19
