Data from 1975.PennyLincolnUp.Lamp.En5.5.200Scan.071719.P1.Changed Mount._HRD10591_15-55-42-858.txt Node
Date: Thu Jul 18 15:55:42 EDT 2019
User: cochatt
Spectrometer: HR+D1059
Trigger mode: 1
Integration Time (sec): 1.000000E-1
Scans to average: 1
Electric dark correction enabled: true
Nonlinearity correction enabled: false
Boxcar width: 0
XAxis mode: Wavelengths
Number of Pixels in Spectrum: 2048
>>>>>Begin Spectral Data<<<<<
223.165	-10.75
223.4	-10.75
223.635	-10.75
223.869	-11.75
224.104	-17.75
224.338	-22.75
224.573	-21.75
224.808	-4.75
225.042	-10.75
225.277	-9.75
225.511	7.25
225.746	12.25
225.98	18.25
226.215	-0.75
226.449	5.25
226.683	23.25
226.918	25.25
227.152	19.25
227.387	42.25
227.621	22.25
227.856	52.25
228.09	53.25
228.324	65.25
228.559	56.25
228.793	71.25
229.027	90.25
229.262	91.25
229.496	101.25
229.73	117.25
229.964	133.25
230.199	116.25
230.433	106.25
230.667	114.25
230.901	118.25
231.136	102.25
231.37	108.25
231.604	98.25
231.838	106.25
232.072	100.25
232.306	117.25
232.541	110.25
232.775	113.25
233.009	119.25
233.243	89.25
233.477	107.25
233.711	103.25
233.945	98.25
234.179	119.25
234.413	105.25
234.647	133.25
234.881	115.25
235.115	118.25
235.349	106.25
235.583	103.25
235.817	114.25
236.051	106.25
236.285	107.25
236.519	122.25
236.753	125.25
236.987	146.25
237.221	157.25
237.455	181.25
237.689	163.25
237.922	129.25
238.156	126.25
238.39	125.25
238.624	134.25
238.858	125.25
239.091	125.25
239.325	119.25
239.559	116.25
239.793	128.25
240.027	134.25
240.26	129.25
240.494	141.25
240.728	153.25
240.961	156.25
241.195	148.25
241.429	126.25
241.662	127.25
241.896	132.25
242.13	129.25
242.363	129.25
242.597	131.25
242.83	123.25
243.064	135.25
243.298	122.25
243.531	123.25
243.765	129.25
243.998	137.25
244.232	126.25
244.465	129.25
244.699	131.25
244.932	147.25
245.166	138.25
245.399	137.25
245.633	132.25
245.866	143.25
246.099	147.25
246.333	149.25
246.566	139.25
246.8	138.25
247.033	166.25
247.266	139.25
247.5	145.25
247.733	157.25
247.966	152.25
248.2	155.25
248.433	157.25
248.666	183.25
248.899	175.25
249.133	190.25
249.366	179.25
249.599	194.25
249.832	179.25
250.066	157.25
250.299	182.25
250.532	179.25
250.765	190.25
250.998	226.25
251.231	210.25
251.465	209.25
251.698	188.25
251.931	170.25
252.164	173.25
252.397	197.25
252.63	187.25
252.863	187.25
253.096	203.25
253.329	203.25
253.562	210.25
253.795	203.25
254.028	200.25
254.261	188.25
254.494	186.25
254.727	206.25
254.96	243.25
255.193	231.25
255.426	229.25
255.659	204.25
255.892	191.25
256.124	207.25
256.357	209.25
256.59	205.25
256.823	193.25
257.056	209.25
257.289	206.25
257.521	177.25
257.754	207.25
257.987	212.25
258.22	204.25
258.452	200.25
258.685	210.25
258.918	195.25
259.151	201.25
259.383	186.25
259.616	226.25
259.849	201.25
260.081	202.25
260.314	218.25
260.547	232.25
260.779	230.25
261.012	220.25
261.244	211.25
261.477	189.25
261.71	206.25
261.942	211.25
262.175	207.25
262.407	219.25
262.64	202.25
262.872	199.25
263.105	193.25
263.337	188.25
263.57	193.25
263.802	209.25
264.035	199.25
264.267	205.25
264.499	204.25
264.732	197.25
264.964	191.25
265.197	202.25
265.429	201.25
265.661	202.25
265.894	201.25
266.126	208.25
266.358	199.25
266.591	219.25
266.823	217.25
267.055	206.25
267.287	221.25
267.52	190.25
267.752	218.25
267.984	190.25
268.216	196.25
268.448	227.25
268.681	240.25
268.913	231.25
269.145	248.25
269.377	264.25
269.609	258.25
269.841	237.25
270.073	246.25
270.306	260.25
270.538	286.25
270.77	266.25
271.002	264.25
271.234	269.25
271.466	259.25
271.698	276.25
271.93	278.25
272.162	282.25
272.394	282.25
272.626	257.25
272.858	251.25
273.09	243.25
273.322	263.25
273.553	234.25
273.785	237.25
274.017	259.25
274.249	253.25
274.481	247.25
274.713	234.25
274.945	255.25
275.176	237.25
275.408	241.25
275.64	253.25
275.872	231.25
276.104	236.25
276.335	245.25
276.567	249.25
276.799	271.25
277.031	275.25
277.262	286.25
277.494	296.25
277.726	265.25
277.957	264.25
278.189	267.25
278.421	280.25
278.652	265.25
278.884	270.25
279.115	245.25
279.347	263.25
279.579	267.25
279.81	261.25
280.042	245.25
280.273	259.25
280.505	243.25
280.736	252.25
280.968	249.25
281.199	250.25
281.431	242.25
281.662	251.25
281.894	262.25
282.125	271.25
282.356	261.25
282.588	287.25
282.819	273.25
283.051	279.25
283.282	266.25
283.513	270.25
283.745	267.25
283.976	276.25
284.207	257.25
284.439	266.25
284.67	280.25
284.901	275.25
285.132	278.25
285.364	277.25
285.595	273.25
285.826	262.25
286.057	259.25
286.288	263.25
286.52	272.25
286.751	267.25
286.982	277.25
287.213	287.25
287.444	276.25
287.675	279.25
287.906	279.25
288.138	273.25
288.369	270.25
288.6	293.25
288.831	298.25
289.062	289.25
289.293	284.25
289.524	293.25
289.755	277.25
289.986	286.25
290.217	272.25
290.448	282.25
290.679	284.25
290.91	258.25
291.141	261.25
291.371	281.25
291.602	270.25
291.833	284.25
292.064	262.25
292.295	283.25
292.526	287.25
292.757	288.25
292.987	256.25
293.218	277.25
293.449	265.25
293.68	261.25
293.91	270.25
294.141	279.25
294.372	272.25
294.603	277.25
294.833	295.25
295.064	294.25
295.295	306.25
295.525	300.25
295.756	286.25
295.987	302.25
296.217	293.25
296.448	303.25
296.679	291.25
296.909	290.25
297.14	270.25
297.37	282.25
297.601	281.25
297.831	294.25
298.062	289.25
298.292	296.25
298.523	293.25
298.753	306.25
298.984	289.25
299.214	309.25
299.445	306.25
299.675	299.25
299.905	299.25
300.136	301.25
300.366	300.25
300.597	310.25
300.827	289.25
301.057	298.25
301.288	299.25
301.518	302.25
301.748	305.25
301.979	300.25
302.209	317.25
302.439	310.25
302.669	327.25
302.9	319.25
303.13	323.25
303.36	321.25
303.59	303.25
303.82	327.25
304.051	331.25
304.281	318.25
304.511	302.25
304.741	294.25
304.971	293.25
305.201	307.25
305.431	311.25
305.661	288.25
305.891	319.25
306.121	323.25
306.352	302.25
306.582	324.25
306.812	297.25
307.042	303.25
307.272	324.25
307.502	313.25
307.731	321.25
307.961	323.25
308.191	306.25
308.421	328.25
308.651	299.25
308.881	317.25
309.111	323.25
309.341	327.25
309.571	322.25
309.8	317.25
310.03	318.25
310.26	315.25
310.49	335.25
310.72	349.25
310.949	359.25
311.179	351.25
311.409	340.25
311.639	319.25
311.868	347.25
312.098	358.25
312.328	356.25
312.557	346.25
312.787	366.25
313.017	354.25
313.246	371.25
313.476	350.25
313.706	337.25
313.935	359.25
314.165	359.25
314.394	350.25
314.624	358.25
314.853	373.25
315.083	348.25
315.312	364.25
315.542	328.25
315.771	341.25
316.001	357.25
316.23	347.25
316.46	343.25
316.689	359.25
316.919	353.25
317.148	349.25
317.377	378.25
317.607	354.25
317.836	327.25
318.065	358.25
318.295	335.25
318.524	354.25
318.753	347.25
318.983	346.25
319.212	356.25
319.441	339.25
319.67	357.25
319.9	361.25
320.129	341.25
320.358	364.25
320.587	379.25
320.816	370.25
321.046	364.25
321.275	369.25
321.504	364.25
321.733	347.25
321.962	369.25
322.191	378.25
322.42	383.25
322.649	366.25
322.878	393.25
323.108	380.25
323.337	407.25
323.566	417.25
323.795	434.25
324.024	441.25
324.253	520.25
324.482	675.25
324.71	1055.25
324.939	1485.25
325.168	1339.25
325.397	682.25
325.626	469.25
325.855	439.25
326.084	415.25
326.313	408.25
326.542	410.25
326.77	451.25
326.999	491.25
327.228	662.25
327.457	918.25
327.686	1168.25
327.914	791.25
328.143	527.25
328.372	456.25
328.6	477.25
328.829	423.25
329.058	455.25
329.287	459.25
329.515	438.25
329.744	442.25
329.972	438.25
330.201	434.25
330.43	467.25
330.658	467.25
330.887	487.25
331.115	487.25
331.344	445.25
331.572	428.25
331.801	439.25
332.03	402.25
332.258	411.25
332.486	423.25
332.715	424.25
332.943	431.25
333.172	424.25
333.4	411.25
333.629	437.25
333.857	457.25
334.085	464.25
334.314	471.25
334.542	487.25
334.771	490.25
334.999	473.25
335.227	448.25
335.455	432.25
335.684	428.25
335.912	423.25
336.14	415.25
336.369	416.25
336.597	416.25
336.825	418.25
337.053	427.25
337.281	410.25
337.51	401.25
337.738	414.25
337.966	414.25
338.194	416.25
338.422	415.25
338.65	421.25
338.878	408.25
339.106	399.25
339.334	426.25
339.562	401.25
339.79	393.25
340.018	401.25
340.246	396.25
340.474	389.25
340.702	405.25
340.93	401.25
341.158	395.25
341.386	429.25
341.614	397.25
341.842	411.25
342.07	394.25
342.298	405.25
342.526	385.25
342.754	383.25
342.981	380.25
343.209	389.25
343.437	383.25
343.665	417.25
343.893	422.25
344.12	435.25
344.348	427.25
344.576	409.25
344.804	426.25
345.031	423.25
345.259	413.25
345.487	426.25
345.714	410.25
345.942	401.25
346.17	393.25
346.397	391.25
346.625	391.25
346.853	404.25
347.08	370.25
347.308	380.25
347.535	400.25
347.763	400.25
347.99	381.25
348.218	391.25
348.445	394.25
348.673	399.25
348.9	398.25
349.128	395.25
349.355	398.25
349.583	371.25
349.81	361.25
350.037	373.25
350.265	378.25
350.492	377.25
350.72	379.25
350.947	378.25
351.174	384.25
351.402	390.25
351.629	389.25
351.856	385.25
352.083	399.25
352.311	405.25
352.538	387.25
352.765	404.25
352.992	389.25
353.22	379.25
353.447	392.25
353.674	388.25
353.901	367.25
354.128	366.25
354.355	365.25
354.583	365.25
354.81	367.25
355.037	372.25
355.264	364.25
355.491	373.25
355.718	364.25
355.945	373.25
356.172	377.25
356.399	361.25
356.626	369.25
356.853	382.25
357.08	372.25
357.307	361.25
357.534	364.25
357.761	362.25
357.988	377.25
358.215	387.25
358.441	387.25
358.668	379.25
358.895	375.25
359.122	375.25
359.349	377.25
359.576	388.25
359.802	399.25
360.029	417.25
360.256	421.25
360.483	411.25
360.709	402.25
360.936	386.25
361.163	379.25
361.39	384.25
361.616	390.25
361.843	397.25
362.07	375.25
362.296	379.25
362.523	380.25
362.749	388.25
362.976	373.25
363.203	372.25
363.429	378.25
363.656	412.25
363.882	362.25
364.109	385.25
364.335	378.25
364.562	395.25
364.788	376.25
365.015	395.25
365.241	387.25
365.468	378.25
365.694	381.25
365.92	377.25
366.147	379.25
366.373	394.25
366.599	369.25
366.826	373.25
367.052	374.25
367.278	389.25
367.505	380.25
367.731	381.25
367.957	391.25
368.184	381.25
368.41	382.25
368.636	375.25
368.862	384.25
369.089	380.25
369.315	397.25
369.541	391.25
369.767	380.25
369.993	406.25
370.219	393.25
370.445	406.25
370.672	381.25
370.898	385.25
371.124	383.25
371.35	400.25
371.576	401.25
371.802	397.25
372.028	381.25
372.254	400.25
372.48	400.25
372.706	400.25
372.932	414.25
373.158	389.25
373.384	387.25
373.61	390.25
373.835	408.25
374.061	402.25
374.287	393.25
374.513	396.25
374.739	406.25
374.965	411.25
375.191	395.25
375.416	414.25
375.642	408.25
375.868	408.25
376.094	386.25
376.319	409.25
376.545	401.25
376.771	388.25
376.997	390.25
377.222	393.25
377.448	406.25
377.674	400.25
377.899	393.25
378.125	399.25
378.35	385.25
378.576	399.25
378.802	392.25
379.027	378.25
379.253	385.25
379.478	389.25
379.704	386.25
379.929	399.25
380.155	415.25
380.38	421.25
380.606	399.25
380.831	401.25
381.057	409.25
381.282	405.25
381.507	400.25
381.733	393.25
381.958	410.25
382.184	396.25
382.409	397.25
382.634	403.25
382.86	400.25
383.085	418.25
383.31	420.25
383.535	433.25
383.761	429.25
383.986	428.25
384.211	445.25
384.436	450.25
384.662	441.25
384.887	445.25
385.112	445.25
385.337	457.25
385.562	462.25
385.787	447.25
386.013	447.25
386.238	457.25
386.463	474.25
386.688	460.25
386.913	456.25
387.138	460.25
387.363	455.25
387.588	488.25
387.813	429.25
388.038	435.25
388.263	459.25
388.488	441.25
388.713	437.25
388.938	446.25
389.163	445.25
389.387	432.25
389.612	424.25
389.837	434.25
390.062	425.25
390.287	445.25
390.512	441.25
390.736	451.25
390.961	463.25
391.186	462.25
391.411	449.25
391.636	466.25
391.86	456.25
392.085	477.25
392.31	472.25
392.534	477.25
392.759	477.25
392.984	468.25
393.208	455.25
393.433	449.25
393.658	453.25
393.882	444.25
394.107	447.25
394.331	445.25
394.556	444.25
394.78	450.25
395.005	447.25
395.229	460.25
395.454	452.25
395.678	473.25
395.903	468.25
396.127	489.25
396.352	494.25
396.576	476.25
396.801	461.25
397.025	451.25
397.249	457.25
397.474	478.25
397.698	481.25
397.922	473.25
398.147	509.25
398.371	507.25
398.595	511.25
398.82	484.25
399.044	544.25
399.268	562.25
399.492	600.25
399.717	622.25
399.941	652.25
400.165	630.25
400.389	659.25
400.613	571.25
400.837	549.25
401.062	540.25
401.286	523.25
401.51	521.25
401.734	509.25
401.958	513.25
402.182	521.25
402.406	525.25
402.63	546.25
402.854	523.25
403.078	512.25
403.302	541.25
403.526	553.25
403.75	568.25
403.974	531.25
404.198	529.25
404.422	543.25
404.645	537.25
404.869	553.25
405.093	581.25
405.317	592.25
405.541	620.25
405.765	580.25
405.988	566.25
406.212	562.25
406.436	548.25
406.66	572.25
406.883	568.25
407.107	595.25
407.331	635.25
407.555	695.25
407.778	703.25
408.002	641.25
408.226	616.25
408.449	590.25
408.673	584.25
408.896	597.25
409.12	613.25
409.344	609.25
409.567	570.25
409.791	557.25
410.014	551.25
410.238	547.25
410.461	541.25
410.685	513.25
410.908	564.25
411.132	592.25
411.355	614.25
411.578	598.25
411.802	525.25
412.025	535.25
412.249	549.25
412.472	550.25
412.695	597.25
412.919	570.25
413.142	567.25
413.365	543.25
413.589	519.25
413.812	501.25
414.035	502.25
414.258	498.25
414.482	499.25
414.705	524.25
414.928	495.25
415.151	479.25
415.374	513.25
415.597	510.25
415.821	504.25
416.044	531.25
416.267	503.25
416.49	490.25
416.713	480.25
416.936	487.25
417.159	507.25
417.382	485.25
417.605	501.25
417.828	551.25
418.051	542.25
418.274	507.25
418.497	535.25
418.72	502.25
418.943	499.25
419.166	542.25
419.389	567.25
419.611	557.25
419.834	569.25
420.057	545.25
420.28	537.25
420.503	524.25
420.726	517.25
420.948	551.25
421.171	577.25
421.394	607.25
421.617	551.25
421.839	550.25
422.062	503.25
422.285	521.25
422.507	564.25
422.73	667.25
422.953	639.25
423.175	551.25
423.398	550.25
423.621	550.25
423.843	565.25
424.066	551.25
424.288	555.25
424.511	613.25
424.733	614.25
424.956	700.25
425.178	647.25
425.401	639.25
425.623	665.25
425.846	597.25
426.068	576.25
426.291	554.25
426.513	552.25
426.735	555.25
426.958	598.25
427.18	646.25
427.402	776.25
427.625	862.25
427.847	703.25
428.069	662.25
428.292	573.25
428.514	528.25
428.736	524.25
428.958	535.25
429.181	499.25
429.403	490.25
429.625	500.25
429.847	535.25
430.069	587.25
430.292	586.25
430.514	532.25
430.736	509.25
430.958	498.25
431.18	485.25
431.402	483.25
431.624	491.25
431.846	445.25
432.068	471.25
432.29	478.25
432.512	500.25
432.734	484.25
432.956	491.25
433.178	520.25
433.4	493.25
433.622	485.25
433.844	497.25
434.066	522.25
434.287	494.25
434.509	497.25
434.731	501.25
434.953	507.25
435.175	510.25
435.397	543.25
435.618	545.25
435.84	575.25
436.062	679.25
436.284	741.25
436.505	600.25
436.727	564.25
436.949	521.25
437.17	536.25
437.392	508.25
437.614	521.25
437.835	556.25
438.057	606.25
438.278	707.25
438.5	707.25
438.721	783.25
438.943	726.25
439.165	585.25
439.386	549.25
439.608	549.25
439.829	554.25
440.05	553.25
440.272	606.25
440.493	581.25
440.715	521.25
440.936	523.25
441.158	526.25
441.379	498.25
441.6	547.25
441.822	562.25
442.043	596.25
442.264	670.25
442.486	712.25
442.707	588.25
442.928	569.25
443.149	582.25
443.371	587.25
443.592	598.25
443.813	684.25
444.034	774.25
444.255	641.25
444.476	605.25
444.698	593.25
444.919	576.25
445.14	695.25
445.361	623.25
445.582	605.25
445.803	627.25
446.024	723.25
446.245	727.25
446.466	671.25
446.687	588.25
446.908	561.25
447.129	523.25
447.35	508.25
447.571	510.25
447.792	480.25
448.013	473.25
448.234	509.25
448.455	568.25
448.675	632.25
448.896	775.25
449.117	663.25
449.338	577.25
449.559	691.25
449.779	830.25
450	643.25
450.221	531.25
450.442	509.25
450.662	492.25
450.883	486.25
451.104	479.25
451.324	478.25
451.545	460.25
451.766	470.25
451.986	460.25
452.207	462.25
452.428	438.25
452.648	454.25
452.869	443.25
453.089	481.25
453.31	467.25
453.53	460.25
453.751	445.25
453.971	442.25
454.192	441.25
454.412	446.25
454.633	423.25
454.853	423.25
455.073	441.25
455.294	449.25
455.514	503.25
455.734	508.25
455.955	451.25
456.175	452.25
456.395	404.25
456.616	438.25
456.836	424.25
457.056	441.25
457.276	437.25
457.497	438.25
457.717	428.25
457.937	431.25
458.157	455.25
458.377	426.25
458.598	456.25
458.818	490.25
459.038	555.25
459.258	572.25
459.478	536.25
459.698	487.25
459.918	487.25
460.138	505.25
460.358	492.25
460.578	501.25
460.798	504.25
461.018	526.25
461.238	522.25
461.458	533.25
461.678	521.25
461.898	525.25
462.118	511.25
462.338	536.25
462.558	544.25
462.777	546.25
462.997	566.25
463.217	569.25
463.437	581.25
463.657	555.25
463.876	569.25
464.096	550.25
464.316	553.25
464.536	575.25
464.755	540.25
464.975	546.25
465.195	561.25
465.414	573.25
465.634	531.25
465.854	491.25
466.073	479.25
466.293	508.25
466.512	476.25
466.732	467.25
466.951	481.25
467.171	463.25
467.391	464.25
467.61	473.25
467.829	488.25
468.049	464.25
468.268	470.25
468.488	471.25
468.707	430.25
468.927	489.25
469.146	447.25
469.365	460.25
469.585	455.25
469.804	477.25
470.023	473.25
470.243	475.25
470.462	452.25
470.681	472.25
470.901	496.25
471.12	462.25
471.339	471.25
471.558	485.25
471.777	458.25
471.997	460.25
472.216	464.25
472.435	483.25
472.654	491.25
472.873	474.25
473.092	458.25
473.311	482.25
473.53	475.25
473.749	466.25
473.968	527.25
474.187	595.25
474.406	613.25
474.625	523.25
474.844	485.25
475.063	471.25
475.282	477.25
475.501	485.25
475.72	501.25
475.939	477.25
476.158	495.25
476.377	505.25
476.596	473.25
476.814	487.25
477.033	482.25
477.252	487.25
477.471	524.25
477.69	497.25
477.908	533.25
478.127	521.25
478.346	535.25
478.564	540.25
478.783	542.25
479.002	558.25
479.22	548.25
479.439	565.25
479.658	591.25
479.876	567.25
480.095	589.25
480.313	616.25
480.532	604.25
480.751	610.25
480.969	581.25
481.188	629.25
481.406	640.25
481.624	568.25
481.843	565.25
482.061	549.25
482.28	576.25
482.498	566.25
482.717	535.25
482.935	545.25
483.153	546.25
483.372	547.25
483.59	561.25
483.808	543.25
484.027	563.25
484.245	561.25
484.463	546.25
484.681	550.25
484.9	563.25
485.118	567.25
485.336	586.25
485.554	555.25
485.772	592.25
485.99	569.25
486.209	580.25
486.427	571.25
486.645	591.25
486.863	613.25
487.081	585.25
487.299	599.25
487.517	597.25
487.735	599.25
487.953	612.25
488.171	592.25
488.389	581.25
488.607	596.25
488.825	601.25
489.043	591.25
489.261	612.25
489.479	613.25
489.696	627.25
489.914	611.25
490.132	619.25
490.35	618.25
490.568	632.25
490.786	651.25
491.003	665.25
491.221	653.25
491.439	629.25
491.657	655.25
491.874	649.25
492.092	678.25
492.31	675.25
492.527	679.25
492.745	700.25
492.963	691.25
493.18	707.25
493.398	702.25
493.615	678.25
493.833	693.25
494.05	705.25
494.268	717.25
494.485	683.25
494.703	697.25
494.92	708.25
495.138	705.25
495.355	691.25
495.573	686.25
495.79	685.25
496.008	684.25
496.225	702.25
496.442	685.25
496.66	714.25
496.877	695.25
497.094	719.25
497.312	704.25
497.529	744.25
497.746	738.25
497.963	740.25
498.181	781.25
498.398	776.25
498.615	801.25
498.832	836.25
499.049	871.25
499.267	888.25
499.484	931.25
499.701	933.25
499.918	996.25
500.135	1029.25
500.352	1151.25
500.569	1120.25
500.786	1142.25
501.003	1135.25
501.22	1061.25
501.437	994.25
501.654	984.25
