Data from 1975.PennyLincolnUp.Lamp.En5.5.200Scan.071719.P1.Changed Mount._HRD10591_15-57-20-860.txt Node
Date: Thu Jul 18 15:57:20 EDT 2019
User: cochatt
Spectrometer: HR+D1059
Trigger mode: 1
Integration Time (sec): 1.000000E-1
Scans to average: 1
Electric dark correction enabled: true
Nonlinearity correction enabled: false
Boxcar width: 0
XAxis mode: Wavelengths
Number of Pixels in Spectrum: 2048
>>>>>Begin Spectral Data<<<<<
223.165	-24.62
223.4	-24.62
223.635	-24.62
223.869	-17.62
224.104	-11.62
224.338	-16.62
224.573	-20.62
224.808	-16.62
225.042	-5.62
225.277	-0.62
225.511	10.38
225.746	8.38
225.98	4.38
226.215	15.38
226.449	12.38
226.683	24.38
226.918	17.38
227.152	21.38
227.387	36.38
227.621	26.38
227.856	46.38
228.09	39.38
228.324	58.38
228.559	66.38
228.793	75.38
229.027	89.38
229.262	104.38
229.496	105.38
229.73	137.38
229.964	157.38
230.199	132.38
230.433	116.38
230.667	116.38
230.901	113.38
231.136	90.38
231.37	128.38
231.604	121.38
231.838	114.38
232.072	117.38
232.306	125.38
232.541	121.38
232.775	119.38
233.009	110.38
233.243	102.38
233.477	118.38
233.711	116.38
233.945	130.38
234.179	126.38
234.413	116.38
234.647	106.38
234.881	118.38
235.115	100.38
235.349	132.38
235.583	130.38
235.817	133.38
236.051	116.38
236.285	120.38
236.519	110.38
236.753	122.38
236.987	160.38
237.221	185.38
237.455	224.38
237.689	180.38
237.922	145.38
238.156	134.38
238.39	132.38
238.624	128.38
238.858	113.38
239.091	146.38
239.325	122.38
239.559	124.38
239.793	132.38
240.027	134.38
240.26	142.38
240.494	153.38
240.728	137.38
240.961	142.38
241.195	132.38
241.429	148.38
241.662	141.38
241.896	134.38
242.13	143.38
242.363	148.38
242.597	132.38
242.83	132.38
243.064	156.38
243.298	152.38
243.531	139.38
243.765	140.38
243.998	156.38
244.232	149.38
244.465	145.38
244.699	153.38
244.932	155.38
245.166	157.38
245.399	146.38
245.633	146.38
245.866	147.38
246.099	162.38
246.333	160.38
246.566	167.38
246.8	152.38
247.033	167.38
247.266	168.38
247.5	158.38
247.733	168.38
247.966	190.38
248.2	188.38
248.433	180.38
248.666	186.38
248.899	190.38
249.133	196.38
249.366	197.38
249.599	193.38
249.832	183.38
250.066	191.38
250.299	191.38
250.532	183.38
250.765	208.38
250.998	226.38
251.231	242.38
251.465	227.38
251.698	216.38
251.931	205.38
252.164	189.38
252.397	217.38
252.63	202.38
252.863	207.38
253.096	216.38
253.329	215.38
253.562	227.38
253.795	235.38
254.028	216.38
254.261	201.38
254.494	221.38
254.727	260.38
254.96	282.38
255.193	278.38
255.426	247.38
255.659	247.38
255.892	251.38
256.124	258.38
256.357	230.38
256.59	220.38
256.823	205.38
257.056	226.38
257.289	228.38
257.521	221.38
257.754	226.38
257.987	233.38
258.22	208.38
258.452	210.38
258.685	214.38
258.918	205.38
259.151	201.38
259.383	219.38
259.616	223.38
259.849	231.38
260.081	227.38
260.314	245.38
260.547	248.38
260.779	256.38
261.012	239.38
261.244	231.38
261.477	224.38
261.71	219.38
261.942	234.38
262.175	250.38
262.407	229.38
262.64	227.38
262.872	214.38
263.105	216.38
263.337	234.38
263.57	214.38
263.802	232.38
264.035	212.38
264.267	230.38
264.499	234.38
264.732	233.38
264.964	222.38
265.197	216.38
265.429	224.38
265.661	220.38
265.894	232.38
266.126	224.38
266.358	227.38
266.591	234.38
266.823	219.38
267.055	253.38
267.287	241.38
267.52	230.38
267.752	250.38
267.984	247.38
268.216	231.38
268.448	232.38
268.681	255.38
268.913	256.38
269.145	276.38
269.377	297.38
269.609	268.38
269.841	283.38
270.073	280.38
270.306	291.38
270.538	318.38
270.77	326.38
271.002	318.38
271.234	305.38
271.466	308.38
271.698	317.38
271.93	329.38
272.162	316.38
272.394	310.38
272.626	316.38
272.858	297.38
273.09	293.38
273.322	268.38
273.553	269.38
273.785	293.38
274.017	264.38
274.249	273.38
274.481	273.38
274.713	275.38
274.945	288.38
275.176	286.38
275.408	275.38
275.64	280.38
275.872	272.38
276.104	278.38
276.335	273.38
276.567	284.38
276.799	288.38
277.031	322.38
277.262	331.38
277.494	337.38
277.726	309.38
277.957	320.38
278.189	303.38
278.421	290.38
278.652	285.38
278.884	294.38
279.115	293.38
279.347	299.38
279.579	273.38
279.81	283.38
280.042	290.38
280.273	304.38
280.505	268.38
280.736	288.38
280.968	278.38
281.199	274.38
281.431	283.38
281.662	294.38
281.894	271.38
282.125	292.38
282.356	320.38
282.588	326.38
282.819	321.38
283.051	306.38
283.282	287.38
283.513	284.38
283.745	300.38
283.976	291.38
284.207	313.38
284.439	289.38
284.67	288.38
284.901	298.38
285.132	294.38
285.364	292.38
285.595	296.38
285.826	299.38
286.057	292.38
286.288	306.38
286.52	301.38
286.751	296.38
286.982	314.38
287.213	298.38
287.444	297.38
287.675	322.38
287.906	304.38
288.138	316.38
288.369	325.38
288.6	313.38
288.831	315.38
289.062	305.38
289.293	323.38
289.524	299.38
289.755	321.38
289.986	294.38
290.217	308.38
290.448	314.38
290.679	307.38
290.91	300.38
291.141	316.38
291.371	321.38
291.602	301.38
291.833	292.38
292.064	304.38
292.295	343.38
292.526	323.38
292.757	318.38
292.987	325.38
293.218	308.38
293.449	301.38
293.68	310.38
293.91	315.38
294.141	306.38
294.372	297.38
294.603	337.38
294.833	331.38
295.064	312.38
295.295	324.38
295.525	326.38
295.756	320.38
295.987	296.38
296.217	354.38
296.448	356.38
296.679	327.38
296.909	306.38
297.14	335.38
297.37	321.38
297.601	329.38
297.831	323.38
298.062	317.38
298.292	316.38
298.523	321.38
298.753	314.38
298.984	346.38
299.214	334.38
299.445	331.38
299.675	339.38
299.905	338.38
300.136	341.38
300.366	310.38
300.597	340.38
300.827	332.38
301.057	328.38
301.288	354.38
301.518	342.38
301.748	341.38
301.979	337.38
302.209	362.38
302.439	359.38
302.669	354.38
302.9	362.38
303.13	334.38
303.36	338.38
303.59	351.38
303.82	353.38
304.051	353.38
304.281	354.38
304.511	353.38
304.741	338.38
304.971	363.38
305.201	347.38
305.431	340.38
305.661	348.38
305.891	356.38
306.121	353.38
306.352	338.38
306.582	351.38
306.812	323.38
307.042	357.38
307.272	346.38
307.502	360.38
307.731	364.38
307.961	357.38
308.191	357.38
308.421	353.38
308.651	382.38
308.881	347.38
309.111	341.38
309.341	372.38
309.571	366.38
309.8	380.38
310.03	370.38
310.26	377.38
310.49	388.38
310.72	384.38
310.949	396.38
311.179	419.38
311.409	370.38
311.639	416.38
311.868	391.38
312.098	384.38
312.328	381.38
312.557	411.38
312.787	413.38
313.017	408.38
313.246	386.38
313.476	402.38
313.706	377.38
313.935	387.38
314.165	404.38
314.394	432.38
314.624	398.38
314.853	391.38
315.083	416.38
315.312	395.38
315.542	400.38
315.771	399.38
316.001	396.38
316.23	393.38
316.46	379.38
316.689	399.38
316.919	378.38
317.148	406.38
317.377	402.38
317.607	387.38
317.836	400.38
318.065	398.38
318.295	389.38
318.524	384.38
318.753	376.38
318.983	392.38
319.212	385.38
319.441	389.38
319.67	394.38
319.9	397.38
320.129	401.38
320.358	393.38
320.587	393.38
320.816	422.38
321.046	392.38
321.275	411.38
321.504	403.38
321.733	416.38
321.962	419.38
322.191	441.38
322.42	434.38
322.649	420.38
322.878	446.38
323.108	444.38
323.337	469.38
323.566	502.38
323.795	498.38
324.024	525.38
324.253	624.38
324.482	855.38
324.71	1283.38
324.939	1924.38
325.168	1706.38
325.397	846.38
325.626	591.38
325.855	534.38
326.084	488.38
326.313	472.38
326.542	493.38
326.77	540.38
326.999	588.38
327.228	792.38
327.457	1146.38
327.686	1462.38
327.914	1001.38
328.143	668.38
328.372	594.38
328.6	554.38
328.829	556.38
329.058	546.38
329.287	544.38
329.515	542.38
329.744	521.38
329.972	496.38
330.201	493.38
330.43	554.38
330.658	567.38
330.887	579.38
331.115	579.38
331.344	525.38
331.572	508.38
331.801	495.38
332.03	498.38
332.258	484.38
332.486	496.38
332.715	468.38
332.943	470.38
333.172	489.38
333.4	478.38
333.629	494.38
333.857	515.38
334.085	525.38
334.314	518.38
334.542	550.38
334.771	584.38
334.999	524.38
335.227	512.38
335.455	493.38
335.684	481.38
335.912	486.38
336.14	485.38
336.369	498.38
336.597	478.38
336.825	488.38
337.053	484.38
337.281	465.38
337.51	457.38
337.738	467.38
337.966	470.38
338.194	465.38
338.422	485.38
338.65	488.38
338.878	464.38
339.106	472.38
339.334	469.38
339.562	440.38
339.79	440.38
340.018	455.38
340.246	438.38
340.474	444.38
340.702	442.38
340.93	469.38
341.158	448.38
341.386	434.38
341.614	461.38
341.842	444.38
342.07	456.38
342.298	452.38
342.526	469.38
342.754	438.38
342.981	439.38
343.209	459.38
343.437	447.38
343.665	445.38
343.893	455.38
344.12	488.38
344.348	460.38
344.576	467.38
344.804	487.38
345.031	479.38
345.259	463.38
345.487	449.38
345.714	441.38
345.942	435.38
346.17	436.38
346.397	427.38
346.625	422.38
346.853	423.38
347.08	412.38
347.308	431.38
347.535	451.38
347.763	448.38
347.99	446.38
348.218	459.38
348.445	448.38
348.673	424.38
348.9	460.38
349.128	434.38
349.355	426.38
349.583	429.38
349.81	426.38
350.037	411.38
350.265	416.38
350.492	426.38
350.72	433.38
350.947	433.38
351.174	444.38
351.402	445.38
351.629	422.38
351.856	444.38
352.083	432.38
352.311	451.38
352.538	453.38
352.765	443.38
352.992	457.38
353.22	430.38
353.447	448.38
353.674	422.38
353.901	438.38
354.128	421.38
354.355	436.38
354.583	415.38
354.81	401.38
355.037	412.38
355.264	405.38
355.491	434.38
355.718	406.38
355.945	445.38
356.172	402.38
356.399	430.38
356.626	428.38
356.853	408.38
357.08	410.38
357.307	394.38
357.534	412.38
357.761	401.38
357.988	421.38
358.215	420.38
358.441	418.38
358.668	412.38
358.895	418.38
359.122	438.38
359.349	434.38
359.576	435.38
359.802	456.38
360.029	464.38
360.256	462.38
360.483	463.38
360.709	446.38
360.936	440.38
361.163	430.38
361.39	438.38
361.616	417.38
361.843	426.38
362.07	429.38
362.296	442.38
362.523	440.38
362.749	444.38
362.976	425.38
363.203	430.38
363.429	420.38
363.656	413.38
363.882	419.38
364.109	432.38
364.335	415.38
364.562	416.38
364.788	421.38
365.015	429.38
365.241	427.38
365.468	417.38
365.694	429.38
365.92	441.38
366.147	417.38
366.373	430.38
366.599	413.38
366.826	418.38
367.052	424.38
367.278	407.38
367.505	438.38
367.731	418.38
367.957	431.38
368.184	414.38
368.41	434.38
368.636	444.38
368.862	451.38
369.089	438.38
369.315	431.38
369.541	441.38
369.767	432.38
369.993	433.38
370.219	427.38
370.445	431.38
370.672	406.38
370.898	420.38
371.124	419.38
371.35	420.38
371.576	422.38
371.802	455.38
372.028	443.38
372.254	420.38
372.48	417.38
372.706	425.38
372.932	447.38
373.158	434.38
373.384	436.38
373.61	435.38
373.835	443.38
374.061	428.38
374.287	447.38
374.513	444.38
374.739	437.38
374.965	463.38
375.191	459.38
375.416	456.38
375.642	421.38
375.868	458.38
376.094	420.38
376.319	427.38
376.545	436.38
376.771	443.38
376.997	428.38
377.222	416.38
377.448	433.38
377.674	448.38
377.899	443.38
378.125	423.38
378.35	415.38
378.576	419.38
378.802	428.38
379.027	435.38
379.253	432.38
379.478	447.38
379.704	432.38
379.929	420.38
380.155	432.38
380.38	463.38
380.606	457.38
380.831	425.38
381.057	430.38
381.282	435.38
381.507	437.38
381.733	428.38
381.958	440.38
382.184	444.38
382.409	437.38
382.634	429.38
382.86	450.38
383.085	456.38
383.31	457.38
383.535	446.38
383.761	473.38
383.986	457.38
384.211	452.38
384.436	471.38
384.662	466.38
384.887	460.38
385.112	464.38
385.337	464.38
385.562	482.38
385.787	495.38
386.013	473.38
386.238	474.38
386.463	507.38
386.688	487.38
386.913	471.38
387.138	483.38
387.363	505.38
387.588	462.38
387.813	504.38
388.038	480.38
388.263	484.38
388.488	499.38
388.713	501.38
388.938	494.38
389.163	492.38
389.387	490.38
389.612	473.38
389.837	480.38
390.062	474.38
390.287	477.38
390.512	472.38
390.736	494.38
390.961	506.38
391.186	484.38
391.411	490.38
391.636	514.38
391.86	507.38
392.085	510.38
392.31	508.38
392.534	516.38
392.759	490.38
392.984	521.38
393.208	517.38
393.433	486.38
393.658	490.38
393.882	500.38
394.107	506.38
394.331	513.38
394.556	496.38
394.78	498.38
395.005	513.38
395.229	525.38
395.454	496.38
395.678	520.38
395.903	537.38
396.127	553.38
396.352	521.38
396.576	521.38
396.801	504.38
397.025	505.38
397.249	510.38
397.474	532.38
397.698	518.38
397.922	546.38
398.147	557.38
398.371	580.38
398.595	546.38
398.82	557.38
399.044	567.38
399.268	579.38
399.492	659.38
399.717	676.38
399.941	733.38
400.165	724.38
400.389	699.38
400.613	646.38
400.837	624.38
401.062	586.38
401.286	567.38
401.51	550.38
401.734	568.38
401.958	561.38
402.182	573.38
402.406	594.38
402.63	571.38
402.854	576.38
403.078	592.38
403.302	614.38
403.526	597.38
403.75	618.38
403.974	596.38
404.198	591.38
404.422	602.38
404.645	605.38
404.869	624.38
405.093	636.38
405.317	669.38
405.541	723.38
405.765	682.38
405.988	633.38
406.212	639.38
406.436	638.38
406.66	681.38
406.883	627.38
407.107	682.38
407.331	725.38
407.555	781.38
407.778	766.38
408.002	734.38
408.226	648.38
408.449	649.38
408.673	678.38
408.896	681.38
409.12	714.38
409.344	674.38
409.567	637.38
409.791	609.38
410.014	588.38
410.238	597.38
410.461	581.38
410.685	589.38
410.908	607.38
411.132	635.38
411.355	675.38
411.578	635.38
411.802	600.38
412.025	601.38
412.249	609.38
412.472	616.38
412.695	680.38
412.919	646.38
413.142	631.38
413.365	572.38
413.589	572.38
413.812	583.38
414.035	581.38
414.258	549.38
414.482	564.38
414.705	543.38
414.928	572.38
415.151	542.38
415.374	545.38
415.597	553.38
415.821	587.38
416.044	564.38
416.267	562.38
416.49	553.38
416.713	552.38
416.936	537.38
417.159	560.38
417.382	564.38
417.605	563.38
417.828	584.38
418.051	597.38
418.274	581.38
418.497	590.38
418.72	554.38
418.943	590.38
419.166	590.38
419.389	635.38
419.611	624.38
419.834	598.38
420.057	590.38
420.28	593.38
420.503	600.38
420.726	603.38
420.948	583.38
421.171	647.38
421.394	684.38
421.617	630.38
421.839	573.38
422.062	598.38
422.285	596.38
422.507	642.38
422.73	753.38
422.953	712.38
423.175	626.38
423.398	606.38
423.621	604.38
423.843	646.38
424.066	636.38
424.288	624.38
424.511	628.38
424.733	696.38
424.956	784.38
425.178	780.38
425.401	756.38
425.623	748.38
425.846	666.38
426.068	635.38
426.291	610.38
426.513	618.38
426.735	631.38
426.958	655.38
427.18	729.38
427.402	886.38
427.625	946.38
427.847	822.38
428.069	714.38
428.292	654.38
428.514	604.38
428.736	582.38
428.958	589.38
429.181	568.38
429.403	529.38
429.625	556.38
429.847	590.38
430.069	678.38
430.292	690.38
430.514	590.38
430.736	555.38
430.958	562.38
431.18	544.38
431.402	532.38
431.624	550.38
431.846	531.38
432.068	554.38
432.29	568.38
432.512	540.38
432.734	551.38
432.956	533.38
433.178	558.38
433.4	564.38
433.622	568.38
433.844	564.38
434.066	563.38
434.287	539.38
434.509	562.38
434.731	567.38
434.953	587.38
435.175	589.38
435.397	618.38
435.618	632.38
435.84	671.38
436.062	759.38
436.284	800.38
436.505	668.38
436.727	603.38
436.949	597.38
437.17	580.38
437.392	554.38
437.614	574.38
437.835	619.38
438.057	697.38
438.278	801.38
438.5	819.38
438.721	871.38
438.943	876.38
439.165	693.38
439.386	633.38
439.608	604.38
439.829	624.38
440.05	625.38
440.272	681.38
440.493	655.38
440.715	601.38
440.936	588.38
441.158	586.38
441.379	567.38
441.6	594.38
441.822	610.38
442.043	673.38
442.264	716.38
442.486	813.38
442.707	672.38
442.928	624.38
443.149	644.38
443.371	666.38
443.592	699.38
443.813	806.38
444.034	849.38
444.255	724.38
444.476	652.38
444.698	643.38
444.919	634.38
445.14	789.38
445.361	693.38
445.582	676.38
445.803	717.38
446.024	818.38
446.245	840.38
446.466	726.38
446.687	655.38
446.908	598.38
447.129	592.38
447.35	556.38
447.571	572.38
447.792	571.38
448.013	562.38
448.234	583.38
448.455	616.38
448.675	740.38
448.896	854.38
449.117	733.38
449.338	696.38
449.559	829.38
449.779	910.38
450	718.38
450.221	626.38
450.442	560.38
450.662	553.38
450.883	534.38
451.104	548.38
451.324	520.38
451.545	525.38
451.766	514.38
451.986	505.38
452.207	493.38
452.428	511.38
452.648	516.38
452.869	504.38
453.089	501.38
453.31	529.38
453.53	496.38
453.751	491.38
453.971	496.38
454.192	500.38
454.412	487.38
454.633	512.38
454.853	465.38
455.073	493.38
455.294	512.38
455.514	579.38
455.734	568.38
455.955	491.38
456.175	474.38
456.395	485.38
456.616	461.38
456.836	478.38
457.056	457.38
457.276	450.38
457.497	492.38
457.717	480.38
457.937	506.38
458.157	500.38
458.377	482.38
458.598	517.38
458.818	572.38
459.038	636.38
459.258	659.38
459.478	586.38
459.698	551.38
459.918	548.38
460.138	549.38
460.358	568.38
460.578	561.38
460.798	588.38
461.018	575.38
461.238	563.38
461.458	571.38
461.678	547.38
461.898	577.38
462.118	556.38
462.338	577.38
462.558	572.38
462.777	604.38
462.997	622.38
463.217	669.38
463.437	636.38
463.657	656.38
463.876	619.38
464.096	628.38
464.316	587.38
464.536	629.38
464.755	645.38
464.975	609.38
465.195	642.38
465.414	677.38
465.634	621.38
465.854	564.38
466.073	574.38
466.293	551.38
466.512	536.38
466.732	529.38
466.951	540.38
467.171	536.38
467.391	536.38
467.61	509.38
467.829	524.38
468.049	523.38
468.268	537.38
468.488	517.38
468.707	516.38
468.927	491.38
469.146	498.38
469.365	506.38
469.585	496.38
469.804	529.38
470.023	558.38
470.243	534.38
470.462	545.38
470.681	562.38
470.901	546.38
471.12	543.38
471.339	545.38
471.558	544.38
471.777	544.38
471.997	544.38
472.216	528.38
472.435	555.38
472.654	518.38
472.873	526.38
473.092	521.38
473.311	539.38
473.53	522.38
473.749	535.38
473.968	578.38
474.187	668.38
474.406	677.38
474.625	589.38
474.844	544.38
475.063	527.38
475.282	510.38
475.501	542.38
475.72	531.38
475.939	544.38
476.158	544.38
476.377	545.38
476.596	531.38
476.814	561.38
477.033	550.38
477.252	567.38
477.471	548.38
477.69	557.38
477.908	568.38
478.127	563.38
478.346	575.38
478.564	593.38
478.783	596.38
479.002	610.38
479.22	608.38
479.439	629.38
479.658	638.38
479.876	637.38
480.095	660.38
480.313	699.38
480.532	673.38
480.751	679.38
480.969	677.38
481.188	719.38
481.406	738.38
481.624	669.38
481.843	640.38
482.061	624.38
482.28	616.38
482.498	642.38
482.717	604.38
482.935	622.38
483.153	620.38
483.372	618.38
483.59	616.38
483.808	612.38
484.027	612.38
484.245	605.38
484.463	642.38
484.681	648.38
484.9	626.38
485.118	640.38
485.336	617.38
485.554	655.38
485.772	630.38
485.99	648.38
486.209	676.38
486.427	651.38
486.645	638.38
486.863	660.38
487.081	657.38
487.299	657.38
487.517	658.38
487.735	657.38
487.953	637.38
488.171	691.38
488.389	652.38
488.607	638.38
488.825	658.38
489.043	636.38
489.261	651.38
489.479	675.38
489.696	673.38
489.914	674.38
490.132	681.38
490.35	683.38
490.568	703.38
490.786	734.38
491.003	727.38
491.221	721.38
491.439	740.38
491.657	756.38
491.874	763.38
492.092	747.38
492.31	762.38
492.527	762.38
492.745	782.38
492.963	792.38
493.18	781.38
493.398	788.38
493.615	798.38
493.833	768.38
494.05	796.38
494.268	785.38
494.485	796.38
494.703	781.38
494.92	782.38
495.138	788.38
495.355	807.38
495.573	777.38
495.79	779.38
496.008	786.38
496.225	811.38
496.442	790.38
496.66	793.38
496.877	793.38
497.094	813.38
497.312	808.38
497.529	820.38
497.746	832.38
497.963	829.38
498.181	858.38
498.398	881.38
498.615	909.38
498.832	932.38
499.049	944.38
499.267	986.38
499.484	1031.38
499.701	1053.38
499.918	1103.38
500.135	1164.38
500.352	1233.38
500.569	1258.38
500.786	1285.38
501.003	1246.38
501.22	1186.38
501.437	1120.38
501.654	1087.38
