Data from 1975.PennyLincolnUp.Lamp.En5.5.200Scan.071719.P1.Changed Mount._HRD10591_15-58-02-860.txt Node
Date: Thu Jul 18 15:58:02 EDT 2019
User: cochatt
Spectrometer: HR+D1059
Trigger mode: 1
Integration Time (sec): 1.000000E-1
Scans to average: 1
Electric dark correction enabled: true
Nonlinearity correction enabled: false
Boxcar width: 0
XAxis mode: Wavelengths
Number of Pixels in Spectrum: 2048
>>>>>Begin Spectral Data<<<<<
223.165	-9.56
223.4	-9.56
223.635	-9.56
223.869	-29.56
224.104	-14.56
224.338	-9.56
224.573	-17.56
224.808	-14.56
225.042	0.44
225.277	-20.56
225.511	1.44
225.746	6.44
225.98	18.44
226.215	4.44
226.449	25.44
226.683	18.44
226.918	12.44
227.152	28.44
227.387	32.44
227.621	36.44
227.856	41.44
228.09	32.44
228.324	50.44
228.559	59.44
228.793	59.44
229.027	100.44
229.262	89.44
229.496	119.44
229.73	132.44
229.964	139.44
230.199	124.44
230.433	121.44
230.667	114.44
230.901	107.44
231.136	122.44
231.37	112.44
231.604	113.44
231.838	112.44
232.072	110.44
232.306	121.44
232.541	108.44
232.775	109.44
233.009	120.44
233.243	118.44
233.477	117.44
233.711	114.44
233.945	124.44
234.179	122.44
234.413	116.44
234.647	128.44
234.881	113.44
235.115	112.44
235.349	125.44
235.583	122.44
235.817	128.44
236.051	115.44
236.285	127.44
236.519	123.44
236.753	130.44
236.987	136.44
237.221	180.44
237.455	227.44
237.689	190.44
237.922	126.44
238.156	136.44
238.39	134.44
238.624	117.44
238.858	132.44
239.091	140.44
239.325	139.44
239.559	116.44
239.793	147.44
240.027	132.44
240.26	124.44
240.494	159.44
240.728	150.44
240.961	159.44
241.195	170.44
241.429	142.44
241.662	140.44
241.896	136.44
242.13	131.44
242.363	141.44
242.597	134.44
242.83	133.44
243.064	131.44
243.298	138.44
243.531	139.44
243.765	140.44
243.998	144.44
244.232	126.44
244.465	133.44
244.699	142.44
244.932	135.44
245.166	150.44
245.399	150.44
245.633	138.44
245.866	153.44
246.099	145.44
246.333	138.44
246.566	158.44
246.8	146.44
247.033	150.44
247.266	146.44
247.5	173.44
247.733	180.44
247.966	177.44
248.2	154.44
248.433	167.44
248.666	182.44
248.899	190.44
249.133	197.44
249.366	216.44
249.599	206.44
249.832	191.44
250.066	197.44
250.299	190.44
250.532	199.44
250.765	212.44
250.998	217.44
251.231	219.44
251.465	218.44
251.698	205.44
251.931	220.44
252.164	199.44
252.397	199.44
252.63	198.44
252.863	204.44
253.096	216.44
253.329	218.44
253.562	215.44
253.795	225.44
254.028	218.44
254.261	227.44
254.494	223.44
254.727	255.44
254.96	275.44
255.193	288.44
255.426	267.44
255.659	239.44
255.892	239.44
256.124	243.44
256.357	240.44
256.59	245.44
256.823	228.44
257.056	218.44
257.289	222.44
257.521	228.44
257.754	209.44
257.987	197.44
258.22	195.44
258.452	212.44
258.685	201.44
258.918	233.44
259.151	211.44
259.383	220.44
259.616	211.44
259.849	239.44
260.081	242.44
260.314	232.44
260.547	261.44
260.779	253.44
261.012	230.44
261.244	240.44
261.477	224.44
261.71	220.44
261.942	221.44
262.175	236.44
262.407	221.44
262.64	217.44
262.872	219.44
263.105	218.44
263.337	231.44
263.57	217.44
263.802	230.44
264.035	219.44
264.267	204.44
264.499	225.44
264.732	231.44
264.964	224.44
265.197	217.44
265.429	241.44
265.661	218.44
265.894	225.44
266.126	229.44
266.358	214.44
266.591	233.44
266.823	238.44
267.055	248.44
267.287	214.44
267.52	231.44
267.752	236.44
267.984	242.44
268.216	226.44
268.448	228.44
268.681	213.44
268.913	266.44
269.145	257.44
269.377	277.44
269.609	267.44
269.841	273.44
270.073	280.44
270.306	295.44
270.538	314.44
270.77	327.44
271.002	313.44
271.234	311.44
271.466	314.44
271.698	328.44
271.93	332.44
272.162	301.44
272.394	310.44
272.626	298.44
272.858	284.44
273.09	281.44
273.322	289.44
273.553	252.44
273.785	287.44
274.017	272.44
274.249	260.44
274.481	268.44
274.713	267.44
274.945	297.44
275.176	272.44
275.408	286.44
275.64	261.44
275.872	275.44
276.104	267.44
276.335	268.44
276.567	285.44
276.799	300.44
277.031	318.44
277.262	306.44
277.494	333.44
277.726	307.44
277.957	312.44
278.189	311.44
278.421	295.44
278.652	295.44
278.884	279.44
279.115	271.44
279.347	291.44
279.579	274.44
279.81	293.44
280.042	271.44
280.273	272.44
280.505	288.44
280.736	275.44
280.968	267.44
281.199	297.44
281.431	275.44
281.662	295.44
281.894	306.44
282.125	306.44
282.356	287.44
282.588	328.44
282.819	318.44
283.051	299.44
283.282	279.44
283.513	279.44
283.745	296.44
283.976	296.44
284.207	298.44
284.439	292.44
284.67	298.44
284.901	311.44
285.132	282.44
285.364	286.44
285.595	270.44
285.826	287.44
286.057	295.44
286.288	291.44
286.52	292.44
286.751	284.44
286.982	301.44
287.213	302.44
287.444	302.44
287.675	297.44
287.906	298.44
288.138	325.44
288.369	336.44
288.6	311.44
288.831	315.44
289.062	324.44
289.293	326.44
289.524	309.44
289.755	313.44
289.986	300.44
290.217	326.44
290.448	319.44
290.679	313.44
290.91	314.44
291.141	289.44
291.371	324.44
291.602	306.44
291.833	307.44
292.064	313.44
292.295	300.44
292.526	314.44
292.757	295.44
292.987	314.44
293.218	300.44
293.449	322.44
293.68	318.44
293.91	298.44
294.141	291.44
294.372	318.44
294.603	306.44
294.833	312.44
295.064	317.44
295.295	318.44
295.525	322.44
295.756	317.44
295.987	315.44
296.217	350.44
296.448	354.44
296.679	354.44
296.909	324.44
297.14	331.44
297.37	315.44
297.601	330.44
297.831	335.44
298.062	318.44
298.292	310.44
298.523	331.44
298.753	330.44
298.984	327.44
299.214	338.44
299.445	313.44
299.675	334.44
299.905	333.44
300.136	330.44
300.366	332.44
300.597	335.44
300.827	330.44
301.057	328.44
301.288	342.44
301.518	343.44
301.748	340.44
301.979	360.44
302.209	347.44
302.439	338.44
302.669	358.44
302.9	347.44
303.13	357.44
303.36	356.44
303.59	356.44
303.82	335.44
304.051	358.44
304.281	361.44
304.511	356.44
304.741	356.44
304.971	335.44
305.201	340.44
305.431	344.44
305.661	354.44
305.891	357.44
306.121	338.44
306.352	343.44
306.582	363.44
306.812	362.44
307.042	355.44
307.272	356.44
307.502	363.44
307.731	350.44
307.961	346.44
308.191	352.44
308.421	342.44
308.651	344.44
308.881	359.44
309.111	360.44
309.341	341.44
309.571	363.44
309.8	359.44
310.03	366.44
310.26	377.44
310.49	381.44
310.72	402.44
310.949	403.44
311.179	403.44
311.409	407.44
311.639	375.44
311.868	395.44
312.098	382.44
312.328	394.44
312.557	384.44
312.787	409.44
313.017	407.44
313.246	391.44
313.476	396.44
313.706	392.44
313.935	379.44
314.165	409.44
314.394	394.44
314.624	408.44
314.853	400.44
315.083	379.44
315.312	390.44
315.542	390.44
315.771	400.44
316.001	396.44
316.23	400.44
316.46	399.44
316.689	382.44
316.919	391.44
317.148	382.44
317.377	409.44
317.607	404.44
317.836	396.44
318.065	368.44
318.295	402.44
318.524	393.44
318.753	384.44
318.983	380.44
319.212	394.44
319.441	392.44
319.67	401.44
319.9	377.44
320.129	389.44
320.358	403.44
320.587	406.44
320.816	407.44
321.046	414.44
321.275	414.44
321.504	403.44
321.733	409.44
321.962	400.44
322.191	442.44
322.42	439.44
322.649	429.44
322.878	437.44
323.108	455.44
323.337	481.44
323.566	469.44
323.795	490.44
324.024	508.44
324.253	598.44
324.482	814.44
324.71	1306.44
324.939	1909.44
325.168	1702.44
325.397	879.44
325.626	603.44
325.855	511.44
326.084	472.44
326.313	479.44
326.542	487.44
326.77	527.44
326.999	558.44
327.228	791.44
327.457	1170.44
327.686	1447.44
327.914	976.44
328.143	658.44
328.372	607.44
328.6	570.44
328.829	530.44
329.058	560.44
329.287	550.44
329.515	516.44
329.744	517.44
329.972	511.44
330.201	518.44
330.43	530.44
330.658	562.44
330.887	598.44
331.115	551.44
331.344	514.44
331.572	474.44
331.801	502.44
332.03	507.44
332.258	474.44
332.486	475.44
332.715	476.44
332.943	473.44
333.172	485.44
333.4	486.44
333.629	479.44
333.857	514.44
334.085	512.44
334.314	538.44
334.542	562.44
334.771	573.44
334.999	536.44
335.227	498.44
335.455	496.44
335.684	498.44
335.912	483.44
336.14	476.44
336.369	490.44
336.597	471.44
336.825	478.44
337.053	451.44
337.281	461.44
337.51	474.44
337.738	464.44
337.966	452.44
338.194	458.44
338.422	466.44
338.65	468.44
338.878	467.44
339.106	464.44
339.334	449.44
339.562	448.44
339.79	436.44
340.018	436.44
340.246	434.44
340.474	459.44
340.702	456.44
340.93	456.44
341.158	426.44
341.386	451.44
341.614	455.44
341.842	441.44
342.07	443.44
342.298	443.44
342.526	453.44
342.754	452.44
342.981	436.44
343.209	441.44
343.437	435.44
343.665	450.44
343.893	473.44
344.12	471.44
344.348	472.44
344.576	458.44
344.804	478.44
345.031	447.44
345.259	473.44
345.487	452.44
345.714	464.44
345.942	457.44
346.17	440.44
346.397	422.44
346.625	441.44
346.853	438.44
347.08	432.44
347.308	443.44
347.535	448.44
347.763	439.44
347.99	435.44
348.218	442.44
348.445	457.44
348.673	452.44
348.9	426.44
349.128	422.44
349.355	415.44
349.583	423.44
349.81	405.44
350.037	437.44
350.265	419.44
350.492	426.44
350.72	427.44
350.947	428.44
351.174	428.44
351.402	431.44
351.629	440.44
351.856	428.44
352.083	447.44
352.311	457.44
352.538	442.44
352.765	433.44
352.992	446.44
353.22	426.44
353.447	434.44
353.674	446.44
353.901	438.44
354.128	406.44
354.355	419.44
354.583	408.44
354.81	422.44
355.037	427.44
355.264	404.44
355.491	391.44
355.718	402.44
355.945	420.44
356.172	409.44
356.399	438.44
356.626	406.44
356.853	401.44
357.08	413.44
357.307	408.44
357.534	418.44
357.761	415.44
357.988	430.44
358.215	420.44
358.441	413.44
358.668	428.44
358.895	416.44
359.122	420.44
359.349	425.44
359.576	441.44
359.802	455.44
360.029	459.44
360.256	472.44
360.483	456.44
360.709	435.44
360.936	437.44
361.163	441.44
361.39	436.44
361.616	438.44
361.843	437.44
362.07	427.44
362.296	421.44
362.523	425.44
362.749	424.44
362.976	415.44
363.203	421.44
363.429	417.44
363.656	414.44
363.882	414.44
364.109	420.44
364.335	424.44
364.562	439.44
364.788	419.44
365.015	419.44
365.241	419.44
365.468	453.44
365.694	413.44
365.92	466.44
366.147	428.44
366.373	427.44
366.599	408.44
366.826	414.44
367.052	393.44
367.278	430.44
367.505	403.44
367.731	420.44
367.957	423.44
368.184	424.44
368.41	440.44
368.636	422.44
368.862	457.44
369.089	434.44
369.315	434.44
369.541	438.44
369.767	443.44
369.993	432.44
370.219	431.44
370.445	422.44
370.672	429.44
370.898	425.44
371.124	417.44
371.35	417.44
371.576	434.44
371.802	417.44
372.028	442.44
372.254	430.44
372.48	434.44
372.706	435.44
372.932	426.44
373.158	442.44
373.384	441.44
373.61	434.44
373.835	424.44
374.061	433.44
374.287	448.44
374.513	456.44
374.739	439.44
374.965	434.44
375.191	436.44
375.416	433.44
375.642	434.44
375.868	453.44
376.094	420.44
376.319	424.44
376.545	443.44
376.771	436.44
376.997	402.44
377.222	427.44
377.448	434.44
377.674	423.44
377.899	414.44
378.125	427.44
378.35	430.44
378.576	444.44
378.802	436.44
379.027	444.44
379.253	410.44
379.478	435.44
379.704	408.44
379.929	438.44
380.155	436.44
380.38	427.44
380.606	406.44
380.831	452.44
381.057	429.44
381.282	449.44
381.507	443.44
381.733	444.44
381.958	429.44
382.184	427.44
382.409	449.44
382.634	447.44
382.86	427.44
383.085	446.44
383.31	455.44
383.535	462.44
383.761	471.44
383.986	437.44
384.211	474.44
384.436	458.44
384.662	467.44
384.887	458.44
385.112	462.44
385.337	490.44
385.562	478.44
385.787	476.44
386.013	502.44
386.238	480.44
386.463	497.44
386.688	473.44
386.913	470.44
387.138	491.44
387.363	465.44
387.588	489.44
387.813	482.44
388.038	481.44
388.263	455.44
388.488	477.44
388.713	501.44
388.938	480.44
389.163	500.44
389.387	504.44
389.612	487.44
389.837	485.44
390.062	483.44
390.287	473.44
390.512	455.44
390.736	464.44
390.961	490.44
391.186	475.44
391.411	481.44
391.636	487.44
391.86	504.44
392.085	506.44
392.31	511.44
392.534	520.44
392.759	490.44
392.984	498.44
393.208	481.44
393.433	470.44
393.658	486.44
393.882	502.44
394.107	508.44
394.331	483.44
394.556	484.44
394.78	480.44
395.005	511.44
395.229	500.44
395.454	486.44
395.678	529.44
395.903	528.44
396.127	528.44
396.352	530.44
396.576	505.44
396.801	520.44
397.025	516.44
397.249	515.44
397.474	530.44
397.698	542.44
397.922	546.44
398.147	542.44
398.371	556.44
398.595	553.44
398.82	558.44
399.044	590.44
399.268	623.44
399.492	640.44
399.717	675.44
399.941	690.44
400.165	715.44
400.389	725.44
400.613	648.44
400.837	614.44
401.062	591.44
401.286	568.44
401.51	585.44
401.734	553.44
401.958	552.44
402.182	590.44
402.406	591.44
402.63	573.44
402.854	583.44
403.078	599.44
403.302	595.44
403.526	605.44
403.75	607.44
403.974	614.44
404.198	583.44
404.422	594.44
404.645	584.44
404.869	628.44
405.093	656.44
405.317	676.44
405.541	722.44
405.765	657.44
405.988	621.44
406.212	635.44
406.436	630.44
406.66	645.44
406.883	620.44
407.107	667.44
407.331	708.44
407.555	790.44
407.778	745.44
408.002	718.44
408.226	668.44
408.449	664.44
408.673	670.44
408.896	672.44
409.12	722.44
409.344	684.44
409.567	619.44
409.791	620.44
410.014	594.44
410.238	584.44
410.461	580.44
410.685	585.44
410.908	599.44
411.132	661.44
411.355	649.44
411.578	656.44
411.802	612.44
412.025	598.44
412.249	626.44
412.472	644.44
412.695	643.44
412.919	648.44
413.142	594.44
413.365	578.44
413.589	578.44
413.812	566.44
414.035	562.44
414.258	566.44
414.482	532.44
414.705	532.44
414.928	527.44
415.151	547.44
415.374	563.44
415.597	560.44
415.821	540.44
416.044	525.44
416.267	564.44
416.49	562.44
416.713	531.44
416.936	546.44
417.159	569.44
417.382	556.44
417.605	570.44
417.828	555.44
418.051	580.44
418.274	569.44
418.497	564.44
418.72	561.44
418.943	543.44
419.166	592.44
419.389	629.44
419.611	608.44
419.834	589.44
420.057	607.44
420.28	594.44
420.503	592.44
420.726	587.44
420.948	581.44
421.171	641.44
421.394	666.44
421.617	614.44
421.839	576.44
422.062	578.44
422.285	593.44
422.507	683.44
422.73	718.44
422.953	710.44
423.175	634.44
423.398	620.44
423.621	601.44
423.843	642.44
424.066	628.44
424.288	632.44
424.511	656.44
424.733	698.44
424.956	787.44
425.178	764.44
425.401	735.44
425.623	758.44
425.846	635.44
426.068	601.44
426.291	595.44
426.513	596.44
426.735	614.44
426.958	634.44
427.18	732.44
427.402	887.44
427.625	937.44
427.847	803.44
428.069	738.44
428.292	658.44
428.514	614.44
428.736	599.44
428.958	574.44
429.181	550.44
429.403	544.44
429.625	562.44
429.847	581.44
430.069	649.44
430.292	663.44
430.514	575.44
430.736	550.44
430.958	545.44
431.18	543.44
431.402	554.44
431.624	532.44
431.846	537.44
432.068	542.44
432.29	522.44
432.512	524.44
432.734	540.44
432.956	539.44
433.178	530.44
433.4	534.44
433.622	562.44
433.844	570.44
434.066	561.44
434.287	535.44
434.509	568.44
434.731	571.44
434.953	555.44
435.175	600.44
435.397	618.44
435.618	614.44
435.84	645.44
436.062	772.44
436.284	824.44
436.505	683.44
436.727	608.44
436.949	566.44
437.17	562.44
437.392	568.44
437.614	569.44
437.835	604.44
438.057	707.44
438.278	803.44
438.5	810.44
438.721	886.44
438.943	846.44
439.165	683.44
439.386	638.44
439.608	616.44
439.829	598.44
440.05	630.44
440.272	643.44
440.493	634.44
440.715	599.44
440.936	586.44
441.158	586.44
441.379	588.44
441.6	579.44
441.822	595.44
442.043	638.44
442.264	716.44
442.486	776.44
442.707	683.44
442.928	638.44
443.149	618.44
443.371	645.44
443.592	709.44
443.813	794.44
444.034	858.44
444.255	714.44
444.476	650.44
444.698	644.44
444.919	631.44
445.14	788.44
445.361	688.44
445.582	667.44
445.803	724.44
446.024	800.44
446.245	809.44
446.466	773.44
446.687	646.44
446.908	616.44
447.129	573.44
447.35	562.44
447.571	579.44
447.792	559.44
448.013	569.44
448.234	589.44
448.455	595.44
448.675	736.44
448.896	868.44
449.117	738.44
449.338	691.44
449.559	792.44
449.779	914.44
450	720.44
450.221	614.44
450.442	553.44
450.662	521.44
450.883	539.44
451.104	559.44
451.324	543.44
451.545	543.44
451.766	495.44
451.986	498.44
452.207	503.44
452.428	502.44
452.648	496.44
452.869	494.44
453.089	513.44
453.31	520.44
453.53	493.44
453.751	478.44
453.971	483.44
454.192	518.44
454.412	505.44
454.633	498.44
454.853	483.44
455.073	472.44
455.294	517.44
455.514	554.44
455.734	569.44
455.955	501.44
456.175	476.44
456.395	486.44
456.616	474.44
456.836	478.44
457.056	456.44
457.276	462.44
457.497	487.44
457.717	453.44
457.937	468.44
458.157	499.44
458.377	477.44
458.598	520.44
458.818	563.44
459.038	641.44
459.258	655.44
459.478	574.44
459.698	548.44
459.918	532.44
460.138	550.44
460.358	538.44
460.578	553.44
460.798	572.44
461.018	593.44
461.238	578.44
461.458	581.44
461.678	539.44
461.898	574.44
462.118	536.44
462.338	555.44
462.558	578.44
462.777	608.44
462.997	635.44
463.217	644.44
463.437	634.44
463.657	640.44
463.876	620.44
464.096	618.44
464.316	587.44
464.536	594.44
464.755	602.44
464.975	617.44
465.195	617.44
465.414	645.44
465.634	587.44
465.854	560.44
466.073	558.44
466.293	501.44
466.512	507.44
466.732	530.44
466.951	508.44
467.171	531.44
467.391	548.44
467.61	531.44
467.829	525.44
468.049	528.44
468.268	518.44
468.488	521.44
468.707	510.44
468.927	519.44
469.146	506.44
469.365	508.44
469.585	511.44
469.804	523.44
470.023	520.44
470.243	508.44
470.462	537.44
470.681	522.44
470.901	540.44
471.12	502.44
471.339	527.44
471.558	535.44
471.777	527.44
471.997	533.44
472.216	505.44
472.435	554.44
472.654	538.44
472.873	521.44
473.092	499.44
473.311	506.44
473.53	535.44
473.749	533.44
473.968	588.44
474.187	650.44
474.406	688.44
474.625	572.44
474.844	534.44
475.063	514.44
475.282	515.44
475.501	535.44
475.72	530.44
475.939	552.44
476.158	542.44
476.377	538.44
476.596	552.44
476.814	510.44
477.033	533.44
477.252	547.44
477.471	553.44
477.69	565.44
477.908	562.44
478.127	583.44
478.346	567.44
478.564	586.44
478.783	594.44
479.002	585.44
479.22	617.44
479.439	629.44
479.658	642.44
479.876	631.44
480.095	658.44
480.313	680.44
480.532	673.44
480.751	655.44
480.969	635.44
481.188	689.44
481.406	738.44
481.624	676.44
481.843	643.44
482.061	642.44
482.28	629.44
482.498	611.44
482.717	604.44
482.935	601.44
483.153	594.44
483.372	628.44
483.59	593.44
483.808	622.44
484.027	588.44
484.245	604.44
484.463	598.44
484.681	628.44
484.9	633.44
485.118	634.44
485.336	615.44
485.554	630.44
485.772	625.44
485.99	626.44
486.209	633.44
486.427	634.44
486.645	636.44
486.863	641.44
487.081	647.44
487.299	675.44
487.517	639.44
487.735	664.44
487.953	630.44
488.171	640.44
488.389	665.44
488.607	649.44
488.825	664.44
489.043	662.44
489.261	649.44
489.479	658.44
489.696	654.44
489.914	673.44
490.132	695.44
490.35	668.44
490.568	688.44
490.786	696.44
491.003	708.44
491.221	721.44
491.439	722.44
491.657	727.44
491.874	731.44
492.092	759.44
492.31	763.44
492.527	746.44
492.745	745.44
492.963	744.44
493.18	768.44
493.398	762.44
493.615	789.44
493.833	781.44
494.05	786.44
494.268	774.44
494.485	766.44
494.703	780.44
494.92	790.44
495.138	785.44
495.355	789.44
495.573	786.44
495.79	772.44
496.008	796.44
496.225	778.44
496.442	773.44
496.66	800.44
496.877	767.44
497.094	807.44
497.312	789.44
497.529	788.44
497.746	810.44
497.963	827.44
498.181	884.44
498.398	874.44
498.615	874.44
498.832	936.44
499.049	942.44
499.267	980.44
499.484	1009.44
499.701	1054.44
499.918	1086.44
500.135	1154.44
500.352	1238.44
500.569	1275.44
500.786	1273.44
501.003	1241.44
501.22	1212.44
501.437	1117.44
501.654	1070.44
