Data from 1975.PennyLincolnUp.Lamp.En5.5.200Scan.071719.P1.Changed Mount._HRD10591_15-55-32-858.txt Node
Date: Thu Jul 18 15:55:32 EDT 2019
User: cochatt
Spectrometer: HR+D1059
Trigger mode: 1
Integration Time (sec): 1.000000E-1
Scans to average: 1
Electric dark correction enabled: true
Nonlinearity correction enabled: false
Boxcar width: 0
XAxis mode: Wavelengths
Number of Pixels in Spectrum: 2048
>>>>>Begin Spectral Data<<<<<
223.165	-20.19
223.4	-20.19
223.635	-20.19
223.869	-10.19
224.104	-23.19
224.338	-11.19
224.573	-4.19
224.808	-14.19
225.042	-1.19
225.277	-12.19
225.511	-2.19
225.746	5.81
225.98	3.81
226.215	7.81
226.449	12.81
226.683	9.81
226.918	22.81
227.152	35.81
227.387	31.81
227.621	24.81
227.856	50.81
228.09	29.81
228.324	42.81
228.559	70.81
228.793	68.81
229.027	94.81
229.262	84.81
229.496	99.81
229.73	101.81
229.964	133.81
230.199	126.81
230.433	99.81
230.667	113.81
230.901	106.81
231.136	110.81
231.37	106.81
231.604	109.81
231.838	106.81
232.072	112.81
232.306	125.81
232.541	96.81
232.775	87.81
233.009	108.81
233.243	94.81
233.477	102.81
233.711	116.81
233.945	102.81
234.179	111.81
234.413	124.81
234.647	122.81
234.881	116.81
235.115	108.81
235.349	124.81
235.583	128.81
235.817	112.81
236.051	106.81
236.285	114.81
236.519	115.81
236.753	115.81
236.987	122.81
237.221	146.81
237.455	190.81
237.689	149.81
237.922	118.81
238.156	114.81
238.39	114.81
238.624	107.81
238.858	103.81
239.091	124.81
239.325	128.81
239.559	126.81
239.793	126.81
240.027	137.81
240.26	127.81
240.494	152.81
240.728	145.81
240.961	126.81
241.195	146.81
241.429	120.81
241.662	119.81
241.896	112.81
242.13	134.81
242.363	122.81
242.597	123.81
242.83	141.81
243.064	131.81
243.298	120.81
243.531	133.81
243.765	140.81
243.998	118.81
244.232	123.81
244.465	128.81
244.699	122.81
244.932	147.81
245.166	143.81
245.399	153.81
245.633	140.81
245.866	139.81
246.099	137.81
246.333	139.81
246.566	150.81
246.8	138.81
247.033	149.81
247.266	150.81
247.5	152.81
247.733	160.81
247.966	163.81
248.2	150.81
248.433	160.81
248.666	166.81
248.899	168.81
249.133	155.81
249.366	175.81
249.599	175.81
249.832	165.81
250.066	163.81
250.299	160.81
250.532	167.81
250.765	178.81
250.998	194.81
251.231	203.81
251.465	185.81
251.698	183.81
251.931	189.81
252.164	173.81
252.397	190.81
252.63	168.81
252.863	196.81
253.096	182.81
253.329	216.81
253.562	190.81
253.795	189.81
254.028	190.81
254.261	186.81
254.494	209.81
254.727	208.81
254.96	229.81
255.193	222.81
255.426	211.81
255.659	219.81
255.892	191.81
256.124	196.81
256.357	213.81
256.59	185.81
256.823	188.81
257.056	181.81
257.289	190.81
257.521	169.81
257.754	194.81
257.987	218.81
258.22	178.81
258.452	199.81
258.685	188.81
258.918	187.81
259.151	194.81
259.383	211.81
259.616	188.81
259.849	192.81
260.081	194.81
260.314	216.81
260.547	218.81
260.779	209.81
261.012	203.81
261.244	200.81
261.477	204.81
261.71	207.81
261.942	193.81
262.175	216.81
262.407	222.81
262.64	184.81
262.872	187.81
263.105	184.81
263.337	192.81
263.57	195.81
263.802	203.81
264.035	199.81
264.267	194.81
264.499	194.81
264.732	204.81
264.964	195.81
265.197	203.81
265.429	194.81
265.661	191.81
265.894	211.81
266.126	220.81
266.358	219.81
266.591	201.81
266.823	212.81
267.055	199.81
267.287	215.81
267.52	199.81
267.752	197.81
267.984	207.81
268.216	219.81
268.448	212.81
268.681	229.81
268.913	227.81
269.145	227.81
269.377	241.81
269.609	236.81
269.841	223.81
270.073	244.81
270.306	236.81
270.538	268.81
270.77	291.81
271.002	254.81
271.234	262.81
271.466	251.81
271.698	263.81
271.93	256.81
272.162	280.81
272.394	263.81
272.626	271.81
272.858	258.81
273.09	252.81
273.322	242.81
273.553	236.81
273.785	228.81
274.017	212.81
274.249	250.81
274.481	234.81
274.713	244.81
274.945	240.81
275.176	244.81
275.408	243.81
275.64	235.81
275.872	245.81
276.104	238.81
276.335	236.81
276.567	238.81
276.799	246.81
277.031	252.81
277.262	271.81
277.494	284.81
277.726	289.81
277.957	271.81
278.189	255.81
278.421	246.81
278.652	248.81
278.884	257.81
279.115	256.81
279.347	251.81
279.579	250.81
279.81	248.81
280.042	267.81
280.273	258.81
280.505	258.81
280.736	260.81
280.968	236.81
281.199	254.81
281.431	272.81
281.662	245.81
281.894	257.81
282.125	240.81
282.356	249.81
282.588	286.81
282.819	276.81
283.051	258.81
283.282	262.81
283.513	260.81
283.745	269.81
283.976	240.81
284.207	256.81
284.439	267.81
284.67	262.81
284.901	256.81
285.132	272.81
285.364	283.81
285.595	259.81
285.826	256.81
286.057	276.81
286.288	249.81
286.52	266.81
286.751	281.81
286.982	267.81
287.213	289.81
287.444	280.81
287.675	287.81
287.906	266.81
288.138	270.81
288.369	277.81
288.6	289.81
288.831	280.81
289.062	274.81
289.293	261.81
289.524	249.81
289.755	275.81
289.986	264.81
290.217	270.81
290.448	287.81
290.679	270.81
290.91	275.81
291.141	267.81
291.371	276.81
291.602	284.81
291.833	273.81
292.064	257.81
292.295	267.81
292.526	292.81
292.757	272.81
292.987	250.81
293.218	253.81
293.449	275.81
293.68	286.81
293.91	274.81
294.141	275.81
294.372	279.81
294.603	299.81
294.833	282.81
295.064	275.81
295.295	276.81
295.525	288.81
295.756	283.81
295.987	280.81
296.217	285.81
296.448	298.81
296.679	267.81
296.909	275.81
297.14	284.81
297.37	290.81
297.601	286.81
297.831	287.81
298.062	288.81
298.292	300.81
298.523	302.81
298.753	282.81
298.984	292.81
299.214	271.81
299.445	267.81
299.675	285.81
299.905	290.81
300.136	302.81
300.366	297.81
300.597	306.81
300.827	307.81
301.057	293.81
301.288	298.81
301.518	302.81
301.748	298.81
301.979	293.81
302.209	312.81
302.439	308.81
302.669	322.81
302.9	295.81
303.13	313.81
303.36	302.81
303.59	314.81
303.82	325.81
304.051	297.81
304.281	321.81
304.511	316.81
304.741	299.81
304.971	305.81
305.201	299.81
305.431	288.81
305.661	307.81
305.891	313.81
306.121	297.81
306.352	318.81
306.582	310.81
306.812	310.81
307.042	298.81
307.272	316.81
307.502	312.81
307.731	313.81
307.961	304.81
308.191	293.81
308.421	295.81
308.651	308.81
308.881	310.81
309.111	318.81
309.341	313.81
309.571	313.81
309.8	318.81
310.03	319.81
310.26	326.81
310.49	337.81
310.72	321.81
310.949	346.81
311.179	367.81
311.409	346.81
311.639	332.81
311.868	350.81
312.098	324.81
312.328	340.81
312.557	346.81
312.787	335.81
313.017	338.81
313.246	358.81
313.476	333.81
313.706	334.81
313.935	354.81
314.165	346.81
314.394	352.81
314.624	354.81
314.853	353.81
315.083	338.81
315.312	344.81
315.542	321.81
315.771	349.81
316.001	334.81
316.23	334.81
316.46	353.81
316.689	352.81
316.919	342.81
317.148	356.81
317.377	330.81
317.607	360.81
317.836	357.81
318.065	336.81
318.295	338.81
318.524	326.81
318.753	339.81
318.983	340.81
319.212	342.81
319.441	339.81
319.67	334.81
319.9	328.81
320.129	333.81
320.358	327.81
320.587	331.81
320.816	354.81
321.046	359.81
321.275	361.81
321.504	351.81
321.733	345.81
321.962	361.81
322.191	351.81
322.42	344.81
322.649	370.81
322.878	378.81
323.108	376.81
323.337	378.81
323.566	383.81
323.795	420.81
324.024	430.81
324.253	454.81
324.482	648.81
324.71	961.81
324.939	1450.81
325.168	1268.81
325.397	634.81
325.626	486.81
325.855	392.81
326.084	397.81
326.313	398.81
326.542	374.81
326.77	440.81
326.999	473.81
327.228	580.81
327.457	897.81
327.686	1123.81
327.914	744.81
328.143	523.81
328.372	490.81
328.6	456.81
328.829	437.81
329.058	434.81
329.287	450.81
329.515	431.81
329.744	410.81
329.972	432.81
330.201	421.81
330.43	454.81
330.658	466.81
330.887	471.81
331.115	463.81
331.344	435.81
331.572	417.81
331.801	413.81
332.03	416.81
332.258	415.81
332.486	404.81
332.715	396.81
332.943	398.81
333.172	424.81
333.4	420.81
333.629	431.81
333.857	440.81
334.085	453.81
334.314	449.81
334.542	463.81
334.771	463.81
334.999	457.81
335.227	456.81
335.455	433.81
335.684	415.81
335.912	438.81
336.14	418.81
336.369	419.81
336.597	422.81
336.825	408.81
337.053	408.81
337.281	393.81
337.51	416.81
337.738	411.81
337.966	418.81
338.194	409.81
338.422	402.81
338.65	411.81
338.878	403.81
339.106	396.81
339.334	383.81
339.562	380.81
339.79	400.81
340.018	388.81
340.246	406.81
340.474	388.81
340.702	413.81
340.93	399.81
341.158	378.81
341.386	398.81
341.614	394.81
341.842	396.81
342.07	400.81
342.298	391.81
342.526	392.81
342.754	364.81
342.981	388.81
343.209	404.81
343.437	406.81
343.665	395.81
343.893	435.81
344.12	432.81
344.348	436.81
344.576	416.81
344.804	405.81
345.031	406.81
345.259	408.81
345.487	386.81
345.714	390.81
345.942	387.81
346.17	376.81
346.397	385.81
346.625	368.81
346.853	369.81
347.08	361.81
347.308	362.81
347.535	390.81
347.763	384.81
347.99	387.81
348.218	383.81
348.445	386.81
348.673	378.81
348.9	375.81
349.128	355.81
349.355	372.81
349.583	376.81
349.81	371.81
350.037	367.81
350.265	361.81
350.492	382.81
350.72	372.81
350.947	362.81
351.174	388.81
351.402	378.81
351.629	379.81
351.856	373.81
352.083	386.81
352.311	375.81
352.538	386.81
352.765	380.81
352.992	390.81
353.22	390.81
353.447	378.81
353.674	364.81
353.901	378.81
354.128	378.81
354.355	369.81
354.583	375.81
354.81	367.81
355.037	380.81
355.264	375.81
355.491	362.81
355.718	353.81
355.945	363.81
356.172	366.81
356.399	378.81
356.626	370.81
356.853	372.81
357.08	373.81
357.307	369.81
357.534	382.81
357.761	363.81
357.988	363.81
358.215	367.81
358.441	372.81
358.668	398.81
358.895	393.81
359.122	386.81
359.349	377.81
359.576	376.81
359.802	389.81
360.029	392.81
360.256	411.81
360.483	399.81
360.709	391.81
360.936	415.81
361.163	386.81
361.39	391.81
361.616	381.81
361.843	381.81
362.07	374.81
362.296	367.81
362.523	384.81
362.749	383.81
362.976	372.81
363.203	358.81
363.429	374.81
363.656	366.81
363.882	362.81
364.109	380.81
364.335	375.81
364.562	355.81
364.788	364.81
365.015	384.81
365.241	366.81
365.468	394.81
365.694	391.81
365.92	371.81
366.147	369.81
366.373	370.81
366.599	369.81
366.826	375.81
367.052	367.81
367.278	374.81
367.505	379.81
367.731	375.81
367.957	367.81
368.184	378.81
368.41	401.81
368.636	404.81
368.862	395.81
369.089	384.81
369.315	384.81
369.541	392.81
369.767	380.81
369.993	375.81
370.219	374.81
370.445	383.81
370.672	385.81
370.898	392.81
371.124	377.81
371.35	379.81
371.576	378.81
371.802	384.81
372.028	390.81
372.254	407.81
372.48	387.81
372.706	388.81
372.932	393.81
373.158	389.81
373.384	375.81
373.61	394.81
373.835	395.81
374.061	400.81
374.287	403.81
374.513	379.81
374.739	385.81
374.965	402.81
375.191	400.81
375.416	415.81
375.642	396.81
375.868	390.81
376.094	384.81
376.319	390.81
376.545	393.81
376.771	386.81
376.997	393.81
377.222	377.81
377.448	416.81
377.674	412.81
377.899	398.81
378.125	399.81
378.35	417.81
378.576	410.81
378.802	387.81
379.027	401.81
379.253	372.81
379.478	394.81
379.704	404.81
379.929	397.81
380.155	393.81
380.38	400.81
380.606	392.81
380.831	395.81
381.057	390.81
381.282	408.81
381.507	390.81
381.733	427.81
381.958	419.81
382.184	408.81
382.409	399.81
382.634	409.81
382.86	436.81
383.085	418.81
383.31	436.81
383.535	440.81
383.761	435.81
383.986	411.81
384.211	417.81
384.436	434.81
384.662	442.81
384.887	439.81
385.112	432.81
385.337	433.81
385.562	459.81
385.787	461.81
386.013	467.81
386.238	474.81
386.463	464.81
386.688	467.81
386.913	455.81
387.138	442.81
387.363	450.81
387.588	452.81
387.813	470.81
388.038	461.81
388.263	464.81
388.488	436.81
388.713	446.81
388.938	424.81
389.163	450.81
389.387	460.81
389.612	456.81
389.837	448.81
390.062	436.81
390.287	444.81
390.512	441.81
390.736	433.81
390.961	432.81
391.186	438.81
391.411	450.81
391.636	442.81
391.86	457.81
392.085	464.81
392.31	460.81
392.534	462.81
392.759	470.81
392.984	442.81
393.208	434.81
393.433	464.81
393.658	444.81
393.882	464.81
394.107	450.81
394.331	442.81
394.556	448.81
394.78	448.81
395.005	479.81
395.229	453.81
395.454	477.81
395.678	469.81
395.903	466.81
396.127	477.81
396.352	486.81
396.576	473.81
396.801	470.81
397.025	466.81
397.249	467.81
397.474	463.81
397.698	465.81
397.922	489.81
398.147	496.81
398.371	492.81
398.595	491.81
398.82	517.81
399.044	537.81
399.268	538.81
399.492	588.81
399.717	638.81
399.941	624.81
400.165	649.81
400.389	638.81
400.613	574.81
400.837	530.81
401.062	515.81
401.286	510.81
401.51	517.81
401.734	515.81
401.958	516.81
402.182	502.81
402.406	518.81
402.63	522.81
402.854	502.81
403.078	525.81
403.302	534.81
403.526	525.81
403.75	558.81
403.974	538.81
404.198	516.81
404.422	524.81
404.645	544.81
404.869	555.81
405.093	562.81
405.317	608.81
405.541	647.81
405.765	590.81
405.988	541.81
406.212	572.81
406.436	582.81
406.66	572.81
406.883	549.81
407.107	600.81
407.331	621.81
407.555	689.81
407.778	700.81
408.002	626.81
408.226	582.81
408.449	595.81
408.673	600.81
408.896	613.81
409.12	618.81
409.344	613.81
409.567	571.81
409.791	545.81
410.014	535.81
410.238	550.81
410.461	545.81
410.685	558.81
410.908	528.81
411.132	545.81
411.355	610.81
411.578	583.81
411.802	538.81
412.025	547.81
412.249	532.81
412.472	563.81
412.695	587.81
412.919	578.81
413.142	528.81
413.365	534.81
413.589	522.81
413.812	479.81
414.035	512.81
414.258	520.81
414.482	516.81
414.705	504.81
414.928	512.81
415.151	516.81
415.374	492.81
415.597	494.81
415.821	517.81
416.044	512.81
416.267	487.81
416.49	514.81
416.713	500.81
416.936	524.81
417.159	510.81
417.382	528.81
417.605	510.81
417.828	521.81
418.051	525.81
418.274	525.81
418.497	498.81
418.72	520.81
418.943	510.81
419.166	520.81
419.389	558.81
419.611	549.81
419.834	545.81
420.057	535.81
420.28	538.81
420.503	516.81
420.726	513.81
420.948	524.81
421.171	587.81
421.394	575.81
421.617	526.81
421.839	527.81
422.062	543.81
422.285	531.81
422.507	551.81
422.73	651.81
422.953	625.81
423.175	561.81
423.398	570.81
423.621	524.81
423.843	564.81
424.066	547.81
424.288	554.81
424.511	554.81
424.733	595.81
424.956	679.81
425.178	668.81
425.401	635.81
425.623	661.81
425.846	595.81
426.068	558.81
426.291	537.81
426.513	546.81
426.735	546.81
426.958	573.81
427.18	646.81
427.402	745.81
427.625	833.81
427.847	679.81
428.069	610.81
428.292	554.81
428.514	546.81
428.736	519.81
428.958	493.81
429.181	478.81
429.403	494.81
429.625	490.81
429.847	525.81
430.069	602.81
430.292	603.81
430.514	533.81
430.736	515.81
430.958	514.81
431.18	464.81
431.402	489.81
431.624	480.81
431.846	460.81
432.068	475.81
432.29	478.81
432.512	488.81
432.734	495.81
432.956	480.81
433.178	469.81
433.4	481.81
433.622	495.81
433.844	510.81
434.066	493.81
434.287	486.81
434.509	506.81
434.731	514.81
434.953	507.81
435.175	532.81
435.397	552.81
435.618	559.81
435.84	562.81
436.062	649.81
436.284	698.81
436.505	607.81
436.727	560.81
436.949	514.81
437.17	508.81
437.392	503.81
437.614	496.81
437.835	510.81
438.057	615.81
438.278	696.81
438.5	684.81
438.721	792.81
438.943	746.81
439.165	593.81
439.386	542.81
439.608	562.81
439.829	583.81
440.05	553.81
440.272	564.81
440.493	552.81
440.715	516.81
440.936	526.81
441.158	509.81
441.379	535.81
441.6	530.81
441.822	538.81
442.043	568.81
442.264	634.81
442.486	671.81
442.707	604.81
442.928	552.81
443.149	555.81
443.371	570.81
443.592	604.81
443.813	657.81
444.034	725.81
444.255	616.81
444.476	569.81
444.698	590.81
444.919	576.81
445.14	700.81
445.361	645.81
445.582	588.81
445.803	626.81
446.024	674.81
446.245	702.81
446.466	644.81
446.687	560.81
446.908	524.81
447.129	530.81
447.35	520.81
447.571	522.81
447.792	483.81
448.013	523.81
448.234	492.81
448.455	534.81
448.675	634.81
448.896	735.81
449.117	647.81
449.338	583.81
449.559	710.81
449.779	801.81
450	618.81
450.221	514.81
450.442	496.81
450.662	473.81
450.883	478.81
451.104	506.81
451.324	476.81
451.545	473.81
451.766	446.81
451.986	458.81
452.207	458.81
452.428	444.81
452.648	438.81
452.869	454.81
453.089	434.81
453.31	456.81
453.53	442.81
453.751	455.81
453.971	435.81
454.192	481.81
454.412	442.81
454.633	448.81
454.853	431.81
455.073	442.81
455.294	477.81
455.514	510.81
455.734	490.81
455.955	450.81
456.175	422.81
456.395	411.81
456.616	414.81
456.836	418.81
457.056	418.81
457.276	413.81
457.497	420.81
457.717	427.81
457.937	421.81
458.157	447.81
458.377	427.81
458.598	460.81
458.818	497.81
459.038	537.81
459.258	560.81
459.478	512.81
459.698	470.81
459.918	470.81
460.138	495.81
460.358	486.81
460.578	525.81
460.798	509.81
461.018	512.81
461.238	519.81
461.458	513.81
461.678	537.81
461.898	513.81
462.118	513.81
462.338	556.81
462.558	554.81
462.777	558.81
462.997	588.81
463.217	602.81
463.437	587.81
463.657	586.81
463.876	562.81
464.096	574.81
464.316	543.81
464.536	557.81
464.755	556.81
464.975	540.81
465.195	553.81
465.414	582.81
465.634	541.81
465.854	491.81
466.073	500.81
466.293	494.81
466.512	491.81
466.732	461.81
466.951	474.81
467.171	476.81
467.391	475.81
467.61	478.81
467.829	488.81
468.049	460.81
468.268	475.81
468.488	478.81
468.707	444.81
468.927	459.81
469.146	455.81
469.365	467.81
469.585	451.81
469.804	465.81
470.023	478.81
470.243	476.81
470.462	458.81
470.681	491.81
470.901	477.81
471.12	488.81
471.339	475.81
471.558	482.81
471.777	458.81
471.997	457.81
472.216	458.81
472.435	461.81
472.654	485.81
472.873	470.81
473.092	455.81
473.311	455.81
473.53	462.81
473.749	472.81
473.968	502.81
474.187	562.81
474.406	580.81
474.625	514.81
474.844	488.81
475.063	475.81
475.282	485.81
475.501	473.81
475.72	500.81
475.939	488.81
476.158	512.81
476.377	494.81
476.596	476.81
476.814	489.81
477.033	496.81
477.252	526.81
477.471	514.81
477.69	503.81
477.908	510.81
478.127	519.81
478.346	547.81
478.564	534.81
478.783	535.81
479.002	542.81
479.22	528.81
479.439	537.81
479.658	542.81
479.876	603.81
480.095	584.81
480.313	597.81
480.532	584.81
480.751	588.81
480.969	604.81
481.188	617.81
481.406	614.81
481.624	599.81
481.843	582.81
482.061	569.81
482.28	546.81
482.498	553.81
482.717	544.81
482.935	566.81
483.153	561.81
483.372	573.81
483.59	556.81
483.808	546.81
484.027	560.81
484.245	548.81
484.463	544.81
484.681	585.81
484.9	557.81
485.118	611.81
485.336	574.81
485.554	565.81
485.772	587.81
485.99	612.81
486.209	585.81
486.427	579.81
486.645	585.81
486.863	584.81
487.081	572.81
487.299	616.81
487.517	615.81
487.735	596.81
487.953	624.81
488.171	614.81
488.389	592.81
488.607	610.81
488.825	612.81
489.043	615.81
489.261	605.81
489.479	603.81
489.696	626.81
489.914	608.81
490.132	616.81
490.35	626.81
490.568	624.81
490.786	647.81
491.003	632.81
491.221	681.81
491.439	657.81
491.657	670.81
491.874	660.81
492.092	656.81
492.31	669.81
492.527	702.81
492.745	696.81
492.963	678.81
493.18	682.81
493.398	694.81
493.615	699.81
493.833	682.81
494.05	679.81
494.268	669.81
494.485	687.81
494.703	648.81
494.92	689.81
495.138	668.81
495.355	692.81
495.573	689.81
495.79	702.81
496.008	696.81
496.225	689.81
496.442	685.81
496.66	704.81
496.877	700.81
497.094	722.81
497.312	735.81
497.529	718.81
497.746	751.81
497.963	757.81
498.181	798.81
498.398	790.81
498.615	819.81
498.832	810.81
499.049	857.81
499.267	873.81
499.484	938.81
499.701	953.81
499.918	1025.81
500.135	1048.81
500.352	1137.81
500.569	1185.81
500.786	1146.81
501.003	1136.81
501.22	1083.81
501.437	1032.81
501.654	993.81
501.871	930.81
