Data from 1975.PennyLincolnUp.Lamp.En5.5.200Scan.071719.P1.Changed Mount._HRD10591_15-56-21-861.txt Node
Date: Thu Jul 18 15:56:21 EDT 2019
User: cochatt
Spectrometer: HR+D1059
Trigger mode: 1
Integration Time (sec): 1.000000E-1
Scans to average: 1
Electric dark correction enabled: true
Nonlinearity correction enabled: false
Boxcar width: 0
XAxis mode: Wavelengths
Number of Pixels in Spectrum: 2048
>>>>>Begin Spectral Data<<<<<
223.165	-14.25
223.4	-14.25
223.635	-14.25
223.869	-18.25
224.104	-17.25
224.338	-12.25
224.573	-3.25
224.808	-13.25
225.042	-6.25
225.277	-9.25
225.511	-4.25
225.746	-10.25
225.98	1.75
226.215	20.75
226.449	18.75
226.683	14.75
226.918	18.75
227.152	33.75
227.387	28.75
227.621	44.75
227.856	51.75
228.09	48.75
228.324	58.75
228.559	47.75
228.793	74.75
229.027	103.75
229.262	121.75
229.496	119.75
229.73	124.75
229.964	159.75
230.199	127.75
230.433	118.75
230.667	120.75
230.901	117.75
231.136	123.75
231.37	108.75
231.604	114.75
231.838	117.75
232.072	110.75
232.306	118.75
232.541	120.75
232.775	125.75
233.009	112.75
233.243	127.75
233.477	116.75
233.711	117.75
233.945	129.75
234.179	122.75
234.413	120.75
234.647	123.75
234.881	102.75
235.115	125.75
235.349	128.75
235.583	111.75
235.817	124.75
236.051	127.75
236.285	132.75
236.519	134.75
236.753	124.75
236.987	152.75
237.221	191.75
237.455	221.75
237.689	194.75
237.922	145.75
238.156	140.75
238.39	133.75
238.624	128.75
238.858	125.75
239.091	125.75
239.325	136.75
239.559	126.75
239.793	128.75
240.027	143.75
240.26	136.75
240.494	154.75
240.728	163.75
240.961	160.75
241.195	147.75
241.429	130.75
241.662	145.75
241.896	140.75
242.13	139.75
242.363	141.75
242.597	134.75
242.83	146.75
243.064	139.75
243.298	149.75
243.531	145.75
243.765	138.75
243.998	158.75
244.232	147.75
244.465	146.75
244.699	156.75
244.932	144.75
245.166	142.75
245.399	151.75
245.633	146.75
245.866	151.75
246.099	150.75
246.333	151.75
246.566	174.75
246.8	155.75
247.033	160.75
247.266	162.75
247.5	161.75
247.733	190.75
247.966	170.75
248.2	175.75
248.433	173.75
248.666	172.75
248.899	176.75
249.133	200.75
249.366	187.75
249.599	174.75
249.832	176.75
250.066	185.75
250.299	188.75
250.532	196.75
250.765	208.75
250.998	225.75
251.231	215.75
251.465	229.75
251.698	208.75
251.931	192.75
252.164	187.75
252.397	206.75
252.63	189.75
252.863	204.75
253.096	203.75
253.329	223.75
253.562	236.75
253.795	220.75
254.028	241.75
254.261	227.75
254.494	226.75
254.727	258.75
254.96	288.75
255.193	281.75
255.426	228.75
255.659	219.75
255.892	229.75
256.124	234.75
256.357	237.75
256.59	252.75
256.823	219.75
257.056	234.75
257.289	217.75
257.521	220.75
257.754	215.75
257.987	209.75
258.22	208.75
258.452	224.75
258.685	217.75
258.918	202.75
259.151	219.75
259.383	219.75
259.616	216.75
259.849	228.75
260.081	224.75
260.314	250.75
260.547	247.75
260.779	245.75
261.012	231.75
261.244	220.75
261.477	230.75
261.71	204.75
261.942	208.75
262.175	235.75
262.407	234.75
262.64	228.75
262.872	204.75
263.105	207.75
263.337	221.75
263.57	207.75
263.802	234.75
264.035	224.75
264.267	217.75
264.499	215.75
264.732	228.75
264.964	207.75
265.197	219.75
265.429	228.75
265.661	228.75
265.894	230.75
266.126	229.75
266.358	215.75
266.591	222.75
266.823	228.75
267.055	225.75
267.287	237.75
267.52	238.75
267.752	239.75
267.984	239.75
268.216	237.75
268.448	241.75
268.681	239.75
268.913	241.75
269.145	262.75
269.377	268.75
269.609	272.75
269.841	265.75
270.073	257.75
270.306	290.75
270.538	309.75
270.77	314.75
271.002	291.75
271.234	286.75
271.466	303.75
271.698	297.75
271.93	311.75
272.162	302.75
272.394	305.75
272.626	308.75
272.858	296.75
273.09	293.75
273.322	281.75
273.553	272.75
273.785	284.75
274.017	262.75
274.249	264.75
274.481	258.75
274.713	261.75
274.945	256.75
275.176	278.75
275.408	260.75
275.64	277.75
275.872	249.75
276.104	252.75
276.335	270.75
276.567	285.75
276.799	281.75
277.031	312.75
277.262	315.75
277.494	319.75
277.726	305.75
277.957	291.75
278.189	274.75
278.421	267.75
278.652	297.75
278.884	281.75
279.115	276.75
279.347	275.75
279.579	291.75
279.81	272.75
280.042	271.75
280.273	276.75
280.505	274.75
280.736	278.75
280.968	272.75
281.199	272.75
281.431	279.75
281.662	269.75
281.894	264.75
282.125	279.75
282.356	298.75
282.588	312.75
282.819	326.75
283.051	300.75
283.282	292.75
283.513	293.75
283.745	274.75
283.976	299.75
284.207	297.75
284.439	295.75
284.67	283.75
284.901	298.75
285.132	296.75
285.364	281.75
285.595	295.75
285.826	279.75
286.057	306.75
286.288	297.75
286.52	298.75
286.751	279.75
286.982	291.75
287.213	317.75
287.444	322.75
287.675	318.75
287.906	313.75
288.138	311.75
288.369	314.75
288.6	315.75
288.831	286.75
289.062	301.75
289.293	303.75
289.524	282.75
289.755	293.75
289.986	294.75
290.217	317.75
290.448	292.75
290.679	305.75
290.91	280.75
291.141	290.75
291.371	306.75
291.602	299.75
291.833	298.75
292.064	290.75
292.295	295.75
292.526	293.75
292.757	320.75
292.987	301.75
293.218	288.75
293.449	301.75
293.68	316.75
293.91	301.75
294.141	321.75
294.372	309.75
294.603	301.75
294.833	298.75
295.064	314.75
295.295	309.75
295.525	306.75
295.756	312.75
295.987	303.75
296.217	315.75
296.448	328.75
296.679	321.75
296.909	303.75
297.14	300.75
297.37	302.75
297.601	320.75
297.831	316.75
298.062	315.75
298.292	334.75
298.523	321.75
298.753	325.75
298.984	344.75
299.214	335.75
299.445	314.75
299.675	330.75
299.905	315.75
300.136	310.75
300.366	321.75
300.597	317.75
300.827	321.75
301.057	332.75
301.288	349.75
301.518	347.75
301.748	333.75
301.979	343.75
302.209	332.75
302.439	353.75
302.669	344.75
302.9	316.75
303.13	334.75
303.36	334.75
303.59	340.75
303.82	335.75
304.051	332.75
304.281	336.75
304.511	336.75
304.741	327.75
304.971	352.75
305.201	355.75
305.431	344.75
305.661	328.75
305.891	334.75
306.121	308.75
306.352	341.75
306.582	335.75
306.812	321.75
307.042	328.75
307.272	352.75
307.502	368.75
307.731	352.75
307.961	337.75
308.191	344.75
308.421	358.75
308.651	345.75
308.881	350.75
309.111	342.75
309.341	329.75
309.571	346.75
309.8	369.75
310.03	381.75
310.26	350.75
310.49	374.75
310.72	362.75
310.949	388.75
311.179	388.75
311.409	383.75
311.639	376.75
311.868	374.75
312.098	374.75
312.328	362.75
312.557	372.75
312.787	396.75
313.017	386.75
313.246	371.75
313.476	382.75
313.706	373.75
313.935	384.75
314.165	383.75
314.394	402.75
314.624	411.75
314.853	398.75
315.083	384.75
315.312	380.75
315.542	368.75
315.771	361.75
316.001	379.75
316.23	378.75
316.46	361.75
316.689	392.75
316.919	374.75
317.148	386.75
317.377	378.75
317.607	384.75
317.836	388.75
318.065	373.75
318.295	399.75
318.524	384.75
318.753	378.75
318.983	377.75
319.212	376.75
319.441	379.75
319.67	385.75
319.9	390.75
320.129	384.75
320.358	362.75
320.587	384.75
320.816	394.75
321.046	382.75
321.275	383.75
321.504	383.75
321.733	396.75
321.962	398.75
322.191	397.75
322.42	417.75
322.649	413.75
322.878	426.75
323.108	427.75
323.337	445.75
323.566	451.75
323.795	464.75
324.024	487.75
324.253	561.75
324.482	735.75
324.71	1160.75
324.939	1753.75
325.168	1540.75
325.397	788.75
325.626	565.75
325.855	497.75
326.084	463.75
326.313	434.75
326.542	461.75
326.77	488.75
326.999	581.75
327.228	737.75
327.457	1053.75
327.686	1323.75
327.914	877.75
328.143	594.75
328.372	537.75
328.6	518.75
328.829	493.75
329.058	509.75
329.287	536.75
329.515	509.75
329.744	480.75
329.972	470.75
330.201	493.75
330.43	521.75
330.658	523.75
330.887	555.75
331.115	542.75
331.344	491.75
331.572	461.75
331.801	478.75
332.03	480.75
332.258	461.75
332.486	452.75
332.715	455.75
332.943	457.75
333.172	479.75
333.4	466.75
333.629	478.75
333.857	519.75
334.085	494.75
334.314	510.75
334.542	522.75
334.771	531.75
334.999	521.75
335.227	490.75
335.455	492.75
335.684	466.75
335.912	484.75
336.14	453.75
336.369	461.75
336.597	465.75
336.825	464.75
337.053	453.75
337.281	469.75
337.51	442.75
337.738	457.75
337.966	462.75
338.194	476.75
338.422	470.75
338.65	429.75
338.878	428.75
339.106	417.75
339.334	439.75
339.562	429.75
339.79	436.75
340.018	428.75
340.246	440.75
340.474	436.75
340.702	448.75
340.93	443.75
341.158	442.75
341.386	435.75
341.614	443.75
341.842	425.75
342.07	459.75
342.298	442.75
342.526	428.75
342.754	417.75
342.981	419.75
343.209	418.75
343.437	423.75
343.665	460.75
343.893	473.75
344.12	457.75
344.348	463.75
344.576	428.75
344.804	450.75
345.031	459.75
345.259	453.75
345.487	437.75
345.714	450.75
345.942	426.75
346.17	418.75
346.397	402.75
346.625	420.75
346.853	423.75
347.08	402.75
347.308	406.75
347.535	422.75
347.763	437.75
347.99	413.75
348.218	418.75
348.445	428.75
348.673	438.75
348.9	419.75
349.128	416.75
349.355	415.75
349.583	391.75
349.81	413.75
350.037	415.75
350.265	431.75
350.492	413.75
350.72	405.75
350.947	411.75
351.174	428.75
351.402	436.75
351.629	434.75
351.856	420.75
352.083	418.75
352.311	421.75
352.538	412.75
352.765	419.75
352.992	417.75
353.22	413.75
353.447	413.75
353.674	399.75
353.901	405.75
354.128	415.75
354.355	406.75
354.583	417.75
354.81	408.75
355.037	397.75
355.264	414.75
355.491	403.75
355.718	397.75
355.945	394.75
356.172	422.75
356.399	388.75
356.626	384.75
356.853	396.75
357.08	398.75
357.307	388.75
357.534	398.75
357.761	411.75
357.988	409.75
358.215	394.75
358.441	378.75
358.668	398.75
358.895	416.75
359.122	402.75
359.349	422.75
359.576	427.75
359.802	427.75
360.029	461.75
360.256	449.75
360.483	446.75
360.709	439.75
360.936	442.75
361.163	433.75
361.39	417.75
361.616	431.75
361.843	425.75
362.07	418.75
362.296	401.75
362.523	420.75
362.749	413.75
362.976	394.75
363.203	416.75
363.429	417.75
363.656	413.75
363.882	418.75
364.109	414.75
364.335	396.75
364.562	408.75
364.788	422.75
365.015	426.75
365.241	405.75
365.468	429.75
365.694	409.75
365.92	411.75
366.147	423.75
366.373	385.75
366.599	414.75
366.826	408.75
367.052	414.75
367.278	397.75
367.505	399.75
367.731	443.75
367.957	391.75
368.184	421.75
368.41	439.75
368.636	436.75
368.862	416.75
369.089	419.75
369.315	413.75
369.541	422.75
369.767	407.75
369.993	410.75
370.219	422.75
370.445	421.75
370.672	408.75
370.898	415.75
371.124	424.75
371.35	419.75
371.576	410.75
371.802	440.75
372.028	421.75
372.254	426.75
372.48	437.75
372.706	410.75
372.932	425.75
373.158	436.75
373.384	436.75
373.61	411.75
373.835	430.75
374.061	418.75
374.287	403.75
374.513	423.75
374.739	420.75
374.965	439.75
375.191	439.75
375.416	450.75
375.642	433.75
375.868	418.75
376.094	452.75
376.319	420.75
376.545	442.75
376.771	414.75
376.997	416.75
377.222	414.75
377.448	422.75
377.674	410.75
377.899	438.75
378.125	425.75
378.35	420.75
378.576	416.75
378.802	424.75
379.027	417.75
379.253	451.75
379.478	416.75
379.704	426.75
379.929	417.75
380.155	444.75
380.38	426.75
380.606	414.75
380.831	406.75
381.057	440.75
381.282	412.75
381.507	422.75
381.733	441.75
381.958	422.75
382.184	442.75
382.409	428.75
382.634	408.75
382.86	442.75
383.085	458.75
383.31	444.75
383.535	454.75
383.761	447.75
383.986	441.75
384.211	440.75
384.436	458.75
384.662	474.75
384.887	455.75
385.112	474.75
385.337	456.75
385.562	454.75
385.787	459.75
386.013	475.75
386.238	477.75
386.463	467.75
386.688	503.75
386.913	478.75
387.138	476.75
387.363	470.75
387.588	466.75
387.813	467.75
388.038	467.75
388.263	468.75
388.488	481.75
388.713	466.75
388.938	458.75
389.163	492.75
389.387	489.75
389.612	465.75
389.837	474.75
390.062	460.75
390.287	466.75
390.512	466.75
390.736	456.75
390.961	487.75
391.186	470.75
391.411	473.75
391.636	497.75
391.86	484.75
392.085	510.75
392.31	493.75
392.534	496.75
392.759	488.75
392.984	478.75
393.208	506.75
393.433	462.75
393.658	486.75
393.882	484.75
394.107	481.75
394.331	477.75
394.556	501.75
394.78	472.75
395.005	481.75
395.229	509.75
395.454	499.75
395.678	518.75
395.903	533.75
396.127	540.75
396.352	541.75
396.576	478.75
396.801	482.75
397.025	494.75
397.249	502.75
397.474	520.75
397.698	531.75
397.922	528.75
398.147	538.75
398.371	559.75
398.595	522.75
398.82	528.75
399.044	556.75
399.268	608.75
399.492	626.75
399.717	681.75
399.941	698.75
400.165	689.75
400.389	693.75
400.613	612.75
400.837	597.75
401.062	576.75
401.286	575.75
401.51	574.75
401.734	561.75
401.958	577.75
402.182	569.75
402.406	559.75
402.63	583.75
402.854	546.75
403.078	571.75
403.302	568.75
403.526	582.75
403.75	598.75
403.974	581.75
404.198	579.75
404.422	575.75
404.645	594.75
404.869	593.75
405.093	642.75
405.317	685.75
405.541	710.75
405.765	646.75
405.988	624.75
406.212	623.75
406.436	630.75
406.66	654.75
406.883	620.75
407.107	639.75
407.331	670.75
407.555	737.75
407.778	751.75
408.002	697.75
408.226	645.75
408.449	639.75
408.673	607.75
408.896	679.75
409.12	697.75
409.344	640.75
409.567	618.75
409.791	581.75
410.014	580.75
410.238	585.75
410.461	571.75
410.685	572.75
410.908	594.75
411.132	626.75
411.355	651.75
411.578	634.75
411.802	572.75
412.025	592.75
412.249	573.75
412.472	606.75
412.695	634.75
412.919	640.75
413.142	556.75
413.365	577.75
413.589	566.75
413.812	552.75
414.035	558.75
414.258	545.75
414.482	576.75
414.705	537.75
414.928	549.75
415.151	564.75
415.374	561.75
415.597	530.75
415.821	558.75
416.044	539.75
416.267	568.75
416.49	536.75
416.713	527.75
416.936	538.75
417.159	518.75
417.382	558.75
417.605	573.75
417.828	535.75
418.051	566.75
418.274	553.75
418.497	556.75
418.72	557.75
418.943	542.75
419.166	566.75
419.389	609.75
419.611	569.75
419.834	583.75
420.057	586.75
420.28	587.75
420.503	572.75
420.726	574.75
420.948	554.75
421.171	630.75
421.394	632.75
421.617	591.75
421.839	560.75
422.062	566.75
422.285	582.75
422.507	651.75
422.73	719.75
422.953	672.75
423.175	616.75
423.398	602.75
423.621	584.75
423.843	589.75
424.066	604.75
424.288	637.75
424.511	627.75
424.733	663.75
424.956	772.75
425.178	722.75
425.401	724.75
425.623	731.75
425.846	650.75
426.068	618.75
426.291	590.75
426.513	596.75
426.735	590.75
426.958	630.75
427.18	706.75
427.402	835.75
427.625	924.75
427.847	776.75
428.069	682.75
428.292	620.75
428.514	569.75
428.736	545.75
428.958	554.75
429.181	526.75
429.403	536.75
429.625	535.75
429.847	576.75
430.069	651.75
430.292	646.75
430.514	556.75
430.736	545.75
430.958	544.75
431.18	520.75
431.402	527.75
431.624	513.75
431.846	530.75
432.068	545.75
432.29	503.75
432.512	519.75
432.734	517.75
432.956	531.75
433.178	520.75
433.4	528.75
433.622	536.75
433.844	546.75
434.066	538.75
434.287	518.75
434.509	551.75
434.731	546.75
434.953	545.75
435.175	576.75
435.397	599.75
435.618	601.75
435.84	637.75
436.062	724.75
436.284	785.75
436.505	642.75
436.727	621.75
436.949	548.75
437.17	549.75
437.392	548.75
437.614	559.75
437.835	585.75
438.057	672.75
438.278	757.75
438.5	767.75
438.721	854.75
438.943	836.75
439.165	666.75
439.386	605.75
439.608	596.75
439.829	619.75
440.05	616.75
440.272	655.75
440.493	618.75
440.715	588.75
440.936	580.75
441.158	549.75
441.379	561.75
441.6	577.75
441.822	579.75
442.043	620.75
442.264	716.75
442.486	764.75
442.707	656.75
442.928	616.75
443.149	631.75
443.371	638.75
443.592	671.75
443.813	762.75
444.034	840.75
444.255	708.75
444.476	624.75
444.698	615.75
444.919	620.75
445.14	729.75
445.361	674.75
445.582	645.75
445.803	684.75
446.024	779.75
446.245	765.75
446.466	721.75
446.687	628.75
446.908	608.75
447.129	562.75
447.35	546.75
447.571	522.75
447.792	550.75
448.013	531.75
448.234	560.75
448.455	601.75
448.675	725.75
448.896	849.75
449.117	713.75
449.338	677.75
449.559	759.75
449.779	897.75
450	682.75
450.221	599.75
450.442	568.75
450.662	522.75
450.883	521.75
451.104	543.75
451.324	508.75
451.545	493.75
451.766	492.75
451.986	498.75
452.207	488.75
452.428	488.75
452.648	495.75
452.869	475.75
453.089	477.75
453.31	495.75
453.53	484.75
453.751	485.75
453.971	476.75
454.192	514.75
454.412	486.75
454.633	487.75
454.853	482.75
455.073	472.75
455.294	507.75
455.514	559.75
455.734	549.75
455.955	480.75
456.175	460.75
456.395	460.75
456.616	453.75
456.836	460.75
457.056	445.75
457.276	445.75
457.497	452.75
457.717	465.75
457.937	452.75
458.157	459.75
458.377	477.75
458.598	518.75
458.818	544.75
459.038	618.75
459.258	636.75
459.478	564.75
459.698	542.75
459.918	520.75
460.138	529.75
460.358	534.75
460.578	535.75
460.798	564.75
461.018	549.75
461.238	561.75
461.458	565.75
461.678	532.75
461.898	538.75
462.118	556.75
462.338	565.75
462.558	592.75
462.777	589.75
462.997	607.75
463.217	618.75
463.437	624.75
463.657	604.75
463.876	594.75
464.096	592.75
464.316	588.75
464.536	609.75
464.755	588.75
464.975	583.75
465.195	605.75
465.414	639.75
465.634	589.75
465.854	542.75
466.073	528.75
466.293	516.75
466.512	495.75
466.732	486.75
466.951	526.75
467.171	518.75
467.391	505.75
467.61	530.75
467.829	515.75
468.049	505.75
468.268	520.75
468.488	489.75
468.707	493.75
468.927	497.75
469.146	506.75
469.365	502.75
469.585	484.75
469.804	500.75
470.023	504.75
470.243	512.75
470.462	511.75
470.681	512.75
470.901	520.75
471.12	516.75
471.339	525.75
471.558	513.75
471.777	519.75
471.997	491.75
472.216	489.75
472.435	536.75
472.654	526.75
472.873	496.75
473.092	506.75
473.311	508.75
473.53	505.75
473.749	500.75
473.968	540.75
474.187	606.75
474.406	649.75
474.625	580.75
474.844	546.75
475.063	521.75
475.282	530.75
475.501	517.75
475.72	523.75
475.939	531.75
476.158	526.75
476.377	509.75
476.596	490.75
476.814	558.75
477.033	551.75
477.252	526.75
477.471	540.75
477.69	541.75
477.908	543.75
478.127	570.75
478.346	568.75
478.564	579.75
478.783	590.75
479.002	584.75
479.22	587.75
479.439	591.75
479.658	617.75
479.876	621.75
480.095	629.75
480.313	653.75
480.532	629.75
480.751	638.75
480.969	641.75
481.188	664.75
481.406	702.75
481.624	646.75
481.843	598.75
482.061	617.75
482.28	606.75
482.498	587.75
482.717	579.75
482.935	590.75
483.153	595.75
483.372	601.75
483.59	593.75
483.808	604.75
484.027	597.75
484.245	577.75
484.463	596.75
484.681	598.75
484.9	605.75
485.118	599.75
485.336	610.75
485.554	626.75
485.772	596.75
485.99	610.75
486.209	608.75
486.427	623.75
486.645	629.75
486.863	635.75
487.081	642.75
487.299	661.75
487.517	632.75
487.735	644.75
487.953	640.75
488.171	657.75
488.389	611.75
488.607	634.75
488.825	634.75
489.043	641.75
489.261	637.75
489.479	633.75
489.696	655.75
489.914	665.75
490.132	664.75
490.35	666.75
490.568	673.75
490.786	668.75
491.003	670.75
491.221	704.75
491.439	732.75
491.657	708.75
491.874	742.75
492.092	724.75
492.31	764.75
492.527	729.75
492.745	734.75
492.963	736.75
493.18	744.75
493.398	762.75
493.615	753.75
493.833	766.75
494.05	742.75
494.268	735.75
494.485	744.75
494.703	750.75
494.92	745.75
495.138	750.75
495.355	744.75
495.573	749.75
495.79	744.75
496.008	741.75
496.225	785.75
496.442	761.75
496.66	771.75
496.877	756.75
497.094	772.75
497.312	775.75
497.529	790.75
497.746	797.75
497.963	781.75
498.181	832.75
498.398	828.75
498.615	870.75
498.832	848.75
499.049	906.75
499.267	954.75
499.484	981.75
499.701	1005.75
499.918	1064.75
500.135	1156.75
500.352	1209.75
500.569	1228.75
500.786	1247.75
501.003	1220.75
501.22	1140.75
501.437	1078.75
501.654	1032.75
