Data from 1975.PennyLincolnUp.Lamp.En5.5.200Scan.071719.P1.Changed Mount._HRD10591_15-56-18-858.txt Node
Date: Thu Jul 18 15:56:18 EDT 2019
User: cochatt
Spectrometer: HR+D1059
Trigger mode: 1
Integration Time (sec): 1.000000E-1
Scans to average: 1
Electric dark correction enabled: true
Nonlinearity correction enabled: false
Boxcar width: 0
XAxis mode: Wavelengths
Number of Pixels in Spectrum: 2048
>>>>>Begin Spectral Data<<<<<
223.165	-17.75
223.4	-17.75
223.635	-17.75
223.869	-11.75
224.104	-23.75
224.338	-10.75
224.573	-4.75
224.808	-20.75
225.042	-21.75
225.277	-1.75
225.511	8.25
225.746	2.25
225.98	8.25
226.215	20.25
226.449	17.25
226.683	9.25
226.918	21.25
227.152	26.25
227.387	28.25
227.621	37.25
227.856	44.25
228.09	43.25
228.324	47.25
228.559	59.25
228.793	53.25
229.027	95.25
229.262	104.25
229.496	109.25
229.73	130.25
229.964	143.25
230.199	134.25
230.433	108.25
230.667	104.25
230.901	88.25
231.136	100.25
231.37	114.25
231.604	119.25
231.838	107.25
232.072	115.25
232.306	117.25
232.541	110.25
232.775	114.25
233.009	104.25
233.243	113.25
233.477	113.25
233.711	118.25
233.945	120.25
234.179	111.25
234.413	117.25
234.647	102.25
234.881	114.25
235.115	96.25
235.349	116.25
235.583	113.25
235.817	127.25
236.051	128.25
236.285	122.25
236.519	118.25
236.753	132.25
236.987	156.25
237.221	175.25
237.455	220.25
237.689	183.25
237.922	150.25
238.156	118.25
238.39	128.25
238.624	132.25
238.858	135.25
239.091	127.25
239.325	135.25
239.559	127.25
239.793	125.25
240.027	122.25
240.26	144.25
240.494	156.25
240.728	138.25
240.961	154.25
241.195	161.25
241.429	134.25
241.662	132.25
241.896	139.25
242.13	143.25
242.363	129.25
242.597	126.25
242.83	138.25
243.064	145.25
243.298	126.25
243.531	141.25
243.765	128.25
243.998	147.25
244.232	146.25
244.465	137.25
244.699	141.25
244.932	140.25
245.166	145.25
245.399	151.25
245.633	157.25
245.866	141.25
246.099	150.25
246.333	162.25
246.566	159.25
246.8	156.25
247.033	156.25
247.266	154.25
247.5	155.25
247.733	168.25
247.966	170.25
248.2	166.25
248.433	166.25
248.666	172.25
248.899	199.25
249.133	204.25
249.366	191.25
249.599	185.25
249.832	178.25
250.066	179.25
250.299	191.25
250.532	182.25
250.765	210.25
250.998	215.25
251.231	224.25
251.465	207.25
251.698	195.25
251.931	172.25
252.164	199.25
252.397	210.25
252.63	189.25
252.863	211.25
253.096	211.25
253.329	222.25
253.562	230.25
253.795	214.25
254.028	208.25
254.261	199.25
254.494	208.25
254.727	236.25
254.96	255.25
255.193	258.25
255.426	236.25
255.659	230.25
255.892	227.25
256.124	241.25
256.357	223.25
256.59	218.25
256.823	222.25
257.056	210.25
257.289	212.25
257.521	223.25
257.754	214.25
257.987	195.25
258.22	187.25
258.452	209.25
258.685	199.25
258.918	197.25
259.151	210.25
259.383	215.25
259.616	230.25
259.849	221.25
260.081	231.25
260.314	232.25
260.547	261.25
260.779	236.25
261.012	230.25
261.244	217.25
261.477	222.25
261.71	216.25
261.942	215.25
262.175	234.25
262.407	214.25
262.64	217.25
262.872	200.25
263.105	218.25
263.337	211.25
263.57	196.25
263.802	206.25
264.035	201.25
264.267	224.25
264.499	218.25
264.732	225.25
264.964	199.25
265.197	210.25
265.429	224.25
265.661	218.25
265.894	217.25
266.126	221.25
266.358	217.25
266.591	213.25
266.823	219.25
267.055	242.25
267.287	227.25
267.52	205.25
267.752	221.25
267.984	238.25
268.216	227.25
268.448	238.25
268.681	235.25
268.913	258.25
269.145	249.25
269.377	277.25
269.609	272.25
269.841	266.25
270.073	255.25
270.306	271.25
270.538	292.25
270.77	288.25
271.002	306.25
271.234	297.25
271.466	295.25
271.698	310.25
271.93	302.25
272.162	306.25
272.394	291.25
272.626	293.25
272.858	274.25
273.09	291.25
273.322	256.25
273.553	254.25
273.785	266.25
274.017	268.25
274.249	261.25
274.481	268.25
274.713	269.25
274.945	271.25
275.176	256.25
275.408	269.25
275.64	256.25
275.872	267.25
276.104	244.25
276.335	277.25
276.567	288.25
276.799	278.25
277.031	307.25
277.262	315.25
277.494	317.25
277.726	301.25
277.957	282.25
278.189	281.25
278.421	265.25
278.652	258.25
278.884	252.25
279.115	291.25
279.347	274.25
279.579	267.25
279.81	273.25
280.042	262.25
280.273	274.25
280.505	290.25
280.736	277.25
280.968	282.25
281.199	266.25
281.431	274.25
281.662	261.25
281.894	280.25
282.125	271.25
282.356	272.25
282.588	293.25
282.819	297.25
283.051	277.25
283.282	273.25
283.513	272.25
283.745	291.25
283.976	285.25
284.207	282.25
284.439	269.25
284.67	276.25
284.901	281.25
285.132	289.25
285.364	300.25
285.595	280.25
285.826	281.25
286.057	297.25
286.288	287.25
286.52	294.25
286.751	284.25
286.982	283.25
287.213	288.25
287.444	289.25
287.675	290.25
287.906	299.25
288.138	302.25
288.369	290.25
288.6	295.25
288.831	294.25
289.062	310.25
289.293	303.25
289.524	306.25
289.755	290.25
289.986	298.25
290.217	291.25
290.448	296.25
290.679	296.25
290.91	299.25
291.141	292.25
291.371	296.25
291.602	304.25
291.833	298.25
292.064	295.25
292.295	292.25
292.526	301.25
292.757	290.25
292.987	303.25
293.218	294.25
293.449	308.25
293.68	304.25
293.91	297.25
294.141	310.25
294.372	308.25
294.603	310.25
294.833	309.25
295.064	309.25
295.295	315.25
295.525	296.25
295.756	311.25
295.987	299.25
296.217	313.25
296.448	327.25
296.679	317.25
296.909	307.25
297.14	317.25
297.37	322.25
297.601	297.25
297.831	304.25
298.062	306.25
298.292	300.25
298.523	313.25
298.753	330.25
298.984	311.25
299.214	318.25
299.445	312.25
299.675	310.25
299.905	323.25
300.136	324.25
300.366	333.25
300.597	332.25
300.827	315.25
301.057	338.25
301.288	313.25
301.518	338.25
301.748	329.25
301.979	320.25
302.209	302.25
302.439	331.25
302.669	327.25
302.9	324.25
303.13	319.25
303.36	314.25
303.59	331.25
303.82	343.25
304.051	328.25
304.281	343.25
304.511	336.25
304.741	298.25
304.971	319.25
305.201	324.25
305.431	312.25
305.661	327.25
305.891	330.25
306.121	314.25
306.352	330.25
306.582	335.25
306.812	351.25
307.042	327.25
307.272	337.25
307.502	339.25
307.731	341.25
307.961	351.25
308.191	346.25
308.421	335.25
308.651	345.25
308.881	336.25
309.111	343.25
309.341	333.25
309.571	344.25
309.8	355.25
310.03	344.25
310.26	349.25
310.49	365.25
310.72	361.25
310.949	380.25
311.179	369.25
311.409	374.25
311.639	347.25
311.868	365.25
312.098	373.25
312.328	372.25
312.557	394.25
312.787	394.25
313.017	378.25
313.246	379.25
313.476	372.25
313.706	360.25
313.935	364.25
314.165	380.25
314.394	393.25
314.624	391.25
314.853	386.25
315.083	382.25
315.312	367.25
315.542	381.25
315.771	378.25
316.001	378.25
316.23	348.25
316.46	370.25
316.689	360.25
316.919	365.25
317.148	374.25
317.377	383.25
317.607	386.25
317.836	359.25
318.065	374.25
318.295	367.25
318.524	356.25
318.753	365.25
318.983	380.25
319.212	363.25
319.441	383.25
319.67	379.25
319.9	370.25
320.129	364.25
320.358	358.25
320.587	351.25
320.816	383.25
321.046	389.25
321.275	376.25
321.504	386.25
321.733	356.25
321.962	401.25
322.191	386.25
322.42	378.25
322.649	411.25
322.878	420.25
323.108	405.25
323.337	461.25
323.566	443.25
323.795	475.25
324.024	502.25
324.253	557.25
324.482	749.25
324.71	1134.25
324.939	1693.25
325.168	1477.25
325.397	765.25
325.626	524.25
325.855	475.25
326.084	448.25
326.313	422.25
326.542	419.25
326.77	485.25
326.999	529.25
327.228	699.25
327.457	1038.25
327.686	1293.25
327.914	862.25
328.143	586.25
328.372	534.25
328.6	511.25
328.829	487.25
329.058	486.25
329.287	501.25
329.515	490.25
329.744	466.25
329.972	457.25
330.201	502.25
330.43	517.25
330.658	515.25
330.887	533.25
331.115	522.25
331.344	479.25
331.572	463.25
331.801	468.25
332.03	454.25
332.258	456.25
332.486	455.25
332.715	443.25
332.943	450.25
333.172	477.25
333.4	463.25
333.629	472.25
333.857	514.25
334.085	484.25
334.314	491.25
334.542	529.25
334.771	534.25
334.999	502.25
335.227	486.25
335.455	468.25
335.684	455.25
335.912	435.25
336.14	437.25
336.369	448.25
336.597	437.25
336.825	452.25
337.053	442.25
337.281	443.25
337.51	435.25
337.738	451.25
337.966	439.25
338.194	415.25
338.422	411.25
338.65	434.25
338.878	415.25
339.106	436.25
339.334	428.25
339.562	444.25
339.79	426.25
340.018	440.25
340.246	453.25
340.474	442.25
340.702	436.25
340.93	401.25
341.158	443.25
341.386	419.25
341.614	430.25
341.842	407.25
342.07	412.25
342.298	425.25
342.526	429.25
342.754	419.25
342.981	421.25
343.209	402.25
343.437	418.25
343.665	438.25
343.893	451.25
344.12	471.25
344.348	446.25
344.576	434.25
344.804	438.25
345.031	436.25
345.259	433.25
345.487	424.25
345.714	422.25
345.942	406.25
346.17	446.25
346.397	410.25
346.625	418.25
346.853	405.25
347.08	392.25
347.308	406.25
347.535	409.25
347.763	418.25
347.99	420.25
348.218	413.25
348.445	412.25
348.673	418.25
348.9	420.25
349.128	408.25
349.355	403.25
349.583	408.25
349.81	392.25
350.037	390.25
350.265	400.25
350.492	396.25
350.72	393.25
350.947	396.25
351.174	425.25
351.402	431.25
351.629	416.25
351.856	420.25
352.083	413.25
352.311	413.25
352.538	405.25
352.765	431.25
352.992	408.25
353.22	417.25
353.447	417.25
353.674	412.25
353.901	430.25
354.128	397.25
354.355	398.25
354.583	390.25
354.81	391.25
355.037	408.25
355.264	392.25
355.491	394.25
355.718	399.25
355.945	406.25
356.172	390.25
356.399	387.25
356.626	370.25
356.853	394.25
357.08	383.25
357.307	408.25
357.534	388.25
357.761	395.25
357.988	380.25
358.215	394.25
358.441	394.25
358.668	389.25
358.895	396.25
359.122	393.25
359.349	422.25
359.576	422.25
359.802	421.25
360.029	436.25
360.256	436.25
360.483	433.25
360.709	419.25
360.936	404.25
361.163	421.25
361.39	420.25
361.616	414.25
361.843	401.25
362.07	412.25
362.296	393.25
362.523	391.25
362.749	400.25
362.976	407.25
363.203	412.25
363.429	398.25
363.656	414.25
363.882	397.25
364.109	405.25
364.335	413.25
364.562	403.25
364.788	418.25
365.015	394.25
365.241	386.25
365.468	407.25
365.694	404.25
365.92	416.25
366.147	387.25
366.373	414.25
366.599	407.25
366.826	407.25
367.052	405.25
367.278	428.25
367.505	394.25
367.731	374.25
367.957	397.25
368.184	393.25
368.41	440.25
368.636	420.25
368.862	434.25
369.089	421.25
369.315	411.25
369.541	405.25
369.767	416.25
369.993	394.25
370.219	392.25
370.445	399.25
370.672	418.25
370.898	416.25
371.124	404.25
371.35	417.25
371.576	404.25
371.802	417.25
372.028	423.25
372.254	417.25
372.48	413.25
372.706	422.25
372.932	427.25
373.158	434.25
373.384	431.25
373.61	417.25
373.835	411.25
374.061	414.25
374.287	418.25
374.513	413.25
374.739	436.25
374.965	426.25
375.191	444.25
375.416	421.25
375.642	422.25
375.868	424.25
376.094	423.25
376.319	424.25
376.545	405.25
376.771	423.25
376.997	408.25
377.222	421.25
377.448	410.25
377.674	438.25
377.899	399.25
378.125	406.25
378.35	414.25
378.576	412.25
378.802	421.25
379.027	395.25
379.253	398.25
379.478	418.25
379.704	410.25
379.929	412.25
380.155	407.25
380.38	414.25
380.606	426.25
380.831	422.25
381.057	438.25
381.282	411.25
381.507	430.25
381.733	420.25
381.958	432.25
382.184	464.25
382.409	434.25
382.634	426.25
382.86	445.25
383.085	447.25
383.31	421.25
383.535	426.25
383.761	438.25
383.986	432.25
384.211	439.25
384.436	444.25
384.662	446.25
384.887	456.25
385.112	463.25
385.337	454.25
385.562	484.25
385.787	458.25
386.013	461.25
386.238	481.25
386.463	477.25
386.688	463.25
386.913	461.25
387.138	471.25
387.363	446.25
387.588	475.25
387.813	465.25
388.038	466.25
388.263	472.25
388.488	462.25
388.713	457.25
388.938	472.25
389.163	470.25
389.387	478.25
389.612	470.25
389.837	476.25
390.062	456.25
390.287	457.25
390.512	464.25
390.736	462.25
390.961	463.25
391.186	456.25
391.411	473.25
391.636	477.25
391.86	492.25
392.085	507.25
392.31	495.25
392.534	497.25
392.759	471.25
392.984	466.25
393.208	465.25
393.433	482.25
393.658	479.25
393.882	450.25
394.107	464.25
394.331	453.25
394.556	467.25
394.78	473.25
395.005	486.25
395.229	478.25
395.454	483.25
395.678	501.25
395.903	502.25
396.127	496.25
396.352	514.25
396.576	503.25
396.801	475.25
397.025	495.25
397.249	488.25
397.474	510.25
397.698	526.25
397.922	525.25
398.147	519.25
398.371	530.25
398.595	514.25
398.82	529.25
399.044	563.25
399.268	573.25
399.492	618.25
399.717	664.25
399.941	640.25
400.165	664.25
400.389	663.25
400.613	618.25
400.837	558.25
401.062	574.25
401.286	540.25
401.51	536.25
401.734	518.25
401.958	538.25
402.182	551.25
402.406	561.25
402.63	529.25
402.854	539.25
403.078	562.25
403.302	549.25
403.526	586.25
403.75	577.25
403.974	570.25
404.198	597.25
404.422	596.25
404.645	577.25
404.869	615.25
405.093	614.25
405.317	651.25
405.541	681.25
405.765	597.25
405.988	592.25
406.212	602.25
406.436	608.25
406.66	640.25
406.883	616.25
407.107	643.25
407.331	660.25
407.555	721.25
407.778	731.25
408.002	691.25
408.226	641.25
408.449	631.25
408.673	621.25
408.896	633.25
409.12	691.25
409.344	643.25
409.567	570.25
409.791	596.25
410.014	583.25
410.238	546.25
410.461	560.25
410.685	553.25
410.908	581.25
411.132	602.25
411.355	653.25
411.578	606.25
411.802	575.25
412.025	557.25
412.249	585.25
412.472	583.25
412.695	619.25
412.919	624.25
413.142	556.25
413.365	542.25
413.589	543.25
413.812	543.25
414.035	558.25
414.258	549.25
414.482	527.25
414.705	545.25
414.928	537.25
415.151	554.25
415.374	546.25
415.597	538.25
415.821	517.25
416.044	525.25
416.267	532.25
416.49	549.25
416.713	536.25
416.936	528.25
417.159	515.25
417.382	515.25
417.605	562.25
417.828	554.25
418.051	554.25
418.274	555.25
418.497	535.25
418.72	529.25
418.943	547.25
419.166	569.25
419.389	568.25
419.611	590.25
419.834	569.25
420.057	565.25
420.28	566.25
420.503	557.25
420.726	555.25
420.948	581.25
421.171	618.25
421.394	630.25
421.617	568.25
421.839	558.25
422.062	565.25
422.285	549.25
422.507	648.25
422.73	698.25
422.953	658.25
423.175	609.25
423.398	586.25
423.621	576.25
423.843	598.25
424.066	621.25
424.288	593.25
424.511	614.25
424.733	661.25
424.956	723.25
425.178	697.25
425.401	694.25
425.623	713.25
425.846	609.25
426.068	581.25
426.291	587.25
426.513	585.25
426.735	580.25
426.958	600.25
427.18	685.25
427.402	815.25
427.625	904.25
427.847	774.25
428.069	643.25
428.292	610.25
428.514	541.25
428.736	541.25
428.958	546.25
429.181	525.25
429.403	546.25
429.625	568.25
429.847	584.25
430.069	638.25
430.292	642.25
430.514	553.25
430.736	534.25
430.958	525.25
431.18	525.25
431.402	525.25
431.624	523.25
431.846	515.25
432.068	507.25
432.29	514.25
432.512	521.25
432.734	526.25
432.956	533.25
433.178	524.25
433.4	510.25
433.622	516.25
433.844	519.25
434.066	543.25
434.287	528.25
434.509	519.25
434.731	543.25
434.953	537.25
435.175	575.25
435.397	599.25
435.618	565.25
435.84	621.25
436.062	691.25
436.284	784.25
436.505	646.25
436.727	585.25
436.949	573.25
437.17	548.25
437.392	550.25
437.614	548.25
437.835	579.25
438.057	648.25
438.278	770.25
438.5	728.25
438.721	839.25
438.943	809.25
439.165	658.25
439.386	610.25
439.608	586.25
439.829	579.25
440.05	588.25
440.272	637.25
440.493	605.25
440.715	549.25
440.936	570.25
441.158	534.25
441.379	565.25
441.6	568.25
441.822	578.25
442.043	640.25
442.264	691.25
442.486	747.25
442.707	647.25
442.928	590.25
443.149	580.25
443.371	611.25
443.592	623.25
443.813	739.25
444.034	806.25
444.255	662.25
444.476	618.25
444.698	614.25
444.919	613.25
445.14	710.25
445.361	668.25
445.582	650.25
445.803	680.25
446.024	778.25
446.245	767.25
446.466	710.25
446.687	611.25
446.908	566.25
447.129	516.25
447.35	550.25
447.571	517.25
447.792	515.25
448.013	532.25
448.234	551.25
448.455	579.25
448.675	682.25
448.896	808.25
449.117	702.25
449.338	635.25
449.559	756.25
449.779	862.25
450	674.25
450.221	576.25
450.442	536.25
450.662	517.25
450.883	529.25
451.104	510.25
451.324	505.25
451.545	489.25
451.766	477.25
451.986	485.25
452.207	455.25
452.428	474.25
452.648	480.25
452.869	466.25
453.089	483.25
453.31	486.25
453.53	480.25
453.751	487.25
453.971	479.25
454.192	478.25
454.412	475.25
454.633	475.25
454.853	466.25
455.073	483.25
455.294	511.25
455.514	557.25
455.734	567.25
455.955	467.25
456.175	468.25
456.395	459.25
456.616	423.25
456.836	456.25
457.056	458.25
457.276	431.25
457.497	436.25
457.717	442.25
457.937	458.25
458.157	450.25
458.377	473.25
458.598	479.25
458.818	537.25
459.038	601.25
459.258	616.25
459.478	571.25
459.698	524.25
459.918	513.25
460.138	514.25
460.358	509.25
460.578	553.25
460.798	535.25
461.018	535.25
461.238	546.25
461.458	559.25
461.678	532.25
461.898	550.25
462.118	539.25
462.338	537.25
462.558	552.25
462.777	589.25
462.997	602.25
463.217	607.25
463.437	614.25
463.657	598.25
463.876	573.25
464.096	595.25
464.316	587.25
464.536	592.25
464.755	585.25
464.975	559.25
465.195	574.25
465.414	611.25
465.634	575.25
465.854	536.25
466.073	518.25
466.293	504.25
466.512	484.25
466.732	478.25
466.951	503.25
467.171	494.25
467.391	502.25
467.61	498.25
467.829	523.25
468.049	504.25
468.268	510.25
468.488	490.25
468.707	475.25
468.927	469.25
469.146	489.25
469.365	496.25
469.585	481.25
469.804	490.25
470.023	494.25
470.243	520.25
470.462	491.25
470.681	514.25
470.901	498.25
471.12	511.25
471.339	489.25
471.558	503.25
471.777	518.25
471.997	506.25
472.216	505.25
472.435	549.25
472.654	511.25
472.873	502.25
473.092	492.25
473.311	476.25
473.53	490.25
473.749	482.25
473.968	539.25
474.187	629.25
474.406	661.25
474.625	562.25
474.844	501.25
475.063	492.25
475.282	504.25
475.501	492.25
475.72	482.25
475.939	516.25
476.158	535.25
476.377	498.25
476.596	488.25
476.814	545.25
477.033	526.25
477.252	549.25
477.471	530.25
477.69	549.25
477.908	532.25
478.127	585.25
478.346	566.25
478.564	562.25
478.783	568.25
479.002	589.25
479.22	593.25
479.439	586.25
479.658	590.25
479.876	604.25
480.095	611.25
480.313	647.25
480.532	644.25
480.751	632.25
480.969	626.25
481.188	686.25
481.406	697.25
481.624	637.25
481.843	611.25
482.061	599.25
482.28	579.25
482.498	579.25
482.717	571.25
482.935	562.25
483.153	570.25
483.372	591.25
483.59	557.25
483.808	572.25
484.027	575.25
484.245	568.25
484.463	616.25
484.681	611.25
484.9	595.25
485.118	605.25
485.336	612.25
485.554	606.25
485.772	596.25
485.99	596.25
486.209	597.25
486.427	627.25
486.645	612.25
486.863	629.25
487.081	627.25
487.299	614.25
487.517	629.25
487.735	624.25
487.953	639.25
488.171	633.25
488.389	644.25
488.607	631.25
488.825	606.25
489.043	610.25
489.261	646.25
489.479	636.25
489.696	642.25
489.914	646.25
490.132	638.25
490.35	654.25
490.568	659.25
490.786	661.25
491.003	665.25
491.221	708.25
491.439	702.25
491.657	683.25
491.874	699.25
492.092	725.25
492.31	726.25
492.527	740.25
492.745	739.25
492.963	735.25
493.18	706.25
493.398	733.25
493.615	735.25
493.833	739.25
494.05	772.25
494.268	738.25
494.485	715.25
494.703	717.25
494.92	747.25
495.138	733.25
495.355	719.25
495.573	764.25
495.79	708.25
496.008	742.25
496.225	733.25
496.442	746.25
496.66	726.25
496.877	719.25
497.094	734.25
497.312	765.25
497.529	791.25
497.746	793.25
497.963	797.25
498.181	819.25
498.398	854.25
498.615	847.25
498.832	833.25
499.049	872.25
499.267	914.25
499.484	973.25
499.701	989.25
499.918	1054.25
500.135	1110.25
500.352	1155.25
500.569	1213.25
500.786	1221.25
501.003	1186.25
501.22	1127.25
501.437	1080.25
501.654	1056.25
