Data from 1975.PennyLincolnUp.Lamp.En5.5.200Scan.071719.P1.Changed Mount._HRD10591_15-56-00-859.txt Node
Date: Thu Jul 18 15:56:00 EDT 2019
User: cochatt
Spectrometer: HR+D1059
Trigger mode: 1
Integration Time (sec): 1.000000E-1
Scans to average: 1
Electric dark correction enabled: true
Nonlinearity correction enabled: false
Boxcar width: 0
XAxis mode: Wavelengths
Number of Pixels in Spectrum: 2048
>>>>>Begin Spectral Data<<<<<
223.165	-9.81
223.4	-9.81
223.635	-9.81
223.869	-2.81
224.104	-27.81
224.338	-10.81
224.573	-10.81
224.808	-13.81
225.042	-5.81
225.277	-1.81
225.511	-1.81
225.746	-8.81
225.98	10.19
226.215	14.19
226.449	-3.81
226.683	18.19
226.918	20.19
227.152	35.19
227.387	35.19
227.621	50.19
227.856	39.19
228.09	50.19
228.324	40.19
228.559	45.19
228.793	68.19
229.027	90.19
229.262	112.19
229.496	108.19
229.73	129.19
229.964	127.19
230.199	100.19
230.433	110.19
230.667	112.19
230.901	102.19
231.136	101.19
231.37	95.19
231.604	126.19
231.838	116.19
232.072	112.19
232.306	125.19
232.541	101.19
232.775	111.19
233.009	119.19
233.243	110.19
233.477	121.19
233.711	117.19
233.945	120.19
234.179	103.19
234.413	127.19
234.647	106.19
234.881	124.19
235.115	116.19
235.349	119.19
235.583	115.19
235.817	127.19
236.051	126.19
236.285	119.19
236.519	126.19
236.753	128.19
236.987	157.19
237.221	163.19
237.455	219.19
237.689	191.19
237.922	136.19
238.156	126.19
238.39	125.19
238.624	114.19
238.858	125.19
239.091	129.19
239.325	124.19
239.559	134.19
239.793	132.19
240.027	125.19
240.26	144.19
240.494	146.19
240.728	145.19
240.961	136.19
241.195	139.19
241.429	141.19
241.662	131.19
241.896	147.19
242.13	125.19
242.363	135.19
242.597	133.19
242.83	128.19
243.064	128.19
243.298	131.19
243.531	139.19
243.765	140.19
243.998	145.19
244.232	155.19
244.465	136.19
244.699	143.19
244.932	157.19
245.166	140.19
245.399	156.19
245.633	139.19
245.866	147.19
246.099	146.19
246.333	152.19
246.566	162.19
246.8	148.19
247.033	153.19
247.266	150.19
247.5	154.19
247.733	171.19
247.966	169.19
248.2	181.19
248.433	164.19
248.666	192.19
248.899	168.19
249.133	199.19
249.366	198.19
249.599	189.19
249.832	189.19
250.066	163.19
250.299	176.19
250.532	189.19
250.765	201.19
250.998	210.19
251.231	237.19
251.465	233.19
251.698	191.19
251.931	197.19
252.164	166.19
252.397	206.19
252.63	193.19
252.863	211.19
253.096	221.19
253.329	223.19
253.562	225.19
253.795	198.19
254.028	188.19
254.261	199.19
254.494	211.19
254.727	230.19
254.96	261.19
255.193	242.19
255.426	240.19
255.659	214.19
255.892	215.19
256.124	219.19
256.357	237.19
256.59	219.19
256.823	210.19
257.056	219.19
257.289	209.19
257.521	201.19
257.754	212.19
257.987	211.19
258.22	203.19
258.452	227.19
258.685	200.19
258.918	195.19
259.151	214.19
259.383	189.19
259.616	218.19
259.849	202.19
260.081	235.19
260.314	238.19
260.547	235.19
260.779	235.19
261.012	217.19
261.244	211.19
261.477	229.19
261.71	205.19
261.942	194.19
262.175	210.19
262.407	215.19
262.64	217.19
262.872	204.19
263.105	214.19
263.337	212.19
263.57	206.19
263.802	174.19
264.035	203.19
264.267	209.19
264.499	199.19
264.732	219.19
264.964	208.19
265.197	203.19
265.429	196.19
265.661	202.19
265.894	208.19
266.126	208.19
266.358	221.19
266.591	224.19
266.823	224.19
267.055	218.19
267.287	195.19
267.52	211.19
267.752	224.19
267.984	240.19
268.216	217.19
268.448	239.19
268.681	222.19
268.913	240.19
269.145	252.19
269.377	239.19
269.609	253.19
269.841	254.19
270.073	269.19
270.306	260.19
270.538	301.19
270.77	306.19
271.002	289.19
271.234	271.19
271.466	294.19
271.698	294.19
271.93	291.19
272.162	308.19
272.394	316.19
272.626	279.19
272.858	270.19
273.09	268.19
273.322	267.19
273.553	257.19
273.785	282.19
274.017	250.19
274.249	256.19
274.481	269.19
274.713	260.19
274.945	263.19
275.176	243.19
275.408	251.19
275.64	258.19
275.872	270.19
276.104	249.19
276.335	247.19
276.567	268.19
276.799	261.19
277.031	300.19
277.262	317.19
277.494	315.19
277.726	300.19
277.957	286.19
278.189	282.19
278.421	271.19
278.652	254.19
278.884	260.19
279.115	253.19
279.347	260.19
279.579	252.19
279.81	256.19
280.042	272.19
280.273	256.19
280.505	262.19
280.736	258.19
280.968	261.19
281.199	277.19
281.431	254.19
281.662	255.19
281.894	262.19
282.125	267.19
282.356	270.19
282.588	288.19
282.819	281.19
283.051	285.19
283.282	262.19
283.513	268.19
283.745	271.19
283.976	278.19
284.207	264.19
284.439	273.19
284.67	267.19
284.901	276.19
285.132	280.19
285.364	288.19
285.595	286.19
285.826	264.19
286.057	272.19
286.288	280.19
286.52	296.19
286.751	282.19
286.982	302.19
287.213	272.19
287.444	283.19
287.675	282.19
287.906	272.19
288.138	285.19
288.369	276.19
288.6	274.19
288.831	294.19
289.062	292.19
289.293	287.19
289.524	291.19
289.755	269.19
289.986	273.19
290.217	283.19
290.448	298.19
290.679	290.19
290.91	275.19
291.141	281.19
291.371	284.19
291.602	284.19
291.833	294.19
292.064	279.19
292.295	295.19
292.526	279.19
292.757	270.19
292.987	310.19
293.218	297.19
293.449	274.19
293.68	272.19
293.91	296.19
294.141	282.19
294.372	303.19
294.603	297.19
294.833	296.19
295.064	316.19
295.295	294.19
295.525	285.19
295.756	301.19
295.987	294.19
296.217	307.19
296.448	316.19
296.679	309.19
296.909	271.19
297.14	299.19
297.37	306.19
297.601	306.19
297.831	296.19
298.062	291.19
298.292	328.19
298.523	308.19
298.753	292.19
298.984	309.19
299.214	302.19
299.445	304.19
299.675	313.19
299.905	299.19
300.136	300.19
300.366	290.19
300.597	315.19
300.827	329.19
301.057	308.19
301.288	309.19
301.518	328.19
301.748	320.19
301.979	336.19
302.209	327.19
302.439	323.19
302.669	321.19
302.9	344.19
303.13	331.19
303.36	331.19
303.59	329.19
303.82	318.19
304.051	326.19
304.281	323.19
304.511	298.19
304.741	333.19
304.971	337.19
305.201	325.19
305.431	332.19
305.661	342.19
305.891	317.19
306.121	324.19
306.352	332.19
306.582	324.19
306.812	340.19
307.042	339.19
307.272	320.19
307.502	321.19
307.731	314.19
307.961	346.19
308.191	324.19
308.421	338.19
308.651	308.19
308.881	327.19
309.111	327.19
309.341	319.19
309.571	344.19
309.8	319.19
310.03	341.19
310.26	364.19
310.49	344.19
310.72	357.19
310.949	364.19
311.179	366.19
311.409	370.19
311.639	365.19
311.868	358.19
312.098	345.19
312.328	354.19
312.557	367.19
312.787	358.19
313.017	370.19
313.246	367.19
313.476	363.19
313.706	358.19
313.935	382.19
314.165	366.19
314.394	377.19
314.624	377.19
314.853	356.19
315.083	362.19
315.312	358.19
315.542	367.19
315.771	371.19
316.001	350.19
316.23	361.19
316.46	340.19
316.689	378.19
316.919	372.19
317.148	387.19
317.377	374.19
317.607	368.19
317.836	370.19
318.065	364.19
318.295	355.19
318.524	345.19
318.753	358.19
318.983	362.19
319.212	364.19
319.441	378.19
319.67	384.19
319.9	363.19
320.129	370.19
320.358	350.19
320.587	367.19
320.816	372.19
321.046	378.19
321.275	378.19
321.504	362.19
321.733	369.19
321.962	365.19
322.191	358.19
322.42	388.19
322.649	394.19
322.878	396.19
323.108	413.19
323.337	428.19
323.566	422.19
323.795	439.19
324.024	454.19
324.253	523.19
324.482	736.19
324.71	1097.19
324.939	1642.19
325.168	1474.19
325.397	752.19
325.626	522.19
325.855	464.19
326.084	428.19
326.313	428.19
326.542	426.19
326.77	447.19
326.999	534.19
327.228	714.19
327.457	1002.19
327.686	1251.19
327.914	859.19
328.143	556.19
328.372	498.19
328.6	488.19
328.829	487.19
329.058	471.19
329.287	494.19
329.515	479.19
329.744	472.19
329.972	438.19
330.201	453.19
330.43	488.19
330.658	523.19
330.887	503.19
331.115	529.19
331.344	472.19
331.572	459.19
331.801	464.19
332.03	458.19
332.258	460.19
332.486	432.19
332.715	442.19
332.943	437.19
333.172	447.19
333.4	444.19
333.629	452.19
333.857	462.19
334.085	455.19
334.314	502.19
334.542	502.19
334.771	515.19
334.999	480.19
335.227	456.19
335.455	435.19
335.684	442.19
335.912	456.19
336.14	435.19
336.369	447.19
336.597	429.19
336.825	441.19
337.053	428.19
337.281	440.19
337.51	429.19
337.738	426.19
337.966	441.19
338.194	428.19
338.422	418.19
338.65	437.19
338.878	430.19
339.106	432.19
339.334	439.19
339.562	410.19
339.79	408.19
340.018	421.19
340.246	426.19
340.474	436.19
340.702	415.19
340.93	414.19
341.158	411.19
341.386	416.19
341.614	413.19
341.842	393.19
342.07	402.19
342.298	401.19
342.526	400.19
342.754	382.19
342.981	419.19
343.209	411.19
343.437	412.19
343.665	424.19
343.893	416.19
344.12	461.19
344.348	432.19
344.576	442.19
344.804	416.19
345.031	427.19
345.259	425.19
345.487	434.19
345.714	418.19
345.942	430.19
346.17	428.19
346.397	409.19
346.625	397.19
346.853	380.19
347.08	396.19
347.308	391.19
347.535	424.19
347.763	403.19
347.99	406.19
348.218	401.19
348.445	419.19
348.673	404.19
348.9	394.19
349.128	413.19
349.355	390.19
349.583	373.19
349.81	392.19
350.037	382.19
350.265	398.19
350.492	411.19
350.72	380.19
350.947	400.19
351.174	395.19
351.402	398.19
351.629	403.19
351.856	403.19
352.083	397.19
352.311	397.19
352.538	382.19
352.765	415.19
352.992	398.19
353.22	384.19
353.447	386.19
353.674	398.19
353.901	392.19
354.128	408.19
354.355	398.19
354.583	378.19
354.81	378.19
355.037	394.19
355.264	378.19
355.491	383.19
355.718	379.19
355.945	397.19
356.172	398.19
356.399	407.19
356.626	370.19
356.853	378.19
357.08	365.19
357.307	370.19
357.534	372.19
357.761	366.19
357.988	374.19
358.215	388.19
358.441	395.19
358.668	383.19
358.895	393.19
359.122	390.19
359.349	412.19
359.576	394.19
359.802	420.19
360.029	443.19
360.256	460.19
360.483	409.19
360.709	415.19
360.936	406.19
361.163	385.19
361.39	392.19
361.616	391.19
361.843	392.19
362.07	414.19
362.296	408.19
362.523	384.19
362.749	416.19
362.976	406.19
363.203	420.19
363.429	401.19
363.656	394.19
363.882	359.19
364.109	399.19
364.335	392.19
364.562	388.19
364.788	378.19
365.015	381.19
365.241	406.19
365.468	388.19
365.694	391.19
365.92	393.19
366.147	392.19
366.373	386.19
366.599	389.19
366.826	395.19
367.052	400.19
367.278	399.19
367.505	404.19
367.731	399.19
367.957	392.19
368.184	370.19
368.41	379.19
368.636	385.19
368.862	421.19
369.089	404.19
369.315	418.19
369.541	400.19
369.767	398.19
369.993	392.19
370.219	379.19
370.445	407.19
370.672	410.19
370.898	381.19
371.124	396.19
371.35	404.19
371.576	399.19
371.802	398.19
372.028	386.19
372.254	388.19
372.48	409.19
372.706	391.19
372.932	408.19
373.158	410.19
373.384	400.19
373.61	400.19
373.835	399.19
374.061	395.19
374.287	423.19
374.513	394.19
374.739	422.19
374.965	435.19
375.191	412.19
375.416	440.19
375.642	422.19
375.868	404.19
376.094	408.19
376.319	406.19
376.545	405.19
376.771	413.19
376.997	421.19
377.222	407.19
377.448	404.19
377.674	411.19
377.899	397.19
378.125	401.19
378.35	407.19
378.576	392.19
378.802	407.19
379.027	416.19
379.253	391.19
379.478	399.19
379.704	393.19
379.929	397.19
380.155	406.19
380.38	386.19
380.606	403.19
380.831	403.19
381.057	427.19
381.282	411.19
381.507	417.19
381.733	418.19
381.958	404.19
382.184	410.19
382.409	388.19
382.634	419.19
382.86	408.19
383.085	409.19
383.31	443.19
383.535	439.19
383.761	424.19
383.986	432.19
384.211	435.19
384.436	437.19
384.662	438.19
384.887	430.19
385.112	456.19
385.337	464.19
385.562	439.19
385.787	480.19
386.013	458.19
386.238	429.19
386.463	448.19
386.688	485.19
386.913	461.19
387.138	452.19
387.363	466.19
387.588	474.19
387.813	457.19
388.038	470.19
388.263	454.19
388.488	463.19
388.713	462.19
388.938	466.19
389.163	465.19
389.387	475.19
389.612	451.19
389.837	453.19
390.062	454.19
390.287	447.19
390.512	452.19
390.736	444.19
390.961	456.19
391.186	442.19
391.411	440.19
391.636	473.19
391.86	479.19
392.085	461.19
392.31	471.19
392.534	475.19
392.759	483.19
392.984	470.19
393.208	446.19
393.433	467.19
393.658	450.19
393.882	460.19
394.107	454.19
394.331	458.19
394.556	449.19
394.78	450.19
395.005	459.19
395.229	452.19
395.454	474.19
395.678	501.19
395.903	518.19
396.127	510.19
396.352	520.19
396.576	483.19
396.801	468.19
397.025	478.19
397.249	472.19
397.474	478.19
397.698	492.19
397.922	490.19
398.147	526.19
398.371	532.19
398.595	505.19
398.82	522.19
399.044	551.19
399.268	566.19
399.492	605.19
399.717	650.19
399.941	655.19
400.165	669.19
400.389	667.19
400.613	584.19
400.837	569.19
401.062	540.19
401.286	539.19
401.51	536.19
401.734	540.19
401.958	505.19
402.182	524.19
402.406	544.19
402.63	539.19
402.854	536.19
403.078	543.19
403.302	555.19
403.526	561.19
403.75	546.19
403.974	539.19
404.198	553.19
404.422	546.19
404.645	563.19
404.869	570.19
405.093	578.19
405.317	655.19
405.541	663.19
405.765	613.19
405.988	569.19
406.212	579.19
406.436	593.19
406.66	581.19
406.883	592.19
407.107	645.19
407.331	678.19
407.555	730.19
407.778	724.19
408.002	655.19
408.226	635.19
408.449	611.19
408.673	616.19
408.896	631.19
409.12	650.19
409.344	644.19
409.567	566.19
409.791	583.19
410.014	550.19
410.238	547.19
410.461	541.19
410.685	562.19
410.908	579.19
411.132	600.19
411.355	648.19
411.578	600.19
411.802	554.19
412.025	554.19
412.249	551.19
412.472	584.19
412.695	601.19
412.919	607.19
413.142	568.19
413.365	570.19
413.589	542.19
413.812	529.19
414.035	556.19
414.258	541.19
414.482	511.19
414.705	519.19
414.928	529.19
415.151	511.19
415.374	533.19
415.597	512.19
415.821	518.19
416.044	531.19
416.267	534.19
416.49	518.19
416.713	516.19
416.936	523.19
417.159	509.19
417.382	520.19
417.605	528.19
417.828	528.19
418.051	571.19
418.274	532.19
418.497	518.19
418.72	547.19
418.943	516.19
419.166	553.19
419.389	578.19
419.611	568.19
419.834	544.19
420.057	565.19
420.28	566.19
420.503	521.19
420.726	546.19
420.948	557.19
421.171	591.19
421.394	616.19
421.617	557.19
421.839	542.19
422.062	551.19
422.285	533.19
422.507	610.19
422.73	680.19
422.953	644.19
423.175	572.19
423.398	562.19
423.621	583.19
423.843	581.19
424.066	613.19
424.288	582.19
424.511	590.19
424.733	623.19
424.956	730.19
425.178	695.19
425.401	685.19
425.623	702.19
425.846	609.19
426.068	534.19
426.291	552.19
426.513	564.19
426.735	564.19
426.958	618.19
427.18	679.19
427.402	808.19
427.625	891.19
427.847	754.19
428.069	670.19
428.292	604.19
428.514	562.19
428.736	528.19
428.958	538.19
429.181	523.19
429.403	520.19
429.625	538.19
429.847	568.19
430.069	623.19
430.292	616.19
430.514	530.19
430.736	531.19
430.958	506.19
431.18	504.19
431.402	496.19
431.624	481.19
431.846	496.19
432.068	504.19
432.29	522.19
432.512	527.19
432.734	510.19
432.956	484.19
433.178	487.19
433.4	513.19
433.622	521.19
433.844	519.19
434.066	512.19
434.287	508.19
434.509	513.19
434.731	525.19
434.953	526.19
435.175	542.19
435.397	564.19
435.618	582.19
435.84	612.19
436.062	678.19
436.284	772.19
436.505	641.19
436.727	574.19
436.949	538.19
437.17	535.19
437.392	523.19
437.614	529.19
437.835	546.19
438.057	622.19
438.278	757.19
438.5	730.19
438.721	805.19
438.943	782.19
439.165	634.19
439.386	595.19
439.608	580.19
439.829	582.19
440.05	595.19
440.272	626.19
440.493	586.19
440.715	540.19
440.936	538.19
441.158	547.19
441.379	549.19
441.6	526.19
441.822	575.19
442.043	611.19
442.264	685.19
442.486	718.19
442.707	620.19
442.928	598.19
443.149	626.19
443.371	584.19
443.592	629.19
443.813	746.19
444.034	817.19
444.255	674.19
444.476	591.19
444.698	586.19
444.919	574.19
445.14	686.19
445.361	636.19
445.582	609.19
445.803	647.19
446.024	746.19
446.245	763.19
446.466	677.19
446.687	592.19
446.908	585.19
447.129	521.19
447.35	535.19
447.571	520.19
447.792	500.19
448.013	529.19
448.234	528.19
448.455	576.19
448.675	673.19
448.896	804.19
449.117	678.19
449.338	640.19
449.559	758.19
449.779	844.19
450	665.19
450.221	549.19
450.442	500.19
450.662	508.19
450.883	527.19
451.104	478.19
451.324	500.19
451.545	493.19
451.766	462.19
451.986	468.19
452.207	451.19
452.428	452.19
452.648	479.19
452.869	467.19
453.089	443.19
453.31	485.19
453.53	468.19
453.751	451.19
453.971	459.19
454.192	477.19
454.412	454.19
454.633	467.19
454.853	452.19
455.073	452.19
455.294	495.19
455.514	540.19
455.734	555.19
455.955	464.19
456.175	439.19
456.395	423.19
456.616	427.19
456.836	446.19
457.056	446.19
457.276	446.19
457.497	442.19
457.717	435.19
457.937	460.19
458.157	466.19
458.377	452.19
458.598	482.19
458.818	509.19
459.038	565.19
459.258	601.19
459.478	542.19
459.698	489.19
459.918	506.19
460.138	503.19
460.358	524.19
460.578	518.19
460.798	546.19
461.018	517.19
461.238	527.19
461.458	525.19
461.678	510.19
461.898	552.19
462.118	529.19
462.338	536.19
462.558	537.19
462.777	560.19
462.997	577.19
463.217	611.19
463.437	604.19
463.657	580.19
463.876	565.19
464.096	576.19
464.316	551.19
464.536	569.19
464.755	587.19
464.975	543.19
465.195	579.19
465.414	610.19
465.634	557.19
465.854	510.19
466.073	511.19
466.293	495.19
466.512	492.19
466.732	492.19
466.951	493.19
467.171	457.19
467.391	491.19
467.61	487.19
467.829	500.19
468.049	496.19
468.268	483.19
468.488	472.19
468.707	484.19
468.927	477.19
469.146	467.19
469.365	475.19
469.585	476.19
469.804	470.19
470.023	508.19
470.243	489.19
470.462	500.19
470.681	508.19
470.901	509.19
471.12	479.19
471.339	454.19
471.558	478.19
471.777	515.19
471.997	489.19
472.216	491.19
472.435	522.19
472.654	487.19
472.873	472.19
473.092	483.19
473.311	488.19
473.53	482.19
473.749	506.19
473.968	517.19
474.187	603.19
474.406	618.19
474.625	521.19
474.844	499.19
475.063	463.19
475.282	501.19
475.501	481.19
475.72	504.19
475.939	509.19
476.158	491.19
476.377	498.19
476.596	517.19
476.814	516.19
477.033	495.19
477.252	532.19
477.471	506.19
477.69	524.19
477.908	527.19
478.127	534.19
478.346	520.19
478.564	554.19
478.783	534.19
479.002	528.19
479.22	564.19
479.439	566.19
479.658	609.19
479.876	590.19
480.095	611.19
480.313	596.19
480.532	615.19
480.751	598.19
480.969	619.19
481.188	668.19
481.406	695.19
481.624	623.19
481.843	592.19
482.061	576.19
482.28	566.19
482.498	559.19
482.717	582.19
482.935	580.19
483.153	555.19
483.372	564.19
483.59	557.19
483.808	578.19
484.027	572.19
484.245	584.19
484.463	580.19
484.681	583.19
484.9	573.19
485.118	557.19
485.336	566.19
485.554	575.19
485.772	596.19
485.99	586.19
486.209	586.19
486.427	590.19
486.645	598.19
486.863	597.19
487.081	582.19
487.299	618.19
487.517	595.19
487.735	606.19
487.953	620.19
488.171	612.19
488.389	585.19
488.607	627.19
488.825	608.19
489.043	638.19
489.261	606.19
489.479	653.19
489.696	618.19
489.914	629.19
490.132	646.19
490.35	646.19
490.568	644.19
490.786	651.19
491.003	647.19
491.221	676.19
491.439	702.19
491.657	706.19
491.874	687.19
492.092	701.19
492.31	692.19
492.527	702.19
492.745	700.19
492.963	697.19
493.18	714.19
493.398	727.19
493.615	735.19
493.833	713.19
494.05	727.19
494.268	743.19
494.485	735.19
494.703	714.19
494.92	723.19
495.138	725.19
495.355	734.19
495.573	713.19
495.79	708.19
496.008	711.19
496.225	730.19
496.442	710.19
496.66	742.19
496.877	745.19
497.094	735.19
497.312	740.19
497.529	730.19
497.746	761.19
497.963	810.19
498.181	807.19
498.398	800.19
498.615	824.19
498.832	836.19
499.049	887.19
499.267	894.19
499.484	918.19
499.701	960.19
499.918	1015.19
500.135	1074.19
500.352	1172.19
500.569	1163.19
500.786	1174.19
501.003	1141.19
501.22	1118.19
501.437	1056.19
501.654	1021.19
