Data from 1975.PennyLincolnUp.Lamp.En5.5.200Scan.071719.P1.Changed Mount._HRD10591_15-57-35-859.txt Node
Date: Thu Jul 18 15:57:35 EDT 2019
User: cochatt
Spectrometer: HR+D1059
Trigger mode: 1
Integration Time (sec): 1.000000E-1
Scans to average: 1
Electric dark correction enabled: true
Nonlinearity correction enabled: false
Boxcar width: 0
XAxis mode: Wavelengths
Number of Pixels in Spectrum: 2048
>>>>>Begin Spectral Data<<<<<
223.165	-14.75
223.4	-14.75
223.635	-14.75
223.869	-16.75
224.104	-22.75
224.338	-7.75
224.573	-15.75
224.808	-16.75
225.042	-4.75
225.277	-13.75
225.511	8.25
225.746	1.25
225.98	2.25
226.215	12.25
226.449	18.25
226.683	12.25
226.918	27.25
227.152	31.25
227.387	30.25
227.621	34.25
227.856	44.25
228.09	30.25
228.324	44.25
228.559	51.25
228.793	65.25
229.027	93.25
229.262	102.25
229.496	116.25
229.73	118.25
229.964	150.25
230.199	127.25
230.433	110.25
230.667	118.25
230.901	111.25
231.136	103.25
231.37	111.25
231.604	104.25
231.838	102.25
232.072	117.25
232.306	122.25
232.541	110.25
232.775	120.25
233.009	110.25
233.243	103.25
233.477	124.25
233.711	113.25
233.945	121.25
234.179	114.25
234.413	119.25
234.647	123.25
234.881	114.25
235.115	113.25
235.349	119.25
235.583	123.25
235.817	119.25
236.051	122.25
236.285	122.25
236.519	105.25
236.753	127.25
236.987	129.25
237.221	168.25
237.455	220.25
237.689	174.25
237.922	130.25
238.156	140.25
238.39	121.25
238.624	133.25
238.858	114.25
239.091	132.25
239.325	121.25
239.559	138.25
239.793	147.25
240.027	143.25
240.26	130.25
240.494	154.25
240.728	143.25
240.961	155.25
241.195	156.25
241.429	139.25
241.662	130.25
241.896	132.25
242.13	135.25
242.363	128.25
242.597	134.25
242.83	136.25
243.064	138.25
243.298	133.25
243.531	142.25
243.765	154.25
243.998	136.25
244.232	127.25
244.465	141.25
244.699	150.25
244.932	140.25
245.166	138.25
245.399	164.25
245.633	146.25
245.866	153.25
246.099	138.25
246.333	142.25
246.566	152.25
246.8	149.25
247.033	157.25
247.266	163.25
247.5	168.25
247.733	175.25
247.966	188.25
248.2	177.25
248.433	179.25
248.666	182.25
248.899	167.25
249.133	198.25
249.366	209.25
249.599	205.25
249.832	204.25
250.066	198.25
250.299	200.25
250.532	196.25
250.765	214.25
250.998	220.25
251.231	228.25
251.465	195.25
251.698	201.25
251.931	191.25
252.164	216.25
252.397	209.25
252.63	214.25
252.863	190.25
253.096	228.25
253.329	225.25
253.562	229.25
253.795	223.25
254.028	212.25
254.261	210.25
254.494	232.25
254.727	245.25
254.96	270.25
255.193	275.25
255.426	245.25
255.659	240.25
255.892	243.25
256.124	239.25
256.357	228.25
256.59	212.25
256.823	227.25
257.056	204.25
257.289	217.25
257.521	215.25
257.754	214.25
257.987	213.25
258.22	206.25
258.452	207.25
258.685	227.25
258.918	217.25
259.151	213.25
259.383	224.25
259.616	233.25
259.849	217.25
260.081	243.25
260.314	240.25
260.547	272.25
260.779	243.25
261.012	244.25
261.244	234.25
261.477	207.25
261.71	203.25
261.942	229.25
262.175	240.25
262.407	224.25
262.64	226.25
262.872	228.25
263.105	213.25
263.337	214.25
263.57	226.25
263.802	227.25
264.035	217.25
264.267	223.25
264.499	199.25
264.732	220.25
264.964	198.25
265.197	210.25
265.429	238.25
265.661	221.25
265.894	226.25
266.126	207.25
266.358	241.25
266.591	216.25
266.823	229.25
267.055	219.25
267.287	220.25
267.52	227.25
267.752	220.25
267.984	229.25
268.216	246.25
268.448	249.25
268.681	258.25
268.913	251.25
269.145	274.25
269.377	286.25
269.609	292.25
269.841	285.25
270.073	282.25
270.306	310.25
270.538	314.25
270.77	318.25
271.002	316.25
271.234	293.25
271.466	308.25
271.698	329.25
271.93	320.25
272.162	324.25
272.394	326.25
272.626	311.25
272.858	308.25
273.09	276.25
273.322	279.25
273.553	281.25
273.785	281.25
274.017	270.25
274.249	273.25
274.481	298.25
274.713	280.25
274.945	257.25
275.176	287.25
275.408	262.25
275.64	276.25
275.872	289.25
276.104	259.25
276.335	288.25
276.567	301.25
276.799	294.25
277.031	308.25
277.262	323.25
277.494	337.25
277.726	308.25
277.957	302.25
278.189	297.25
278.421	299.25
278.652	271.25
278.884	294.25
279.115	278.25
279.347	273.25
279.579	286.25
279.81	268.25
280.042	272.25
280.273	275.25
280.505	288.25
280.736	288.25
280.968	267.25
281.199	292.25
281.431	288.25
281.662	295.25
281.894	280.25
282.125	307.25
282.356	300.25
282.588	314.25
282.819	315.25
283.051	292.25
283.282	275.25
283.513	289.25
283.745	299.25
283.976	307.25
284.207	322.25
284.439	286.25
284.67	306.25
284.901	299.25
285.132	293.25
285.364	274.25
285.595	294.25
285.826	286.25
286.057	296.25
286.288	295.25
286.52	293.25
286.751	303.25
286.982	296.25
287.213	314.25
287.444	301.25
287.675	316.25
287.906	323.25
288.138	312.25
288.369	323.25
288.6	327.25
288.831	319.25
289.062	315.25
289.293	315.25
289.524	315.25
289.755	303.25
289.986	332.25
290.217	329.25
290.448	306.25
290.679	315.25
290.91	302.25
291.141	315.25
291.371	322.25
291.602	321.25
291.833	312.25
292.064	312.25
292.295	312.25
292.526	319.25
292.757	327.25
292.987	299.25
293.218	315.25
293.449	304.25
293.68	324.25
293.91	331.25
294.141	319.25
294.372	308.25
294.603	304.25
294.833	304.25
295.064	311.25
295.295	297.25
295.525	303.25
295.756	316.25
295.987	324.25
296.217	320.25
296.448	336.25
296.679	312.25
296.909	315.25
297.14	327.25
297.37	316.25
297.601	336.25
297.831	322.25
298.062	332.25
298.292	342.25
298.523	326.25
298.753	322.25
298.984	334.25
299.214	313.25
299.445	325.25
299.675	333.25
299.905	346.25
300.136	335.25
300.366	319.25
300.597	321.25
300.827	325.25
301.057	336.25
301.288	336.25
301.518	335.25
301.748	332.25
301.979	336.25
302.209	362.25
302.439	352.25
302.669	338.25
302.9	353.25
303.13	347.25
303.36	338.25
303.59	354.25
303.82	347.25
304.051	359.25
304.281	345.25
304.511	361.25
304.741	344.25
304.971	350.25
305.201	344.25
305.431	356.25
305.661	346.25
305.891	351.25
306.121	352.25
306.352	358.25
306.582	355.25
306.812	340.25
307.042	350.25
307.272	345.25
307.502	352.25
307.731	347.25
307.961	322.25
308.191	344.25
308.421	351.25
308.651	353.25
308.881	359.25
309.111	335.25
309.341	355.25
309.571	361.25
309.8	355.25
310.03	360.25
310.26	381.25
310.49	375.25
310.72	394.25
310.949	396.25
311.179	398.25
311.409	392.25
311.639	366.25
311.868	372.25
312.098	364.25
312.328	404.25
312.557	410.25
312.787	414.25
313.017	420.25
313.246	395.25
313.476	394.25
313.706	392.25
313.935	382.25
314.165	407.25
314.394	412.25
314.624	415.25
314.853	410.25
315.083	382.25
315.312	386.25
315.542	410.25
315.771	375.25
316.001	386.25
316.23	398.25
316.46	384.25
316.689	383.25
316.919	385.25
317.148	408.25
317.377	394.25
317.607	411.25
317.836	402.25
318.065	376.25
318.295	391.25
318.524	394.25
318.753	387.25
318.983	391.25
319.212	382.25
319.441	402.25
319.67	406.25
319.9	378.25
320.129	385.25
320.358	391.25
320.587	406.25
320.816	418.25
321.046	412.25
321.275	409.25
321.504	399.25
321.733	406.25
321.962	414.25
322.191	418.25
322.42	421.25
322.649	447.25
322.878	443.25
323.108	436.25
323.337	450.25
323.566	461.25
323.795	495.25
324.024	554.25
324.253	622.25
324.482	857.25
324.71	1294.25
324.939	1980.25
325.168	1731.25
325.397	859.25
325.626	587.25
325.855	523.25
326.084	479.25
326.313	481.25
326.542	484.25
326.77	509.25
326.999	592.25
327.228	793.25
327.457	1208.25
327.686	1513.25
327.914	976.25
328.143	659.25
328.372	611.25
328.6	535.25
328.829	555.25
329.058	547.25
329.287	561.25
329.515	540.25
329.744	503.25
329.972	516.25
330.201	536.25
330.43	540.25
330.658	573.25
330.887	577.25
331.115	583.25
331.344	507.25
331.572	500.25
331.801	497.25
332.03	499.25
332.258	494.25
332.486	486.25
332.715	479.25
332.943	485.25
333.172	494.25
333.4	507.25
333.629	487.25
333.857	510.25
334.085	525.25
334.314	543.25
334.542	562.25
334.771	588.25
334.999	511.25
335.227	514.25
335.455	514.25
335.684	499.25
335.912	460.25
336.14	476.25
336.369	480.25
336.597	478.25
336.825	474.25
337.053	468.25
337.281	459.25
337.51	459.25
337.738	486.25
337.966	472.25
338.194	481.25
338.422	466.25
338.65	457.25
338.878	454.25
339.106	444.25
339.334	460.25
339.562	437.25
339.79	443.25
340.018	438.25
340.246	436.25
340.474	452.25
340.702	464.25
340.93	453.25
341.158	450.25
341.386	454.25
341.614	463.25
341.842	442.25
342.07	448.25
342.298	424.25
342.526	436.25
342.754	425.25
342.981	435.25
343.209	441.25
343.437	458.25
343.665	442.25
343.893	479.25
344.12	496.25
344.348	475.25
344.576	470.25
344.804	452.25
345.031	473.25
345.259	467.25
345.487	446.25
345.714	458.25
345.942	455.25
346.17	440.25
346.397	439.25
346.625	439.25
346.853	412.25
347.08	417.25
347.308	432.25
347.535	423.25
347.763	443.25
347.99	443.25
348.218	454.25
348.445	456.25
348.673	457.25
348.9	423.25
349.128	443.25
349.355	396.25
349.583	423.25
349.81	422.25
350.037	438.25
350.265	414.25
350.492	418.25
350.72	441.25
350.947	425.25
351.174	422.25
351.402	438.25
351.629	444.25
351.856	436.25
352.083	431.25
352.311	457.25
352.538	439.25
352.765	436.25
352.992	436.25
353.22	426.25
353.447	440.25
353.674	417.25
353.901	407.25
354.128	411.25
354.355	415.25
354.583	393.25
354.81	417.25
355.037	408.25
355.264	428.25
355.491	405.25
355.718	419.25
355.945	426.25
356.172	438.25
356.399	397.25
356.626	411.25
356.853	411.25
357.08	414.25
357.307	411.25
357.534	414.25
357.761	389.25
357.988	401.25
358.215	414.25
358.441	403.25
358.668	408.25
358.895	418.25
359.122	424.25
359.349	409.25
359.576	450.25
359.802	441.25
360.029	468.25
360.256	463.25
360.483	431.25
360.709	425.25
360.936	437.25
361.163	430.25
361.39	417.25
361.616	448.25
361.843	429.25
362.07	417.25
362.296	452.25
362.523	417.25
362.749	423.25
362.976	433.25
363.203	422.25
363.429	425.25
363.656	417.25
363.882	424.25
364.109	411.25
364.335	423.25
364.562	435.25
364.788	425.25
365.015	414.25
365.241	409.25
365.468	432.25
365.694	433.25
365.92	430.25
366.147	409.25
366.373	414.25
366.599	438.25
366.826	424.25
367.052	397.25
367.278	436.25
367.505	423.25
367.731	438.25
367.957	433.25
368.184	432.25
368.41	423.25
368.636	419.25
368.862	448.25
369.089	432.25
369.315	424.25
369.541	434.25
369.767	418.25
369.993	412.25
370.219	438.25
370.445	411.25
370.672	410.25
370.898	447.25
371.124	416.25
371.35	424.25
371.576	426.25
371.802	420.25
372.028	447.25
372.254	422.25
372.48	423.25
372.706	427.25
372.932	447.25
373.158	430.25
373.384	414.25
373.61	434.25
373.835	449.25
374.061	419.25
374.287	426.25
374.513	444.25
374.739	452.25
374.965	453.25
375.191	443.25
375.416	455.25
375.642	428.25
375.868	418.25
376.094	453.25
376.319	447.25
376.545	450.25
376.771	428.25
376.997	423.25
377.222	434.25
377.448	432.25
377.674	414.25
377.899	435.25
378.125	427.25
378.35	410.25
378.576	418.25
378.802	428.25
379.027	448.25
379.253	427.25
379.478	427.25
379.704	435.25
379.929	443.25
380.155	421.25
380.38	423.25
380.606	418.25
380.831	448.25
381.057	453.25
381.282	435.25
381.507	440.25
381.733	430.25
381.958	430.25
382.184	447.25
382.409	460.25
382.634	444.25
382.86	432.25
383.085	434.25
383.31	455.25
383.535	458.25
383.761	451.25
383.986	464.25
384.211	457.25
384.436	468.25
384.662	434.25
384.887	443.25
385.112	464.25
385.337	483.25
385.562	472.25
385.787	495.25
386.013	474.25
386.238	490.25
386.463	497.25
386.688	478.25
386.913	481.25
387.138	492.25
387.363	467.25
387.588	486.25
387.813	467.25
388.038	475.25
388.263	480.25
388.488	481.25
388.713	465.25
388.938	476.25
389.163	469.25
389.387	481.25
389.612	487.25
389.837	474.25
390.062	490.25
390.287	479.25
390.512	458.25
390.736	471.25
390.961	499.25
391.186	490.25
391.411	482.25
391.636	495.25
391.86	512.25
392.085	512.25
392.31	516.25
392.534	509.25
392.759	494.25
392.984	487.25
393.208	486.25
393.433	498.25
393.658	473.25
393.882	463.25
394.107	479.25
394.331	483.25
394.556	502.25
394.78	484.25
395.005	500.25
395.229	514.25
395.454	502.25
395.678	512.25
395.903	508.25
396.127	534.25
396.352	524.25
396.576	511.25
396.801	509.25
397.025	498.25
397.249	521.25
397.474	556.25
397.698	520.25
397.922	527.25
398.147	544.25
398.371	544.25
398.595	539.25
398.82	562.25
399.044	599.25
399.268	588.25
399.492	634.25
399.717	697.25
399.941	703.25
400.165	722.25
400.389	719.25
400.613	664.25
400.837	616.25
401.062	597.25
401.286	581.25
401.51	546.25
401.734	566.25
401.958	574.25
402.182	569.25
402.406	591.25
402.63	587.25
402.854	593.25
403.078	591.25
403.302	583.25
403.526	595.25
403.75	625.25
403.974	587.25
404.198	594.25
404.422	596.25
404.645	596.25
404.869	607.25
405.093	639.25
405.317	671.25
405.541	717.25
405.765	664.25
405.988	638.25
406.212	640.25
406.436	648.25
406.66	640.25
406.883	625.25
407.107	656.25
407.331	680.25
407.555	790.25
407.778	793.25
408.002	733.25
408.226	666.25
408.449	653.25
408.673	646.25
408.896	670.25
409.12	722.25
409.344	686.25
409.567	627.25
409.791	610.25
410.014	587.25
410.238	576.25
410.461	578.25
410.685	586.25
410.908	615.25
411.132	645.25
411.355	679.25
411.578	629.25
411.802	601.25
412.025	574.25
412.249	593.25
412.472	632.25
412.695	683.25
412.919	664.25
413.142	617.25
413.365	596.25
413.589	590.25
413.812	589.25
414.035	549.25
414.258	548.25
414.482	571.25
414.705	588.25
414.928	550.25
415.151	558.25
415.374	568.25
415.597	558.25
415.821	554.25
416.044	558.25
416.267	563.25
416.49	555.25
416.713	560.25
416.936	562.25
417.159	555.25
417.382	562.25
417.605	568.25
417.828	587.25
418.051	589.25
418.274	568.25
418.497	563.25
418.72	572.25
418.943	553.25
419.166	592.25
419.389	605.25
419.611	610.25
419.834	604.25
420.057	598.25
420.28	591.25
420.503	596.25
420.726	598.25
420.948	616.25
421.171	644.25
421.394	663.25
421.617	615.25
421.839	580.25
422.062	604.25
422.285	591.25
422.507	632.25
422.73	739.25
422.953	728.25
423.175	615.25
423.398	613.25
423.621	606.25
423.843	627.25
424.066	640.25
424.288	630.25
424.511	638.25
424.733	693.25
424.956	775.25
425.178	736.25
425.401	702.25
425.623	784.25
425.846	673.25
426.068	603.25
426.291	618.25
426.513	593.25
426.735	612.25
426.958	656.25
427.18	707.25
427.402	872.25
427.625	975.25
427.847	830.25
428.069	736.25
428.292	668.25
428.514	616.25
428.736	565.25
428.958	575.25
429.181	580.25
429.403	535.25
429.625	566.25
429.847	585.25
430.069	671.25
430.292	664.25
430.514	602.25
430.736	586.25
430.958	582.25
431.18	553.25
431.402	543.25
431.624	554.25
431.846	516.25
432.068	517.25
432.29	555.25
432.512	538.25
432.734	539.25
432.956	570.25
433.178	550.25
433.4	591.25
433.622	548.25
433.844	522.25
434.066	542.25
434.287	558.25
434.509	543.25
434.731	578.25
434.953	593.25
435.175	575.25
435.397	616.25
435.618	626.25
435.84	638.25
436.062	736.25
436.284	834.25
436.505	683.25
436.727	607.25
436.949	597.25
437.17	547.25
437.392	564.25
437.614	586.25
437.835	601.25
438.057	686.25
438.278	822.25
438.5	792.25
438.721	897.25
438.943	846.25
439.165	662.25
439.386	620.25
439.608	611.25
439.829	616.25
440.05	643.25
440.272	696.25
440.493	658.25
440.715	599.25
440.936	591.25
441.158	575.25
441.379	581.25
441.6	599.25
441.822	638.25
442.043	635.25
442.264	744.25
442.486	794.25
442.707	692.25
442.928	651.25
443.149	627.25
443.371	652.25
443.592	705.25
443.813	810.25
444.034	882.25
444.255	736.25
444.476	652.25
444.698	630.25
444.919	627.25
445.14	775.25
445.361	702.25
445.582	665.25
445.803	720.25
446.024	825.25
446.245	836.25
446.466	772.25
446.687	663.25
446.908	620.25
447.129	586.25
447.35	563.25
447.571	565.25
447.792	548.25
448.013	556.25
448.234	579.25
448.455	630.25
448.675	742.25
448.896	861.25
449.117	743.25
449.338	682.25
449.559	802.25
449.779	913.25
450	711.25
450.221	598.25
450.442	566.25
450.662	538.25
450.883	546.25
451.104	581.25
451.324	547.25
451.545	494.25
451.766	520.25
451.986	498.25
452.207	495.25
452.428	497.25
452.648	518.25
452.869	473.25
453.089	492.25
453.31	528.25
453.53	504.25
453.751	508.25
453.971	487.25
454.192	522.25
454.412	497.25
454.633	498.25
454.853	486.25
455.073	484.25
455.294	517.25
455.514	572.25
455.734	612.25
455.955	504.25
456.175	502.25
456.395	489.25
456.616	456.25
456.836	474.25
457.056	459.25
457.276	478.25
457.497	470.25
457.717	495.25
457.937	462.25
458.157	475.25
458.377	501.25
458.598	513.25
458.818	560.25
459.038	620.25
459.258	663.25
459.478	582.25
459.698	558.25
459.918	539.25
460.138	545.25
460.358	564.25
460.578	555.25
460.798	560.25
461.018	558.25
461.238	546.25
461.458	537.25
461.678	558.25
461.898	570.25
462.118	568.25
462.338	571.25
462.558	584.25
462.777	608.25
462.997	616.25
463.217	632.25
463.437	653.25
463.657	635.25
463.876	611.25
464.096	613.25
464.316	586.25
464.536	600.25
464.755	614.25
464.975	602.25
465.195	608.25
465.414	661.25
465.634	592.25
465.854	592.25
466.073	553.25
466.293	531.25
466.512	507.25
466.732	505.25
466.951	518.25
467.171	510.25
467.391	527.25
467.61	540.25
467.829	518.25
468.049	545.25
468.268	528.25
468.488	496.25
468.707	499.25
468.927	517.25
469.146	512.25
469.365	502.25
469.585	517.25
469.804	512.25
470.023	528.25
470.243	537.25
470.462	532.25
470.681	520.25
470.901	536.25
471.12	541.25
471.339	536.25
471.558	547.25
471.777	537.25
471.997	490.25
472.216	532.25
472.435	571.25
472.654	537.25
472.873	523.25
473.092	501.25
473.311	503.25
473.53	521.25
473.749	543.25
473.968	565.25
474.187	667.25
474.406	698.25
474.625	565.25
474.844	540.25
475.063	521.25
475.282	528.25
475.501	530.25
475.72	524.25
475.939	555.25
476.158	554.25
476.377	539.25
476.596	523.25
476.814	540.25
477.033	547.25
477.252	538.25
477.471	576.25
477.69	551.25
477.908	573.25
478.127	586.25
478.346	588.25
478.564	607.25
478.783	595.25
479.002	582.25
479.22	600.25
479.439	616.25
479.658	602.25
479.876	640.25
480.095	646.25
480.313	671.25
480.532	660.25
480.751	674.25
480.969	671.25
481.188	718.25
481.406	734.25
481.624	683.25
481.843	626.25
482.061	634.25
482.28	628.25
482.498	599.25
482.717	615.25
482.935	614.25
483.153	625.25
483.372	613.25
483.59	612.25
483.808	612.25
484.027	580.25
484.245	620.25
484.463	613.25
484.681	622.25
484.9	629.25
485.118	637.25
485.336	611.25
485.554	632.25
485.772	644.25
485.99	638.25
486.209	643.25
486.427	651.25
486.645	650.25
486.863	640.25
487.081	660.25
487.299	628.25
487.517	656.25
487.735	654.25
487.953	650.25
488.171	645.25
488.389	649.25
488.607	656.25
488.825	641.25
489.043	663.25
489.261	681.25
489.479	665.25
489.696	682.25
489.914	678.25
490.132	671.25
490.35	712.25
490.568	681.25
490.786	710.25
491.003	713.25
491.221	744.25
491.439	741.25
491.657	744.25
491.874	769.25
492.092	759.25
492.31	786.25
492.527	770.25
492.745	766.25
492.963	758.25
493.18	772.25
493.398	775.25
493.615	805.25
493.833	762.25
494.05	802.25
494.268	776.25
494.485	770.25
494.703	782.25
494.92	776.25
495.138	788.25
495.355	798.25
495.573	760.25
495.79	774.25
496.008	797.25
496.225	780.25
496.442	814.25
496.66	794.25
496.877	791.25
497.094	803.25
497.312	809.25
497.529	820.25
497.746	823.25
497.963	832.25
498.181	855.25
498.398	870.25
498.615	907.25
498.832	928.25
499.049	942.25
499.267	973.25
499.484	1020.25
499.701	1042.25
499.918	1085.25
500.135	1127.25
500.352	1235.25
500.569	1269.25
500.786	1249.25
501.003	1251.25
501.22	1178.25
501.437	1128.25
501.654	1084.25
