Data from 1975.PennyLincolnUp.Lamp.En5.5.200Scan.071719.P1.Changed Mount._HRD10591_15-57-06-858.txt Node
Date: Thu Jul 18 15:57:06 EDT 2019
User: cochatt
Spectrometer: HR+D1059
Trigger mode: 1
Integration Time (sec): 1.000000E-1
Scans to average: 1
Electric dark correction enabled: true
Nonlinearity correction enabled: false
Boxcar width: 0
XAxis mode: Wavelengths
Number of Pixels in Spectrum: 2048
>>>>>Begin Spectral Data<<<<<
223.165	-15.75
223.4	-15.75
223.635	-15.75
223.869	-14.75
224.104	-5.75
224.338	-9.75
224.573	-8.75
224.808	-12.75
225.042	-4.75
225.277	-11.75
225.511	-4.75
225.746	0.25
225.98	13.25
226.215	5.25
226.449	8.25
226.683	20.25
226.918	16.25
227.152	25.25
227.387	34.25
227.621	21.25
227.856	35.25
228.09	45.25
228.324	51.25
228.559	56.25
228.793	75.25
229.027	79.25
229.262	88.25
229.496	98.25
229.73	118.25
229.964	156.25
230.199	133.25
230.433	126.25
230.667	99.25
230.901	121.25
231.136	126.25
231.37	113.25
231.604	109.25
231.838	116.25
232.072	114.25
232.306	98.25
232.541	119.25
232.775	122.25
233.009	117.25
233.243	122.25
233.477	114.25
233.711	121.25
233.945	120.25
234.179	119.25
234.413	115.25
234.647	121.25
234.881	114.25
235.115	112.25
235.349	117.25
235.583	126.25
235.817	118.25
236.051	133.25
236.285	139.25
236.519	120.25
236.753	126.25
236.987	145.25
237.221	193.25
237.455	224.25
237.689	180.25
237.922	128.25
238.156	121.25
238.39	135.25
238.624	125.25
238.858	130.25
239.091	133.25
239.325	133.25
239.559	128.25
239.793	118.25
240.027	118.25
240.26	165.25
240.494	172.25
240.728	152.25
240.961	156.25
241.195	164.25
241.429	137.25
241.662	132.25
241.896	153.25
242.13	135.25
242.363	125.25
242.597	136.25
242.83	144.25
243.064	152.25
243.298	136.25
243.531	145.25
243.765	138.25
243.998	140.25
244.232	148.25
244.465	144.25
244.699	156.25
244.932	156.25
245.166	149.25
245.399	153.25
245.633	157.25
245.866	158.25
246.099	158.25
246.333	154.25
246.566	157.25
246.8	157.25
247.033	158.25
247.266	150.25
247.5	164.25
247.733	175.25
247.966	160.25
248.2	170.25
248.433	168.25
248.666	166.25
248.899	184.25
249.133	200.25
249.366	224.25
249.599	198.25
249.832	201.25
250.066	191.25
250.299	178.25
250.532	189.25
250.765	223.25
250.998	235.25
251.231	226.25
251.465	214.25
251.698	194.25
251.931	213.25
252.164	203.25
252.397	180.25
252.63	203.25
252.863	211.25
253.096	222.25
253.329	240.25
253.562	237.25
253.795	219.25
254.028	223.25
254.261	191.25
254.494	223.25
254.727	256.25
254.96	272.25
255.193	262.25
255.426	247.25
255.659	236.25
255.892	232.25
256.124	236.25
256.357	241.25
256.59	232.25
256.823	236.25
257.056	224.25
257.289	226.25
257.521	203.25
257.754	214.25
257.987	210.25
258.22	207.25
258.452	228.25
258.685	189.25
258.918	231.25
259.151	221.25
259.383	226.25
259.616	219.25
259.849	230.25
260.081	245.25
260.314	267.25
260.547	259.25
260.779	237.25
261.012	249.25
261.244	243.25
261.477	245.25
261.71	242.25
261.942	230.25
262.175	237.25
262.407	237.25
262.64	215.25
262.872	225.25
263.105	212.25
263.337	217.25
263.57	233.25
263.802	208.25
264.035	216.25
264.267	219.25
264.499	219.25
264.732	230.25
264.964	232.25
265.197	213.25
265.429	220.25
265.661	204.25
265.894	215.25
266.126	225.25
266.358	221.25
266.591	226.25
266.823	245.25
267.055	234.25
267.287	249.25
267.52	229.25
267.752	240.25
267.984	228.25
268.216	219.25
268.448	231.25
268.681	240.25
268.913	257.25
269.145	266.25
269.377	281.25
269.609	288.25
269.841	274.25
270.073	283.25
270.306	300.25
270.538	310.25
270.77	320.25
271.002	301.25
271.234	297.25
271.466	296.25
271.698	289.25
271.93	327.25
272.162	318.25
272.394	326.25
272.626	313.25
272.858	305.25
273.09	267.25
273.322	263.25
273.553	271.25
273.785	252.25
274.017	277.25
274.249	247.25
274.481	272.25
274.713	261.25
274.945	280.25
275.176	286.25
275.408	282.25
275.64	241.25
275.872	287.25
276.104	290.25
276.335	276.25
276.567	282.25
276.799	286.25
277.031	322.25
277.262	308.25
277.494	322.25
277.726	302.25
277.957	300.25
278.189	270.25
278.421	282.25
278.652	284.25
278.884	268.25
279.115	284.25
279.347	282.25
279.579	287.25
279.81	271.25
280.042	277.25
280.273	269.25
280.505	272.25
280.736	286.25
280.968	271.25
281.199	276.25
281.431	271.25
281.662	294.25
281.894	286.25
282.125	289.25
282.356	316.25
282.588	307.25
282.819	312.25
283.051	286.25
283.282	268.25
283.513	281.25
283.745	280.25
283.976	301.25
284.207	291.25
284.439	298.25
284.67	289.25
284.901	287.25
285.132	295.25
285.364	261.25
285.595	293.25
285.826	294.25
286.057	301.25
286.288	284.25
286.52	297.25
286.751	301.25
286.982	305.25
287.213	293.25
287.444	289.25
287.675	313.25
287.906	332.25
288.138	323.25
288.369	312.25
288.6	314.25
288.831	320.25
289.062	298.25
289.293	308.25
289.524	303.25
289.755	297.25
289.986	304.25
290.217	310.25
290.448	299.25
290.679	306.25
290.91	311.25
291.141	307.25
291.371	311.25
291.602	307.25
291.833	301.25
292.064	301.25
292.295	300.25
292.526	297.25
292.757	296.25
292.987	302.25
293.218	301.25
293.449	296.25
293.68	295.25
293.91	306.25
294.141	310.25
294.372	318.25
294.603	310.25
294.833	313.25
295.064	325.25
295.295	309.25
295.525	317.25
295.756	320.25
295.987	329.25
296.217	338.25
296.448	331.25
296.679	318.25
296.909	317.25
297.14	329.25
297.37	322.25
297.601	313.25
297.831	304.25
298.062	310.25
298.292	314.25
298.523	338.25
298.753	309.25
298.984	313.25
299.214	331.25
299.445	326.25
299.675	322.25
299.905	319.25
300.136	332.25
300.366	337.25
300.597	321.25
300.827	338.25
301.057	343.25
301.288	331.25
301.518	334.25
301.748	337.25
301.979	347.25
302.209	358.25
302.439	337.25
302.669	355.25
302.9	345.25
303.13	344.25
303.36	377.25
303.59	341.25
303.82	347.25
304.051	345.25
304.281	345.25
304.511	343.25
304.741	335.25
304.971	353.25
305.201	339.25
305.431	344.25
305.661	342.25
305.891	331.25
306.121	361.25
306.352	348.25
306.582	347.25
306.812	338.25
307.042	312.25
307.272	365.25
307.502	352.25
307.731	355.25
307.961	352.25
308.191	336.25
308.421	339.25
308.651	328.25
308.881	339.25
309.111	372.25
309.341	352.25
309.571	367.25
309.8	368.25
310.03	369.25
310.26	392.25
310.49	368.25
310.72	385.25
310.949	391.25
311.179	390.25
311.409	401.25
311.639	381.25
311.868	387.25
312.098	377.25
312.328	373.25
312.557	402.25
312.787	407.25
313.017	384.25
313.246	379.25
313.476	382.25
313.706	380.25
313.935	388.25
314.165	404.25
314.394	398.25
314.624	402.25
314.853	404.25
315.083	391.25
315.312	376.25
315.542	380.25
315.771	387.25
316.001	376.25
316.23	394.25
316.46	394.25
316.689	378.25
316.919	403.25
317.148	388.25
317.377	404.25
317.607	406.25
317.836	396.25
318.065	376.25
318.295	386.25
318.524	387.25
318.753	396.25
318.983	386.25
319.212	377.25
319.441	381.25
319.67	406.25
319.9	407.25
320.129	386.25
320.358	386.25
320.587	415.25
320.816	388.25
321.046	404.25
321.275	403.25
321.504	405.25
321.733	383.25
321.962	402.25
322.191	388.25
322.42	421.25
322.649	453.25
322.878	458.25
323.108	430.25
323.337	471.25
323.566	470.25
323.795	488.25
324.024	512.25
324.253	611.25
324.482	808.25
324.71	1222.25
324.939	1876.25
325.168	1667.25
325.397	861.25
325.626	598.25
325.855	513.25
326.084	512.25
326.313	474.25
326.542	478.25
326.77	519.25
326.999	579.25
327.228	794.25
327.457	1156.25
327.686	1463.25
327.914	978.25
328.143	654.25
328.372	557.25
328.6	539.25
328.829	537.25
329.058	536.25
329.287	564.25
329.515	540.25
329.744	499.25
329.972	500.25
330.201	529.25
330.43	548.25
330.658	541.25
330.887	578.25
331.115	563.25
331.344	527.25
331.572	480.25
331.801	462.25
332.03	501.25
332.258	481.25
332.486	486.25
332.715	442.25
332.943	474.25
333.172	456.25
333.4	482.25
333.629	492.25
333.857	506.25
334.085	515.25
334.314	546.25
334.542	542.25
334.771	578.25
334.999	531.25
335.227	505.25
335.455	523.25
335.684	501.25
335.912	507.25
336.14	484.25
336.369	468.25
336.597	472.25
336.825	485.25
337.053	468.25
337.281	470.25
337.51	449.25
337.738	466.25
337.966	474.25
338.194	484.25
338.422	466.25
338.65	466.25
338.878	472.25
339.106	448.25
339.334	435.25
339.562	449.25
339.79	450.25
340.018	446.25
340.246	458.25
340.474	437.25
340.702	465.25
340.93	426.25
341.158	423.25
341.386	459.25
341.614	454.25
341.842	444.25
342.07	434.25
342.298	428.25
342.526	437.25
342.754	440.25
342.981	450.25
343.209	421.25
343.437	454.25
343.665	446.25
343.893	471.25
344.12	475.25
344.348	469.25
344.576	476.25
344.804	459.25
345.031	458.25
345.259	493.25
345.487	451.25
345.714	452.25
345.942	428.25
346.17	440.25
346.397	419.25
346.625	440.25
346.853	423.25
347.08	438.25
347.308	428.25
347.535	438.25
347.763	438.25
347.99	429.25
348.218	452.25
348.445	446.25
348.673	454.25
348.9	439.25
349.128	426.25
349.355	414.25
349.583	432.25
349.81	428.25
350.037	413.25
350.265	418.25
350.492	433.25
350.72	430.25
350.947	413.25
351.174	446.25
351.402	430.25
351.629	438.25
351.856	437.25
352.083	430.25
352.311	437.25
352.538	441.25
352.765	424.25
352.992	450.25
353.22	413.25
353.447	421.25
353.674	427.25
353.901	412.25
354.128	427.25
354.355	398.25
354.583	410.25
354.81	396.25
355.037	427.25
355.264	410.25
355.491	390.25
355.718	420.25
355.945	428.25
356.172	411.25
356.399	413.25
356.626	398.25
356.853	406.25
357.08	419.25
357.307	424.25
357.534	399.25
357.761	391.25
357.988	407.25
358.215	412.25
358.441	412.25
358.668	427.25
358.895	428.25
359.122	417.25
359.349	429.25
359.576	438.25
359.802	442.25
360.029	448.25
360.256	458.25
360.483	444.25
360.709	425.25
360.936	444.25
361.163	416.25
361.39	426.25
361.616	442.25
361.843	423.25
362.07	411.25
362.296	431.25
362.523	427.25
362.749	429.25
362.976	420.25
363.203	437.25
363.429	399.25
363.656	419.25
363.882	439.25
364.109	422.25
364.335	413.25
364.562	402.25
364.788	417.25
365.015	411.25
365.241	435.25
365.468	421.25
365.694	419.25
365.92	422.25
366.147	421.25
366.373	436.25
366.599	430.25
366.826	442.25
367.052	405.25
367.278	425.25
367.505	423.25
367.731	420.25
367.957	438.25
368.184	407.25
368.41	417.25
368.636	436.25
368.862	447.25
369.089	429.25
369.315	432.25
369.541	421.25
369.767	443.25
369.993	417.25
370.219	432.25
370.445	416.25
370.672	422.25
370.898	421.25
371.124	422.25
371.35	410.25
371.576	443.25
371.802	430.25
372.028	412.25
372.254	415.25
372.48	428.25
372.706	427.25
372.932	410.25
373.158	460.25
373.384	440.25
373.61	427.25
373.835	452.25
374.061	425.25
374.287	451.25
374.513	431.25
374.739	427.25
374.965	423.25
375.191	443.25
375.416	446.25
375.642	443.25
375.868	435.25
376.094	433.25
376.319	437.25
376.545	430.25
376.771	420.25
376.997	403.25
377.222	424.25
377.448	419.25
377.674	438.25
377.899	411.25
378.125	444.25
378.35	432.25
378.576	414.25
378.802	404.25
379.027	434.25
379.253	424.25
379.478	421.25
379.704	423.25
379.929	429.25
380.155	439.25
380.38	427.25
380.606	429.25
380.831	435.25
381.057	452.25
381.282	442.25
381.507	436.25
381.733	446.25
381.958	439.25
382.184	452.25
382.409	440.25
382.634	442.25
382.86	442.25
383.085	446.25
383.31	437.25
383.535	472.25
383.761	478.25
383.986	453.25
384.211	452.25
384.436	444.25
384.662	457.25
384.887	471.25
385.112	486.25
385.337	477.25
385.562	466.25
385.787	486.25
386.013	493.25
386.238	479.25
386.463	497.25
386.688	503.25
386.913	465.25
387.138	482.25
387.363	497.25
387.588	475.25
387.813	483.25
388.038	454.25
388.263	496.25
388.488	489.25
388.713	471.25
388.938	494.25
389.163	468.25
389.387	480.25
389.612	464.25
389.837	478.25
390.062	461.25
390.287	467.25
390.512	485.25
390.736	450.25
390.961	493.25
391.186	481.25
391.411	499.25
391.636	485.25
391.86	499.25
392.085	519.25
392.31	518.25
392.534	485.25
392.759	511.25
392.984	502.25
393.208	499.25
393.433	469.25
393.658	476.25
393.882	496.25
394.107	480.25
394.331	489.25
394.556	475.25
394.78	513.25
395.005	496.25
395.229	502.25
395.454	502.25
395.678	509.25
395.903	518.25
396.127	537.25
396.352	551.25
396.576	515.25
396.801	497.25
397.025	502.25
397.249	513.25
397.474	513.25
397.698	510.25
397.922	512.25
398.147	551.25
398.371	565.25
398.595	536.25
398.82	562.25
399.044	559.25
399.268	599.25
399.492	640.25
399.717	668.25
399.941	692.25
400.165	718.25
400.389	694.25
400.613	641.25
400.837	597.25
401.062	602.25
401.286	585.25
401.51	583.25
401.734	572.25
401.958	586.25
402.182	570.25
402.406	596.25
402.63	609.25
402.854	562.25
403.078	578.25
403.302	601.25
403.526	606.25
403.75	616.25
403.974	600.25
404.198	600.25
404.422	588.25
404.645	602.25
404.869	581.25
405.093	634.25
405.317	680.25
405.541	721.25
405.765	657.25
405.988	624.25
406.212	600.25
406.436	640.25
406.66	654.25
406.883	640.25
407.107	633.25
407.331	693.25
407.555	762.25
407.778	779.25
408.002	704.25
408.226	642.25
408.449	649.25
408.673	639.25
408.896	632.25
409.12	698.25
409.344	692.25
409.567	611.25
409.791	583.25
410.014	587.25
410.238	589.25
410.461	592.25
410.685	605.25
410.908	614.25
411.132	646.25
411.355	650.25
411.578	635.25
411.802	596.25
412.025	586.25
412.249	600.25
412.472	627.25
412.695	666.25
412.919	670.25
413.142	622.25
413.365	603.25
413.589	580.25
413.812	590.25
414.035	578.25
414.258	561.25
414.482	568.25
414.705	560.25
414.928	564.25
415.151	566.25
415.374	545.25
415.597	550.25
415.821	517.25
416.044	535.25
416.267	564.25
416.49	559.25
416.713	564.25
416.936	542.25
417.159	543.25
417.382	574.25
417.605	572.25
417.828	598.25
418.051	581.25
418.274	569.25
418.497	568.25
418.72	572.25
418.943	560.25
419.166	590.25
419.389	603.25
419.611	610.25
419.834	607.25
420.057	580.25
420.28	597.25
420.503	580.25
420.726	577.25
420.948	610.25
421.171	640.25
421.394	677.25
421.617	585.25
421.839	576.25
422.062	568.25
422.285	595.25
422.507	644.25
422.73	714.25
422.953	713.25
423.175	593.25
423.398	596.25
423.621	607.25
423.843	631.25
424.066	640.25
424.288	612.25
424.511	636.25
424.733	674.25
424.956	770.25
425.178	728.25
425.401	704.25
425.623	777.25
425.846	644.25
426.068	605.25
426.291	600.25
426.513	580.25
426.735	617.25
426.958	654.25
427.18	764.25
427.402	886.25
427.625	939.25
427.847	822.25
428.069	692.25
428.292	640.25
428.514	606.25
428.736	585.25
428.958	555.25
429.181	554.25
429.403	560.25
429.625	559.25
429.847	593.25
430.069	662.25
430.292	659.25
430.514	566.25
430.736	588.25
430.958	548.25
431.18	532.25
431.402	529.25
431.624	524.25
431.846	507.25
432.068	545.25
432.29	536.25
432.512	547.25
432.734	520.25
432.956	527.25
433.178	547.25
433.4	556.25
433.622	548.25
433.844	529.25
434.066	530.25
434.287	539.25
434.509	556.25
434.731	573.25
434.953	582.25
435.175	560.25
435.397	604.25
435.618	612.25
435.84	629.25
436.062	720.25
436.284	812.25
436.505	688.25
436.727	628.25
436.949	594.25
437.17	580.25
437.392	572.25
437.614	582.25
437.835	576.25
438.057	689.25
438.278	799.25
438.5	782.25
438.721	885.25
438.943	858.25
439.165	669.25
439.386	617.25
439.608	598.25
439.829	615.25
440.05	613.25
440.272	689.25
440.493	651.25
440.715	582.25
440.936	568.25
441.158	563.25
441.379	571.25
441.6	593.25
441.822	619.25
442.043	618.25
442.264	718.25
442.486	792.25
442.707	692.25
442.928	642.25
443.149	625.25
443.371	666.25
443.592	689.25
443.813	770.25
444.034	852.25
444.255	703.25
444.476	638.25
444.698	618.25
444.919	645.25
445.14	764.25
445.361	677.25
445.582	656.25
445.803	709.25
446.024	800.25
446.245	828.25
446.466	749.25
446.687	676.25
446.908	619.25
447.129	588.25
447.35	562.25
447.571	559.25
447.792	557.25
448.013	546.25
448.234	583.25
448.455	600.25
448.675	733.25
448.896	840.25
449.117	726.25
449.338	690.25
449.559	778.25
449.779	897.25
450	719.25
450.221	599.25
450.442	558.25
450.662	500.25
450.883	529.25
451.104	544.25
451.324	546.25
451.545	538.25
451.766	526.25
451.986	507.25
452.207	495.25
452.428	488.25
452.648	514.25
452.869	497.25
453.089	522.25
453.31	508.25
453.53	482.25
453.751	491.25
453.971	479.25
454.192	523.25
454.412	501.25
454.633	469.25
454.853	492.25
455.073	490.25
455.294	531.25
455.514	589.25
455.734	578.25
455.955	493.25
456.175	480.25
456.395	472.25
456.616	473.25
456.836	462.25
457.056	450.25
457.276	476.25
457.497	468.25
457.717	485.25
457.937	472.25
458.157	459.25
458.377	496.25
458.598	518.25
458.818	557.25
459.038	615.25
459.258	660.25
459.478	580.25
459.698	544.25
459.918	532.25
460.138	553.25
460.358	538.25
460.578	548.25
460.798	562.25
461.018	580.25
461.238	567.25
461.458	561.25
461.678	545.25
461.898	549.25
462.118	545.25
462.338	573.25
462.558	602.25
462.777	583.25
462.997	621.25
463.217	620.25
463.437	652.25
463.657	605.25
463.876	616.25
464.096	595.25
464.316	583.25
464.536	608.25
464.755	602.25
464.975	610.25
465.195	628.25
465.414	648.25
465.634	607.25
465.854	580.25
466.073	577.25
466.293	532.25
466.512	516.25
466.732	506.25
466.951	513.25
467.171	516.25
467.391	493.25
467.61	514.25
467.829	536.25
468.049	518.25
468.268	526.25
468.488	527.25
468.707	517.25
468.927	525.25
469.146	497.25
469.365	488.25
469.585	502.25
469.804	487.25
470.023	532.25
470.243	535.25
470.462	534.25
470.681	546.25
470.901	557.25
471.12	557.25
471.339	531.25
471.558	539.25
471.777	526.25
471.997	528.25
472.216	525.25
472.435	571.25
472.654	542.25
472.873	514.25
473.092	492.25
473.311	512.25
473.53	503.25
473.749	525.25
473.968	549.25
474.187	665.25
474.406	681.25
474.625	582.25
474.844	533.25
475.063	505.25
475.282	499.25
475.501	527.25
475.72	558.25
475.939	535.25
476.158	534.25
476.377	555.25
476.596	533.25
476.814	555.25
477.033	550.25
477.252	584.25
477.471	551.25
477.69	549.25
477.908	572.25
478.127	571.25
478.346	579.25
478.564	578.25
478.783	599.25
479.002	615.25
479.22	630.25
479.439	618.25
479.658	596.25
479.876	618.25
480.095	642.25
480.313	654.25
480.532	655.25
480.751	642.25
480.969	666.25
481.188	708.25
481.406	737.25
481.624	677.25
481.843	618.25
482.061	614.25
482.28	606.25
482.498	608.25
482.717	611.25
482.935	607.25
483.153	622.25
483.372	620.25
483.59	610.25
483.808	611.25
484.027	611.25
484.245	608.25
484.463	623.25
484.681	629.25
484.9	614.25
485.118	628.25
485.336	651.25
485.554	649.25
485.772	643.25
485.99	643.25
486.209	625.25
486.427	614.25
486.645	642.25
486.863	625.25
487.081	654.25
487.299	655.25
487.517	657.25
487.735	629.25
487.953	671.25
488.171	653.25
488.389	650.25
488.607	654.25
488.825	654.25
489.043	664.25
489.261	685.25
489.479	678.25
489.696	679.25
489.914	669.25
490.132	690.25
490.35	677.25
490.568	680.25
490.786	697.25
491.003	700.25
491.221	723.25
491.439	730.25
491.657	726.25
491.874	733.25
492.092	762.25
492.31	745.25
492.527	750.25
492.745	749.25
492.963	770.25
493.18	788.25
493.398	747.25
493.615	778.25
493.833	796.25
494.05	804.25
494.268	773.25
494.485	774.25
494.703	789.25
494.92	793.25
495.138	792.25
495.355	761.25
495.573	766.25
495.79	807.25
496.008	780.25
496.225	787.25
496.442	758.25
496.66	777.25
496.877	759.25
497.094	791.25
497.312	764.25
497.529	824.25
497.746	829.25
497.963	843.25
498.181	882.25
498.398	896.25
498.615	876.25
498.832	901.25
499.049	942.25
499.267	987.25
499.484	1009.25
499.701	1052.25
499.918	1079.25
500.135	1150.25
500.352	1209.25
500.569	1233.25
500.786	1255.25
501.003	1251.25
501.22	1178.25
501.437	1121.25
501.654	1084.25
