Data from 1975.PennyLincolnUp.Lamp.En5.5.200Scan.071719.P1.Changed Mount._HRD10591_15-56-02-859.txt Node
Date: Thu Jul 18 15:56:02 EDT 2019
User: cochatt
Spectrometer: HR+D1059
Trigger mode: 1
Integration Time (sec): 1.000000E-1
Scans to average: 1
Electric dark correction enabled: true
Nonlinearity correction enabled: false
Boxcar width: 0
XAxis mode: Wavelengths
Number of Pixels in Spectrum: 2048
>>>>>Begin Spectral Data<<<<<
223.165	-15.19
223.4	-15.19
223.635	-15.19
223.869	-3.19
224.104	-23.19
224.338	-31.19
224.573	-14.19
224.808	6.81
225.042	-2.19
225.277	-7.19
225.511	4.81
225.746	-7.19
225.98	-9.19
226.215	14.81
226.449	8.81
226.683	13.81
226.918	26.81
227.152	36.81
227.387	28.81
227.621	42.81
227.856	29.81
228.09	51.81
228.324	49.81
228.559	41.81
228.793	77.81
229.027	86.81
229.262	89.81
229.496	118.81
229.73	120.81
229.964	133.81
230.199	129.81
230.433	118.81
230.667	124.81
230.901	114.81
231.136	122.81
231.37	110.81
231.604	126.81
231.838	98.81
232.072	106.81
232.306	115.81
232.541	103.81
232.775	132.81
233.009	98.81
233.243	109.81
233.477	113.81
233.711	122.81
233.945	125.81
234.179	121.81
234.413	100.81
234.647	102.81
234.881	102.81
235.115	117.81
235.349	121.81
235.583	120.81
235.817	107.81
236.051	103.81
236.285	124.81
236.519	108.81
236.753	122.81
236.987	136.81
237.221	161.81
237.455	198.81
237.689	153.81
237.922	135.81
238.156	131.81
238.39	121.81
238.624	107.81
238.858	130.81
239.091	136.81
239.325	120.81
239.559	116.81
239.793	130.81
240.027	128.81
240.26	137.81
240.494	162.81
240.728	141.81
240.961	149.81
241.195	154.81
241.429	135.81
241.662	139.81
241.896	124.81
242.13	135.81
242.363	127.81
242.597	137.81
242.83	146.81
243.064	126.81
243.298	146.81
243.531	135.81
243.765	128.81
243.998	134.81
244.232	137.81
244.465	138.81
244.699	142.81
244.932	140.81
245.166	131.81
245.399	147.81
245.633	149.81
245.866	137.81
246.099	136.81
246.333	164.81
246.566	148.81
246.8	157.81
247.033	140.81
247.266	152.81
247.5	158.81
247.733	172.81
247.966	166.81
248.2	172.81
248.433	178.81
248.666	174.81
248.899	177.81
249.133	186.81
249.366	208.81
249.599	201.81
249.832	184.81
250.066	178.81
250.299	178.81
250.532	193.81
250.765	194.81
250.998	216.81
251.231	217.81
251.465	210.81
251.698	197.81
251.931	186.81
252.164	186.81
252.397	199.81
252.63	184.81
252.863	185.81
253.096	203.81
253.329	216.81
253.562	193.81
253.795	201.81
254.028	195.81
254.261	208.81
254.494	210.81
254.727	242.81
254.96	246.81
255.193	237.81
255.426	218.81
255.659	220.81
255.892	209.81
256.124	224.81
256.357	217.81
256.59	233.81
256.823	212.81
257.056	223.81
257.289	184.81
257.521	220.81
257.754	191.81
257.987	198.81
258.22	207.81
258.452	200.81
258.685	216.81
258.918	209.81
259.151	201.81
259.383	204.81
259.616	210.81
259.849	211.81
260.081	228.81
260.314	241.81
260.547	260.81
260.779	229.81
261.012	211.81
261.244	226.81
261.477	201.81
261.71	210.81
261.942	221.81
262.175	226.81
262.407	216.81
262.64	191.81
262.872	199.81
263.105	201.81
263.337	217.81
263.57	205.81
263.802	206.81
264.035	202.81
264.267	206.81
264.499	214.81
264.732	216.81
264.964	217.81
265.197	218.81
265.429	182.81
265.661	197.81
265.894	213.81
266.126	204.81
266.358	215.81
266.591	211.81
266.823	216.81
267.055	235.81
267.287	231.81
267.52	213.81
267.752	201.81
267.984	214.81
268.216	233.81
268.448	220.81
268.681	213.81
268.913	220.81
269.145	227.81
269.377	264.81
269.609	266.81
269.841	252.81
270.073	264.81
270.306	275.81
270.538	272.81
270.77	302.81
271.002	289.81
271.234	282.81
271.466	265.81
271.698	286.81
271.93	281.81
272.162	291.81
272.394	308.81
272.626	273.81
272.858	253.81
273.09	277.81
273.322	292.81
273.553	260.81
273.785	260.81
274.017	254.81
274.249	257.81
274.481	260.81
274.713	249.81
274.945	253.81
275.176	265.81
275.408	246.81
275.64	245.81
275.872	235.81
276.104	250.81
276.335	256.81
276.567	259.81
276.799	289.81
277.031	269.81
277.262	285.81
277.494	299.81
277.726	272.81
277.957	277.81
278.189	258.81
278.421	245.81
278.652	277.81
278.884	280.81
279.115	262.81
279.347	259.81
279.579	264.81
279.81	254.81
280.042	261.81
280.273	264.81
280.505	260.81
280.736	266.81
280.968	266.81
281.199	246.81
281.431	244.81
281.662	263.81
281.894	253.81
282.125	259.81
282.356	271.81
282.588	280.81
282.819	292.81
283.051	264.81
283.282	271.81
283.513	276.81
283.745	273.81
283.976	259.81
284.207	256.81
284.439	259.81
284.67	269.81
284.901	280.81
285.132	250.81
285.364	265.81
285.595	278.81
285.826	253.81
286.057	267.81
286.288	280.81
286.52	279.81
286.751	299.81
286.982	270.81
287.213	281.81
287.444	278.81
287.675	267.81
287.906	280.81
288.138	306.81
288.369	296.81
288.6	308.81
288.831	295.81
289.062	286.81
289.293	284.81
289.524	288.81
289.755	265.81
289.986	278.81
290.217	274.81
290.448	282.81
290.679	279.81
290.91	284.81
291.141	269.81
291.371	282.81
291.602	280.81
291.833	284.81
292.064	261.81
292.295	298.81
292.526	274.81
292.757	275.81
292.987	278.81
293.218	281.81
293.449	286.81
293.68	295.81
293.91	284.81
294.141	319.81
294.372	288.81
294.603	286.81
294.833	293.81
295.064	289.81
295.295	297.81
295.525	274.81
295.756	295.81
295.987	298.81
296.217	306.81
296.448	325.81
296.679	292.81
296.909	288.81
297.14	295.81
297.37	305.81
297.601	308.81
297.831	291.81
298.062	292.81
298.292	316.81
298.523	302.81
298.753	308.81
298.984	315.81
299.214	320.81
299.445	300.81
299.675	298.81
299.905	298.81
300.136	307.81
300.366	293.81
300.597	321.81
300.827	308.81
301.057	320.81
301.288	322.81
301.518	323.81
301.748	309.81
301.979	340.81
302.209	317.81
302.439	314.81
302.669	336.81
302.9	321.81
303.13	322.81
303.36	341.81
303.59	316.81
303.82	324.81
304.051	327.81
304.281	330.81
304.511	316.81
304.741	316.81
304.971	321.81
305.201	323.81
305.431	328.81
305.661	324.81
305.891	326.81
306.121	334.81
306.352	333.81
306.582	332.81
306.812	307.81
307.042	321.81
307.272	327.81
307.502	333.81
307.731	330.81
307.961	334.81
308.191	323.81
308.421	306.81
308.651	308.81
308.881	330.81
309.111	351.81
309.341	317.81
309.571	334.81
309.8	345.81
310.03	363.81
310.26	361.81
310.49	341.81
310.72	340.81
310.949	364.81
311.179	361.81
311.409	376.81
311.639	356.81
311.868	351.81
312.098	361.81
312.328	355.81
312.557	370.81
312.787	386.81
313.017	362.81
313.246	354.81
313.476	347.81
313.706	350.81
313.935	352.81
314.165	369.81
314.394	357.81
314.624	374.81
314.853	358.81
315.083	376.81
315.312	358.81
315.542	340.81
315.771	352.81
316.001	349.81
316.23	343.81
316.46	338.81
316.689	364.81
316.919	348.81
317.148	370.81
317.377	377.81
317.607	357.81
317.836	368.81
318.065	384.81
318.295	354.81
318.524	358.81
318.753	354.81
318.983	375.81
319.212	378.81
319.441	347.81
319.67	363.81
319.9	379.81
320.129	371.81
320.358	340.81
320.587	373.81
320.816	358.81
321.046	374.81
321.275	360.81
321.504	386.81
321.733	380.81
321.962	384.81
322.191	381.81
322.42	377.81
322.649	384.81
322.878	389.81
323.108	413.81
323.337	425.81
323.566	414.81
323.795	443.81
324.024	466.81
324.253	564.81
324.482	719.81
324.71	1056.81
324.939	1622.81
325.168	1407.81
325.397	702.81
325.626	527.81
325.855	445.81
326.084	437.81
326.313	450.81
326.542	440.81
326.77	443.81
326.999	500.81
327.228	647.81
327.457	969.81
327.686	1220.81
327.914	836.81
328.143	578.81
328.372	526.81
328.6	474.81
328.829	470.81
329.058	481.81
329.287	496.81
329.515	461.81
329.744	477.81
329.972	440.81
330.201	466.81
330.43	471.81
330.658	495.81
330.887	490.81
331.115	509.81
331.344	476.81
331.572	438.81
331.801	451.81
332.03	465.81
332.258	448.81
332.486	446.81
332.715	428.81
332.943	449.81
333.172	431.81
333.4	443.81
333.629	467.81
333.857	468.81
334.085	489.81
334.314	479.81
334.542	491.81
334.771	508.81
334.999	483.81
335.227	462.81
335.455	426.81
335.684	437.81
335.912	438.81
336.14	433.81
336.369	449.81
336.597	434.81
336.825	429.81
337.053	412.81
337.281	440.81
337.51	443.81
337.738	422.81
337.966	436.81
338.194	436.81
338.422	418.81
338.65	399.81
338.878	414.81
339.106	408.81
339.334	398.81
339.562	414.81
339.79	417.81
340.018	405.81
340.246	407.81
340.474	416.81
340.702	392.81
340.93	399.81
341.158	399.81
341.386	396.81
341.614	409.81
341.842	405.81
342.07	386.81
342.298	413.81
342.526	407.81
342.754	396.81
342.981	404.81
343.209	393.81
343.437	406.81
343.665	411.81
343.893	433.81
344.12	436.81
344.348	432.81
344.576	436.81
344.804	418.81
345.031	430.81
345.259	424.81
345.487	419.81
345.714	395.81
345.942	412.81
346.17	401.81
346.397	395.81
346.625	408.81
346.853	395.81
347.08	399.81
347.308	411.81
347.535	404.81
347.763	400.81
347.99	393.81
348.218	389.81
348.445	399.81
348.673	390.81
348.9	419.81
349.128	393.81
349.355	392.81
349.583	394.81
349.81	413.81
350.037	377.81
350.265	386.81
350.492	378.81
350.72	406.81
350.947	399.81
351.174	403.81
351.402	403.81
351.629	391.81
351.856	396.81
352.083	415.81
352.311	394.81
352.538	409.81
352.765	408.81
352.992	392.81
353.22	406.81
353.447	388.81
353.674	392.81
353.901	384.81
354.128	386.81
354.355	383.81
354.583	404.81
354.81	381.81
355.037	395.81
355.264	374.81
355.491	382.81
355.718	375.81
355.945	397.81
356.172	361.81
356.399	376.81
356.626	373.81
356.853	373.81
357.08	381.81
357.307	380.81
357.534	395.81
357.761	379.81
357.988	371.81
358.215	376.81
358.441	357.81
358.668	376.81
358.895	386.81
359.122	376.81
359.349	388.81
359.576	413.81
359.802	398.81
360.029	422.81
360.256	433.81
360.483	427.81
360.709	398.81
360.936	380.81
361.163	386.81
361.39	398.81
361.616	383.81
361.843	406.81
362.07	400.81
362.296	395.81
362.523	379.81
362.749	384.81
362.976	386.81
363.203	411.81
363.429	378.81
363.656	404.81
363.882	379.81
364.109	392.81
364.335	392.81
364.562	393.81
364.788	388.81
365.015	374.81
365.241	365.81
365.468	372.81
365.694	386.81
365.92	411.81
366.147	410.81
366.373	378.81
366.599	400.81
366.826	385.81
367.052	398.81
367.278	373.81
367.505	402.81
367.731	402.81
367.957	369.81
368.184	399.81
368.41	385.81
368.636	408.81
368.862	409.81
369.089	400.81
369.315	397.81
369.541	401.81
369.767	386.81
369.993	375.81
370.219	389.81
370.445	388.81
370.672	395.81
370.898	395.81
371.124	391.81
371.35	377.81
371.576	399.81
371.802	395.81
372.028	394.81
372.254	379.81
372.48	399.81
372.706	387.81
372.932	418.81
373.158	416.81
373.384	415.81
373.61	399.81
373.835	405.81
374.061	417.81
374.287	412.81
374.513	402.81
374.739	394.81
374.965	406.81
375.191	412.81
375.416	413.81
375.642	430.81
375.868	425.81
376.094	413.81
376.319	411.81
376.545	409.81
376.771	393.81
376.997	417.81
377.222	396.81
377.448	408.81
377.674	398.81
377.899	419.81
378.125	407.81
378.35	381.81
378.576	382.81
378.802	403.81
379.027	393.81
379.253	397.81
379.478	399.81
379.704	394.81
379.929	404.81
380.155	385.81
380.38	404.81
380.606	387.81
380.831	386.81
381.057	406.81
381.282	387.81
381.507	405.81
381.733	413.81
381.958	421.81
382.184	405.81
382.409	402.81
382.634	420.81
382.86	404.81
383.085	421.81
383.31	428.81
383.535	430.81
383.761	432.81
383.986	432.81
384.211	444.81
384.436	439.81
384.662	430.81
384.887	439.81
385.112	450.81
385.337	438.81
385.562	448.81
385.787	445.81
386.013	461.81
386.238	474.81
386.463	465.81
386.688	444.81
386.913	471.81
387.138	457.81
387.363	449.81
387.588	454.81
387.813	438.81
388.038	446.81
388.263	450.81
388.488	457.81
388.713	450.81
388.938	463.81
389.163	466.81
389.387	475.81
389.612	443.81
389.837	449.81
390.062	434.81
390.287	448.81
390.512	473.81
390.736	448.81
390.961	450.81
391.186	472.81
391.411	449.81
391.636	452.81
391.86	474.81
392.085	483.81
392.31	460.81
392.534	466.81
392.759	450.81
392.984	455.81
393.208	467.81
393.433	446.81
393.658	445.81
393.882	452.81
394.107	471.81
394.331	468.81
394.556	465.81
394.78	459.81
395.005	473.81
395.229	472.81
395.454	486.81
395.678	475.81
395.903	467.81
396.127	493.81
396.352	506.81
396.576	483.81
396.801	466.81
397.025	468.81
397.249	473.81
397.474	481.81
397.698	502.81
397.922	498.81
398.147	534.81
398.371	512.81
398.595	501.81
398.82	502.81
399.044	544.81
399.268	556.81
399.492	603.81
399.717	631.81
399.941	664.81
400.165	657.81
400.389	661.81
400.613	595.81
400.837	550.81
401.062	544.81
401.286	533.81
401.51	536.81
401.734	509.81
401.958	512.81
402.182	538.81
402.406	537.81
402.63	549.81
402.854	542.81
403.078	548.81
403.302	566.81
403.526	566.81
403.75	570.81
403.974	555.81
404.198	534.81
404.422	565.81
404.645	567.81
404.869	571.81
405.093	594.81
405.317	612.81
405.541	638.81
405.765	606.81
405.988	581.81
406.212	588.81
406.436	581.81
406.66	604.81
406.883	589.81
407.107	599.81
407.331	642.81
407.555	740.81
407.778	719.81
408.002	666.81
408.226	627.81
408.449	593.81
408.673	598.81
408.896	611.81
409.12	654.81
409.344	614.81
409.567	604.81
409.791	565.81
410.014	541.81
410.238	556.81
410.461	548.81
410.685	560.81
410.908	557.81
411.132	591.81
411.355	620.81
411.578	605.81
411.802	528.81
412.025	569.81
412.249	549.81
412.472	586.81
412.695	608.81
412.919	611.81
413.142	572.81
413.365	546.81
413.589	526.81
413.812	538.81
414.035	533.81
414.258	538.81
414.482	503.81
414.705	521.81
414.928	505.81
415.151	521.81
415.374	531.81
415.597	536.81
415.821	507.81
416.044	507.81
416.267	519.81
416.49	504.81
416.713	504.81
416.936	526.81
417.159	533.81
417.382	524.81
417.605	504.81
417.828	526.81
418.051	516.81
418.274	513.81
418.497	530.81
418.72	542.81
418.943	510.81
419.166	561.81
419.389	568.81
419.611	552.81
419.834	560.81
420.057	548.81
420.28	562.81
420.503	542.81
420.726	556.81
420.948	569.81
421.171	602.81
421.394	617.81
421.617	547.81
421.839	541.81
422.062	521.81
422.285	571.81
422.507	596.81
422.73	666.81
422.953	648.81
423.175	570.81
423.398	542.81
423.621	564.81
423.843	568.81
424.066	598.81
424.288	558.81
424.511	571.81
424.733	648.81
424.956	736.81
425.178	690.81
425.401	643.81
425.623	712.81
425.846	600.81
426.068	565.81
426.291	535.81
426.513	562.81
426.735	572.81
426.958	595.81
427.18	666.81
427.402	786.81
427.625	886.81
427.847	731.81
428.069	636.81
428.292	572.81
428.514	529.81
428.736	553.81
428.958	536.81
429.181	516.81
429.403	516.81
429.625	527.81
429.847	566.81
430.069	611.81
430.292	627.81
430.514	550.81
430.736	554.81
430.958	526.81
431.18	493.81
431.402	489.81
431.624	482.81
431.846	502.81
432.068	491.81
432.29	489.81
432.512	503.81
432.734	502.81
432.956	496.81
433.178	508.81
433.4	507.81
433.622	518.81
433.844	505.81
434.066	488.81
434.287	505.81
434.509	496.81
434.731	523.81
434.953	547.81
435.175	538.81
435.397	586.81
435.618	561.81
435.84	589.81
436.062	658.81
436.284	752.81
436.505	635.81
436.727	589.81
436.949	528.81
437.17	501.81
437.392	506.81
437.614	540.81
437.835	539.81
438.057	627.81
438.278	742.81
438.5	734.81
438.721	783.81
438.943	774.81
439.165	627.81
439.386	573.81
439.608	560.81
439.829	541.81
440.05	569.81
440.272	615.81
440.493	572.81
440.715	542.81
440.936	549.81
441.158	546.81
441.379	540.81
441.6	558.81
441.822	556.81
442.043	577.81
442.264	676.81
442.486	719.81
442.707	625.81
442.928	578.81
443.149	580.81
443.371	617.81
443.592	620.81
443.813	711.81
444.034	798.81
444.255	656.81
444.476	589.81
444.698	596.81
444.919	583.81
445.14	662.81
445.361	619.81
445.582	605.81
445.803	673.81
446.024	766.81
446.245	757.81
446.466	686.81
446.687	595.81
446.908	560.81
447.129	544.81
447.35	507.81
447.571	506.81
447.792	520.81
448.013	510.81
448.234	525.81
448.455	566.81
448.675	674.81
448.896	793.81
449.117	651.81
449.338	634.81
449.559	740.81
449.779	824.81
450	661.81
450.221	553.81
450.442	501.81
450.662	473.81
450.883	516.81
451.104	493.81
451.324	467.81
451.545	480.81
451.766	472.81
451.986	461.81
452.207	449.81
452.428	461.81
452.648	463.81
452.869	464.81
453.089	454.81
453.31	484.81
453.53	449.81
453.751	473.81
453.971	438.81
454.192	472.81
454.412	443.81
454.633	451.81
454.853	453.81
455.073	453.81
455.294	484.81
455.514	532.81
455.734	530.81
455.955	481.81
456.175	456.81
456.395	415.81
456.616	437.81
456.836	446.81
457.056	425.81
457.276	421.81
457.497	442.81
457.717	446.81
457.937	454.81
458.157	450.81
458.377	452.81
458.598	461.81
458.818	521.81
459.038	557.81
459.258	601.81
459.478	522.81
459.698	474.81
459.918	498.81
460.138	490.81
460.358	508.81
460.578	524.81
460.798	519.81
461.018	508.81
461.238	531.81
461.458	533.81
461.678	518.81
461.898	549.81
462.118	557.81
462.338	545.81
462.558	576.81
462.777	563.81
462.997	578.81
463.217	588.81
463.437	598.81
463.657	587.81
463.876	572.81
464.096	573.81
464.316	563.81
464.536	567.81
464.755	563.81
464.975	580.81
465.195	590.81
465.414	609.81
465.634	555.81
465.854	516.81
466.073	505.81
466.293	491.81
466.512	488.81
466.732	489.81
466.951	490.81
467.171	466.81
467.391	476.81
467.61	483.81
467.829	482.81
468.049	488.81
468.268	486.81
468.488	478.81
468.707	478.81
468.927	441.81
469.146	453.81
469.365	452.81
469.585	489.81
469.804	502.81
470.023	514.81
470.243	506.81
470.462	512.81
470.681	508.81
470.901	502.81
471.12	507.81
471.339	508.81
471.558	483.81
471.777	492.81
471.997	460.81
472.216	476.81
472.435	529.81
472.654	483.81
472.873	458.81
473.092	485.81
473.311	482.81
473.53	472.81
473.749	476.81
473.968	501.81
474.187	594.81
474.406	620.81
474.625	532.81
474.844	505.81
475.063	478.81
475.282	482.81
475.501	474.81
475.72	485.81
475.939	496.81
476.158	482.81
476.377	485.81
476.596	492.81
476.814	520.81
477.033	495.81
477.252	507.81
477.471	510.81
477.69	508.81
477.908	544.81
478.127	553.81
478.346	532.81
478.564	555.81
478.783	542.81
479.002	557.81
479.22	579.81
479.439	577.81
479.658	562.81
479.876	612.81
480.095	595.81
480.313	611.81
480.532	605.81
480.751	587.81
480.969	596.81
481.188	620.81
481.406	654.81
481.624	626.81
481.843	594.81
482.061	576.81
482.28	562.81
482.498	561.81
482.717	545.81
482.935	538.81
483.153	541.81
483.372	572.81
483.59	568.81
483.808	546.81
484.027	572.81
484.245	573.81
484.463	568.81
484.681	569.81
484.9	588.81
485.118	581.81
485.336	585.81
485.554	586.81
485.772	602.81
485.99	588.81
486.209	585.81
486.427	593.81
486.645	576.81
486.863	613.81
487.081	626.81
487.299	595.81
487.517	593.81
487.735	595.81
487.953	596.81
488.171	619.81
488.389	605.81
488.607	598.81
488.825	603.81
489.043	596.81
489.261	615.81
489.479	622.81
489.696	613.81
489.914	638.81
490.132	609.81
490.35	650.81
490.568	640.81
490.786	640.81
491.003	666.81
491.221	676.81
491.439	683.81
491.657	710.81
491.874	694.81
492.092	706.81
492.31	692.81
492.527	714.81
492.745	706.81
492.963	707.81
493.18	713.81
493.398	719.81
493.615	703.81
493.833	707.81
494.05	723.81
494.268	718.81
494.485	715.81
494.703	710.81
494.92	721.81
495.138	700.81
495.355	710.81
495.573	715.81
495.79	718.81
496.008	709.81
496.225	728.81
496.442	704.81
496.66	749.81
496.877	720.81
497.094	729.81
497.312	742.81
497.529	754.81
497.746	745.81
497.963	774.81
498.181	790.81
498.398	807.81
498.615	820.81
498.832	857.81
499.049	871.81
499.267	876.81
499.484	931.81
499.701	982.81
499.918	1000.81
500.135	1063.81
500.352	1158.81
500.569	1127.81
500.786	1164.81
501.003	1129.81
501.22	1080.81
501.437	1024.81
501.654	980.81
