Data from 1975.PennyLincolnUp.Lamp.En5.5.200Scan.071719.P1.Changed Mount._HRD10591_15-56-52-858.txt Node
Date: Thu Jul 18 15:56:52 EDT 2019
User: cochatt
Spectrometer: HR+D1059
Trigger mode: 1
Integration Time (sec): 1.000000E-1
Scans to average: 1
Electric dark correction enabled: true
Nonlinearity correction enabled: false
Boxcar width: 0
XAxis mode: Wavelengths
Number of Pixels in Spectrum: 2048
>>>>>Begin Spectral Data<<<<<
223.165	-12.81
223.4	-12.81
223.635	-12.81
223.869	-10.81
224.104	-23.81
224.338	-25.81
224.573	-16.81
224.808	-17.81
225.042	-5.81
225.277	4.19
225.511	12.19
225.746	15.19
225.98	9.19
226.215	-5.81
226.449	17.19
226.683	19.19
226.918	17.19
227.152	25.19
227.387	37.19
227.621	45.19
227.856	45.19
228.09	47.19
228.324	60.19
228.559	45.19
228.793	71.19
229.027	101.19
229.262	118.19
229.496	116.19
229.73	130.19
229.964	149.19
230.199	128.19
230.433	111.19
230.667	126.19
230.901	104.19
231.136	125.19
231.37	128.19
231.604	118.19
231.838	125.19
232.072	109.19
232.306	123.19
232.541	131.19
232.775	106.19
233.009	101.19
233.243	108.19
233.477	108.19
233.711	126.19
233.945	108.19
234.179	118.19
234.413	118.19
234.647	111.19
234.881	126.19
235.115	144.19
235.349	135.19
235.583	125.19
235.817	109.19
236.051	131.19
236.285	128.19
236.519	133.19
236.753	127.19
236.987	139.19
237.221	165.19
237.455	232.19
237.689	186.19
237.922	138.19
238.156	149.19
238.39	141.19
238.624	136.19
238.858	132.19
239.091	135.19
239.325	138.19
239.559	128.19
239.793	133.19
240.027	133.19
240.26	120.19
240.494	148.19
240.728	164.19
240.961	159.19
241.195	148.19
241.429	155.19
241.662	132.19
241.896	135.19
242.13	145.19
242.363	124.19
242.597	133.19
242.83	126.19
243.064	158.19
243.298	155.19
243.531	141.19
243.765	148.19
243.998	151.19
244.232	155.19
244.465	143.19
244.699	153.19
244.932	139.19
245.166	152.19
245.399	146.19
245.633	154.19
245.866	143.19
246.099	153.19
246.333	145.19
246.566	159.19
246.8	160.19
247.033	164.19
247.266	156.19
247.5	172.19
247.733	182.19
247.966	179.19
248.2	160.19
248.433	183.19
248.666	170.19
248.899	190.19
249.133	184.19
249.366	215.19
249.599	191.19
249.832	183.19
250.066	181.19
250.299	185.19
250.532	184.19
250.765	201.19
250.998	213.19
251.231	234.19
251.465	203.19
251.698	206.19
251.931	220.19
252.164	203.19
252.397	192.19
252.63	202.19
252.863	193.19
253.096	208.19
253.329	231.19
253.562	223.19
253.795	229.19
254.028	228.19
254.261	211.19
254.494	231.19
254.727	256.19
254.96	279.19
255.193	257.19
255.426	230.19
255.659	225.19
255.892	227.19
256.124	228.19
256.357	233.19
256.59	222.19
256.823	216.19
257.056	230.19
257.289	218.19
257.521	218.19
257.754	223.19
257.987	213.19
258.22	199.19
258.452	228.19
258.685	218.19
258.918	208.19
259.151	209.19
259.383	227.19
259.616	215.19
259.849	232.19
260.081	255.19
260.314	257.19
260.547	268.19
260.779	243.19
261.012	261.19
261.244	247.19
261.477	231.19
261.71	225.19
261.942	245.19
262.175	228.19
262.407	247.19
262.64	209.19
262.872	209.19
263.105	221.19
263.337	219.19
263.57	220.19
263.802	227.19
264.035	215.19
264.267	224.19
264.499	197.19
264.732	216.19
264.964	206.19
265.197	200.19
265.429	206.19
265.661	215.19
265.894	219.19
266.126	231.19
266.358	220.19
266.591	235.19
266.823	239.19
267.055	223.19
267.287	235.19
267.52	252.19
267.752	238.19
267.984	235.19
268.216	235.19
268.448	236.19
268.681	238.19
268.913	246.19
269.145	266.19
269.377	279.19
269.609	266.19
269.841	272.19
270.073	270.19
270.306	281.19
270.538	323.19
270.77	327.19
271.002	307.19
271.234	298.19
271.466	296.19
271.698	314.19
271.93	304.19
272.162	328.19
272.394	322.19
272.626	302.19
272.858	279.19
273.09	278.19
273.322	276.19
273.553	269.19
273.785	272.19
274.017	266.19
274.249	267.19
274.481	257.19
274.713	252.19
274.945	271.19
275.176	281.19
275.408	264.19
275.64	277.19
275.872	271.19
276.104	275.19
276.335	265.19
276.567	257.19
276.799	267.19
277.031	300.19
277.262	327.19
277.494	322.19
277.726	296.19
277.957	299.19
278.189	287.19
278.421	282.19
278.652	281.19
278.884	272.19
279.115	281.19
279.347	287.19
279.579	276.19
279.81	281.19
280.042	287.19
280.273	279.19
280.505	293.19
280.736	273.19
280.968	285.19
281.199	276.19
281.431	272.19
281.662	282.19
281.894	291.19
282.125	298.19
282.356	288.19
282.588	297.19
282.819	304.19
283.051	280.19
283.282	285.19
283.513	276.19
283.745	272.19
283.976	281.19
284.207	307.19
284.439	293.19
284.67	305.19
284.901	300.19
285.132	297.19
285.364	289.19
285.595	281.19
285.826	268.19
286.057	291.19
286.288	309.19
286.52	294.19
286.751	292.19
286.982	298.19
287.213	295.19
287.444	312.19
287.675	307.19
287.906	305.19
288.138	317.19
288.369	311.19
288.6	303.19
288.831	305.19
289.062	305.19
289.293	313.19
289.524	294.19
289.755	291.19
289.986	304.19
290.217	328.19
290.448	311.19
290.679	296.19
290.91	299.19
291.141	311.19
291.371	295.19
291.602	309.19
291.833	307.19
292.064	326.19
292.295	297.19
292.526	306.19
292.757	296.19
292.987	304.19
293.218	306.19
293.449	295.19
293.68	313.19
293.91	307.19
294.141	304.19
294.372	315.19
294.603	289.19
294.833	304.19
295.064	313.19
295.295	319.19
295.525	310.19
295.756	331.19
295.987	315.19
296.217	314.19
296.448	326.19
296.679	333.19
296.909	303.19
297.14	307.19
297.37	299.19
297.601	319.19
297.831	322.19
298.062	317.19
298.292	311.19
298.523	311.19
298.753	321.19
298.984	305.19
299.214	315.19
299.445	316.19
299.675	302.19
299.905	347.19
300.136	335.19
300.366	333.19
300.597	317.19
300.827	334.19
301.057	337.19
301.288	320.19
301.518	325.19
301.748	337.19
301.979	342.19
302.209	350.19
302.439	348.19
302.669	333.19
302.9	338.19
303.13	343.19
303.36	340.19
303.59	342.19
303.82	360.19
304.051	339.19
304.281	333.19
304.511	355.19
304.741	331.19
304.971	342.19
305.201	337.19
305.431	343.19
305.661	348.19
305.891	343.19
306.121	349.19
306.352	355.19
306.582	351.19
306.812	333.19
307.042	349.19
307.272	348.19
307.502	344.19
307.731	352.19
307.961	342.19
308.191	352.19
308.421	345.19
308.651	352.19
308.881	362.19
309.111	363.19
309.341	341.19
309.571	347.19
309.8	348.19
310.03	367.19
310.26	358.19
310.49	383.19
310.72	364.19
310.949	392.19
311.179	400.19
311.409	372.19
311.639	379.19
311.868	377.19
312.098	371.19
312.328	393.19
312.557	397.19
312.787	410.19
313.017	406.19
313.246	397.19
313.476	375.19
313.706	385.19
313.935	387.19
314.165	411.19
314.394	403.19
314.624	390.19
314.853	404.19
315.083	396.19
315.312	366.19
315.542	371.19
315.771	382.19
316.001	364.19
316.23	377.19
316.46	359.19
316.689	379.19
316.919	402.19
317.148	375.19
317.377	365.19
317.607	395.19
317.836	398.19
318.065	399.19
318.295	382.19
318.524	357.19
318.753	363.19
318.983	378.19
319.212	383.19
319.441	391.19
319.67	391.19
319.9	382.19
320.129	395.19
320.358	408.19
320.587	402.19
320.816	392.19
321.046	423.19
321.275	406.19
321.504	405.19
321.733	405.19
321.962	393.19
322.191	411.19
322.42	416.19
322.649	437.19
322.878	449.19
323.108	439.19
323.337	447.19
323.566	467.19
323.795	487.19
324.024	530.19
324.253	596.19
324.482	781.19
324.71	1223.19
324.939	1832.19
325.168	1622.19
325.397	820.19
325.626	571.19
325.855	489.19
326.084	477.19
326.313	475.19
326.542	464.19
326.77	502.19
326.999	578.19
327.228	730.19
327.457	1115.19
327.686	1372.19
327.914	928.19
328.143	637.19
328.372	553.19
328.6	533.19
328.829	535.19
329.058	529.19
329.287	537.19
329.515	512.19
329.744	494.19
329.972	500.19
330.201	506.19
330.43	526.19
330.658	555.19
330.887	583.19
331.115	542.19
331.344	493.19
331.572	473.19
331.801	488.19
332.03	484.19
332.258	476.19
332.486	462.19
332.715	458.19
332.943	448.19
333.172	485.19
333.4	479.19
333.629	500.19
333.857	525.19
334.085	511.19
334.314	520.19
334.542	544.19
334.771	560.19
334.999	528.19
335.227	504.19
335.455	471.19
335.684	463.19
335.912	468.19
336.14	461.19
336.369	460.19
336.597	471.19
336.825	464.19
337.053	472.19
337.281	475.19
337.51	472.19
337.738	454.19
337.966	476.19
338.194	488.19
338.422	461.19
338.65	449.19
338.878	425.19
339.106	447.19
339.334	449.19
339.562	424.19
339.79	449.19
340.018	438.19
340.246	432.19
340.474	462.19
340.702	437.19
340.93	428.19
341.158	431.19
341.386	444.19
341.614	445.19
341.842	452.19
342.07	432.19
342.298	430.19
342.526	433.19
342.754	423.19
342.981	426.19
343.209	415.19
343.437	432.19
343.665	462.19
343.893	453.19
344.12	477.19
344.348	472.19
344.576	471.19
344.804	427.19
345.031	468.19
345.259	469.19
345.487	468.19
345.714	425.19
345.942	416.19
346.17	430.19
346.397	431.19
346.625	423.19
346.853	417.19
347.08	429.19
347.308	419.19
347.535	441.19
347.763	425.19
347.99	446.19
348.218	436.19
348.445	432.19
348.673	423.19
348.9	427.19
349.128	411.19
349.355	424.19
349.583	418.19
349.81	422.19
350.037	406.19
350.265	412.19
350.492	435.19
350.72	421.19
350.947	408.19
351.174	427.19
351.402	437.19
351.629	421.19
351.856	416.19
352.083	450.19
352.311	439.19
352.538	446.19
352.765	446.19
352.992	440.19
353.22	430.19
353.447	420.19
353.674	415.19
353.901	407.19
354.128	411.19
354.355	394.19
354.583	399.19
354.81	423.19
355.037	398.19
355.264	414.19
355.491	398.19
355.718	411.19
355.945	422.19
356.172	417.19
356.399	418.19
356.626	395.19
356.853	411.19
357.08	401.19
357.307	402.19
357.534	399.19
357.761	413.19
357.988	389.19
358.215	407.19
358.441	405.19
358.668	409.19
358.895	402.19
359.122	407.19
359.349	410.19
359.576	438.19
359.802	441.19
360.029	456.19
360.256	469.19
360.483	453.19
360.709	423.19
360.936	435.19
361.163	419.19
361.39	419.19
361.616	427.19
361.843	419.19
362.07	424.19
362.296	433.19
362.523	415.19
362.749	411.19
362.976	428.19
363.203	418.19
363.429	406.19
363.656	405.19
363.882	404.19
364.109	398.19
364.335	399.19
364.562	416.19
364.788	416.19
365.015	408.19
365.241	407.19
365.468	419.19
365.694	399.19
365.92	405.19
366.147	411.19
366.373	398.19
366.599	415.19
366.826	378.19
367.052	402.19
367.278	409.19
367.505	428.19
367.731	431.19
367.957	412.19
368.184	407.19
368.41	403.19
368.636	420.19
368.862	437.19
369.089	415.19
369.315	405.19
369.541	401.19
369.767	410.19
369.993	414.19
370.219	440.19
370.445	419.19
370.672	411.19
370.898	398.19
371.124	424.19
371.35	426.19
371.576	407.19
371.802	419.19
372.028	432.19
372.254	413.19
372.48	425.19
372.706	429.19
372.932	435.19
373.158	443.19
373.384	439.19
373.61	442.19
373.835	428.19
374.061	437.19
374.287	417.19
374.513	404.19
374.739	437.19
374.965	447.19
375.191	430.19
375.416	460.19
375.642	453.19
375.868	422.19
376.094	409.19
376.319	435.19
376.545	405.19
376.771	418.19
376.997	435.19
377.222	403.19
377.448	419.19
377.674	399.19
377.899	433.19
378.125	414.19
378.35	412.19
378.576	411.19
378.802	416.19
379.027	422.19
379.253	435.19
379.478	420.19
379.704	418.19
379.929	409.19
380.155	440.19
380.38	419.19
380.606	403.19
380.831	422.19
381.057	449.19
381.282	429.19
381.507	437.19
381.733	431.19
381.958	419.19
382.184	427.19
382.409	429.19
382.634	426.19
382.86	443.19
383.085	448.19
383.31	431.19
383.535	437.19
383.761	477.19
383.986	454.19
384.211	451.19
384.436	454.19
384.662	453.19
384.887	457.19
385.112	441.19
385.337	465.19
385.562	454.19
385.787	480.19
386.013	479.19
386.238	487.19
386.463	470.19
386.688	479.19
386.913	474.19
387.138	475.19
387.363	507.19
387.588	491.19
387.813	457.19
388.038	465.19
388.263	460.19
388.488	471.19
388.713	489.19
388.938	464.19
389.163	491.19
389.387	479.19
389.612	458.19
389.837	460.19
390.062	458.19
390.287	483.19
390.512	471.19
390.736	474.19
390.961	479.19
391.186	470.19
391.411	475.19
391.636	479.19
391.86	517.19
392.085	505.19
392.31	475.19
392.534	477.19
392.759	487.19
392.984	488.19
393.208	488.19
393.433	490.19
393.658	471.19
393.882	489.19
394.107	479.19
394.331	478.19
394.556	464.19
394.78	468.19
395.005	483.19
395.229	479.19
395.454	499.19
395.678	482.19
395.903	502.19
396.127	530.19
396.352	522.19
396.576	483.19
396.801	492.19
397.025	488.19
397.249	511.19
397.474	514.19
397.698	545.19
397.922	523.19
398.147	523.19
398.371	513.19
398.595	525.19
398.82	541.19
399.044	557.19
399.268	582.19
399.492	627.19
399.717	664.19
399.941	705.19
400.165	704.19
400.389	714.19
400.613	633.19
400.837	616.19
401.062	577.19
401.286	560.19
401.51	540.19
401.734	547.19
401.958	548.19
402.182	553.19
402.406	565.19
402.63	580.19
402.854	560.19
403.078	579.19
403.302	580.19
403.526	581.19
403.75	568.19
403.974	601.19
404.198	560.19
404.422	595.19
404.645	594.19
404.869	580.19
405.093	629.19
405.317	644.19
405.541	684.19
405.765	616.19
405.988	607.19
406.212	604.19
406.436	614.19
406.66	647.19
406.883	615.19
407.107	643.19
407.331	718.19
407.555	780.19
407.778	789.19
408.002	699.19
408.226	665.19
408.449	609.19
408.673	633.19
408.896	669.19
409.12	709.19
409.344	654.19
409.567	615.19
409.791	613.19
410.014	588.19
410.238	585.19
410.461	591.19
410.685	568.19
410.908	604.19
411.132	641.19
411.355	650.19
411.578	631.19
411.802	572.19
412.025	550.19
412.249	566.19
412.472	600.19
412.695	636.19
412.919	629.19
413.142	581.19
413.365	560.19
413.589	560.19
413.812	569.19
414.035	566.19
414.258	550.19
414.482	557.19
414.705	529.19
414.928	557.19
415.151	533.19
415.374	537.19
415.597	559.19
415.821	562.19
416.044	544.19
416.267	553.19
416.49	552.19
416.713	542.19
416.936	524.19
417.159	522.19
417.382	521.19
417.605	526.19
417.828	547.19
418.051	557.19
418.274	559.19
418.497	540.19
418.72	569.19
418.943	560.19
419.166	569.19
419.389	614.19
419.611	596.19
419.834	583.19
420.057	593.19
420.28	599.19
420.503	566.19
420.726	572.19
420.948	595.19
421.171	637.19
421.394	669.19
421.617	616.19
421.839	581.19
422.062	576.19
422.285	550.19
422.507	652.19
422.73	701.19
422.953	653.19
423.175	625.19
423.398	601.19
423.621	577.19
423.843	606.19
424.066	629.19
424.288	625.19
424.511	619.19
424.733	665.19
424.956	755.19
425.178	740.19
425.401	729.19
425.623	744.19
425.846	620.19
426.068	595.19
426.291	598.19
426.513	586.19
426.735	592.19
426.958	652.19
427.18	732.19
427.402	845.19
427.625	933.19
427.847	823.19
428.069	675.19
428.292	632.19
428.514	565.19
428.736	569.19
428.958	565.19
429.181	555.19
429.403	539.19
429.625	555.19
429.847	586.19
430.069	643.19
430.292	657.19
430.514	580.19
430.736	550.19
430.958	538.19
431.18	543.19
431.402	549.19
431.624	522.19
431.846	542.19
432.068	507.19
432.29	510.19
432.512	535.19
432.734	519.19
432.956	522.19
433.178	551.19
433.4	526.19
433.622	526.19
433.844	502.19
434.066	521.19
434.287	549.19
434.509	515.19
434.731	551.19
434.953	549.19
435.175	584.19
435.397	591.19
435.618	602.19
435.84	631.19
436.062	732.19
436.284	819.19
436.505	651.19
436.727	609.19
436.949	563.19
437.17	541.19
437.392	566.19
437.614	560.19
437.835	592.19
438.057	685.19
438.278	785.19
438.5	791.19
438.721	867.19
438.943	820.19
439.165	665.19
439.386	603.19
439.608	595.19
439.829	609.19
440.05	595.19
440.272	662.19
440.493	615.19
440.715	584.19
440.936	561.19
441.158	554.19
441.379	571.19
441.6	575.19
441.822	590.19
442.043	636.19
442.264	719.19
442.486	778.19
442.707	667.19
442.928	638.19
443.149	632.19
443.371	645.19
443.592	680.19
443.813	768.19
444.034	837.19
444.255	691.19
444.476	614.19
444.698	633.19
444.919	641.19
445.14	727.19
445.361	682.19
445.582	631.19
445.803	670.19
446.024	806.19
446.245	795.19
446.466	736.19
446.687	639.19
446.908	606.19
447.129	559.19
447.35	541.19
447.571	552.19
447.792	535.19
448.013	548.19
448.234	553.19
448.455	607.19
448.675	731.19
448.896	871.19
449.117	714.19
449.338	672.19
449.559	801.19
449.779	896.19
450	711.19
450.221	580.19
450.442	551.19
450.662	543.19
450.883	519.19
451.104	525.19
451.324	532.19
451.545	499.19
451.766	511.19
451.986	486.19
452.207	476.19
452.428	464.19
452.648	480.19
452.869	471.19
453.089	481.19
453.31	516.19
453.53	490.19
453.751	485.19
453.971	493.19
454.192	529.19
454.412	484.19
454.633	482.19
454.853	496.19
455.073	485.19
455.294	508.19
455.514	548.19
455.734	565.19
455.955	488.19
456.175	475.19
456.395	466.19
456.616	469.19
456.836	457.19
457.056	473.19
457.276	453.19
457.497	451.19
457.717	477.19
457.937	481.19
458.157	491.19
458.377	479.19
458.598	487.19
458.818	547.19
459.038	622.19
459.258	632.19
459.478	554.19
459.698	541.19
459.918	535.19
460.138	528.19
460.358	525.19
460.578	532.19
460.798	554.19
461.018	529.19
461.238	552.19
461.458	552.19
461.678	556.19
461.898	560.19
462.118	536.19
462.338	544.19
462.558	584.19
462.777	577.19
462.997	604.19
463.217	607.19
463.437	652.19
463.657	615.19
463.876	606.19
464.096	612.19
464.316	587.19
464.536	604.19
464.755	598.19
464.975	572.19
465.195	594.19
465.414	673.19
465.634	598.19
465.854	549.19
466.073	521.19
466.293	537.19
466.512	517.19
466.732	504.19
466.951	518.19
467.171	494.19
467.391	512.19
467.61	507.19
467.829	524.19
468.049	541.19
468.268	517.19
468.488	500.19
468.707	487.19
468.927	474.19
469.146	499.19
469.365	475.19
469.585	495.19
469.804	501.19
470.023	503.19
470.243	497.19
470.462	501.19
470.681	529.19
470.901	540.19
471.12	501.19
471.339	522.19
471.558	511.19
471.777	516.19
471.997	509.19
472.216	507.19
472.435	541.19
472.654	521.19
472.873	531.19
473.092	513.19
473.311	503.19
473.53	511.19
473.749	521.19
473.968	543.19
474.187	649.19
474.406	662.19
474.625	559.19
474.844	534.19
475.063	503.19
475.282	518.19
475.501	520.19
475.72	521.19
475.939	539.19
476.158	528.19
476.377	527.19
476.596	515.19
476.814	531.19
477.033	541.19
477.252	542.19
477.471	553.19
477.69	540.19
477.908	569.19
478.127	539.19
478.346	565.19
478.564	569.19
478.783	583.19
479.002	596.19
479.22	605.19
479.439	595.19
479.658	611.19
479.876	634.19
480.095	629.19
480.313	661.19
480.532	660.19
480.751	650.19
480.969	649.19
481.188	695.19
481.406	720.19
481.624	657.19
481.843	615.19
482.061	594.19
482.28	608.19
482.498	599.19
482.717	615.19
482.935	614.19
483.153	586.19
483.372	603.19
483.59	591.19
483.808	601.19
484.027	575.19
484.245	603.19
484.463	576.19
484.681	608.19
484.9	614.19
485.118	657.19
485.336	614.19
485.554	617.19
485.772	639.19
485.99	631.19
486.209	624.19
486.427	645.19
486.645	647.19
486.863	655.19
487.081	659.19
487.299	655.19
487.517	637.19
487.735	647.19
487.953	631.19
488.171	623.19
488.389	640.19
488.607	635.19
488.825	639.19
489.043	641.19
489.261	652.19
489.479	650.19
489.696	661.19
489.914	636.19
490.132	654.19
490.35	673.19
490.568	679.19
490.786	695.19
491.003	726.19
491.221	734.19
491.439	721.19
491.657	718.19
491.874	745.19
492.092	749.19
492.31	773.19
492.527	757.19
492.745	723.19
492.963	741.19
493.18	774.19
493.398	758.19
493.615	776.19
493.833	783.19
494.05	783.19
494.268	757.19
494.485	775.19
494.703	762.19
494.92	764.19
495.138	764.19
495.355	728.19
495.573	755.19
495.79	735.19
496.008	775.19
496.225	765.19
496.442	783.19
496.66	789.19
496.877	767.19
497.094	793.19
497.312	795.19
497.529	805.19
497.746	796.19
497.963	790.19
498.181	857.19
498.398	864.19
498.615	857.19
498.832	914.19
499.049	898.19
499.267	947.19
499.484	985.19
499.701	1025.19
499.918	1080.19
500.135	1119.19
500.352	1199.19
500.569	1221.19
500.786	1189.19
501.003	1221.19
501.22	1135.19
501.437	1099.19
501.654	1044.19
