Data from 1975.PennyLincolnUp.Lamp.En5.5.200Scan.071719.P1.Changed Mount._HRD10591_15-57-38-859.txt Node
Date: Thu Jul 18 15:57:38 EDT 2019
User: cochatt
Spectrometer: HR+D1059
Trigger mode: 1
Integration Time (sec): 1.000000E-1
Scans to average: 1
Electric dark correction enabled: true
Nonlinearity correction enabled: false
Boxcar width: 0
XAxis mode: Wavelengths
Number of Pixels in Spectrum: 2048
>>>>>Begin Spectral Data<<<<<
223.165	-10.94
223.4	-10.94
223.635	-10.94
223.869	-10.94
224.104	-24.94
224.338	-13.94
224.573	-18.94
224.808	-16.94
225.042	-5.94
225.277	-10.94
225.511	-7.94
225.746	11.06
225.98	6.06
226.215	2.06
226.449	19.06
226.683	17.06
226.918	32.06
227.152	34.06
227.387	32.06
227.621	42.06
227.856	41.06
228.09	47.06
228.324	50.06
228.559	53.06
228.793	48.06
229.027	87.06
229.262	110.06
229.496	113.06
229.73	126.06
229.964	164.06
230.199	121.06
230.433	130.06
230.667	119.06
230.901	97.06
231.136	113.06
231.37	111.06
231.604	113.06
231.838	108.06
232.072	116.06
232.306	119.06
232.541	125.06
232.775	124.06
233.009	127.06
233.243	119.06
233.477	108.06
233.711	116.06
233.945	123.06
234.179	126.06
234.413	122.06
234.647	127.06
234.881	131.06
235.115	124.06
235.349	128.06
235.583	123.06
235.817	118.06
236.051	116.06
236.285	127.06
236.519	142.06
236.753	142.06
236.987	145.06
237.221	165.06
237.455	222.06
237.689	188.06
237.922	159.06
238.156	145.06
238.39	134.06
238.624	138.06
238.858	126.06
239.091	134.06
239.325	142.06
239.559	144.06
239.793	110.06
240.027	138.06
240.26	142.06
240.494	164.06
240.728	150.06
240.961	165.06
241.195	145.06
241.429	145.06
241.662	141.06
241.896	137.06
242.13	137.06
242.363	141.06
242.597	136.06
242.83	145.06
243.064	129.06
243.298	165.06
243.531	152.06
243.765	150.06
243.998	161.06
244.232	144.06
244.465	158.06
244.699	160.06
244.932	147.06
245.166	124.06
245.399	159.06
245.633	147.06
245.866	164.06
246.099	150.06
246.333	154.06
246.566	166.06
246.8	155.06
247.033	152.06
247.266	171.06
247.5	165.06
247.733	161.06
247.966	170.06
248.2	169.06
248.433	168.06
248.666	175.06
248.899	189.06
249.133	210.06
249.366	195.06
249.599	190.06
249.832	193.06
250.066	191.06
250.299	204.06
250.532	189.06
250.765	219.06
250.998	240.06
251.231	235.06
251.465	220.06
251.698	216.06
251.931	202.06
252.164	185.06
252.397	199.06
252.63	209.06
252.863	197.06
253.096	217.06
253.329	245.06
253.562	226.06
253.795	214.06
254.028	229.06
254.261	214.06
254.494	232.06
254.727	248.06
254.96	280.06
255.193	278.06
255.426	248.06
255.659	225.06
255.892	241.06
256.124	235.06
256.357	235.06
256.59	233.06
256.823	217.06
257.056	203.06
257.289	216.06
257.521	202.06
257.754	222.06
257.987	209.06
258.22	219.06
258.452	215.06
258.685	239.06
258.918	207.06
259.151	202.06
259.383	223.06
259.616	232.06
259.849	241.06
260.081	234.06
260.314	272.06
260.547	284.06
260.779	264.06
261.012	232.06
261.244	241.06
261.477	230.06
261.71	225.06
261.942	238.06
262.175	245.06
262.407	234.06
262.64	215.06
262.872	224.06
263.105	209.06
263.337	204.06
263.57	224.06
263.802	222.06
264.035	201.06
264.267	224.06
264.499	220.06
264.732	217.06
264.964	218.06
265.197	222.06
265.429	223.06
265.661	221.06
265.894	200.06
266.126	220.06
266.358	218.06
266.591	218.06
266.823	247.06
267.055	222.06
267.287	241.06
267.52	240.06
267.752	228.06
267.984	240.06
268.216	232.06
268.448	235.06
268.681	253.06
268.913	257.06
269.145	271.06
269.377	283.06
269.609	282.06
269.841	277.06
270.073	284.06
270.306	292.06
270.538	315.06
270.77	326.06
271.002	306.06
271.234	317.06
271.466	299.06
271.698	312.06
271.93	316.06
272.162	319.06
272.394	321.06
272.626	310.06
272.858	294.06
273.09	292.06
273.322	290.06
273.553	275.06
273.785	269.06
274.017	262.06
274.249	272.06
274.481	277.06
274.713	274.06
274.945	278.06
275.176	280.06
275.408	280.06
275.64	275.06
275.872	266.06
276.104	287.06
276.335	280.06
276.567	270.06
276.799	301.06
277.031	312.06
277.262	325.06
277.494	311.06
277.726	314.06
277.957	312.06
278.189	293.06
278.421	295.06
278.652	286.06
278.884	279.06
279.115	282.06
279.347	281.06
279.579	280.06
279.81	286.06
280.042	275.06
280.273	282.06
280.505	289.06
280.736	287.06
280.968	287.06
281.199	295.06
281.431	286.06
281.662	277.06
281.894	284.06
282.125	295.06
282.356	288.06
282.588	305.06
282.819	304.06
283.051	281.06
283.282	288.06
283.513	302.06
283.745	277.06
283.976	281.06
284.207	314.06
284.439	302.06
284.67	289.06
284.901	304.06
285.132	315.06
285.364	300.06
285.595	287.06
285.826	316.06
286.057	288.06
286.288	306.06
286.52	306.06
286.751	312.06
286.982	297.06
287.213	297.06
287.444	312.06
287.675	305.06
287.906	302.06
288.138	301.06
288.369	320.06
288.6	320.06
288.831	339.06
289.062	332.06
289.293	312.06
289.524	319.06
289.755	314.06
289.986	296.06
290.217	318.06
290.448	305.06
290.679	310.06
290.91	299.06
291.141	306.06
291.371	317.06
291.602	294.06
291.833	301.06
292.064	305.06
292.295	317.06
292.526	302.06
292.757	325.06
292.987	312.06
293.218	293.06
293.449	304.06
293.68	310.06
293.91	305.06
294.141	300.06
294.372	303.06
294.603	316.06
294.833	320.06
295.064	320.06
295.295	320.06
295.525	317.06
295.756	324.06
295.987	319.06
296.217	329.06
296.448	332.06
296.679	311.06
296.909	311.06
297.14	310.06
297.37	304.06
297.601	318.06
297.831	328.06
298.062	309.06
298.292	324.06
298.523	323.06
298.753	324.06
298.984	325.06
299.214	334.06
299.445	319.06
299.675	325.06
299.905	317.06
300.136	336.06
300.366	350.06
300.597	321.06
300.827	337.06
301.057	352.06
301.288	347.06
301.518	346.06
301.748	337.06
301.979	327.06
302.209	350.06
302.439	341.06
302.669	340.06
302.9	328.06
303.13	333.06
303.36	351.06
303.59	348.06
303.82	363.06
304.051	365.06
304.281	354.06
304.511	351.06
304.741	342.06
304.971	352.06
305.201	329.06
305.431	348.06
305.661	355.06
305.891	341.06
306.121	350.06
306.352	337.06
306.582	348.06
306.812	326.06
307.042	342.06
307.272	360.06
307.502	340.06
307.731	364.06
307.961	346.06
308.191	341.06
308.421	353.06
308.651	352.06
308.881	337.06
309.111	356.06
309.341	345.06
309.571	346.06
309.8	352.06
310.03	362.06
310.26	385.06
310.49	376.06
310.72	388.06
310.949	392.06
311.179	408.06
311.409	392.06
311.639	389.06
311.868	382.06
312.098	359.06
312.328	368.06
312.557	399.06
312.787	398.06
313.017	414.06
313.246	391.06
313.476	402.06
313.706	392.06
313.935	401.06
314.165	395.06
314.394	401.06
314.624	432.06
314.853	397.06
315.083	411.06
315.312	400.06
315.542	386.06
315.771	366.06
316.001	376.06
316.23	384.06
316.46	368.06
316.689	392.06
316.919	388.06
317.148	400.06
317.377	412.06
317.607	386.06
317.836	375.06
318.065	384.06
318.295	388.06
318.524	395.06
318.753	388.06
318.983	412.06
319.212	366.06
319.441	397.06
319.67	410.06
319.9	374.06
320.129	379.06
320.358	397.06
320.587	416.06
320.816	401.06
321.046	393.06
321.275	402.06
321.504	381.06
321.733	399.06
321.962	418.06
322.191	417.06
322.42	412.06
322.649	450.06
322.878	442.06
323.108	453.06
323.337	487.06
323.566	478.06
323.795	481.06
324.024	525.06
324.253	606.06
324.482	811.06
324.71	1232.06
324.939	1881.06
325.168	1637.06
325.397	856.06
325.626	587.06
325.855	509.06
326.084	485.06
326.313	484.06
326.542	472.06
326.77	499.06
326.999	606.06
327.228	785.06
327.457	1190.06
327.686	1458.06
327.914	968.06
328.143	638.06
328.372	593.06
328.6	544.06
328.829	523.06
329.058	548.06
329.287	547.06
329.515	534.06
329.744	501.06
329.972	531.06
330.201	506.06
330.43	546.06
330.658	538.06
330.887	587.06
331.115	556.06
331.344	503.06
331.572	474.06
331.801	486.06
332.03	513.06
332.258	462.06
332.486	470.06
332.715	469.06
332.943	464.06
333.172	473.06
333.4	491.06
333.629	510.06
333.857	500.06
334.085	501.06
334.314	550.06
334.542	552.06
334.771	562.06
334.999	517.06
335.227	513.06
335.455	485.06
335.684	482.06
335.912	478.06
336.14	483.06
336.369	478.06
336.597	489.06
336.825	460.06
337.053	477.06
337.281	461.06
337.51	466.06
337.738	477.06
337.966	465.06
338.194	468.06
338.422	470.06
338.65	447.06
338.878	452.06
339.106	438.06
339.334	468.06
339.562	450.06
339.79	456.06
340.018	460.06
340.246	444.06
340.474	456.06
340.702	470.06
340.93	451.06
341.158	428.06
341.386	436.06
341.614	463.06
341.842	444.06
342.07	431.06
342.298	438.06
342.526	455.06
342.754	455.06
342.981	430.06
343.209	445.06
343.437	445.06
343.665	462.06
343.893	464.06
344.12	461.06
344.348	466.06
344.576	447.06
344.804	472.06
345.031	464.06
345.259	457.06
345.487	478.06
345.714	461.06
345.942	441.06
346.17	430.06
346.397	448.06
346.625	426.06
346.853	429.06
347.08	418.06
347.308	437.06
347.535	443.06
347.763	436.06
347.99	441.06
348.218	443.06
348.445	454.06
348.673	452.06
348.9	430.06
349.128	427.06
349.355	436.06
349.583	428.06
349.81	425.06
350.037	446.06
350.265	416.06
350.492	440.06
350.72	392.06
350.947	426.06
351.174	445.06
351.402	426.06
351.629	412.06
351.856	418.06
352.083	451.06
352.311	438.06
352.538	443.06
352.765	448.06
352.992	417.06
353.22	425.06
353.447	438.06
353.674	394.06
353.901	429.06
354.128	418.06
354.355	404.06
354.583	419.06
354.81	407.06
355.037	410.06
355.264	399.06
355.491	410.06
355.718	415.06
355.945	423.06
356.172	426.06
356.399	413.06
356.626	416.06
356.853	410.06
357.08	401.06
357.307	400.06
357.534	420.06
357.761	426.06
357.988	399.06
358.215	420.06
358.441	416.06
358.668	410.06
358.895	430.06
359.122	422.06
359.349	419.06
359.576	419.06
359.802	459.06
360.029	465.06
360.256	470.06
360.483	452.06
360.709	434.06
360.936	424.06
361.163	436.06
361.39	420.06
361.616	432.06
361.843	433.06
362.07	425.06
362.296	416.06
362.523	436.06
362.749	430.06
362.976	431.06
363.203	438.06
363.429	414.06
363.656	428.06
363.882	414.06
364.109	405.06
364.335	415.06
364.562	399.06
364.788	417.06
365.015	412.06
365.241	440.06
365.468	423.06
365.694	407.06
365.92	409.06
366.147	407.06
366.373	428.06
366.599	420.06
366.826	429.06
367.052	422.06
367.278	415.06
367.505	418.06
367.731	422.06
367.957	428.06
368.184	424.06
368.41	434.06
368.636	431.06
368.862	420.06
369.089	423.06
369.315	424.06
369.541	426.06
369.767	429.06
369.993	393.06
370.219	404.06
370.445	433.06
370.672	424.06
370.898	417.06
371.124	418.06
371.35	440.06
371.576	429.06
371.802	420.06
372.028	419.06
372.254	413.06
372.48	422.06
372.706	433.06
372.932	432.06
373.158	429.06
373.384	457.06
373.61	454.06
373.835	429.06
374.061	438.06
374.287	442.06
374.513	433.06
374.739	438.06
374.965	431.06
375.191	423.06
375.416	446.06
375.642	448.06
375.868	436.06
376.094	436.06
376.319	411.06
376.545	435.06
376.771	418.06
376.997	428.06
377.222	422.06
377.448	429.06
377.674	447.06
377.899	437.06
378.125	412.06
378.35	423.06
378.576	409.06
378.802	425.06
379.027	434.06
379.253	428.06
379.478	437.06
379.704	426.06
379.929	445.06
380.155	428.06
380.38	424.06
380.606	436.06
380.831	424.06
381.057	458.06
381.282	422.06
381.507	425.06
381.733	437.06
381.958	433.06
382.184	426.06
382.409	437.06
382.634	427.06
382.86	427.06
383.085	457.06
383.31	458.06
383.535	444.06
383.761	455.06
383.986	462.06
384.211	466.06
384.436	456.06
384.662	465.06
384.887	465.06
385.112	472.06
385.337	485.06
385.562	479.06
385.787	482.06
386.013	497.06
386.238	475.06
386.463	494.06
386.688	481.06
386.913	477.06
387.138	471.06
387.363	477.06
387.588	475.06
387.813	465.06
388.038	495.06
388.263	492.06
388.488	487.06
388.713	484.06
388.938	474.06
389.163	475.06
389.387	486.06
389.612	489.06
389.837	461.06
390.062	478.06
390.287	473.06
390.512	482.06
390.736	463.06
390.961	479.06
391.186	478.06
391.411	465.06
391.636	497.06
391.86	496.06
392.085	494.06
392.31	504.06
392.534	477.06
392.759	496.06
392.984	466.06
393.208	501.06
393.433	496.06
393.658	473.06
393.882	477.06
394.107	486.06
394.331	486.06
394.556	491.06
394.78	501.06
395.005	498.06
395.229	494.06
395.454	520.06
395.678	483.06
395.903	517.06
396.127	550.06
396.352	529.06
396.576	514.06
396.801	484.06
397.025	525.06
397.249	498.06
397.474	528.06
397.698	522.06
397.922	538.06
398.147	564.06
398.371	528.06
398.595	556.06
398.82	542.06
399.044	577.06
399.268	614.06
399.492	641.06
399.717	670.06
399.941	680.06
400.165	699.06
400.389	688.06
400.613	637.06
400.837	572.06
401.062	586.06
401.286	568.06
401.51	557.06
401.734	556.06
401.958	566.06
402.182	557.06
402.406	569.06
402.63	561.06
402.854	555.06
403.078	592.06
403.302	559.06
403.526	596.06
403.75	600.06
403.974	564.06
404.198	577.06
404.422	601.06
404.645	616.06
404.869	610.06
405.093	621.06
405.317	653.06
405.541	708.06
405.765	644.06
405.988	619.06
406.212	619.06
406.436	624.06
406.66	625.06
406.883	616.06
407.107	671.06
407.331	702.06
407.555	788.06
407.778	769.06
408.002	703.06
408.226	631.06
408.449	647.06
408.673	651.06
408.896	665.06
409.12	712.06
409.344	676.06
409.567	626.06
409.791	599.06
410.014	597.06
410.238	561.06
410.461	585.06
410.685	594.06
410.908	598.06
411.132	637.06
411.355	674.06
411.578	644.06
411.802	592.06
412.025	572.06
412.249	599.06
412.472	606.06
412.695	627.06
412.919	641.06
413.142	606.06
413.365	558.06
413.589	590.06
413.812	558.06
414.035	564.06
414.258	560.06
414.482	545.06
414.705	551.06
414.928	568.06
415.151	552.06
415.374	553.06
415.597	569.06
415.821	560.06
416.044	550.06
416.267	574.06
416.49	545.06
416.713	540.06
416.936	539.06
417.159	542.06
417.382	553.06
417.605	566.06
417.828	566.06
418.051	580.06
418.274	569.06
418.497	538.06
418.72	583.06
418.943	556.06
419.166	592.06
419.389	605.06
419.611	601.06
419.834	586.06
420.057	600.06
420.28	577.06
420.503	583.06
420.726	583.06
420.948	601.06
421.171	607.06
421.394	653.06
421.617	613.06
421.839	558.06
422.062	564.06
422.285	585.06
422.507	636.06
422.73	726.06
422.953	718.06
423.175	620.06
423.398	600.06
423.621	599.06
423.843	623.06
424.066	637.06
424.288	622.06
424.511	632.06
424.733	670.06
424.956	768.06
425.178	754.06
425.401	729.06
425.623	751.06
425.846	659.06
426.068	606.06
426.291	610.06
426.513	589.06
426.735	599.06
426.958	640.06
427.18	732.06
427.402	873.06
427.625	913.06
427.847	822.06
428.069	718.06
428.292	641.06
428.514	614.06
428.736	548.06
428.958	558.06
429.181	574.06
429.403	569.06
429.625	544.06
429.847	602.06
430.069	666.06
430.292	652.06
430.514	570.06
430.736	591.06
430.958	552.06
431.18	508.06
431.402	535.06
431.624	525.06
431.846	542.06
432.068	509.06
432.29	530.06
432.512	521.06
432.734	521.06
432.956	536.06
433.178	551.06
433.4	557.06
433.622	538.06
433.844	540.06
434.066	535.06
434.287	529.06
434.509	545.06
434.731	552.06
434.953	568.06
435.175	593.06
435.397	617.06
435.618	597.06
435.84	628.06
436.062	732.06
436.284	806.06
436.505	682.06
436.727	630.06
436.949	589.06
437.17	586.06
437.392	555.06
437.614	567.06
437.835	594.06
438.057	682.06
438.278	783.06
438.5	770.06
438.721	889.06
438.943	818.06
439.165	651.06
439.386	626.06
439.608	614.06
439.829	610.06
440.05	633.06
440.272	681.06
440.493	636.06
440.715	602.06
440.936	582.06
441.158	577.06
441.379	570.06
441.6	591.06
441.822	598.06
442.043	638.06
442.264	724.06
442.486	773.06
442.707	664.06
442.928	618.06
443.149	615.06
443.371	662.06
443.592	687.06
443.813	776.06
444.034	865.06
444.255	725.06
444.476	652.06
444.698	635.06
444.919	625.06
445.14	772.06
445.361	651.06
445.582	662.06
445.803	717.06
446.024	805.06
446.245	831.06
446.466	730.06
446.687	646.06
446.908	624.06
447.129	599.06
447.35	576.06
447.571	556.06
447.792	539.06
448.013	560.06
448.234	589.06
448.455	607.06
448.675	725.06
448.896	858.06
449.117	737.06
449.338	676.06
449.559	786.06
449.779	908.06
450	718.06
450.221	589.06
450.442	573.06
450.662	540.06
450.883	536.06
451.104	531.06
451.324	530.06
451.545	524.06
451.766	490.06
451.986	520.06
452.207	485.06
452.428	492.06
452.648	501.06
452.869	485.06
453.089	516.06
453.31	502.06
453.53	506.06
453.751	489.06
453.971	495.06
454.192	500.06
454.412	485.06
454.633	502.06
454.853	495.06
455.073	474.06
455.294	516.06
455.514	585.06
455.734	569.06
455.955	502.06
456.175	501.06
456.395	462.06
456.616	446.06
456.836	462.06
457.056	459.06
457.276	453.06
457.497	497.06
457.717	466.06
457.937	451.06
458.157	478.06
458.377	478.06
458.598	504.06
458.818	550.06
459.038	619.06
459.258	652.06
459.478	568.06
459.698	550.06
459.918	532.06
460.138	533.06
460.358	552.06
460.578	553.06
460.798	554.06
461.018	566.06
461.238	550.06
461.458	552.06
461.678	576.06
461.898	592.06
462.118	555.06
462.338	558.06
462.558	585.06
462.777	605.06
462.997	640.06
463.217	638.06
463.437	641.06
463.657	622.06
463.876	618.06
464.096	610.06
464.316	606.06
464.536	592.06
464.755	616.06
464.975	613.06
465.195	625.06
465.414	658.06
465.634	584.06
465.854	568.06
466.073	530.06
466.293	539.06
466.512	518.06
466.732	506.06
466.951	518.06
467.171	525.06
467.391	502.06
467.61	520.06
467.829	544.06
468.049	538.06
468.268	495.06
468.488	492.06
468.707	528.06
468.927	484.06
469.146	496.06
469.365	500.06
469.585	507.06
469.804	494.06
470.023	512.06
470.243	516.06
470.462	539.06
470.681	562.06
470.901	529.06
471.12	525.06
471.339	533.06
471.558	527.06
471.777	522.06
471.997	518.06
472.216	530.06
472.435	560.06
472.654	537.06
472.873	539.06
473.092	509.06
473.311	511.06
473.53	528.06
473.749	535.06
473.968	568.06
474.187	627.06
474.406	697.06
474.625	566.06
474.844	510.06
475.063	520.06
475.282	517.06
475.501	523.06
475.72	530.06
475.939	544.06
476.158	535.06
476.377	543.06
476.596	548.06
476.814	542.06
477.033	553.06
477.252	565.06
477.471	566.06
477.69	557.06
477.908	575.06
478.127	563.06
478.346	592.06
478.564	585.06
478.783	590.06
479.002	607.06
479.22	632.06
479.439	605.06
479.658	606.06
479.876	610.06
480.095	628.06
480.313	666.06
480.532	661.06
480.751	638.06
480.969	655.06
481.188	696.06
481.406	722.06
481.624	666.06
481.843	650.06
482.061	608.06
482.28	598.06
482.498	604.06
482.717	609.06
482.935	598.06
483.153	622.06
483.372	614.06
483.59	608.06
483.808	604.06
484.027	609.06
484.245	605.06
484.463	598.06
484.681	610.06
484.9	608.06
485.118	641.06
485.336	582.06
485.554	633.06
485.772	623.06
485.99	620.06
486.209	619.06
486.427	628.06
486.645	619.06
486.863	639.06
487.081	668.06
487.299	630.06
487.517	640.06
487.735	654.06
487.953	664.06
488.171	644.06
488.389	649.06
488.607	662.06
488.825	658.06
489.043	651.06
489.261	649.06
489.479	673.06
489.696	659.06
489.914	691.06
490.132	676.06
490.35	696.06
490.568	672.06
490.786	672.06
491.003	711.06
491.221	726.06
491.439	699.06
491.657	733.06
491.874	740.06
492.092	732.06
492.31	762.06
492.527	750.06
492.745	735.06
492.963	750.06
493.18	744.06
493.398	747.06
493.615	782.06
493.833	768.06
494.05	779.06
494.268	777.06
494.485	793.06
494.703	765.06
494.92	754.06
495.138	756.06
495.355	785.06
495.573	786.06
495.79	791.06
496.008	757.06
496.225	754.06
496.442	759.06
496.66	756.06
496.877	792.06
497.094	776.06
497.312	780.06
497.529	781.06
497.746	808.06
497.963	792.06
498.181	844.06
498.398	880.06
498.615	891.06
498.832	896.06
499.049	913.06
499.267	971.06
499.484	970.06
499.701	1026.06
499.918	1093.06
500.135	1145.06
500.352	1214.06
500.569	1244.06
500.786	1257.06
501.003	1220.06
501.22	1194.06
501.437	1106.06
501.654	1053.06
