Data from 1975.PennyLincolnUp.Lamp.En5.5.200Scan.071719.P1.Changed Mount._HRD10591_15-56-23-859.txt Node
Date: Thu Jul 18 15:56:23 EDT 2019
User: cochatt
Spectrometer: HR+D1059
Trigger mode: 1
Integration Time (sec): 1.000000E-1
Scans to average: 1
Electric dark correction enabled: true
Nonlinearity correction enabled: false
Boxcar width: 0
XAxis mode: Wavelengths
Number of Pixels in Spectrum: 2048
>>>>>Begin Spectral Data<<<<<
223.165	-7.31
223.4	-7.31
223.635	-7.31
223.869	-11.31
224.104	-32.31
224.338	-2.31
224.573	-5.31
224.808	-3.31
225.042	-21.31
225.277	-18.31
225.511	-2.31
225.746	-0.31
225.98	9.69
226.215	8.69
226.449	9.69
226.683	14.69
226.918	26.69
227.152	34.69
227.387	40.69
227.621	47.69
227.856	36.69
228.09	41.69
228.324	59.69
228.559	47.69
228.793	76.69
229.027	98.69
229.262	99.69
229.496	131.69
229.73	142.69
229.964	144.69
230.199	134.69
230.433	123.69
230.667	114.69
230.901	125.69
231.136	119.69
231.37	116.69
231.604	121.69
231.838	130.69
232.072	116.69
232.306	114.69
232.541	127.69
232.775	121.69
233.009	118.69
233.243	114.69
233.477	117.69
233.711	108.69
233.945	122.69
234.179	110.69
234.413	118.69
234.647	108.69
234.881	113.69
235.115	127.69
235.349	126.69
235.583	128.69
235.817	123.69
236.051	114.69
236.285	122.69
236.519	117.69
236.753	136.69
236.987	145.69
237.221	177.69
237.455	213.69
237.689	174.69
237.922	136.69
238.156	137.69
238.39	128.69
238.624	126.69
238.858	126.69
239.091	133.69
239.325	130.69
239.559	120.69
239.793	123.69
240.027	143.69
240.26	133.69
240.494	156.69
240.728	145.69
240.961	156.69
241.195	158.69
241.429	139.69
241.662	136.69
241.896	135.69
242.13	145.69
242.363	158.69
242.597	133.69
242.83	144.69
243.064	145.69
243.298	138.69
243.531	156.69
243.765	146.69
243.998	141.69
244.232	145.69
244.465	135.69
244.699	158.69
244.932	160.69
245.166	156.69
245.399	181.69
245.633	140.69
245.866	143.69
246.099	152.69
246.333	154.69
246.566	165.69
246.8	180.69
247.033	152.69
247.266	148.69
247.5	158.69
247.733	158.69
247.966	166.69
248.2	170.69
248.433	180.69
248.666	184.69
248.899	187.69
249.133	180.69
249.366	186.69
249.599	185.69
249.832	175.69
250.066	167.69
250.299	186.69
250.532	186.69
250.765	205.69
250.998	214.69
251.231	233.69
251.465	206.69
251.698	207.69
251.931	192.69
252.164	205.69
252.397	182.69
252.63	203.69
252.863	206.69
253.096	227.69
253.329	233.69
253.562	213.69
253.795	207.69
254.028	218.69
254.261	231.69
254.494	228.69
254.727	265.69
254.96	294.69
255.193	263.69
255.426	254.69
255.659	247.69
255.892	217.69
256.124	228.69
256.357	238.69
256.59	224.69
256.823	218.69
257.056	224.69
257.289	205.69
257.521	219.69
257.754	226.69
257.987	213.69
258.22	198.69
258.452	203.69
258.685	210.69
258.918	203.69
259.151	200.69
259.383	226.69
259.616	207.69
259.849	220.69
260.081	230.69
260.314	245.69
260.547	237.69
260.779	238.69
261.012	218.69
261.244	214.69
261.477	213.69
261.71	234.69
261.942	227.69
262.175	228.69
262.407	205.69
262.64	227.69
262.872	210.69
263.105	216.69
263.337	228.69
263.57	223.69
263.802	219.69
264.035	212.69
264.267	221.69
264.499	219.69
264.732	212.69
264.964	214.69
265.197	199.69
265.429	246.69
265.661	220.69
265.894	217.69
266.126	227.69
266.358	233.69
266.591	242.69
266.823	229.69
267.055	238.69
267.287	240.69
267.52	237.69
267.752	244.69
267.984	224.69
268.216	239.69
268.448	234.69
268.681	237.69
268.913	253.69
269.145	271.69
269.377	278.69
269.609	266.69
269.841	263.69
270.073	276.69
270.306	282.69
270.538	296.69
270.77	310.69
271.002	299.69
271.234	300.69
271.466	278.69
271.698	310.69
271.93	318.69
272.162	309.69
272.394	310.69
272.626	297.69
272.858	292.69
273.09	290.69
273.322	280.69
273.553	267.69
273.785	288.69
274.017	273.69
274.249	270.69
274.481	270.69
274.713	287.69
274.945	274.69
275.176	280.69
275.408	266.69
275.64	263.69
275.872	271.69
276.104	271.69
276.335	270.69
276.567	282.69
276.799	298.69
277.031	301.69
277.262	306.69
277.494	317.69
277.726	290.69
277.957	284.69
278.189	298.69
278.421	297.69
278.652	267.69
278.884	281.69
279.115	284.69
279.347	268.69
279.579	278.69
279.81	261.69
280.042	292.69
280.273	264.69
280.505	308.69
280.736	270.69
280.968	276.69
281.199	268.69
281.431	294.69
281.662	279.69
281.894	276.69
282.125	288.69
282.356	283.69
282.588	293.69
282.819	295.69
283.051	294.69
283.282	269.69
283.513	287.69
283.745	279.69
283.976	282.69
284.207	311.69
284.439	300.69
284.67	281.69
284.901	298.69
285.132	298.69
285.364	295.69
285.595	278.69
285.826	301.69
286.057	315.69
286.288	294.69
286.52	294.69
286.751	299.69
286.982	287.69
287.213	316.69
287.444	286.69
287.675	305.69
287.906	322.69
288.138	310.69
288.369	300.69
288.6	324.69
288.831	300.69
289.062	302.69
289.293	306.69
289.524	306.69
289.755	302.69
289.986	305.69
290.217	314.69
290.448	306.69
290.679	306.69
290.91	287.69
291.141	313.69
291.371	303.69
291.602	298.69
291.833	297.69
292.064	297.69
292.295	314.69
292.526	299.69
292.757	320.69
292.987	288.69
293.218	315.69
293.449	312.69
293.68	319.69
293.91	316.69
294.141	282.69
294.372	320.69
294.603	298.69
294.833	287.69
295.064	306.69
295.295	309.69
295.525	308.69
295.756	304.69
295.987	331.69
296.217	332.69
296.448	348.69
296.679	317.69
296.909	311.69
297.14	313.69
297.37	316.69
297.601	306.69
297.831	330.69
298.062	305.69
298.292	316.69
298.523	318.69
298.753	316.69
298.984	317.69
299.214	310.69
299.445	326.69
299.675	319.69
299.905	322.69
300.136	342.69
300.366	327.69
300.597	322.69
300.827	342.69
301.057	327.69
301.288	334.69
301.518	359.69
301.748	351.69
301.979	338.69
302.209	355.69
302.439	358.69
302.669	349.69
302.9	334.69
303.13	330.69
303.36	366.69
303.59	348.69
303.82	358.69
304.051	351.69
304.281	345.69
304.511	339.69
304.741	336.69
304.971	328.69
305.201	345.69
305.431	332.69
305.661	343.69
305.891	355.69
306.121	340.69
306.352	338.69
306.582	339.69
306.812	334.69
307.042	334.69
307.272	343.69
307.502	354.69
307.731	343.69
307.961	336.69
308.191	340.69
308.421	362.69
308.651	366.69
308.881	348.69
309.111	347.69
309.341	340.69
309.571	336.69
309.8	348.69
310.03	360.69
310.26	363.69
310.49	371.69
310.72	382.69
310.949	384.69
311.179	396.69
311.409	379.69
311.639	368.69
311.868	375.69
312.098	364.69
312.328	382.69
312.557	396.69
312.787	411.69
313.017	388.69
313.246	373.69
313.476	368.69
313.706	373.69
313.935	386.69
314.165	390.69
314.394	375.69
314.624	417.69
314.853	385.69
315.083	383.69
315.312	391.69
315.542	364.69
315.771	378.69
316.001	381.69
316.23	374.69
316.46	373.69
316.689	379.69
316.919	388.69
317.148	374.69
317.377	398.69
317.607	387.69
317.836	381.69
318.065	380.69
318.295	371.69
318.524	372.69
318.753	371.69
318.983	379.69
319.212	396.69
319.441	385.69
319.67	382.69
319.9	372.69
320.129	400.69
320.358	383.69
320.587	390.69
320.816	384.69
321.046	395.69
321.275	387.69
321.504	413.69
321.733	390.69
321.962	398.69
322.191	405.69
322.42	391.69
322.649	399.69
322.878	438.69
323.108	433.69
323.337	459.69
323.566	462.69
323.795	466.69
324.024	520.69
324.253	568.69
324.482	770.69
324.71	1189.69
324.939	1730.69
325.168	1564.69
325.397	808.69
325.626	542.69
325.855	490.69
326.084	464.69
326.313	472.69
326.542	485.69
326.77	501.69
326.999	553.69
327.228	746.69
327.457	1067.69
327.686	1318.69
327.914	890.69
328.143	622.69
328.372	547.69
328.6	538.69
328.829	490.69
329.058	524.69
329.287	522.69
329.515	499.69
329.744	487.69
329.972	492.69
330.201	508.69
330.43	562.69
330.658	541.69
330.887	524.69
331.115	543.69
331.344	469.69
331.572	483.69
331.801	482.69
332.03	490.69
332.258	473.69
332.486	466.69
332.715	463.69
332.943	465.69
333.172	474.69
333.4	475.69
333.629	480.69
333.857	474.69
334.085	495.69
334.314	509.69
334.542	529.69
334.771	551.69
334.999	516.69
335.227	508.69
335.455	487.69
335.684	466.69
335.912	487.69
336.14	483.69
336.369	447.69
336.597	458.69
336.825	463.69
337.053	454.69
337.281	457.69
337.51	437.69
337.738	478.69
337.966	446.69
338.194	449.69
338.422	458.69
338.65	464.69
338.878	459.69
339.106	463.69
339.334	422.69
339.562	430.69
339.79	454.69
340.018	442.69
340.246	425.69
340.474	446.69
340.702	444.69
340.93	446.69
341.158	419.69
341.386	430.69
341.614	453.69
341.842	458.69
342.07	424.69
342.298	428.69
342.526	420.69
342.754	435.69
342.981	429.69
343.209	420.69
343.437	435.69
343.665	434.69
343.893	460.69
344.12	475.69
344.348	461.69
344.576	431.69
344.804	467.69
345.031	458.69
345.259	450.69
345.487	426.69
345.714	471.69
345.942	435.69
346.17	427.69
346.397	415.69
346.625	434.69
346.853	416.69
347.08	431.69
347.308	427.69
347.535	430.69
347.763	429.69
347.99	443.69
348.218	430.69
348.445	434.69
348.673	429.69
348.9	425.69
349.128	438.69
349.355	433.69
349.583	412.69
349.81	426.69
350.037	410.69
350.265	412.69
350.492	411.69
350.72	405.69
350.947	395.69
351.174	440.69
351.402	436.69
351.629	415.69
351.856	413.69
352.083	421.69
352.311	420.69
352.538	434.69
352.765	449.69
352.992	434.69
353.22	423.69
353.447	426.69
353.674	400.69
353.901	409.69
354.128	403.69
354.355	395.69
354.583	396.69
354.81	413.69
355.037	409.69
355.264	413.69
355.491	411.69
355.718	416.69
355.945	372.69
356.172	407.69
356.399	413.69
356.626	376.69
356.853	406.69
357.08	412.69
357.307	393.69
357.534	409.69
357.761	417.69
357.988	418.69
358.215	403.69
358.441	399.69
358.668	396.69
358.895	412.69
359.122	396.69
359.349	417.69
359.576	400.69
359.802	457.69
360.029	445.69
360.256	453.69
360.483	447.69
360.709	430.69
360.936	429.69
361.163	429.69
361.39	427.69
361.616	437.69
361.843	417.69
362.07	409.69
362.296	416.69
362.523	415.69
362.749	416.69
362.976	407.69
363.203	424.69
363.429	425.69
363.656	413.69
363.882	411.69
364.109	410.69
364.335	410.69
364.562	423.69
364.788	426.69
365.015	417.69
365.241	425.69
365.468	421.69
365.694	409.69
365.92	428.69
366.147	418.69
366.373	413.69
366.599	397.69
366.826	408.69
367.052	406.69
367.278	372.69
367.505	407.69
367.731	401.69
367.957	405.69
368.184	424.69
368.41	437.69
368.636	423.69
368.862	429.69
369.089	398.69
369.315	414.69
369.541	419.69
369.767	406.69
369.993	404.69
370.219	398.69
370.445	408.69
370.672	418.69
370.898	411.69
371.124	400.69
371.35	410.69
371.576	442.69
371.802	436.69
372.028	407.69
372.254	420.69
372.48	416.69
372.706	416.69
372.932	407.69
373.158	425.69
373.384	415.69
373.61	435.69
373.835	429.69
374.061	453.69
374.287	413.69
374.513	445.69
374.739	427.69
374.965	434.69
375.191	434.69
375.416	438.69
375.642	424.69
375.868	412.69
376.094	422.69
376.319	418.69
376.545	410.69
376.771	401.69
376.997	422.69
377.222	411.69
377.448	424.69
377.674	415.69
377.899	411.69
378.125	445.69
378.35	420.69
378.576	429.69
378.802	429.69
379.027	411.69
379.253	430.69
379.478	415.69
379.704	421.69
379.929	426.69
380.155	412.69
380.38	439.69
380.606	440.69
380.831	417.69
381.057	417.69
381.282	440.69
381.507	438.69
381.733	443.69
381.958	428.69
382.184	422.69
382.409	422.69
382.634	435.69
382.86	427.69
383.085	450.69
383.31	463.69
383.535	450.69
383.761	431.69
383.986	440.69
384.211	465.69
384.436	455.69
384.662	465.69
384.887	462.69
385.112	458.69
385.337	466.69
385.562	473.69
385.787	476.69
386.013	486.69
386.238	473.69
386.463	469.69
386.688	470.69
386.913	473.69
387.138	477.69
387.363	483.69
387.588	452.69
387.813	479.69
388.038	474.69
388.263	470.69
388.488	477.69
388.713	452.69
388.938	464.69
389.163	476.69
389.387	477.69
389.612	475.69
389.837	458.69
390.062	461.69
390.287	476.69
390.512	463.69
390.736	447.69
390.961	482.69
391.186	468.69
391.411	469.69
391.636	476.69
391.86	480.69
392.085	490.69
392.31	473.69
392.534	496.69
392.759	492.69
392.984	482.69
393.208	476.69
393.433	505.69
393.658	480.69
393.882	476.69
394.107	480.69
394.331	519.69
394.556	488.69
394.78	472.69
395.005	501.69
395.229	486.69
395.454	504.69
395.678	483.69
395.903	508.69
396.127	531.69
396.352	528.69
396.576	476.69
396.801	485.69
397.025	503.69
397.249	513.69
397.474	522.69
397.698	535.69
397.922	539.69
398.147	548.69
398.371	551.69
398.595	552.69
398.82	558.69
399.044	544.69
399.268	605.69
399.492	614.69
399.717	647.69
399.941	683.69
400.165	727.69
400.389	690.69
400.613	619.69
400.837	589.69
401.062	552.69
401.286	573.69
401.51	572.69
401.734	554.69
401.958	541.69
402.182	564.69
402.406	579.69
402.63	548.69
402.854	576.69
403.078	574.69
403.302	579.69
403.526	589.69
403.75	598.69
403.974	572.69
404.198	578.69
404.422	598.69
404.645	587.69
404.869	581.69
405.093	632.69
405.317	685.69
405.541	712.69
405.765	654.69
405.988	610.69
406.212	624.69
406.436	633.69
406.66	626.69
406.883	635.69
407.107	643.69
407.331	688.69
407.555	744.69
407.778	736.69
408.002	660.69
408.226	654.69
408.449	620.69
408.673	613.69
408.896	654.69
409.12	676.69
409.344	648.69
409.567	607.69
409.791	630.69
410.014	592.69
410.238	575.69
410.461	575.69
410.685	591.69
410.908	593.69
411.132	626.69
411.355	664.69
411.578	637.69
411.802	562.69
412.025	566.69
412.249	588.69
412.472	619.69
412.695	651.69
412.919	622.69
413.142	611.69
413.365	568.69
413.589	583.69
413.812	578.69
414.035	543.69
414.258	526.69
414.482	553.69
414.705	546.69
414.928	549.69
415.151	551.69
415.374	537.69
415.597	531.69
415.821	562.69
416.044	530.69
416.267	538.69
416.49	551.69
416.713	533.69
416.936	544.69
417.159	520.69
417.382	532.69
417.605	542.69
417.828	575.69
418.051	564.69
418.274	568.69
418.497	568.69
418.72	554.69
418.943	554.69
419.166	577.69
419.389	612.69
419.611	582.69
419.834	595.69
420.057	577.69
420.28	593.69
420.503	566.69
420.726	551.69
420.948	589.69
421.171	610.69
421.394	656.69
421.617	601.69
421.839	580.69
422.062	597.69
422.285	570.69
422.507	623.69
422.73	702.69
422.953	665.69
423.175	612.69
423.398	589.69
423.621	598.69
423.843	605.69
424.066	611.69
424.288	625.69
424.511	588.69
424.733	676.69
424.956	760.69
425.178	722.69
425.401	690.69
425.623	742.69
425.846	645.69
426.068	606.69
426.291	592.69
426.513	571.69
426.735	590.69
426.958	616.69
427.18	715.69
427.402	848.69
427.625	933.69
427.847	812.69
428.069	694.69
428.292	634.69
428.514	574.69
428.736	578.69
428.958	537.69
429.181	536.69
429.403	549.69
429.625	543.69
429.847	575.69
430.069	647.69
430.292	629.69
430.514	570.69
430.736	550.69
430.958	538.69
431.18	542.69
431.402	524.69
431.624	540.69
431.846	493.69
432.068	524.69
432.29	554.69
432.512	521.69
432.734	531.69
432.956	528.69
433.178	538.69
433.4	555.69
433.622	516.69
433.844	528.69
434.066	520.69
434.287	535.69
434.509	535.69
434.731	545.69
434.953	556.69
435.175	568.69
435.397	612.69
435.618	587.69
435.84	625.69
436.062	726.69
436.284	794.69
436.505	651.69
436.727	594.69
436.949	552.69
437.17	548.69
437.392	559.69
437.614	550.69
437.835	583.69
438.057	651.69
438.278	780.69
438.5	770.69
438.721	855.69
438.943	824.69
439.165	651.69
439.386	614.69
439.608	586.69
439.829	582.69
440.05	606.69
440.272	654.69
440.493	629.69
440.715	582.69
440.936	564.69
441.158	566.69
441.379	571.69
441.6	594.69
441.822	590.69
442.043	633.69
442.264	707.69
442.486	751.69
442.707	631.69
442.928	594.69
443.149	619.69
443.371	606.69
443.592	687.69
443.813	772.69
444.034	859.69
444.255	706.69
444.476	634.69
444.698	605.69
444.919	620.69
445.14	734.69
445.361	659.69
445.582	626.69
445.803	683.69
446.024	777.69
446.245	782.69
446.466	739.69
446.687	636.69
446.908	588.69
447.129	563.69
447.35	542.69
447.571	546.69
447.792	529.69
448.013	538.69
448.234	549.69
448.455	589.69
448.675	709.69
448.896	834.69
449.117	718.69
449.338	654.69
449.559	779.69
449.779	888.69
450	718.69
450.221	598.69
450.442	534.69
450.662	518.69
450.883	511.69
451.104	518.69
451.324	520.69
451.545	512.69
451.766	491.69
451.986	460.69
452.207	491.69
452.428	489.69
452.648	475.69
452.869	479.69
453.089	480.69
453.31	508.69
453.53	479.69
453.751	472.69
453.971	472.69
454.192	486.69
454.412	471.69
454.633	471.69
454.853	479.69
455.073	477.69
455.294	518.69
455.514	558.69
455.734	547.69
455.955	488.69
456.175	477.69
456.395	452.69
456.616	473.69
456.836	472.69
457.056	456.69
457.276	454.69
457.497	448.69
457.717	467.69
457.937	474.69
458.157	458.69
458.377	476.69
458.598	492.69
458.818	522.69
459.038	605.69
459.258	642.69
459.478	551.69
459.698	537.69
459.918	516.69
460.138	494.69
460.358	554.69
460.578	562.69
460.798	543.69
461.018	553.69
461.238	557.69
461.458	531.69
461.678	526.69
461.898	550.69
462.118	553.69
462.338	571.69
462.558	584.69
462.777	586.69
462.997	611.69
463.217	615.69
463.437	638.69
463.657	607.69
463.876	605.69
464.096	602.69
464.316	587.69
464.536	585.69
464.755	598.69
464.975	604.69
465.195	589.69
465.414	634.69
465.634	592.69
465.854	577.69
466.073	526.69
466.293	507.69
466.512	511.69
466.732	485.69
466.951	506.69
467.171	490.69
467.391	507.69
467.61	509.69
467.829	520.69
468.049	512.69
468.268	504.69
468.488	499.69
468.707	479.69
468.927	486.69
469.146	476.69
469.365	487.69
469.585	483.69
469.804	491.69
470.023	510.69
470.243	506.69
470.462	527.69
470.681	536.69
470.901	519.69
471.12	519.69
471.339	502.69
471.558	482.69
471.777	512.69
471.997	501.69
472.216	516.69
472.435	523.69
472.654	525.69
472.873	529.69
473.092	472.69
473.311	505.69
473.53	502.69
473.749	501.69
473.968	566.69
474.187	637.69
474.406	672.69
474.625	570.69
474.844	528.69
475.063	511.69
475.282	504.69
475.501	483.69
475.72	528.69
475.939	540.69
476.158	527.69
476.377	536.69
476.596	507.69
476.814	538.69
477.033	531.69
477.252	539.69
477.471	546.69
477.69	526.69
477.908	558.69
478.127	565.69
478.346	565.69
478.564	586.69
478.783	566.69
479.002	568.69
479.22	598.69
479.439	640.69
479.658	603.69
479.876	592.69
480.095	611.69
480.313	650.69
480.532	644.69
480.751	647.69
480.969	616.69
481.188	678.69
481.406	702.69
481.624	620.69
481.843	619.69
482.061	603.69
482.28	592.69
482.498	610.69
482.717	596.69
482.935	599.69
483.153	588.69
483.372	590.69
483.59	605.69
483.808	596.69
484.027	571.69
484.245	572.69
484.463	592.69
484.681	596.69
484.9	592.69
485.118	627.69
485.336	616.69
485.554	586.69
485.772	603.69
485.99	631.69
486.209	616.69
486.427	627.69
486.645	642.69
486.863	631.69
487.081	639.69
487.299	650.69
487.517	622.69
487.735	631.69
487.953	660.69
488.171	639.69
488.389	652.69
488.607	627.69
488.825	626.69
489.043	634.69
489.261	656.69
489.479	644.69
489.696	671.69
489.914	652.69
490.132	674.69
490.35	670.69
490.568	672.69
490.786	693.69
491.003	713.69
491.221	721.69
491.439	717.69
491.657	717.69
491.874	720.69
492.092	729.69
492.31	736.69
492.527	730.69
492.745	740.69
492.963	748.69
493.18	740.69
493.398	744.69
493.615	764.69
493.833	764.69
494.05	742.69
494.268	742.69
494.485	764.69
494.703	736.69
494.92	742.69
495.138	745.69
495.355	754.69
495.573	793.69
495.79	767.69
496.008	769.69
496.225	746.69
496.442	731.69
496.66	763.69
496.877	781.69
497.094	756.69
497.312	762.69
497.529	780.69
497.746	816.69
497.963	810.69
498.181	831.69
498.398	869.69
498.615	861.69
498.832	883.69
499.049	895.69
499.267	923.69
499.484	977.69
499.701	1019.69
499.918	1072.69
500.135	1148.69
500.352	1193.69
500.569	1226.69
500.786	1229.69
501.003	1207.69
501.22	1146.69
501.437	1086.69
501.654	1054.69
