Data from 1975.PennyLincolnUp.Lamp.En5.5.200Scan.071719.P1.Changed Mount._HRD10591_15-55-34-858.txt Node
Date: Thu Jul 18 15:55:34 EDT 2019
User: cochatt
Spectrometer: HR+D1059
Trigger mode: 1
Integration Time (sec): 1.000000E-1
Scans to average: 1
Electric dark correction enabled: true
Nonlinearity correction enabled: false
Boxcar width: 0
XAxis mode: Wavelengths
Number of Pixels in Spectrum: 2048
>>>>>Begin Spectral Data<<<<<
223.165	-5.56
223.4	-5.56
223.635	-5.56
223.869	-5.56
224.104	-18.56
224.338	-10.56
224.573	-10.56
224.808	-4.56
225.042	-19.56
225.277	-7.56
225.511	-4.56
225.746	-11.56
225.98	3.44
226.215	12.44
226.449	13.44
226.683	24.44
226.918	22.44
227.152	22.44
227.387	27.44
227.621	31.44
227.856	50.44
228.09	43.44
228.324	49.44
228.559	56.44
228.793	66.44
229.027	99.44
229.262	88.44
229.496	91.44
229.73	113.44
229.964	124.44
230.199	124.44
230.433	104.44
230.667	109.44
230.901	91.44
231.136	108.44
231.37	96.44
231.604	102.44
231.838	126.44
232.072	98.44
232.306	109.44
232.541	103.44
232.775	116.44
233.009	114.44
233.243	97.44
233.477	112.44
233.711	102.44
233.945	106.44
234.179	116.44
234.413	114.44
234.647	116.44
234.881	120.44
235.115	114.44
235.349	119.44
235.583	110.44
235.817	123.44
236.051	122.44
236.285	117.44
236.519	123.44
236.753	128.44
236.987	136.44
237.221	158.44
237.455	174.44
237.689	158.44
237.922	120.44
238.156	126.44
238.39	108.44
238.624	112.44
238.858	122.44
239.091	124.44
239.325	130.44
239.559	135.44
239.793	108.44
240.027	130.44
240.26	133.44
240.494	142.44
240.728	133.44
240.961	140.44
241.195	144.44
241.429	128.44
241.662	137.44
241.896	148.44
242.13	132.44
242.363	138.44
242.597	131.44
242.83	121.44
243.064	120.44
243.298	130.44
243.531	125.44
243.765	136.44
243.998	143.44
244.232	145.44
244.465	140.44
244.699	156.44
244.932	140.44
245.166	132.44
245.399	138.44
245.633	133.44
245.866	155.44
246.099	140.44
246.333	138.44
246.566	141.44
246.8	136.44
247.033	136.44
247.266	139.44
247.5	151.44
247.733	142.44
247.966	163.44
248.2	152.44
248.433	149.44
248.666	175.44
248.899	166.44
249.133	164.44
249.366	193.44
249.599	171.44
249.832	163.44
250.066	175.44
250.299	164.44
250.532	167.44
250.765	182.44
250.998	179.44
251.231	200.44
251.465	192.44
251.698	186.44
251.931	172.44
252.164	159.44
252.397	154.44
252.63	177.44
252.863	186.44
253.096	172.44
253.329	197.44
253.562	197.44
253.795	201.44
254.028	205.44
254.261	188.44
254.494	188.44
254.727	239.44
254.96	245.44
255.193	229.44
255.426	221.44
255.659	209.44
255.892	213.44
256.124	202.44
256.357	204.44
256.59	195.44
256.823	214.44
257.056	199.44
257.289	194.44
257.521	195.44
257.754	187.44
257.987	183.44
258.22	200.44
258.452	195.44
258.685	189.44
258.918	187.44
259.151	200.44
259.383	202.44
259.616	200.44
259.849	213.44
260.081	214.44
260.314	222.44
260.547	218.44
260.779	211.44
261.012	204.44
261.244	202.44
261.477	197.44
261.71	190.44
261.942	201.44
262.175	196.44
262.407	217.44
262.64	200.44
262.872	200.44
263.105	200.44
263.337	204.44
263.57	193.44
263.802	186.44
264.035	199.44
264.267	205.44
264.499	193.44
264.732	220.44
264.964	196.44
265.197	194.44
265.429	197.44
265.661	194.44
265.894	205.44
266.126	197.44
266.358	187.44
266.591	202.44
266.823	209.44
267.055	199.44
267.287	202.44
267.52	215.44
267.752	215.44
267.984	199.44
268.216	216.44
268.448	204.44
268.681	222.44
268.913	218.44
269.145	237.44
269.377	252.44
269.609	237.44
269.841	230.44
270.073	246.44
270.306	247.44
270.538	265.44
270.77	261.44
271.002	253.44
271.234	254.44
271.466	257.44
271.698	266.44
271.93	279.44
272.162	276.44
272.394	269.44
272.626	245.44
272.858	251.44
273.09	246.44
273.322	246.44
273.553	246.44
273.785	234.44
274.017	232.44
274.249	245.44
274.481	243.44
274.713	247.44
274.945	258.44
275.176	219.44
275.408	246.44
275.64	245.44
275.872	248.44
276.104	231.44
276.335	227.44
276.567	256.44
276.799	252.44
277.031	254.44
277.262	260.44
277.494	295.44
277.726	260.44
277.957	261.44
278.189	269.44
278.421	258.44
278.652	244.44
278.884	247.44
279.115	251.44
279.347	241.44
279.579	260.44
279.81	254.44
280.042	254.44
280.273	248.44
280.505	248.44
280.736	265.44
280.968	240.44
281.199	250.44
281.431	256.44
281.662	240.44
281.894	254.44
282.125	258.44
282.356	252.44
282.588	281.44
282.819	274.44
283.051	252.44
283.282	267.44
283.513	268.44
283.745	276.44
283.976	244.44
284.207	276.44
284.439	250.44
284.67	266.44
284.901	265.44
285.132	281.44
285.364	269.44
285.595	268.44
285.826	262.44
286.057	272.44
286.288	270.44
286.52	286.44
286.751	272.44
286.982	250.44
287.213	263.44
287.444	292.44
287.675	282.44
287.906	276.44
288.138	292.44
288.369	267.44
288.6	269.44
288.831	254.44
289.062	274.44
289.293	281.44
289.524	276.44
289.755	278.44
289.986	282.44
290.217	266.44
290.448	269.44
290.679	290.44
290.91	275.44
291.141	261.44
291.371	279.44
291.602	268.44
291.833	262.44
292.064	269.44
292.295	268.44
292.526	282.44
292.757	282.44
292.987	268.44
293.218	266.44
293.449	278.44
293.68	285.44
293.91	262.44
294.141	285.44
294.372	304.44
294.603	286.44
294.833	287.44
295.064	277.44
295.295	294.44
295.525	278.44
295.756	276.44
295.987	283.44
296.217	304.44
296.448	299.44
296.679	281.44
296.909	279.44
297.14	276.44
297.37	276.44
297.601	287.44
297.831	300.44
298.062	278.44
298.292	282.44
298.523	297.44
298.753	306.44
298.984	292.44
299.214	294.44
299.445	296.44
299.675	296.44
299.905	297.44
300.136	274.44
300.366	291.44
300.597	301.44
300.827	302.44
301.057	307.44
301.288	300.44
301.518	304.44
301.748	325.44
301.979	308.44
302.209	301.44
302.439	326.44
302.669	298.44
302.9	314.44
303.13	308.44
303.36	312.44
303.59	301.44
303.82	312.44
304.051	323.44
304.281	304.44
304.511	311.44
304.741	318.44
304.971	313.44
305.201	314.44
305.431	298.44
305.661	300.44
305.891	312.44
306.121	316.44
306.352	321.44
306.582	308.44
306.812	320.44
307.042	323.44
307.272	320.44
307.502	300.44
307.731	324.44
307.961	328.44
308.191	319.44
308.421	305.44
308.651	327.44
308.881	313.44
309.111	323.44
309.341	301.44
309.571	311.44
309.8	316.44
310.03	333.44
310.26	339.44
310.49	336.44
310.72	340.44
310.949	335.44
311.179	349.44
311.409	344.44
311.639	336.44
311.868	354.44
312.098	334.44
312.328	341.44
312.557	352.44
312.787	354.44
313.017	343.44
313.246	347.44
313.476	345.44
313.706	348.44
313.935	346.44
314.165	348.44
314.394	357.44
314.624	358.44
314.853	347.44
315.083	339.44
315.312	345.44
315.542	353.44
315.771	331.44
316.001	352.44
316.23	337.44
316.46	355.44
316.689	339.44
316.919	344.44
317.148	352.44
317.377	361.44
317.607	349.44
317.836	340.44
318.065	346.44
318.295	334.44
318.524	347.44
318.753	352.44
318.983	354.44
319.212	347.44
319.441	348.44
319.67	342.44
319.9	356.44
320.129	345.44
320.358	358.44
320.587	339.44
320.816	362.44
321.046	357.44
321.275	365.44
321.504	355.44
321.733	349.44
321.962	365.44
322.191	370.44
322.42	379.44
322.649	388.44
322.878	373.44
323.108	386.44
323.337	389.44
323.566	399.44
323.795	423.44
324.024	439.44
324.253	498.44
324.482	640.44
324.71	1016.44
324.939	1498.44
325.168	1254.44
325.397	642.44
325.626	464.44
325.855	430.44
326.084	389.44
326.313	404.44
326.542	408.44
326.77	435.44
326.999	503.44
327.228	608.44
327.457	921.44
327.686	1120.44
327.914	750.44
328.143	508.44
328.372	450.44
328.6	437.44
328.829	456.44
329.058	442.44
329.287	450.44
329.515	440.44
329.744	425.44
329.972	404.44
330.201	429.44
330.43	445.44
330.658	462.44
330.887	476.44
331.115	462.44
331.344	438.44
331.572	405.44
331.801	422.44
332.03	405.44
332.258	411.44
332.486	411.44
332.715	413.44
332.943	401.44
333.172	420.44
333.4	447.44
333.629	434.44
333.857	436.44
334.085	459.44
334.314	447.44
334.542	453.44
334.771	462.44
334.999	454.44
335.227	453.44
335.455	434.44
335.684	418.44
335.912	418.44
336.14	408.44
336.369	427.44
336.597	406.44
336.825	431.44
337.053	415.44
337.281	402.44
337.51	401.44
337.738	428.44
337.966	406.44
338.194	410.44
338.422	408.44
338.65	402.44
338.878	401.44
339.106	397.44
339.334	406.44
339.562	396.44
339.79	414.44
340.018	411.44
340.246	402.44
340.474	405.44
340.702	385.44
340.93	411.44
341.158	389.44
341.386	382.44
341.614	400.44
341.842	406.44
342.07	390.44
342.298	375.44
342.526	398.44
342.754	388.44
342.981	384.44
343.209	376.44
343.437	388.44
343.665	399.44
343.893	418.44
344.12	419.44
344.348	414.44
344.576	400.44
344.804	413.44
345.031	396.44
345.259	415.44
345.487	392.44
345.714	391.44
345.942	381.44
346.17	386.44
346.397	380.44
346.625	400.44
346.853	368.44
347.08	389.44
347.308	402.44
347.535	390.44
347.763	386.44
347.99	387.44
348.218	382.44
348.445	379.44
348.673	396.44
348.9	379.44
349.128	391.44
349.355	384.44
349.583	395.44
349.81	369.44
350.037	377.44
350.265	377.44
350.492	373.44
350.72	379.44
350.947	373.44
351.174	381.44
351.402	379.44
351.629	388.44
351.856	398.44
352.083	384.44
352.311	404.44
352.538	388.44
352.765	390.44
352.992	394.44
353.22	384.44
353.447	383.44
353.674	380.44
353.901	377.44
354.128	361.44
354.355	368.44
354.583	368.44
354.81	389.44
355.037	358.44
355.264	376.44
355.491	364.44
355.718	372.44
355.945	356.44
356.172	356.44
356.399	351.44
356.626	372.44
356.853	358.44
357.08	377.44
357.307	377.44
357.534	353.44
357.761	351.44
357.988	370.44
358.215	386.44
358.441	397.44
358.668	376.44
358.895	366.44
359.122	386.44
359.349	375.44
359.576	378.44
359.802	406.44
360.029	390.44
360.256	411.44
360.483	397.44
360.709	403.44
360.936	407.44
361.163	375.44
361.39	379.44
361.616	390.44
361.843	378.44
362.07	392.44
362.296	392.44
362.523	396.44
362.749	384.44
362.976	374.44
363.203	380.44
363.429	365.44
363.656	375.44
363.882	376.44
364.109	389.44
364.335	376.44
364.562	353.44
364.788	376.44
365.015	360.44
365.241	374.44
365.468	391.44
365.694	388.44
365.92	384.44
366.147	375.44
366.373	368.44
366.599	379.44
366.826	357.44
367.052	372.44
367.278	362.44
367.505	377.44
367.731	390.44
367.957	384.44
368.184	392.44
368.41	383.44
368.636	386.44
368.862	384.44
369.089	388.44
369.315	379.44
369.541	378.44
369.767	386.44
369.993	379.44
370.219	378.44
370.445	404.44
370.672	387.44
370.898	374.44
371.124	389.44
371.35	391.44
371.576	394.44
371.802	381.44
372.028	380.44
372.254	380.44
372.48	380.44
372.706	390.44
372.932	398.44
373.158	404.44
373.384	394.44
373.61	403.44
373.835	403.44
374.061	390.44
374.287	411.44
374.513	402.44
374.739	402.44
374.965	413.44
375.191	398.44
375.416	399.44
375.642	389.44
375.868	429.44
376.094	399.44
376.319	396.44
376.545	402.44
376.771	400.44
376.997	384.44
377.222	399.44
377.448	386.44
377.674	422.44
377.899	399.44
378.125	390.44
378.35	386.44
378.576	402.44
378.802	384.44
379.027	385.44
379.253	384.44
379.478	394.44
379.704	391.44
379.929	397.44
380.155	390.44
380.38	390.44
380.606	386.44
380.831	409.44
381.057	409.44
381.282	397.44
381.507	398.44
381.733	405.44
381.958	405.44
382.184	404.44
382.409	416.44
382.634	417.44
382.86	417.44
383.085	442.44
383.31	410.44
383.535	422.44
383.761	435.44
383.986	422.44
384.211	428.44
384.436	403.44
384.662	427.44
384.887	454.44
385.112	446.44
385.337	458.44
385.562	441.44
385.787	451.44
386.013	458.44
386.238	477.44
386.463	453.44
386.688	471.44
386.913	446.44
387.138	469.44
387.363	449.44
387.588	440.44
387.813	452.44
388.038	469.44
388.263	460.44
388.488	474.44
388.713	433.44
388.938	458.44
389.163	441.44
389.387	437.44
389.612	428.44
389.837	442.44
390.062	429.44
390.287	443.44
390.512	442.44
390.736	445.44
390.961	447.44
391.186	424.44
391.411	449.44
391.636	448.44
391.86	460.44
392.085	470.44
392.31	450.44
392.534	442.44
392.759	459.44
392.984	456.44
393.208	451.44
393.433	458.44
393.658	475.44
393.882	436.44
394.107	448.44
394.331	430.44
394.556	456.44
394.78	440.44
395.005	433.44
395.229	457.44
395.454	469.44
395.678	465.44
395.903	465.44
396.127	489.44
396.352	502.44
396.576	468.44
396.801	465.44
397.025	464.44
397.249	450.44
397.474	478.44
397.698	486.44
397.922	479.44
398.147	497.44
398.371	497.44
398.595	509.44
398.82	510.44
399.044	516.44
399.268	541.44
399.492	585.44
399.717	636.44
399.941	656.44
400.165	664.44
400.389	647.44
400.613	585.44
400.837	541.44
401.062	549.44
401.286	526.44
401.51	499.44
401.734	485.44
401.958	529.44
402.182	498.44
402.406	519.44
402.63	502.44
402.854	523.44
403.078	511.44
403.302	530.44
403.526	541.44
403.75	548.44
403.974	540.44
404.198	550.44
404.422	561.44
404.645	547.44
404.869	561.44
405.093	578.44
405.317	595.44
405.541	633.44
405.765	590.44
405.988	559.44
406.212	551.44
406.436	570.44
406.66	553.44
406.883	581.44
407.107	582.44
407.331	634.44
407.555	676.44
407.778	683.44
408.002	637.44
408.226	603.44
408.449	574.44
408.673	600.44
408.896	616.44
409.12	620.44
409.344	614.44
409.567	571.44
409.791	543.44
410.014	517.44
410.238	560.44
410.461	537.44
410.685	537.44
410.908	544.44
411.132	554.44
411.355	578.44
411.578	569.44
411.802	536.44
412.025	532.44
412.249	538.44
412.472	559.44
412.695	581.44
412.919	590.44
413.142	541.44
413.365	528.44
413.589	518.44
413.812	525.44
414.035	526.44
414.258	519.44
414.482	514.44
414.705	508.44
414.928	486.44
415.151	505.44
415.374	504.44
415.597	498.44
415.821	502.44
416.044	518.44
416.267	510.44
416.49	502.44
416.713	515.44
416.936	518.44
417.159	518.44
417.382	490.44
417.605	511.44
417.828	514.44
418.051	527.44
418.274	512.44
418.497	521.44
418.72	515.44
418.943	507.44
419.166	526.44
419.389	534.44
419.611	521.44
419.834	545.44
420.057	528.44
420.28	550.44
420.503	517.44
420.726	517.44
420.948	542.44
421.171	588.44
421.394	585.44
421.617	540.44
421.839	540.44
422.062	541.44
422.285	550.44
422.507	580.44
422.73	657.44
422.953	602.44
423.175	545.44
423.398	549.44
423.621	569.44
423.843	556.44
424.066	550.44
424.288	552.44
424.511	552.44
424.733	627.44
424.956	678.44
425.178	659.44
425.401	660.44
425.623	676.44
425.846	577.44
426.068	558.44
426.291	527.44
426.513	564.44
426.735	562.44
426.958	582.44
427.18	641.44
427.402	738.44
427.625	852.44
427.847	701.44
428.069	615.44
428.292	561.44
428.514	522.44
428.736	515.44
428.958	515.44
429.181	480.44
429.403	498.44
429.625	537.44
429.847	546.44
430.069	569.44
430.292	568.44
430.514	518.44
430.736	518.44
430.958	501.44
431.18	483.44
431.402	468.44
431.624	482.44
431.846	490.44
432.068	485.44
432.29	475.44
432.512	481.44
432.734	499.44
432.956	484.44
433.178	508.44
433.4	513.44
433.622	503.44
433.844	486.44
434.066	484.44
434.287	501.44
434.509	501.44
434.731	504.44
434.953	514.44
435.175	519.44
435.397	570.44
435.618	563.44
435.84	576.44
436.062	648.44
436.284	728.44
436.505	603.44
436.727	558.44
436.949	497.44
437.17	500.44
437.392	507.44
437.614	507.44
437.835	515.44
438.057	606.44
438.278	715.44
438.5	696.44
438.721	791.44
438.943	740.44
439.165	583.44
439.386	540.44
439.608	546.44
439.829	521.44
440.05	545.44
440.272	603.44
440.493	567.44
440.715	532.44
440.936	512.44
441.158	510.44
441.379	528.44
441.6	540.44
441.822	546.44
442.043	579.44
442.264	652.44
442.486	695.44
442.707	601.44
442.928	550.44
443.149	565.44
443.371	565.44
443.592	608.44
443.813	681.44
444.034	727.44
444.255	624.44
444.476	549.44
444.698	572.44
444.919	582.44
445.14	689.44
445.361	626.44
445.582	579.44
445.803	614.44
446.024	701.44
446.245	714.44
446.466	644.44
446.687	554.44
446.908	537.44
447.129	508.44
447.35	503.44
447.571	506.44
447.792	496.44
448.013	493.44
448.234	493.44
448.455	548.44
448.675	639.44
448.896	727.44
449.117	628.44
449.338	582.44
449.559	702.44
449.779	814.44
450	612.44
450.221	532.44
450.442	483.44
450.662	436.44
450.883	482.44
451.104	465.44
451.324	499.44
451.545	468.44
451.766	480.44
451.986	476.44
452.207	432.44
452.428	446.44
452.648	442.44
452.869	448.44
453.089	447.44
453.31	452.44
453.53	457.44
453.751	431.44
453.971	421.44
454.192	437.44
454.412	435.44
454.633	421.44
454.853	437.44
455.073	423.44
455.294	434.44
455.514	506.44
455.734	501.44
455.955	438.44
456.175	418.44
456.395	409.44
456.616	410.44
456.836	415.44
457.056	418.44
457.276	433.44
457.497	420.44
457.717	418.44
457.937	423.44
458.157	436.44
458.377	450.44
458.598	449.44
458.818	489.44
459.038	551.44
459.258	588.44
459.478	507.44
459.698	464.44
459.918	487.44
460.138	486.44
460.358	538.44
460.578	513.44
460.798	517.44
461.018	521.44
461.238	508.44
461.458	514.44
461.678	499.44
461.898	522.44
462.118	521.44
462.338	548.44
462.558	547.44
462.777	554.44
462.997	590.44
463.217	576.44
463.437	620.44
463.657	591.44
463.876	570.44
464.096	569.44
464.316	547.44
464.536	552.44
464.755	564.44
464.975	569.44
465.195	552.44
465.414	594.44
465.634	527.44
465.854	522.44
466.073	501.44
466.293	477.44
466.512	471.44
466.732	473.44
466.951	473.44
467.171	448.44
467.391	475.44
467.61	481.44
467.829	466.44
468.049	491.44
468.268	461.44
468.488	463.44
468.707	458.44
468.927	477.44
469.146	456.44
469.365	462.44
469.585	465.44
469.804	467.44
470.023	457.44
470.243	471.44
470.462	487.44
470.681	499.44
470.901	482.44
471.12	477.44
471.339	461.44
471.558	473.44
471.777	480.44
471.997	476.44
472.216	472.44
472.435	462.44
472.654	466.44
472.873	465.44
473.092	471.44
473.311	460.44
473.53	462.44
473.749	463.44
473.968	497.44
474.187	579.44
474.406	616.44
474.625	511.44
474.844	472.44
475.063	472.44
475.282	488.44
475.501	481.44
475.72	480.44
475.939	472.44
476.158	473.44
476.377	491.44
476.596	493.44
476.814	501.44
477.033	487.44
477.252	497.44
477.471	498.44
477.69	520.44
477.908	524.44
478.127	530.44
478.346	520.44
478.564	526.44
478.783	552.44
479.002	555.44
479.22	576.44
479.439	565.44
479.658	562.44
479.876	559.44
480.095	578.44
480.313	585.44
480.532	589.44
480.751	580.44
480.969	596.44
481.188	616.44
481.406	604.44
481.624	570.44
481.843	565.44
482.061	555.44
482.28	558.44
482.498	560.44
482.717	551.44
482.935	554.44
483.153	561.44
483.372	537.44
483.59	562.44
483.808	534.44
484.027	540.44
484.245	561.44
484.463	585.44
484.681	582.44
484.9	554.44
485.118	562.44
485.336	580.44
485.554	597.44
485.772	572.44
485.99	570.44
486.209	571.44
486.427	580.44
486.645	590.44
486.863	613.44
487.081	590.44
487.299	610.44
487.517	614.44
487.735	599.44
487.953	603.44
488.171	615.44
488.389	603.44
488.607	577.44
488.825	611.44
489.043	599.44
489.261	615.44
489.479	610.44
489.696	577.44
489.914	609.44
490.132	635.44
490.35	620.44
490.568	608.44
490.786	631.44
491.003	620.44
491.221	656.44
491.439	646.44
491.657	642.44
491.874	650.44
492.092	687.44
492.31	652.44
492.527	659.44
492.745	674.44
492.963	679.44
493.18	670.44
493.398	683.44
493.615	701.44
493.833	673.44
494.05	683.44
494.268	695.44
494.485	696.44
494.703	680.44
494.92	681.44
495.138	704.44
495.355	702.44
495.573	702.44
495.79	704.44
496.008	715.44
496.225	699.44
496.442	692.44
496.66	712.44
496.877	709.44
497.094	713.44
497.312	719.44
497.529	729.44
497.746	719.44
497.963	730.44
498.181	771.44
498.398	781.44
498.615	801.44
498.832	835.44
499.049	853.44
499.267	879.44
499.484	933.44
499.701	993.44
499.918	1013.44
500.135	1043.44
500.352	1102.44
500.569	1143.44
500.786	1139.44
501.003	1115.44
501.22	1049.44
501.437	1036.44
501.654	975.44
