Data from 1975.PennyLincolnUp.Lamp.En5.5.200Scan.071719.P1.Changed Mount._HRD10591_15-58-37-859.txt Node
Date: Thu Jul 18 15:58:37 EDT 2019
User: cochatt
Spectrometer: HR+D1059
Trigger mode: 1
Integration Time (sec): 1.000000E-1
Scans to average: 1
Electric dark correction enabled: true
Nonlinearity correction enabled: false
Boxcar width: 0
XAxis mode: Wavelengths
Number of Pixels in Spectrum: 2048
>>>>>Begin Spectral Data<<<<<
223.165	-9.81
223.4	-9.81
223.635	-9.81
223.869	-17.81
224.104	-16.81
224.338	-17.81
224.573	-28.81
224.808	-13.81
225.042	10.19
225.277	5.19
225.511	-5.81
225.746	-2.81
225.98	5.19
226.215	15.19
226.449	13.19
226.683	14.19
226.918	14.19
227.152	36.19
227.387	23.19
227.621	40.19
227.856	42.19
228.09	36.19
228.324	47.19
228.559	55.19
228.793	68.19
229.027	101.19
229.262	118.19
229.496	123.19
229.73	134.19
229.964	157.19
230.199	123.19
230.433	119.19
230.667	113.19
230.901	98.19
231.136	108.19
231.37	93.19
231.604	111.19
231.838	109.19
232.072	118.19
232.306	119.19
232.541	124.19
232.775	114.19
233.009	119.19
233.243	112.19
233.477	119.19
233.711	121.19
233.945	115.19
234.179	121.19
234.413	125.19
234.647	122.19
234.881	122.19
235.115	118.19
235.349	131.19
235.583	123.19
235.817	123.19
236.051	130.19
236.285	112.19
236.519	128.19
236.753	133.19
236.987	137.19
237.221	186.19
237.455	225.19
237.689	196.19
237.922	143.19
238.156	134.19
238.39	121.19
238.624	130.19
238.858	135.19
239.091	131.19
239.325	123.19
239.559	126.19
239.793	126.19
240.027	141.19
240.26	138.19
240.494	169.19
240.728	151.19
240.961	154.19
241.195	140.19
241.429	145.19
241.662	146.19
241.896	147.19
242.13	140.19
242.363	135.19
242.597	126.19
242.83	112.19
243.064	143.19
243.298	149.19
243.531	153.19
243.765	147.19
243.998	150.19
244.232	138.19
244.465	134.19
244.699	144.19
244.932	146.19
245.166	164.19
245.399	139.19
245.633	153.19
245.866	145.19
246.099	166.19
246.333	159.19
246.566	155.19
246.8	167.19
247.033	162.19
247.266	169.19
247.5	175.19
247.733	173.19
247.966	202.19
248.2	174.19
248.433	183.19
248.666	179.19
248.899	201.19
249.133	203.19
249.366	203.19
249.599	194.19
249.832	210.19
250.066	193.19
250.299	195.19
250.532	182.19
250.765	218.19
250.998	226.19
251.231	234.19
251.465	211.19
251.698	202.19
251.931	205.19
252.164	202.19
252.397	199.19
252.63	201.19
252.863	203.19
253.096	226.19
253.329	242.19
253.562	241.19
253.795	234.19
254.028	230.19
254.261	247.19
254.494	224.19
254.727	273.19
254.96	305.19
255.193	292.19
255.426	255.19
255.659	235.19
255.892	243.19
256.124	246.19
256.357	232.19
256.59	241.19
256.823	215.19
257.056	231.19
257.289	220.19
257.521	222.19
257.754	215.19
257.987	222.19
258.22	222.19
258.452	218.19
258.685	234.19
258.918	216.19
259.151	209.19
259.383	234.19
259.616	212.19
259.849	232.19
260.081	231.19
260.314	247.19
260.547	281.19
260.779	256.19
261.012	244.19
261.244	229.19
261.477	247.19
261.71	222.19
261.942	223.19
262.175	245.19
262.407	215.19
262.64	223.19
262.872	227.19
263.105	223.19
263.337	213.19
263.57	223.19
263.802	230.19
264.035	226.19
264.267	222.19
264.499	225.19
264.732	206.19
264.964	232.19
265.197	213.19
265.429	241.19
265.661	223.19
265.894	225.19
266.126	234.19
266.358	231.19
266.591	224.19
266.823	233.19
267.055	238.19
267.287	235.19
267.52	241.19
267.752	239.19
267.984	218.19
268.216	255.19
268.448	230.19
268.681	263.19
268.913	274.19
269.145	290.19
269.377	291.19
269.609	281.19
269.841	282.19
270.073	276.19
270.306	317.19
270.538	323.19
270.77	317.19
271.002	329.19
271.234	325.19
271.466	310.19
271.698	329.19
271.93	327.19
272.162	350.19
272.394	342.19
272.626	324.19
272.858	280.19
273.09	285.19
273.322	291.19
273.553	267.19
273.785	285.19
274.017	284.19
274.249	286.19
274.481	272.19
274.713	286.19
274.945	287.19
275.176	269.19
275.408	265.19
275.64	275.19
275.872	285.19
276.104	283.19
276.335	277.19
276.567	296.19
276.799	292.19
277.031	338.19
277.262	322.19
277.494	341.19
277.726	322.19
277.957	310.19
278.189	297.19
278.421	286.19
278.652	270.19
278.884	292.19
279.115	283.19
279.347	286.19
279.579	307.19
279.81	271.19
280.042	294.19
280.273	271.19
280.505	301.19
280.736	291.19
280.968	275.19
281.199	296.19
281.431	272.19
281.662	287.19
281.894	288.19
282.125	281.19
282.356	296.19
282.588	319.19
282.819	319.19
283.051	306.19
283.282	294.19
283.513	280.19
283.745	295.19
283.976	299.19
284.207	289.19
284.439	298.19
284.67	313.19
284.901	309.19
285.132	315.19
285.364	292.19
285.595	303.19
285.826	305.19
286.057	297.19
286.288	285.19
286.52	303.19
286.751	328.19
286.982	313.19
287.213	308.19
287.444	319.19
287.675	314.19
287.906	331.19
288.138	325.19
288.369	321.19
288.6	329.19
288.831	329.19
289.062	312.19
289.293	314.19
289.524	296.19
289.755	314.19
289.986	320.19
290.217	310.19
290.448	305.19
290.679	305.19
290.91	306.19
291.141	321.19
291.371	307.19
291.602	310.19
291.833	314.19
292.064	323.19
292.295	323.19
292.526	310.19
292.757	315.19
292.987	314.19
293.218	305.19
293.449	309.19
293.68	313.19
293.91	312.19
294.141	331.19
294.372	307.19
294.603	341.19
294.833	320.19
295.064	324.19
295.295	345.19
295.525	323.19
295.756	342.19
295.987	313.19
296.217	345.19
296.448	333.19
296.679	356.19
296.909	316.19
297.14	316.19
297.37	330.19
297.601	326.19
297.831	330.19
298.062	322.19
298.292	334.19
298.523	321.19
298.753	328.19
298.984	338.19
299.214	336.19
299.445	330.19
299.675	350.19
299.905	339.19
300.136	343.19
300.366	339.19
300.597	330.19
300.827	359.19
301.057	359.19
301.288	347.19
301.518	333.19
301.748	349.19
301.979	360.19
302.209	341.19
302.439	352.19
302.669	367.19
302.9	349.19
303.13	342.19
303.36	338.19
303.59	358.19
303.82	369.19
304.051	377.19
304.281	360.19
304.511	350.19
304.741	354.19
304.971	358.19
305.201	365.19
305.431	379.19
305.661	353.19
305.891	369.19
306.121	350.19
306.352	357.19
306.582	338.19
306.812	359.19
307.042	335.19
307.272	338.19
307.502	351.19
307.731	363.19
307.961	366.19
308.191	345.19
308.421	355.19
308.651	358.19
308.881	346.19
309.111	376.19
309.341	364.19
309.571	379.19
309.8	381.19
310.03	386.19
310.26	373.19
310.49	383.19
310.72	415.19
310.949	395.19
311.179	416.19
311.409	393.19
311.639	401.19
311.868	399.19
312.098	385.19
312.328	409.19
312.557	405.19
312.787	409.19
313.017	430.19
313.246	393.19
313.476	407.19
313.706	402.19
313.935	407.19
314.165	411.19
314.394	406.19
314.624	409.19
314.853	411.19
315.083	408.19
315.312	397.19
315.542	390.19
315.771	397.19
316.001	391.19
316.23	398.19
316.46	398.19
316.689	402.19
316.919	391.19
317.148	399.19
317.377	389.19
317.607	397.19
317.836	402.19
318.065	395.19
318.295	404.19
318.524	402.19
318.753	395.19
318.983	396.19
319.212	401.19
319.441	405.19
319.67	396.19
319.9	400.19
320.129	394.19
320.358	392.19
320.587	409.19
320.816	390.19
321.046	395.19
321.275	400.19
321.504	397.19
321.733	418.19
321.962	431.19
322.191	445.19
322.42	442.19
322.649	429.19
322.878	450.19
323.108	457.19
323.337	483.19
323.566	490.19
323.795	514.19
324.024	546.19
324.253	664.19
324.482	913.19
324.71	1359.19
324.939	2016.19
325.168	1808.19
325.397	911.19
325.626	637.19
325.855	528.19
326.084	519.19
326.313	509.19
326.542	494.19
326.77	533.19
326.999	604.19
327.228	808.19
327.457	1240.19
327.686	1557.19
327.914	1026.19
328.143	699.19
328.372	601.19
328.6	594.19
328.829	530.19
329.058	573.19
329.287	553.19
329.515	546.19
329.744	504.19
329.972	532.19
330.201	544.19
330.43	559.19
330.658	589.19
330.887	607.19
331.115	602.19
331.344	542.19
331.572	516.19
331.801	533.19
332.03	527.19
332.258	486.19
332.486	493.19
332.715	504.19
332.943	478.19
333.172	499.19
333.4	515.19
333.629	514.19
333.857	518.19
334.085	532.19
334.314	522.19
334.542	566.19
334.771	584.19
334.999	563.19
335.227	541.19
335.455	499.19
335.684	487.19
335.912	487.19
336.14	485.19
336.369	480.19
336.597	486.19
336.825	482.19
337.053	479.19
337.281	467.19
337.51	476.19
337.738	475.19
337.966	463.19
338.194	473.19
338.422	461.19
338.65	481.19
338.878	450.19
339.106	461.19
339.334	458.19
339.562	456.19
339.79	442.19
340.018	484.19
340.246	457.19
340.474	477.19
340.702	456.19
340.93	463.19
341.158	440.19
341.386	454.19
341.614	458.19
341.842	470.19
342.07	451.19
342.298	452.19
342.526	447.19
342.754	436.19
342.981	430.19
343.209	459.19
343.437	478.19
343.665	473.19
343.893	474.19
344.12	498.19
344.348	482.19
344.576	467.19
344.804	472.19
345.031	479.19
345.259	465.19
345.487	450.19
345.714	452.19
345.942	460.19
346.17	449.19
346.397	452.19
346.625	433.19
346.853	452.19
347.08	470.19
347.308	441.19
347.535	453.19
347.763	445.19
347.99	431.19
348.218	446.19
348.445	446.19
348.673	456.19
348.9	451.19
349.128	458.19
349.355	437.19
349.583	434.19
349.81	430.19
350.037	409.19
350.265	427.19
350.492	432.19
350.72	442.19
350.947	442.19
351.174	423.19
351.402	457.19
351.629	444.19
351.856	443.19
352.083	455.19
352.311	455.19
352.538	435.19
352.765	426.19
352.992	431.19
353.22	450.19
353.447	439.19
353.674	436.19
353.901	446.19
354.128	441.19
354.355	422.19
354.583	424.19
354.81	430.19
355.037	425.19
355.264	423.19
355.491	396.19
355.718	407.19
355.945	421.19
356.172	424.19
356.399	414.19
356.626	418.19
356.853	425.19
357.08	417.19
357.307	416.19
357.534	424.19
357.761	418.19
357.988	434.19
358.215	410.19
358.441	422.19
358.668	425.19
358.895	421.19
359.122	402.19
359.349	430.19
359.576	440.19
359.802	456.19
360.029	472.19
360.256	473.19
360.483	477.19
360.709	467.19
360.936	474.19
361.163	439.19
361.39	440.19
361.616	448.19
361.843	450.19
362.07	439.19
362.296	479.19
362.523	438.19
362.749	445.19
362.976	439.19
363.203	444.19
363.429	437.19
363.656	433.19
363.882	406.19
364.109	451.19
364.335	429.19
364.562	423.19
364.788	438.19
365.015	442.19
365.241	437.19
365.468	425.19
365.694	398.19
365.92	424.19
366.147	408.19
366.373	442.19
366.599	450.19
366.826	435.19
367.052	418.19
367.278	417.19
367.505	406.19
367.731	426.19
367.957	438.19
368.184	433.19
368.41	450.19
368.636	430.19
368.862	445.19
369.089	441.19
369.315	447.19
369.541	444.19
369.767	435.19
369.993	439.19
370.219	434.19
370.445	449.19
370.672	433.19
370.898	416.19
371.124	438.19
371.35	438.19
371.576	451.19
371.802	441.19
372.028	461.19
372.254	432.19
372.48	443.19
372.706	434.19
372.932	425.19
373.158	437.19
373.384	456.19
373.61	419.19
373.835	442.19
374.061	431.19
374.287	443.19
374.513	463.19
374.739	453.19
374.965	435.19
375.191	439.19
375.416	458.19
375.642	456.19
375.868	450.19
376.094	430.19
376.319	445.19
376.545	444.19
376.771	422.19
376.997	443.19
377.222	435.19
377.448	437.19
377.674	442.19
377.899	435.19
378.125	426.19
378.35	437.19
378.576	429.19
378.802	408.19
379.027	426.19
379.253	415.19
379.478	441.19
379.704	425.19
379.929	415.19
380.155	443.19
380.38	440.19
380.606	441.19
380.831	445.19
381.057	439.19
381.282	414.19
381.507	431.19
381.733	455.19
381.958	444.19
382.184	455.19
382.409	467.19
382.634	444.19
382.86	431.19
383.085	467.19
383.31	457.19
383.535	474.19
383.761	469.19
383.986	466.19
384.211	452.19
384.436	470.19
384.662	492.19
384.887	485.19
385.112	486.19
385.337	494.19
385.562	485.19
385.787	495.19
386.013	513.19
386.238	498.19
386.463	516.19
386.688	490.19
386.913	498.19
387.138	484.19
387.363	497.19
387.588	473.19
387.813	495.19
388.038	473.19
388.263	516.19
388.488	480.19
388.713	493.19
388.938	474.19
389.163	487.19
389.387	508.19
389.612	499.19
389.837	471.19
390.062	485.19
390.287	479.19
390.512	484.19
390.736	482.19
390.961	482.19
391.186	494.19
391.411	505.19
391.636	518.19
391.86	509.19
392.085	514.19
392.31	516.19
392.534	484.19
392.759	502.19
392.984	496.19
393.208	506.19
393.433	486.19
393.658	497.19
393.882	463.19
394.107	490.19
394.331	493.19
394.556	521.19
394.78	519.19
395.005	508.19
395.229	493.19
395.454	507.19
395.678	533.19
395.903	513.19
396.127	552.19
396.352	558.19
396.576	520.19
396.801	517.19
397.025	497.19
397.249	501.19
397.474	547.19
397.698	530.19
397.922	551.19
398.147	545.19
398.371	570.19
398.595	549.19
398.82	573.19
399.044	571.19
399.268	614.19
399.492	646.19
399.717	702.19
399.941	723.19
400.165	739.19
400.389	740.19
400.613	651.19
400.837	625.19
401.062	602.19
401.286	581.19
401.51	578.19
401.734	586.19
401.958	580.19
402.182	589.19
402.406	599.19
402.63	601.19
402.854	573.19
403.078	596.19
403.302	574.19
403.526	602.19
403.75	599.19
403.974	614.19
404.198	592.19
404.422	606.19
404.645	625.19
404.869	632.19
405.093	641.19
405.317	710.19
405.541	743.19
405.765	671.19
405.988	632.19
406.212	639.19
406.436	652.19
406.66	677.19
406.883	641.19
407.107	662.19
407.331	723.19
407.555	799.19
407.778	777.19
408.002	719.19
408.226	673.19
408.449	674.19
408.673	663.19
408.896	683.19
409.12	729.19
409.344	695.19
409.567	621.19
409.791	595.19
410.014	609.19
410.238	580.19
410.461	596.19
410.685	598.19
410.908	617.19
411.132	657.19
411.355	690.19
411.578	680.19
411.802	606.19
412.025	607.19
412.249	611.19
412.472	662.19
412.695	669.19
412.919	665.19
413.142	629.19
413.365	566.19
413.589	568.19
413.812	568.19
414.035	568.19
414.258	575.19
414.482	568.19
414.705	569.19
414.928	549.19
415.151	567.19
415.374	561.19
415.597	553.19
415.821	571.19
416.044	549.19
416.267	574.19
416.49	577.19
416.713	541.19
416.936	565.19
417.159	567.19
417.382	544.19
417.605	569.19
417.828	571.19
418.051	602.19
418.274	576.19
418.497	574.19
418.72	568.19
418.943	568.19
419.166	598.19
419.389	618.19
419.611	629.19
419.834	599.19
420.057	623.19
420.28	606.19
420.503	580.19
420.726	598.19
420.948	623.19
421.171	639.19
421.394	663.19
421.617	599.19
421.839	580.19
422.062	609.19
422.285	626.19
422.507	690.19
422.73	730.19
422.953	701.19
423.175	625.19
423.398	610.19
423.621	610.19
423.843	640.19
424.066	645.19
424.288	625.19
424.511	662.19
424.733	720.19
424.956	797.19
425.178	752.19
425.401	725.19
425.623	773.19
425.846	661.19
426.068	596.19
426.291	619.19
426.513	615.19
426.735	639.19
426.958	675.19
427.18	747.19
427.402	906.19
427.625	982.19
427.847	851.19
428.069	733.19
428.292	676.19
428.514	605.19
428.736	601.19
428.958	597.19
429.181	573.19
429.403	576.19
429.625	589.19
429.847	595.19
430.069	669.19
430.292	675.19
430.514	586.19
430.736	585.19
430.958	571.19
431.18	550.19
431.402	549.19
431.624	531.19
431.846	553.19
432.068	555.19
432.29	569.19
432.512	561.19
432.734	569.19
432.956	524.19
433.178	547.19
433.4	550.19
433.622	554.19
433.844	565.19
434.066	541.19
434.287	535.19
434.509	575.19
434.731	590.19
434.953	580.19
435.175	582.19
435.397	621.19
435.618	619.19
435.84	682.19
436.062	766.19
436.284	842.19
436.505	704.19
436.727	635.19
436.949	581.19
437.17	585.19
437.392	554.19
437.614	594.19
437.835	609.19
438.057	694.19
438.278	842.19
438.5	842.19
438.721	901.19
438.943	869.19
439.165	691.19
439.386	667.19
439.608	618.19
439.829	630.19
440.05	670.19
440.272	710.19
440.493	670.19
440.715	606.19
440.936	592.19
441.158	598.19
441.379	588.19
441.6	607.19
441.822	621.19
442.043	672.19
442.264	767.19
442.486	803.19
442.707	693.19
442.928	647.19
443.149	650.19
443.371	675.19
443.592	714.19
443.813	826.19
444.034	917.19
444.255	726.19
444.476	679.19
444.698	667.19
444.919	639.19
445.14	749.19
445.361	710.19
445.582	701.19
445.803	753.19
446.024	854.19
446.245	858.19
446.466	767.19
446.687	679.19
446.908	637.19
447.129	575.19
447.35	565.19
447.571	570.19
447.792	562.19
448.013	563.19
448.234	593.19
448.455	650.19
448.675	751.19
448.896	897.19
449.117	745.19
449.338	701.19
449.559	831.19
449.779	921.19
450	759.19
450.221	625.19
450.442	568.19
450.662	555.19
450.883	519.19
451.104	567.19
451.324	542.19
451.545	546.19
451.766	528.19
451.986	502.19
452.207	494.19
452.428	519.19
452.648	511.19
452.869	507.19
453.089	520.19
453.31	542.19
453.53	499.19
453.751	516.19
453.971	529.19
454.192	514.19
454.412	500.19
454.633	503.19
454.853	501.19
455.073	507.19
455.294	534.19
455.514	582.19
455.734	586.19
455.955	519.19
456.175	471.19
456.395	465.19
456.616	470.19
456.836	480.19
457.056	462.19
457.276	466.19
457.497	475.19
457.717	469.19
457.937	469.19
458.157	502.19
458.377	506.19
458.598	517.19
458.818	577.19
459.038	651.19
459.258	694.19
459.478	600.19
459.698	565.19
459.918	558.19
460.138	557.19
460.358	552.19
460.578	558.19
460.798	567.19
461.018	577.19
461.238	570.19
461.458	582.19
461.678	562.19
461.898	561.19
462.118	588.19
462.338	580.19
462.558	599.19
462.777	624.19
462.997	621.19
463.217	660.19
463.437	639.19
463.657	632.19
463.876	609.19
464.096	633.19
464.316	630.19
464.536	633.19
464.755	627.19
464.975	606.19
465.195	639.19
465.414	662.19
465.634	625.19
465.854	590.19
466.073	568.19
466.293	552.19
466.512	519.19
466.732	527.19
466.951	515.19
467.171	526.19
467.391	542.19
467.61	526.19
467.829	556.19
468.049	539.19
468.268	536.19
468.488	530.19
468.707	499.19
468.927	521.19
469.146	529.19
469.365	498.19
469.585	519.19
469.804	540.19
470.023	540.19
470.243	535.19
470.462	533.19
470.681	556.19
470.901	539.19
471.12	529.19
471.339	522.19
471.558	519.19
471.777	516.19
471.997	533.19
472.216	532.19
472.435	559.19
472.654	554.19
472.873	554.19
473.092	508.19
473.311	529.19
473.53	554.19
473.749	529.19
473.968	566.19
474.187	673.19
474.406	705.19
474.625	574.19
474.844	537.19
475.063	533.19
475.282	537.19
475.501	535.19
475.72	565.19
475.939	543.19
476.158	562.19
476.377	533.19
476.596	543.19
476.814	562.19
477.033	551.19
477.252	554.19
477.471	560.19
477.69	573.19
477.908	577.19
478.127	581.19
478.346	603.19
478.564	601.19
478.783	609.19
479.002	617.19
479.22	610.19
479.439	611.19
479.658	638.19
479.876	651.19
480.095	638.19
480.313	674.19
480.532	664.19
480.751	624.19
480.969	666.19
481.188	711.19
481.406	739.19
481.624	665.19
481.843	674.19
482.061	633.19
482.28	623.19
482.498	640.19
482.717	632.19
482.935	633.19
483.153	614.19
483.372	610.19
483.59	633.19
483.808	630.19
484.027	633.19
484.245	613.19
484.463	632.19
484.681	648.19
484.9	626.19
485.118	644.19
485.336	640.19
485.554	627.19
485.772	625.19
485.99	634.19
486.209	651.19
486.427	645.19
486.645	646.19
486.863	674.19
487.081	668.19
487.299	663.19
487.517	696.19
487.735	653.19
487.953	659.19
488.171	654.19
488.389	641.19
488.607	674.19
488.825	673.19
489.043	673.19
489.261	669.19
489.479	693.19
489.696	675.19
489.914	707.19
490.132	682.19
490.35	708.19
490.568	708.19
490.786	713.19
491.003	724.19
491.221	744.19
491.439	782.19
491.657	753.19
491.874	753.19
492.092	764.19
492.31	794.19
492.527	781.19
492.745	798.19
492.963	767.19
493.18	791.19
493.398	788.19
493.615	791.19
493.833	795.19
494.05	806.19
494.268	820.19
494.485	777.19
494.703	796.19
494.92	778.19
495.138	798.19
495.355	783.19
495.573	805.19
495.79	795.19
496.008	824.19
496.225	848.19
496.442	785.19
496.66	842.19
496.877	787.19
497.094	795.19
497.312	842.19
497.529	827.19
497.746	837.19
497.963	848.19
498.181	877.19
498.398	869.19
498.615	899.19
498.832	934.19
499.049	934.19
499.267	977.19
499.484	1022.19
499.701	1076.19
499.918	1114.19
500.135	1207.19
500.352	1258.19
500.569	1286.19
500.786	1267.19
501.003	1253.19
501.22	1201.19
501.437	1169.19
501.654	1081.19
