Data from 1975.PennyLincolnUp.Lamp.En5.5.200Scan.071719.P1.Changed Mount._HRD10591_15-56-42-859.txt Node
Date: Thu Jul 18 15:56:42 EDT 2019
User: cochatt
Spectrometer: HR+D1059
Trigger mode: 1
Integration Time (sec): 1.000000E-1
Scans to average: 1
Electric dark correction enabled: true
Nonlinearity correction enabled: false
Boxcar width: 0
XAxis mode: Wavelengths
Number of Pixels in Spectrum: 2048
>>>>>Begin Spectral Data<<<<<
223.165	-20.31
223.4	-20.31
223.635	-20.31
223.869	-12.31
224.104	-13.31
224.338	-17.31
224.573	-14.31
224.808	-25.31
225.042	-7.31
225.277	-6.31
225.511	-14.31
225.746	10.69
225.98	0.69
226.215	4.69
226.449	20.69
226.683	23.69
226.918	35.69
227.152	34.69
227.387	30.69
227.621	33.69
227.856	32.69
228.09	54.69
228.324	48.69
228.559	56.69
228.793	69.69
229.027	95.69
229.262	97.69
229.496	96.69
229.73	120.69
229.964	149.69
230.199	109.69
230.433	102.69
230.667	109.69
230.901	111.69
231.136	108.69
231.37	115.69
231.604	124.69
231.838	111.69
232.072	117.69
232.306	121.69
232.541	119.69
232.775	116.69
233.009	125.69
233.243	104.69
233.477	123.69
233.711	119.69
233.945	125.69
234.179	116.69
234.413	104.69
234.647	109.69
234.881	104.69
235.115	110.69
235.349	123.69
235.583	123.69
235.817	121.69
236.051	140.69
236.285	123.69
236.519	128.69
236.753	126.69
236.987	144.69
237.221	197.69
237.455	223.69
237.689	168.69
237.922	135.69
238.156	132.69
238.39	130.69
238.624	126.69
238.858	125.69
239.091	131.69
239.325	144.69
239.559	131.69
239.793	141.69
240.027	133.69
240.26	142.69
240.494	138.69
240.728	149.69
240.961	154.69
241.195	134.69
241.429	161.69
241.662	134.69
241.896	132.69
242.13	153.69
242.363	145.69
242.597	131.69
242.83	147.69
243.064	143.69
243.298	143.69
243.531	154.69
243.765	128.69
243.998	126.69
244.232	132.69
244.465	124.69
244.699	152.69
244.932	152.69
245.166	156.69
245.399	158.69
245.633	138.69
245.866	140.69
246.099	160.69
246.333	154.69
246.566	144.69
246.8	152.69
247.033	157.69
247.266	155.69
247.5	179.69
247.733	173.69
247.966	171.69
248.2	179.69
248.433	183.69
248.666	173.69
248.899	194.69
249.133	196.69
249.366	220.69
249.599	191.69
249.832	186.69
250.066	191.69
250.299	178.69
250.532	202.69
250.765	220.69
250.998	203.69
251.231	225.69
251.465	226.69
251.698	207.69
251.931	196.69
252.164	214.69
252.397	196.69
252.63	205.69
252.863	207.69
253.096	223.69
253.329	232.69
253.562	217.69
253.795	212.69
254.028	221.69
254.261	200.69
254.494	230.69
254.727	250.69
254.96	267.69
255.193	269.69
255.426	248.69
255.659	222.69
255.892	229.69
256.124	243.69
256.357	250.69
256.59	243.69
256.823	213.69
257.056	218.69
257.289	208.69
257.521	202.69
257.754	188.69
257.987	210.69
258.22	212.69
258.452	199.69
258.685	212.69
258.918	218.69
259.151	196.69
259.383	220.69
259.616	218.69
259.849	229.69
260.081	216.69
260.314	250.69
260.547	258.69
260.779	262.69
261.012	225.69
261.244	233.69
261.477	221.69
261.71	215.69
261.942	229.69
262.175	226.69
262.407	224.69
262.64	222.69
262.872	215.69
263.105	207.69
263.337	212.69
263.57	207.69
263.802	214.69
264.035	233.69
264.267	201.69
264.499	205.69
264.732	222.69
264.964	238.69
265.197	236.69
265.429	221.69
265.661	224.69
265.894	205.69
266.126	227.69
266.358	216.69
266.591	226.69
266.823	236.69
267.055	244.69
267.287	218.69
267.52	229.69
267.752	223.69
267.984	232.69
268.216	232.69
268.448	231.69
268.681	223.69
268.913	250.69
269.145	264.69
269.377	290.69
269.609	284.69
269.841	263.69
270.073	270.69
270.306	291.69
270.538	323.69
270.77	306.69
271.002	288.69
271.234	276.69
271.466	301.69
271.698	328.69
271.93	309.69
272.162	314.69
272.394	303.69
272.626	308.69
272.858	283.69
273.09	271.69
273.322	250.69
273.553	268.69
273.785	268.69
274.017	262.69
274.249	275.69
274.481	269.69
274.713	270.69
274.945	264.69
275.176	282.69
275.408	266.69
275.64	268.69
275.872	252.69
276.104	284.69
276.335	273.69
276.567	269.69
276.799	278.69
277.031	300.69
277.262	334.69
277.494	322.69
277.726	302.69
277.957	310.69
278.189	282.69
278.421	284.69
278.652	285.69
278.884	282.69
279.115	273.69
279.347	283.69
279.579	284.69
279.81	268.69
280.042	286.69
280.273	282.69
280.505	280.69
280.736	269.69
280.968	277.69
281.199	287.69
281.431	284.69
281.662	266.69
281.894	283.69
282.125	283.69
282.356	301.69
282.588	300.69
282.819	296.69
283.051	301.69
283.282	293.69
283.513	299.69
283.745	280.69
283.976	285.69
284.207	306.69
284.439	312.69
284.67	297.69
284.901	286.69
285.132	288.69
285.364	302.69
285.595	275.69
285.826	296.69
286.057	298.69
286.288	287.69
286.52	282.69
286.751	272.69
286.982	297.69
287.213	297.69
287.444	297.69
287.675	306.69
287.906	294.69
288.138	309.69
288.369	315.69
288.6	315.69
288.831	301.69
289.062	306.69
289.293	302.69
289.524	295.69
289.755	290.69
289.986	318.69
290.217	312.69
290.448	274.69
290.679	303.69
290.91	300.69
291.141	310.69
291.371	274.69
291.602	280.69
291.833	294.69
292.064	313.69
292.295	308.69
292.526	307.69
292.757	308.69
292.987	315.69
293.218	301.69
293.449	302.69
293.68	310.69
293.91	299.69
294.141	311.69
294.372	296.69
294.603	319.69
294.833	299.69
295.064	310.69
295.295	314.69
295.525	299.69
295.756	314.69
295.987	327.69
296.217	325.69
296.448	325.69
296.679	304.69
296.909	291.69
297.14	298.69
297.37	315.69
297.601	316.69
297.831	324.69
298.062	310.69
298.292	344.69
298.523	313.69
298.753	318.69
298.984	321.69
299.214	318.69
299.445	338.69
299.675	334.69
299.905	327.69
300.136	329.69
300.366	335.69
300.597	335.69
300.827	333.69
301.057	352.69
301.288	344.69
301.518	357.69
301.748	332.69
301.979	315.69
302.209	330.69
302.439	342.69
302.669	341.69
302.9	355.69
303.13	344.69
303.36	342.69
303.59	334.69
303.82	343.69
304.051	349.69
304.281	349.69
304.511	340.69
304.741	350.69
304.971	345.69
305.201	343.69
305.431	344.69
305.661	316.69
305.891	330.69
306.121	339.69
306.352	347.69
306.582	347.69
306.812	350.69
307.042	323.69
307.272	325.69
307.502	346.69
307.731	329.69
307.961	332.69
308.191	346.69
308.421	347.69
308.651	372.69
308.881	346.69
309.111	346.69
309.341	343.69
309.571	347.69
309.8	374.69
310.03	361.69
310.26	336.69
310.49	366.69
310.72	372.69
310.949	387.69
311.179	404.69
311.409	367.69
311.639	350.69
311.868	376.69
312.098	371.69
312.328	378.69
312.557	395.69
312.787	405.69
313.017	402.69
313.246	383.69
313.476	388.69
313.706	386.69
313.935	395.69
314.165	394.69
314.394	415.69
314.624	410.69
314.853	387.69
315.083	388.69
315.312	383.69
315.542	377.69
315.771	374.69
316.001	374.69
316.23	368.69
316.46	384.69
316.689	386.69
316.919	392.69
317.148	383.69
317.377	388.69
317.607	391.69
317.836	394.69
318.065	372.69
318.295	372.69
318.524	390.69
318.753	361.69
318.983	374.69
319.212	391.69
319.441	380.69
319.67	395.69
319.9	384.69
320.129	390.69
320.358	402.69
320.587	386.69
320.816	398.69
321.046	395.69
321.275	397.69
321.504	395.69
321.733	406.69
321.962	417.69
322.191	417.69
322.42	419.69
322.649	420.69
322.878	414.69
323.108	438.69
323.337	437.69
323.566	458.69
323.795	485.69
324.024	488.69
324.253	587.69
324.482	799.69
324.71	1199.69
324.939	1769.69
325.168	1566.69
325.397	808.69
325.626	565.69
325.855	488.69
326.084	466.69
326.313	432.69
326.542	467.69
326.77	494.69
326.999	571.69
327.228	726.69
327.457	1076.69
327.686	1332.69
327.914	928.69
328.143	599.69
328.372	574.69
328.6	527.69
328.829	512.69
329.058	523.69
329.287	514.69
329.515	516.69
329.744	494.69
329.972	479.69
330.201	496.69
330.43	532.69
330.658	542.69
330.887	564.69
331.115	533.69
331.344	499.69
331.572	444.69
331.801	455.69
332.03	488.69
332.258	484.69
332.486	448.69
332.715	471.69
332.943	479.69
333.172	458.69
333.4	464.69
333.629	477.69
333.857	487.69
334.085	510.69
334.314	504.69
334.542	565.69
334.771	535.69
334.999	519.69
335.227	500.69
335.455	478.69
335.684	469.69
335.912	452.69
336.14	456.69
336.369	479.69
336.597	474.69
336.825	463.69
337.053	442.69
337.281	460.69
337.51	444.69
337.738	464.69
337.966	455.69
338.194	457.69
338.422	428.69
338.65	451.69
338.878	464.69
339.106	441.69
339.334	460.69
339.562	442.69
339.79	442.69
340.018	439.69
340.246	436.69
340.474	467.69
340.702	428.69
340.93	426.69
341.158	432.69
341.386	451.69
341.614	447.69
341.842	439.69
342.07	440.69
342.298	412.69
342.526	400.69
342.754	434.69
342.981	424.69
343.209	422.69
343.437	401.69
343.665	446.69
343.893	445.69
344.12	486.69
344.348	463.69
344.576	440.69
344.804	453.69
345.031	468.69
345.259	457.69
345.487	458.69
345.714	451.69
345.942	432.69
346.17	432.69
346.397	421.69
346.625	430.69
346.853	434.69
347.08	437.69
347.308	420.69
347.535	428.69
347.763	436.69
347.99	446.69
348.218	446.69
348.445	425.69
348.673	425.69
348.9	422.69
349.128	440.69
349.355	424.69
349.583	409.69
349.81	408.69
350.037	409.69
350.265	416.69
350.492	397.69
350.72	426.69
350.947	406.69
351.174	428.69
351.402	434.69
351.629	419.69
351.856	415.69
352.083	427.69
352.311	434.69
352.538	440.69
352.765	420.69
352.992	416.69
353.22	425.69
353.447	425.69
353.674	416.69
353.901	398.69
354.128	419.69
354.355	383.69
354.583	413.69
354.81	382.69
355.037	415.69
355.264	404.69
355.491	407.69
355.718	404.69
355.945	391.69
356.172	405.69
356.399	415.69
356.626	414.69
356.853	423.69
357.08	409.69
357.307	418.69
357.534	404.69
357.761	427.69
357.988	406.69
358.215	397.69
358.441	409.69
358.668	384.69
358.895	403.69
359.122	413.69
359.349	428.69
359.576	417.69
359.802	441.69
360.029	444.69
360.256	462.69
360.483	452.69
360.709	416.69
360.936	423.69
361.163	415.69
361.39	434.69
361.616	428.69
361.843	421.69
362.07	427.69
362.296	430.69
362.523	414.69
362.749	412.69
362.976	419.69
363.203	411.69
363.429	395.69
363.656	391.69
363.882	437.69
364.109	431.69
364.335	424.69
364.562	435.69
364.788	411.69
365.015	410.69
365.241	408.69
365.468	428.69
365.694	403.69
365.92	400.69
366.147	414.69
366.373	405.69
366.599	424.69
366.826	444.69
367.052	414.69
367.278	417.69
367.505	419.69
367.731	416.69
367.957	406.69
368.184	417.69
368.41	411.69
368.636	411.69
368.862	422.69
369.089	439.69
369.315	404.69
369.541	418.69
369.767	408.69
369.993	426.69
370.219	419.69
370.445	411.69
370.672	420.69
370.898	416.69
371.124	420.69
371.35	432.69
371.576	421.69
371.802	426.69
372.028	422.69
372.254	404.69
372.48	425.69
372.706	420.69
372.932	451.69
373.158	436.69
373.384	430.69
373.61	423.69
373.835	428.69
374.061	423.69
374.287	430.69
374.513	427.69
374.739	411.69
374.965	438.69
375.191	453.69
375.416	428.69
375.642	428.69
375.868	437.69
376.094	414.69
376.319	440.69
376.545	434.69
376.771	435.69
376.997	428.69
377.222	426.69
377.448	404.69
377.674	409.69
377.899	430.69
378.125	434.69
378.35	421.69
378.576	419.69
378.802	391.69
379.027	419.69
379.253	415.69
379.478	426.69
379.704	429.69
379.929	431.69
380.155	420.69
380.38	411.69
380.606	426.69
380.831	440.69
381.057	446.69
381.282	440.69
381.507	410.69
381.733	442.69
381.958	423.69
382.184	429.69
382.409	438.69
382.634	435.69
382.86	427.69
383.085	427.69
383.31	445.69
383.535	463.69
383.761	439.69
383.986	458.69
384.211	457.69
384.436	450.69
384.662	431.69
384.887	473.69
385.112	467.69
385.337	490.69
385.562	489.69
385.787	466.69
386.013	467.69
386.238	475.69
386.463	481.69
386.688	479.69
386.913	468.69
387.138	485.69
387.363	460.69
387.588	455.69
387.813	471.69
388.038	478.69
388.263	483.69
388.488	460.69
388.713	485.69
388.938	476.69
389.163	482.69
389.387	501.69
389.612	481.69
389.837	458.69
390.062	485.69
390.287	479.69
390.512	471.69
390.736	482.69
390.961	486.69
391.186	482.69
391.411	480.69
391.636	481.69
391.86	487.69
392.085	509.69
392.31	503.69
392.534	482.69
392.759	481.69
392.984	471.69
393.208	489.69
393.433	463.69
393.658	477.69
393.882	475.69
394.107	469.69
394.331	483.69
394.556	470.69
394.78	494.69
395.005	496.69
395.229	487.69
395.454	510.69
395.678	504.69
395.903	523.69
396.127	530.69
396.352	536.69
396.576	515.69
396.801	489.69
397.025	494.69
397.249	514.69
397.474	528.69
397.698	507.69
397.922	520.69
398.147	518.69
398.371	546.69
398.595	525.69
398.82	562.69
399.044	564.69
399.268	576.69
399.492	612.69
399.717	655.69
399.941	694.69
400.165	700.69
400.389	702.69
400.613	651.69
400.837	608.69
401.062	590.69
401.286	570.69
401.51	588.69
401.734	560.69
401.958	544.69
402.182	547.69
402.406	565.69
402.63	579.69
402.854	572.69
403.078	567.69
403.302	584.69
403.526	596.69
403.75	597.69
403.974	578.69
404.198	582.69
404.422	584.69
404.645	585.69
404.869	605.69
405.093	626.69
405.317	653.69
405.541	737.69
405.765	622.69
405.988	596.69
406.212	636.69
406.436	628.69
406.66	613.69
406.883	638.69
407.107	632.69
407.331	703.69
407.555	751.69
407.778	755.69
408.002	711.69
408.226	628.69
408.449	608.69
408.673	626.69
408.896	662.69
409.12	717.69
409.344	617.69
409.567	609.69
409.791	587.69
410.014	581.69
410.238	573.69
410.461	564.69
410.685	579.69
410.908	598.69
411.132	622.69
411.355	647.69
411.578	638.69
411.802	584.69
412.025	583.69
412.249	583.69
412.472	616.69
412.695	656.69
412.919	628.69
413.142	581.69
413.365	582.69
413.589	549.69
413.812	541.69
414.035	563.69
414.258	542.69
414.482	559.69
414.705	531.69
414.928	543.69
415.151	569.69
415.374	552.69
415.597	554.69
415.821	540.69
416.044	540.69
416.267	545.69
416.49	544.69
416.713	541.69
416.936	528.69
417.159	562.69
417.382	541.69
417.605	557.69
417.828	586.69
418.051	542.69
418.274	562.69
418.497	537.69
418.72	570.69
418.943	560.69
419.166	586.69
419.389	593.69
419.611	596.69
419.834	580.69
420.057	568.69
420.28	577.69
420.503	581.69
420.726	579.69
420.948	591.69
421.171	597.69
421.394	646.69
421.617	580.69
421.839	544.69
422.062	572.69
422.285	583.69
422.507	647.69
422.73	716.69
422.953	687.69
423.175	619.69
423.398	598.69
423.621	556.69
423.843	596.69
424.066	616.69
424.288	602.69
424.511	606.69
424.733	659.69
424.956	743.69
425.178	700.69
425.401	731.69
425.623	732.69
425.846	659.69
426.068	605.69
426.291	584.69
426.513	582.69
426.735	611.69
426.958	649.69
427.18	714.69
427.402	850.69
427.625	935.69
427.847	794.69
428.069	680.69
428.292	619.69
428.514	599.69
428.736	578.69
428.958	567.69
429.181	548.69
429.403	546.69
429.625	586.69
429.847	582.69
430.069	653.69
430.292	638.69
430.514	558.69
430.736	547.69
430.958	535.69
431.18	536.69
431.402	527.69
431.624	518.69
431.846	511.69
432.068	537.69
432.29	501.69
432.512	500.69
432.734	531.69
432.956	536.69
433.178	540.69
433.4	564.69
433.622	527.69
433.844	532.69
434.066	525.69
434.287	509.69
434.509	532.69
434.731	558.69
434.953	557.69
435.175	576.69
435.397	626.69
435.618	603.69
435.84	620.69
436.062	732.69
436.284	796.69
436.505	653.69
436.727	612.69
436.949	568.69
437.17	562.69
437.392	552.69
437.614	542.69
437.835	576.69
438.057	663.69
438.278	791.69
438.5	778.69
438.721	879.69
438.943	817.69
439.165	679.69
439.386	571.69
439.608	589.69
439.829	606.69
440.05	617.69
440.272	660.69
440.493	623.69
440.715	589.69
440.936	566.69
441.158	559.69
441.379	572.69
441.6	581.69
441.822	566.69
442.043	636.69
442.264	702.69
442.486	770.69
442.707	637.69
442.928	593.69
443.149	610.69
443.371	615.69
443.592	639.69
443.813	795.69
444.034	839.69
444.255	711.69
444.476	653.69
444.698	614.69
444.919	635.69
445.14	774.69
445.361	708.69
445.582	645.69
445.803	696.69
446.024	817.69
446.245	802.69
446.466	739.69
446.687	648.69
446.908	563.69
447.129	559.69
447.35	556.69
447.571	541.69
447.792	538.69
448.013	518.69
448.234	557.69
448.455	594.69
448.675	732.69
448.896	839.69
449.117	712.69
449.338	679.69
449.559	785.69
449.779	929.69
450	683.69
450.221	591.69
450.442	550.69
450.662	522.69
450.883	524.69
451.104	533.69
451.324	536.69
451.545	541.69
451.766	522.69
451.986	488.69
452.207	487.69
452.428	486.69
452.648	498.69
452.869	503.69
453.089	469.69
453.31	494.69
453.53	518.69
453.751	482.69
453.971	505.69
454.192	502.69
454.412	473.69
454.633	484.69
454.853	474.69
455.073	478.69
455.294	503.69
455.514	566.69
455.734	564.69
455.955	479.69
456.175	476.69
456.395	461.69
456.616	455.69
456.836	455.69
457.056	462.69
457.276	481.69
457.497	452.69
457.717	459.69
457.937	455.69
458.157	436.69
458.377	473.69
458.598	500.69
458.818	555.69
459.038	614.69
459.258	640.69
459.478	576.69
459.698	544.69
459.918	524.69
460.138	536.69
460.358	530.69
460.578	527.69
460.798	552.69
461.018	566.69
461.238	544.69
461.458	566.69
461.678	512.69
461.898	548.69
462.118	582.69
462.338	578.69
462.558	567.69
462.777	597.69
462.997	603.69
463.217	616.69
463.437	629.69
463.657	604.69
463.876	580.69
464.096	598.69
464.316	598.69
464.536	606.69
464.755	602.69
464.975	577.69
465.195	611.69
465.414	655.69
465.634	603.69
465.854	551.69
466.073	524.69
466.293	529.69
466.512	520.69
466.732	514.69
466.951	514.69
467.171	479.69
467.391	520.69
467.61	495.69
467.829	506.69
468.049	506.69
468.268	507.69
468.488	477.69
468.707	485.69
468.927	500.69
469.146	495.69
469.365	509.69
469.585	494.69
469.804	478.69
470.023	509.69
470.243	511.69
470.462	514.69
470.681	538.69
470.901	506.69
471.12	516.69
471.339	501.69
471.558	525.69
471.777	523.69
471.997	509.69
472.216	504.69
472.435	539.69
472.654	535.69
472.873	523.69
473.092	506.69
473.311	510.69
473.53	502.69
473.749	501.69
473.968	530.69
474.187	640.69
474.406	666.69
474.625	569.69
474.844	547.69
475.063	494.69
475.282	512.69
475.501	517.69
475.72	518.69
475.939	509.69
476.158	538.69
476.377	520.69
476.596	514.69
476.814	516.69
477.033	542.69
477.252	529.69
477.471	547.69
477.69	554.69
477.908	571.69
478.127	558.69
478.346	555.69
478.564	583.69
478.783	577.69
479.002	601.69
479.22	592.69
479.439	598.69
479.658	608.69
479.876	603.69
480.095	623.69
480.313	676.69
480.532	631.69
480.751	637.69
480.969	642.69
481.188	700.69
481.406	742.69
481.624	648.69
481.843	629.69
482.061	615.69
482.28	602.69
482.498	574.69
482.717	572.69
482.935	598.69
483.153	613.69
483.372	601.69
483.59	586.69
483.808	614.69
484.027	602.69
484.245	603.69
484.463	568.69
484.681	609.69
484.9	605.69
485.118	611.69
485.336	615.69
485.554	612.69
485.772	627.69
485.99	598.69
486.209	619.69
486.427	621.69
486.645	611.69
486.863	642.69
487.081	608.69
487.299	636.69
487.517	661.69
487.735	644.69
487.953	646.69
488.171	651.69
488.389	645.69
488.607	650.69
488.825	647.69
489.043	620.69
489.261	648.69
489.479	656.69
489.696	649.69
489.914	654.69
490.132	669.69
490.35	668.69
490.568	669.69
490.786	696.69
491.003	687.69
491.221	694.69
491.439	698.69
491.657	733.69
491.874	740.69
492.092	718.69
492.31	756.69
492.527	755.69
492.745	710.69
492.963	742.69
493.18	773.69
493.398	759.69
493.615	767.69
493.833	753.69
494.05	756.69
494.268	749.69
494.485	752.69
494.703	730.69
494.92	746.69
495.138	755.69
495.355	754.69
495.573	736.69
495.79	764.69
496.008	747.69
496.225	762.69
496.442	775.69
496.66	763.69
496.877	787.69
497.094	773.69
497.312	782.69
497.529	809.69
497.746	830.69
497.963	815.69
498.181	836.69
498.398	852.69
498.615	848.69
498.832	871.69
499.049	906.69
499.267	957.69
499.484	942.69
499.701	1043.69
499.918	1074.69
500.135	1138.69
500.352	1180.69
500.569	1240.69
500.786	1227.69
501.003	1174.69
501.22	1152.69
501.437	1145.69
501.654	1055.69
