Data from 1975.PennyLincolnUp.Lamp.En5.5.200Scan.071719.P1.Changed Mount._HRD10591_15-57-43-859.txt Node
Date: Thu Jul 18 15:57:43 EDT 2019
User: cochatt
Spectrometer: HR+D1059
Trigger mode: 1
Integration Time (sec): 1.000000E-1
Scans to average: 1
Electric dark correction enabled: true
Nonlinearity correction enabled: false
Boxcar width: 0
XAxis mode: Wavelengths
Number of Pixels in Spectrum: 2048
>>>>>Begin Spectral Data<<<<<
223.165	-4.88
223.4	-4.88
223.635	-4.88
223.869	-13.88
224.104	-22.88
224.338	-22.88
224.573	-26.88
224.808	-14.88
225.042	5.12
225.277	-16.88
225.511	9.12
225.746	0.12
225.98	2.12
226.215	16.12
226.449	21.12
226.683	11.12
226.918	27.12
227.152	31.12
227.387	27.12
227.621	43.12
227.856	42.12
228.09	49.12
228.324	56.12
228.559	50.12
228.793	59.12
229.027	110.12
229.262	102.12
229.496	110.12
229.73	126.12
229.964	139.12
230.199	119.12
230.433	117.12
230.667	103.12
230.901	126.12
231.136	116.12
231.37	102.12
231.604	116.12
231.838	105.12
232.072	103.12
232.306	119.12
232.541	127.12
232.775	112.12
233.009	124.12
233.243	118.12
233.477	116.12
233.711	117.12
233.945	116.12
234.179	110.12
234.413	121.12
234.647	127.12
234.881	121.12
235.115	116.12
235.349	119.12
235.583	124.12
235.817	111.12
236.051	119.12
236.285	123.12
236.519	127.12
236.753	128.12
236.987	149.12
237.221	178.12
237.455	236.12
237.689	195.12
237.922	132.12
238.156	116.12
238.39	134.12
238.624	136.12
238.858	132.12
239.091	122.12
239.325	128.12
239.559	129.12
239.793	130.12
240.027	126.12
240.26	135.12
240.494	147.12
240.728	151.12
240.961	163.12
241.195	151.12
241.429	141.12
241.662	145.12
241.896	131.12
242.13	133.12
242.363	141.12
242.597	124.12
242.83	144.12
243.064	150.12
243.298	134.12
243.531	133.12
243.765	139.12
243.998	140.12
244.232	140.12
244.465	147.12
244.699	141.12
244.932	137.12
245.166	134.12
245.399	136.12
245.633	154.12
245.866	146.12
246.099	135.12
246.333	155.12
246.566	155.12
246.8	161.12
247.033	168.12
247.266	151.12
247.5	151.12
247.733	165.12
247.966	155.12
248.2	171.12
248.433	176.12
248.666	191.12
248.899	197.12
249.133	186.12
249.366	208.12
249.599	198.12
249.832	184.12
250.066	178.12
250.299	182.12
250.532	194.12
250.765	219.12
250.998	219.12
251.231	239.12
251.465	214.12
251.698	214.12
251.931	205.12
252.164	209.12
252.397	204.12
252.63	219.12
252.863	208.12
253.096	205.12
253.329	234.12
253.562	243.12
253.795	216.12
254.028	222.12
254.261	213.12
254.494	235.12
254.727	245.12
254.96	294.12
255.193	288.12
255.426	254.12
255.659	219.12
255.892	235.12
256.124	244.12
256.357	241.12
256.59	220.12
256.823	211.12
257.056	200.12
257.289	202.12
257.521	213.12
257.754	209.12
257.987	212.12
258.22	219.12
258.452	211.12
258.685	214.12
258.918	223.12
259.151	222.12
259.383	222.12
259.616	223.12
259.849	215.12
260.081	215.12
260.314	259.12
260.547	252.12
260.779	241.12
261.012	231.12
261.244	234.12
261.477	233.12
261.71	212.12
261.942	222.12
262.175	232.12
262.407	218.12
262.64	223.12
262.872	216.12
263.105	217.12
263.337	224.12
263.57	213.12
263.802	210.12
264.035	207.12
264.267	220.12
264.499	227.12
264.732	212.12
264.964	229.12
265.197	219.12
265.429	231.12
265.661	218.12
265.894	228.12
266.126	220.12
266.358	229.12
266.591	206.12
266.823	225.12
267.055	236.12
267.287	231.12
267.52	237.12
267.752	230.12
267.984	234.12
268.216	239.12
268.448	240.12
268.681	268.12
268.913	258.12
269.145	269.12
269.377	273.12
269.609	279.12
269.841	272.12
270.073	280.12
270.306	312.12
270.538	313.12
270.77	328.12
271.002	317.12
271.234	290.12
271.466	312.12
271.698	318.12
271.93	327.12
272.162	318.12
272.394	317.12
272.626	313.12
272.858	299.12
273.09	279.12
273.322	279.12
273.553	285.12
273.785	261.12
274.017	255.12
274.249	274.12
274.481	275.12
274.713	278.12
274.945	271.12
275.176	278.12
275.408	288.12
275.64	281.12
275.872	276.12
276.104	256.12
276.335	285.12
276.567	275.12
276.799	303.12
277.031	307.12
277.262	320.12
277.494	317.12
277.726	319.12
277.957	304.12
278.189	274.12
278.421	268.12
278.652	286.12
278.884	288.12
279.115	273.12
279.347	260.12
279.579	272.12
279.81	261.12
280.042	281.12
280.273	286.12
280.505	267.12
280.736	271.12
280.968	260.12
281.199	297.12
281.431	291.12
281.662	280.12
281.894	276.12
282.125	279.12
282.356	311.12
282.588	310.12
282.819	299.12
283.051	282.12
283.282	275.12
283.513	283.12
283.745	305.12
283.976	284.12
284.207	309.12
284.439	297.12
284.67	301.12
284.901	294.12
285.132	287.12
285.364	287.12
285.595	294.12
285.826	297.12
286.057	290.12
286.288	302.12
286.52	307.12
286.751	293.12
286.982	283.12
287.213	294.12
287.444	286.12
287.675	299.12
287.906	331.12
288.138	308.12
288.369	312.12
288.6	321.12
288.831	311.12
289.062	306.12
289.293	311.12
289.524	322.12
289.755	313.12
289.986	303.12
290.217	307.12
290.448	295.12
290.679	304.12
290.91	295.12
291.141	319.12
291.371	290.12
291.602	311.12
291.833	302.12
292.064	304.12
292.295	304.12
292.526	306.12
292.757	295.12
292.987	320.12
293.218	280.12
293.449	293.12
293.68	302.12
293.91	320.12
294.141	323.12
294.372	304.12
294.603	311.12
294.833	287.12
295.064	308.12
295.295	322.12
295.525	297.12
295.756	326.12
295.987	311.12
296.217	335.12
296.448	348.12
296.679	336.12
296.909	317.12
297.14	313.12
297.37	328.12
297.601	306.12
297.831	311.12
298.062	334.12
298.292	314.12
298.523	322.12
298.753	358.12
298.984	328.12
299.214	307.12
299.445	306.12
299.675	327.12
299.905	325.12
300.136	331.12
300.366	328.12
300.597	319.12
300.827	338.12
301.057	325.12
301.288	354.12
301.518	339.12
301.748	331.12
301.979	334.12
302.209	352.12
302.439	355.12
302.669	327.12
302.9	330.12
303.13	348.12
303.36	339.12
303.59	353.12
303.82	358.12
304.051	343.12
304.281	339.12
304.511	326.12
304.741	330.12
304.971	341.12
305.201	332.12
305.431	334.12
305.661	335.12
305.891	342.12
306.121	360.12
306.352	378.12
306.582	350.12
306.812	331.12
307.042	367.12
307.272	340.12
307.502	330.12
307.731	341.12
307.961	338.12
308.191	349.12
308.421	340.12
308.651	338.12
308.881	351.12
309.111	355.12
309.341	362.12
309.571	355.12
309.8	361.12
310.03	378.12
310.26	371.12
310.49	376.12
310.72	386.12
310.949	389.12
311.179	395.12
311.409	391.12
311.639	377.12
311.868	371.12
312.098	388.12
312.328	407.12
312.557	402.12
312.787	395.12
313.017	415.12
313.246	409.12
313.476	388.12
313.706	382.12
313.935	397.12
314.165	388.12
314.394	412.12
314.624	397.12
314.853	397.12
315.083	380.12
315.312	388.12
315.542	398.12
315.771	386.12
316.001	385.12
316.23	367.12
316.46	385.12
316.689	372.12
316.919	376.12
317.148	392.12
317.377	424.12
317.607	388.12
317.836	384.12
318.065	401.12
318.295	398.12
318.524	399.12
318.753	387.12
318.983	372.12
319.212	380.12
319.441	374.12
319.67	394.12
319.9	388.12
320.129	387.12
320.358	403.12
320.587	389.12
320.816	382.12
321.046	396.12
321.275	387.12
321.504	425.12
321.733	398.12
321.962	407.12
322.191	432.12
322.42	445.12
322.649	410.12
322.878	441.12
323.108	429.12
323.337	451.12
323.566	481.12
323.795	495.12
324.024	522.12
324.253	603.12
324.482	852.12
324.71	1268.12
324.939	1909.12
325.168	1674.12
325.397	839.12
325.626	590.12
325.855	508.12
326.084	486.12
326.313	498.12
326.542	476.12
326.77	500.12
326.999	587.12
327.228	787.12
327.457	1186.12
327.686	1454.12
327.914	967.12
328.143	657.12
328.372	587.12
328.6	558.12
328.829	529.12
329.058	537.12
329.287	539.12
329.515	497.12
329.744	488.12
329.972	473.12
330.201	515.12
330.43	542.12
330.658	550.12
330.887	559.12
331.115	556.12
331.344	503.12
331.572	484.12
331.801	490.12
332.03	483.12
332.258	471.12
332.486	498.12
332.715	463.12
332.943	460.12
333.172	486.12
333.4	495.12
333.629	499.12
333.857	496.12
334.085	524.12
334.314	530.12
334.542	568.12
334.771	568.12
334.999	512.12
335.227	500.12
335.455	472.12
335.684	481.12
335.912	465.12
336.14	459.12
336.369	486.12
336.597	466.12
336.825	454.12
337.053	502.12
337.281	467.12
337.51	480.12
337.738	458.12
337.966	464.12
338.194	466.12
338.422	474.12
338.65	451.12
338.878	451.12
339.106	449.12
339.334	453.12
339.562	449.12
339.79	455.12
340.018	448.12
340.246	435.12
340.474	444.12
340.702	438.12
340.93	431.12
341.158	426.12
341.386	434.12
341.614	426.12
341.842	435.12
342.07	434.12
342.298	458.12
342.526	435.12
342.754	425.12
342.981	432.12
343.209	427.12
343.437	452.12
343.665	443.12
343.893	470.12
344.12	486.12
344.348	472.12
344.576	467.12
344.804	478.12
345.031	450.12
345.259	458.12
345.487	460.12
345.714	446.12
345.942	424.12
346.17	441.12
346.397	424.12
346.625	441.12
346.853	437.12
347.08	412.12
347.308	436.12
347.535	447.12
347.763	443.12
347.99	436.12
348.218	439.12
348.445	447.12
348.673	422.12
348.9	422.12
349.128	431.12
349.355	422.12
349.583	413.12
349.81	436.12
350.037	430.12
350.265	413.12
350.492	442.12
350.72	437.12
350.947	426.12
351.174	455.12
351.402	434.12
351.629	436.12
351.856	422.12
352.083	448.12
352.311	453.12
352.538	447.12
352.765	450.12
352.992	460.12
353.22	422.12
353.447	428.12
353.674	434.12
353.901	418.12
354.128	411.12
354.355	410.12
354.583	405.12
354.81	423.12
355.037	400.12
355.264	411.12
355.491	389.12
355.718	428.12
355.945	408.12
356.172	407.12
356.399	407.12
356.626	403.12
356.853	412.12
357.08	395.12
357.307	416.12
357.534	395.12
357.761	391.12
357.988	435.12
358.215	404.12
358.441	397.12
358.668	401.12
358.895	415.12
359.122	407.12
359.349	431.12
359.576	432.12
359.802	437.12
360.029	466.12
360.256	479.12
360.483	458.12
360.709	442.12
360.936	444.12
361.163	433.12
361.39	441.12
361.616	461.12
361.843	420.12
362.07	443.12
362.296	434.12
362.523	434.12
362.749	433.12
362.976	423.12
363.203	420.12
363.429	419.12
363.656	416.12
363.882	430.12
364.109	407.12
364.335	425.12
364.562	416.12
364.788	417.12
365.015	414.12
365.241	425.12
365.468	431.12
365.694	428.12
365.92	416.12
366.147	409.12
366.373	410.12
366.599	412.12
366.826	415.12
367.052	410.12
367.278	403.12
367.505	412.12
367.731	410.12
367.957	409.12
368.184	436.12
368.41	427.12
368.636	433.12
368.862	435.12
369.089	438.12
369.315	420.12
369.541	407.12
369.767	424.12
369.993	413.12
370.219	419.12
370.445	401.12
370.672	434.12
370.898	425.12
371.124	414.12
371.35	425.12
371.576	404.12
371.802	427.12
372.028	436.12
372.254	428.12
372.48	419.12
372.706	422.12
372.932	421.12
373.158	426.12
373.384	424.12
373.61	417.12
373.835	422.12
374.061	426.12
374.287	422.12
374.513	431.12
374.739	442.12
374.965	455.12
375.191	441.12
375.416	443.12
375.642	443.12
375.868	446.12
376.094	442.12
376.319	430.12
376.545	438.12
376.771	425.12
376.997	413.12
377.222	423.12
377.448	411.12
377.674	413.12
377.899	429.12
378.125	409.12
378.35	409.12
378.576	436.12
378.802	421.12
379.027	420.12
379.253	417.12
379.478	434.12
379.704	421.12
379.929	430.12
380.155	427.12
380.38	426.12
380.606	446.12
380.831	418.12
381.057	417.12
381.282	417.12
381.507	430.12
381.733	427.12
381.958	405.12
382.184	425.12
382.409	427.12
382.634	447.12
382.86	434.12
383.085	438.12
383.31	452.12
383.535	455.12
383.761	456.12
383.986	433.12
384.211	452.12
384.436	444.12
384.662	473.12
384.887	466.12
385.112	478.12
385.337	454.12
385.562	451.12
385.787	468.12
386.013	495.12
386.238	483.12
386.463	486.12
386.688	461.12
386.913	467.12
387.138	505.12
387.363	477.12
387.588	471.12
387.813	490.12
388.038	492.12
388.263	489.12
388.488	480.12
388.713	491.12
388.938	474.12
389.163	485.12
389.387	473.12
389.612	462.12
389.837	460.12
390.062	470.12
390.287	484.12
390.512	484.12
390.736	476.12
390.961	467.12
391.186	472.12
391.411	504.12
391.636	490.12
391.86	504.12
392.085	496.12
392.31	529.12
392.534	502.12
392.759	492.12
392.984	516.12
393.208	497.12
393.433	476.12
393.658	485.12
393.882	492.12
394.107	483.12
394.331	493.12
394.556	471.12
394.78	500.12
395.005	494.12
395.229	486.12
395.454	490.12
395.678	482.12
395.903	510.12
396.127	510.12
396.352	545.12
396.576	479.12
396.801	502.12
397.025	493.12
397.249	497.12
397.474	508.12
397.698	501.12
397.922	552.12
398.147	540.12
398.371	537.12
398.595	560.12
398.82	560.12
399.044	570.12
399.268	598.12
399.492	646.12
399.717	698.12
399.941	700.12
400.165	704.12
400.389	691.12
400.613	644.12
400.837	594.12
401.062	568.12
401.286	569.12
401.51	558.12
401.734	571.12
401.958	569.12
402.182	549.12
402.406	576.12
402.63	569.12
402.854	567.12
403.078	579.12
403.302	609.12
403.526	572.12
403.75	592.12
403.974	580.12
404.198	592.12
404.422	594.12
404.645	595.12
404.869	619.12
405.093	625.12
405.317	673.12
405.541	707.12
405.765	658.12
405.988	614.12
406.212	623.12
406.436	635.12
406.66	652.12
406.883	629.12
407.107	651.12
407.331	712.12
407.555	771.12
407.778	787.12
408.002	692.12
408.226	651.12
408.449	634.12
408.673	641.12
408.896	666.12
409.12	727.12
409.344	658.12
409.567	603.12
409.791	619.12
410.014	577.12
410.238	569.12
410.461	570.12
410.685	592.12
410.908	589.12
411.132	644.12
411.355	636.12
411.578	647.12
411.802	607.12
412.025	578.12
412.249	600.12
412.472	626.12
412.695	648.12
412.919	638.12
413.142	593.12
413.365	610.12
413.589	600.12
413.812	558.12
414.035	542.12
414.258	561.12
414.482	558.12
414.705	554.12
414.928	524.12
415.151	536.12
415.374	544.12
415.597	541.12
415.821	543.12
416.044	552.12
416.267	531.12
416.49	560.12
416.713	551.12
416.936	558.12
417.159	541.12
417.382	540.12
417.605	554.12
417.828	567.12
418.051	579.12
418.274	518.12
418.497	535.12
418.72	576.12
418.943	560.12
419.166	576.12
419.389	610.12
419.611	596.12
419.834	600.12
420.057	595.12
420.28	581.12
420.503	593.12
420.726	578.12
420.948	562.12
421.171	605.12
421.394	662.12
421.617	588.12
421.839	579.12
422.062	571.12
422.285	566.12
422.507	650.12
422.73	737.12
422.953	681.12
423.175	637.12
423.398	602.12
423.621	616.12
423.843	614.12
424.066	619.12
424.288	622.12
424.511	638.12
424.733	682.12
424.956	772.12
425.178	739.12
425.401	728.12
425.623	756.12
425.846	658.12
426.068	612.12
426.291	586.12
426.513	598.12
426.735	611.12
426.958	656.12
427.18	719.12
427.402	865.12
427.625	954.12
427.847	807.12
428.069	733.12
428.292	630.12
428.514	605.12
428.736	585.12
428.958	578.12
429.181	560.12
429.403	560.12
429.625	560.12
429.847	599.12
430.069	678.12
430.292	677.12
430.514	578.12
430.736	549.12
430.958	532.12
431.18	530.12
431.402	527.12
431.624	552.12
431.846	508.12
432.068	524.12
432.29	526.12
432.512	537.12
432.734	542.12
432.956	530.12
433.178	538.12
433.4	582.12
433.622	561.12
433.844	530.12
434.066	548.12
434.287	532.12
434.509	560.12
434.731	567.12
434.953	564.12
435.175	586.12
435.397	587.12
435.618	607.12
435.84	644.12
436.062	737.12
436.284	802.12
436.505	690.12
436.727	622.12
436.949	580.12
437.17	574.12
437.392	545.12
437.614	562.12
437.835	581.12
438.057	690.12
438.278	783.12
438.5	789.12
438.721	873.12
438.943	835.12
439.165	670.12
439.386	614.12
439.608	600.12
439.829	618.12
440.05	630.12
440.272	657.12
440.493	620.12
440.715	576.12
440.936	569.12
441.158	578.12
441.379	565.12
441.6	571.12
441.822	606.12
442.043	631.12
442.264	744.12
442.486	811.12
442.707	674.12
442.928	614.12
443.149	636.12
443.371	640.12
443.592	672.12
443.813	821.12
444.034	873.12
444.255	730.12
444.476	631.12
444.698	640.12
444.919	642.12
445.14	754.12
445.361	693.12
445.582	660.12
445.803	724.12
446.024	833.12
446.245	812.12
446.466	741.12
446.687	636.12
446.908	588.12
447.129	568.12
447.35	567.12
447.571	566.12
447.792	559.12
448.013	558.12
448.234	572.12
448.455	630.12
448.675	728.12
448.896	882.12
449.117	713.12
449.338	703.12
449.559	790.12
449.779	899.12
450	727.12
450.221	612.12
450.442	541.12
450.662	546.12
450.883	540.12
451.104	551.12
451.324	556.12
451.545	550.12
451.766	535.12
451.986	477.12
452.207	497.12
452.428	485.12
452.648	474.12
452.869	506.12
453.089	518.12
453.31	503.12
453.53	492.12
453.751	485.12
453.971	496.12
454.192	496.12
454.412	495.12
454.633	465.12
454.853	490.12
455.073	477.12
455.294	505.12
455.514	580.12
455.734	564.12
455.955	519.12
456.175	478.12
456.395	455.12
456.616	476.12
456.836	456.12
457.056	471.12
457.276	442.12
457.497	473.12
457.717	442.12
457.937	466.12
458.157	480.12
458.377	494.12
458.598	516.12
458.818	572.12
459.038	624.12
459.258	638.12
459.478	562.12
459.698	527.12
459.918	518.12
460.138	538.12
460.358	540.12
460.578	564.12
460.798	546.12
461.018	553.12
461.238	551.12
461.458	538.12
461.678	541.12
461.898	579.12
462.118	562.12
462.338	592.12
462.558	574.12
462.777	593.12
462.997	609.12
463.217	635.12
463.437	614.12
463.657	611.12
463.876	601.12
464.096	620.12
464.316	595.12
464.536	595.12
464.755	607.12
464.975	568.12
465.195	603.12
465.414	632.12
465.634	582.12
465.854	561.12
466.073	526.12
466.293	534.12
466.512	512.12
466.732	507.12
466.951	514.12
467.171	502.12
467.391	481.12
467.61	516.12
467.829	522.12
468.049	536.12
468.268	502.12
468.488	490.12
468.707	518.12
468.927	501.12
469.146	490.12
469.365	498.12
469.585	490.12
469.804	478.12
470.023	540.12
470.243	498.12
470.462	525.12
470.681	541.12
470.901	528.12
471.12	515.12
471.339	531.12
471.558	536.12
471.777	503.12
471.997	530.12
472.216	523.12
472.435	543.12
472.654	536.12
472.873	522.12
473.092	516.12
473.311	499.12
473.53	529.12
473.749	524.12
473.968	542.12
474.187	650.12
474.406	657.12
474.625	570.12
474.844	544.12
475.063	517.12
475.282	526.12
475.501	506.12
475.72	527.12
475.939	510.12
476.158	509.12
476.377	518.12
476.596	529.12
476.814	531.12
477.033	540.12
477.252	563.12
477.471	566.12
477.69	551.12
477.908	559.12
478.127	582.12
478.346	567.12
478.564	587.12
478.783	595.12
479.002	596.12
479.22	601.12
479.439	640.12
479.658	638.12
479.876	635.12
480.095	618.12
480.313	651.12
480.532	642.12
480.751	638.12
480.969	647.12
481.188	696.12
481.406	723.12
481.624	652.12
481.843	608.12
482.061	614.12
482.28	623.12
482.498	598.12
482.717	598.12
482.935	598.12
483.153	603.12
483.372	598.12
483.59	595.12
483.808	606.12
484.027	608.12
484.245	614.12
484.463	611.12
484.681	641.12
484.9	610.12
485.118	611.12
485.336	622.12
485.554	606.12
485.772	630.12
485.99	636.12
486.209	629.12
486.427	643.12
486.645	641.12
486.863	657.12
487.081	638.12
487.299	648.12
487.517	632.12
487.735	631.12
487.953	664.12
488.171	653.12
488.389	642.12
488.607	665.12
488.825	673.12
489.043	633.12
489.261	671.12
489.479	672.12
489.696	678.12
489.914	659.12
490.132	692.12
490.35	674.12
490.568	699.12
490.786	721.12
491.003	702.12
491.221	710.12
491.439	735.12
491.657	720.12
491.874	752.12
492.092	750.12
492.31	736.12
492.527	752.12
492.745	764.12
492.963	763.12
493.18	757.12
493.398	786.12
493.615	762.12
493.833	747.12
494.05	777.12
494.268	774.12
494.485	791.12
494.703	766.12
494.92	752.12
495.138	761.12
495.355	774.12
495.573	753.12
495.79	747.12
496.008	787.12
496.225	771.12
496.442	776.12
496.66	783.12
496.877	759.12
497.094	802.12
497.312	769.12
497.529	806.12
497.746	822.12
497.963	834.12
498.181	858.12
498.398	871.12
498.615	866.12
498.832	926.12
499.049	922.12
499.267	968.12
499.484	992.12
499.701	1041.12
499.918	1106.12
500.135	1134.12
500.352	1206.12
500.569	1237.12
500.786	1236.12
501.003	1226.12
501.22	1160.12
501.437	1098.12
501.654	1061.12
