Data from 1975.PennyLincolnUp.Lamp.En5.5.200Scan.071719.P1.Changed Mount._HRD10591_15-58-17-859.txt Node
Date: Thu Jul 18 15:58:17 EDT 2019
User: cochatt
Spectrometer: HR+D1059
Trigger mode: 1
Integration Time (sec): 1.000000E-1
Scans to average: 1
Electric dark correction enabled: true
Nonlinearity correction enabled: false
Boxcar width: 0
XAxis mode: Wavelengths
Number of Pixels in Spectrum: 2048
>>>>>Begin Spectral Data<<<<<
223.165	-13.12
223.4	-13.12
223.635	-13.12
223.869	-19.12
224.104	-13.12
224.338	-12.12
224.573	-14.12
224.808	-13.12
225.042	-17.12
225.277	-2.12
225.511	-3.12
225.746	-4.12
225.98	0.88
226.215	19.88
226.449	13.88
226.683	29.88
226.918	24.88
227.152	21.88
227.387	26.88
227.621	42.88
227.856	47.88
228.09	46.88
228.324	56.88
228.559	53.88
228.793	60.88
229.027	81.88
229.262	110.88
229.496	110.88
229.73	118.88
229.964	165.88
230.199	132.88
230.433	116.88
230.667	99.88
230.901	100.88
231.136	117.88
231.37	122.88
231.604	106.88
231.838	113.88
232.072	121.88
232.306	116.88
232.541	125.88
232.775	111.88
233.009	109.88
233.243	115.88
233.477	115.88
233.711	115.88
233.945	123.88
234.179	128.88
234.413	107.88
234.647	111.88
234.881	106.88
235.115	117.88
235.349	117.88
235.583	116.88
235.817	124.88
236.051	122.88
236.285	122.88
236.519	121.88
236.753	123.88
236.987	149.88
237.221	168.88
237.455	217.88
237.689	195.88
237.922	137.88
238.156	142.88
238.39	139.88
238.624	117.88
238.858	131.88
239.091	118.88
239.325	127.88
239.559	134.88
239.793	121.88
240.027	139.88
240.26	156.88
240.494	150.88
240.728	170.88
240.961	159.88
241.195	136.88
241.429	140.88
241.662	131.88
241.896	140.88
242.13	130.88
242.363	133.88
242.597	141.88
242.83	129.88
243.064	161.88
243.298	140.88
243.531	148.88
243.765	141.88
243.998	151.88
244.232	143.88
244.465	141.88
244.699	134.88
244.932	161.88
245.166	144.88
245.399	153.88
245.633	148.88
245.866	154.88
246.099	163.88
246.333	153.88
246.566	159.88
246.8	165.88
247.033	167.88
247.266	172.88
247.5	174.88
247.733	188.88
247.966	193.88
248.2	177.88
248.433	171.88
248.666	154.88
248.899	185.88
249.133	208.88
249.366	200.88
249.599	187.88
249.832	193.88
250.066	208.88
250.299	189.88
250.532	198.88
250.765	223.88
250.998	224.88
251.231	220.88
251.465	223.88
251.698	221.88
251.931	212.88
252.164	198.88
252.397	198.88
252.63	226.88
252.863	190.88
253.096	208.88
253.329	221.88
253.562	216.88
253.795	207.88
254.028	210.88
254.261	218.88
254.494	230.88
254.727	245.88
254.96	265.88
255.193	262.88
255.426	230.88
255.659	227.88
255.892	229.88
256.124	246.88
256.357	236.88
256.59	221.88
256.823	219.88
257.056	209.88
257.289	230.88
257.521	223.88
257.754	229.88
257.987	206.88
258.22	222.88
258.452	199.88
258.685	198.88
258.918	199.88
259.151	210.88
259.383	229.88
259.616	246.88
259.849	229.88
260.081	236.88
260.314	251.88
260.547	253.88
260.779	264.88
261.012	261.88
261.244	224.88
261.477	218.88
261.71	235.88
261.942	213.88
262.175	227.88
262.407	245.88
262.64	221.88
262.872	224.88
263.105	214.88
263.337	224.88
263.57	231.88
263.802	218.88
264.035	212.88
264.267	223.88
264.499	218.88
264.732	222.88
264.964	222.88
265.197	207.88
265.429	225.88
265.661	244.88
265.894	226.88
266.126	217.88
266.358	220.88
266.591	227.88
266.823	215.88
267.055	254.88
267.287	243.88
267.52	246.88
267.752	237.88
267.984	224.88
268.216	246.88
268.448	243.88
268.681	246.88
268.913	239.88
269.145	275.88
269.377	278.88
269.609	272.88
269.841	296.88
270.073	288.88
270.306	311.88
270.538	319.88
270.77	298.88
271.002	285.88
271.234	285.88
271.466	306.88
271.698	298.88
271.93	311.88
272.162	327.88
272.394	316.88
272.626	302.88
272.858	279.88
273.09	296.88
273.322	283.88
273.553	279.88
273.785	250.88
274.017	264.88
274.249	277.88
274.481	261.88
274.713	276.88
274.945	290.88
275.176	269.88
275.408	265.88
275.64	264.88
275.872	265.88
276.104	270.88
276.335	284.88
276.567	293.88
276.799	288.88
277.031	317.88
277.262	316.88
277.494	324.88
277.726	318.88
277.957	315.88
278.189	290.88
278.421	282.88
278.652	299.88
278.884	271.88
279.115	269.88
279.347	276.88
279.579	273.88
279.81	283.88
280.042	292.88
280.273	294.88
280.505	276.88
280.736	282.88
280.968	275.88
281.199	291.88
281.431	278.88
281.662	270.88
281.894	293.88
282.125	287.88
282.356	301.88
282.588	305.88
282.819	315.88
283.051	297.88
283.282	279.88
283.513	306.88
283.745	285.88
283.976	294.88
284.207	304.88
284.439	291.88
284.67	279.88
284.901	297.88
285.132	302.88
285.364	297.88
285.595	291.88
285.826	301.88
286.057	300.88
286.288	309.88
286.52	293.88
286.751	294.88
286.982	312.88
287.213	289.88
287.444	297.88
287.675	302.88
287.906	293.88
288.138	327.88
288.369	315.88
288.6	311.88
288.831	322.88
289.062	303.88
289.293	295.88
289.524	327.88
289.755	315.88
289.986	307.88
290.217	294.88
290.448	306.88
290.679	307.88
290.91	307.88
291.141	316.88
291.371	291.88
291.602	299.88
291.833	308.88
292.064	305.88
292.295	307.88
292.526	295.88
292.757	321.88
292.987	305.88
293.218	309.88
293.449	311.88
293.68	323.88
293.91	297.88
294.141	309.88
294.372	295.88
294.603	321.88
294.833	337.88
295.064	307.88
295.295	315.88
295.525	309.88
295.756	320.88
295.987	323.88
296.217	337.88
296.448	332.88
296.679	323.88
296.909	305.88
297.14	307.88
297.37	329.88
297.601	325.88
297.831	319.88
298.062	329.88
298.292	314.88
298.523	313.88
298.753	322.88
298.984	330.88
299.214	315.88
299.445	324.88
299.675	341.88
299.905	325.88
300.136	332.88
300.366	341.88
300.597	337.88
300.827	321.88
301.057	330.88
301.288	339.88
301.518	345.88
301.748	346.88
301.979	361.88
302.209	350.88
302.439	359.88
302.669	358.88
302.9	361.88
303.13	357.88
303.36	346.88
303.59	353.88
303.82	358.88
304.051	359.88
304.281	354.88
304.511	341.88
304.741	342.88
304.971	363.88
305.201	325.88
305.431	360.88
305.661	349.88
305.891	356.88
306.121	351.88
306.352	345.88
306.582	366.88
306.812	348.88
307.042	348.88
307.272	347.88
307.502	340.88
307.731	356.88
307.961	332.88
308.191	352.88
308.421	339.88
308.651	350.88
308.881	347.88
309.111	354.88
309.341	359.88
309.571	372.88
309.8	373.88
310.03	393.88
310.26	366.88
310.49	357.88
310.72	361.88
310.949	395.88
311.179	391.88
311.409	380.88
311.639	389.88
311.868	381.88
312.098	397.88
312.328	370.88
312.557	398.88
312.787	393.88
313.017	388.88
313.246	388.88
313.476	374.88
313.706	385.88
313.935	383.88
314.165	383.88
314.394	394.88
314.624	417.88
314.853	395.88
315.083	389.88
315.312	386.88
315.542	394.88
315.771	399.88
316.001	397.88
316.23	379.88
316.46	376.88
316.689	383.88
316.919	392.88
317.148	414.88
317.377	419.88
317.607	388.88
317.836	387.88
318.065	386.88
318.295	383.88
318.524	382.88
318.753	384.88
318.983	379.88
319.212	384.88
319.441	381.88
319.67	384.88
319.9	382.88
320.129	378.88
320.358	392.88
320.587	381.88
320.816	419.88
321.046	437.88
321.275	417.88
321.504	402.88
321.733	422.88
321.962	411.88
322.191	417.88
322.42	436.88
322.649	428.88
322.878	433.88
323.108	435.88
323.337	463.88
323.566	462.88
323.795	478.88
324.024	518.88
324.253	598.88
324.482	827.88
324.71	1219.88
324.939	1813.88
325.168	1613.88
325.397	836.88
325.626	568.88
325.855	535.88
326.084	497.88
326.313	470.88
326.542	476.88
326.77	500.88
326.999	572.88
327.228	761.88
327.457	1138.88
327.686	1432.88
327.914	947.88
328.143	627.88
328.372	566.88
328.6	551.88
328.829	536.88
329.058	535.88
329.287	553.88
329.515	510.88
329.744	502.88
329.972	497.88
330.201	527.88
330.43	527.88
330.658	558.88
330.887	569.88
331.115	552.88
331.344	509.88
331.572	490.88
331.801	499.88
332.03	499.88
332.258	468.88
332.486	493.88
332.715	469.88
332.943	464.88
333.172	475.88
333.4	469.88
333.629	488.88
333.857	505.88
334.085	543.88
334.314	517.88
334.542	568.88
334.771	537.88
334.999	515.88
335.227	498.88
335.455	481.88
335.684	445.88
335.912	478.88
336.14	477.88
336.369	469.88
336.597	457.88
336.825	463.88
337.053	466.88
337.281	455.88
337.51	457.88
337.738	453.88
337.966	444.88
338.194	467.88
338.422	455.88
338.65	439.88
338.878	431.88
339.106	456.88
339.334	445.88
339.562	450.88
339.79	433.88
340.018	416.88
340.246	439.88
340.474	457.88
340.702	458.88
340.93	456.88
341.158	445.88
341.386	454.88
341.614	450.88
341.842	441.88
342.07	449.88
342.298	439.88
342.526	433.88
342.754	431.88
342.981	435.88
343.209	427.88
343.437	442.88
343.665	443.88
343.893	458.88
344.12	485.88
344.348	467.88
344.576	470.88
344.804	449.88
345.031	450.88
345.259	459.88
345.487	462.88
345.714	446.88
345.942	422.88
346.17	440.88
346.397	443.88
346.625	441.88
346.853	451.88
347.08	426.88
347.308	426.88
347.535	428.88
347.763	438.88
347.99	453.88
348.218	455.88
348.445	426.88
348.673	425.88
348.9	444.88
349.128	426.88
349.355	420.88
349.583	431.88
349.81	424.88
350.037	393.88
350.265	410.88
350.492	435.88
350.72	443.88
350.947	422.88
351.174	430.88
351.402	435.88
351.629	441.88
351.856	435.88
352.083	442.88
352.311	444.88
352.538	446.88
352.765	444.88
352.992	451.88
353.22	421.88
353.447	410.88
353.674	421.88
353.901	409.88
354.128	420.88
354.355	411.88
354.583	422.88
354.81	407.88
355.037	410.88
355.264	405.88
355.491	404.88
355.718	406.88
355.945	404.88
356.172	409.88
356.399	406.88
356.626	407.88
356.853	402.88
357.08	395.88
357.307	403.88
357.534	416.88
357.761	399.88
357.988	420.88
358.215	395.88
358.441	409.88
358.668	419.88
358.895	418.88
359.122	433.88
359.349	412.88
359.576	419.88
359.802	456.88
360.029	465.88
360.256	473.88
360.483	458.88
360.709	451.88
360.936	444.88
361.163	449.88
361.39	443.88
361.616	437.88
361.843	435.88
362.07	442.88
362.296	445.88
362.523	425.88
362.749	426.88
362.976	426.88
363.203	411.88
363.429	409.88
363.656	431.88
363.882	436.88
364.109	421.88
364.335	419.88
364.562	431.88
364.788	419.88
365.015	419.88
365.241	449.88
365.468	438.88
365.694	424.88
365.92	413.88
366.147	427.88
366.373	418.88
366.599	421.88
366.826	413.88
367.052	410.88
367.278	411.88
367.505	413.88
367.731	440.88
367.957	405.88
368.184	430.88
368.41	421.88
368.636	444.88
368.862	425.88
369.089	425.88
369.315	409.88
369.541	429.88
369.767	402.88
369.993	397.88
370.219	420.88
370.445	434.88
370.672	427.88
370.898	408.88
371.124	428.88
371.35	427.88
371.576	427.88
371.802	433.88
372.028	443.88
372.254	412.88
372.48	430.88
372.706	415.88
372.932	438.88
373.158	427.88
373.384	407.88
373.61	421.88
373.835	434.88
374.061	404.88
374.287	438.88
374.513	442.88
374.739	428.88
374.965	435.88
375.191	433.88
375.416	446.88
375.642	449.88
375.868	441.88
376.094	433.88
376.319	426.88
376.545	444.88
376.771	424.88
376.997	428.88
377.222	423.88
377.448	421.88
377.674	421.88
377.899	435.88
378.125	423.88
378.35	433.88
378.576	422.88
378.802	402.88
379.027	428.88
379.253	429.88
379.478	429.88
379.704	439.88
379.929	404.88
380.155	402.88
380.38	426.88
380.606	442.88
380.831	428.88
381.057	430.88
381.282	428.88
381.507	438.88
381.733	422.88
381.958	443.88
382.184	446.88
382.409	441.88
382.634	439.88
382.86	425.88
383.085	443.88
383.31	437.88
383.535	472.88
383.761	456.88
383.986	472.88
384.211	474.88
384.436	473.88
384.662	488.88
384.887	472.88
385.112	470.88
385.337	475.88
385.562	491.88
385.787	480.88
386.013	521.88
386.238	493.88
386.463	497.88
386.688	478.88
386.913	478.88
387.138	477.88
387.363	474.88
387.588	474.88
387.813	475.88
388.038	490.88
388.263	473.88
388.488	489.88
388.713	466.88
388.938	494.88
389.163	470.88
389.387	494.88
389.612	485.88
389.837	478.88
390.062	483.88
390.287	497.88
390.512	477.88
390.736	489.88
390.961	479.88
391.186	488.88
391.411	504.88
391.636	495.88
391.86	526.88
392.085	510.88
392.31	504.88
392.534	520.88
392.759	493.88
392.984	517.88
393.208	490.88
393.433	469.88
393.658	494.88
393.882	499.88
394.107	489.88
394.331	474.88
394.556	487.88
394.78	487.88
395.005	520.88
395.229	511.88
395.454	488.88
395.678	511.88
395.903	515.88
396.127	548.88
396.352	536.88
396.576	544.88
396.801	505.88
397.025	504.88
397.249	512.88
397.474	519.88
397.698	505.88
397.922	539.88
398.147	548.88
398.371	553.88
398.595	550.88
398.82	555.88
399.044	562.88
399.268	622.88
399.492	633.88
399.717	673.88
399.941	705.88
400.165	703.88
400.389	700.88
400.613	673.88
400.837	611.88
401.062	596.88
401.286	575.88
401.51	552.88
401.734	567.88
401.958	576.88
402.182	555.88
402.406	598.88
402.63	587.88
402.854	565.88
403.078	569.88
403.302	590.88
403.526	610.88
403.75	588.88
403.974	588.88
404.198	612.88
404.422	587.88
404.645	592.88
404.869	584.88
405.093	635.88
405.317	680.88
405.541	683.88
405.765	655.88
405.988	613.88
406.212	640.88
406.436	637.88
406.66	636.88
406.883	617.88
407.107	667.88
407.331	708.88
407.555	781.88
407.778	806.88
408.002	693.88
408.226	673.88
408.449	636.88
408.673	610.88
408.896	661.88
409.12	707.88
409.344	697.88
409.567	627.88
409.791	610.88
410.014	583.88
410.238	594.88
410.461	589.88
410.685	599.88
410.908	607.88
411.132	619.88
411.355	665.88
411.578	647.88
411.802	599.88
412.025	576.88
412.249	601.88
412.472	616.88
412.695	652.88
412.919	651.88
413.142	611.88
413.365	565.88
413.589	583.88
413.812	565.88
414.035	563.88
414.258	547.88
414.482	549.88
414.705	561.88
414.928	570.88
415.151	546.88
415.374	577.88
415.597	561.88
415.821	567.88
416.044	545.88
416.267	575.88
416.49	545.88
416.713	585.88
416.936	562.88
417.159	550.88
417.382	548.88
417.605	563.88
417.828	581.88
418.051	562.88
418.274	598.88
418.497	566.88
418.72	574.88
418.943	558.88
419.166	596.88
419.389	624.88
419.611	608.88
419.834	596.88
420.057	600.88
420.28	573.88
420.503	588.88
420.726	565.88
420.948	595.88
421.171	640.88
421.394	663.88
421.617	584.88
421.839	584.88
422.062	588.88
422.285	592.88
422.507	637.88
422.73	718.88
422.953	680.88
423.175	615.88
423.398	586.88
423.621	606.88
423.843	617.88
424.066	627.88
424.288	586.88
424.511	617.88
424.733	678.88
424.956	739.88
425.178	735.88
425.401	718.88
425.623	718.88
425.846	654.88
426.068	611.88
426.291	606.88
426.513	582.88
426.735	578.88
426.958	649.88
427.18	721.88
427.402	877.88
427.625	920.88
427.847	784.88
428.069	702.88
428.292	649.88
428.514	614.88
428.736	590.88
428.958	558.88
429.181	549.88
429.403	556.88
429.625	566.88
429.847	596.88
430.069	663.88
430.292	654.88
430.514	570.88
430.736	543.88
430.958	569.88
431.18	550.88
431.402	545.88
431.624	513.88
431.846	537.88
432.068	528.88
432.29	528.88
432.512	550.88
432.734	538.88
432.956	539.88
433.178	542.88
433.4	555.88
433.622	545.88
433.844	544.88
434.066	527.88
434.287	562.88
434.509	553.88
434.731	577.88
434.953	559.88
435.175	570.88
435.397	595.88
435.618	576.88
435.84	689.88
436.062	745.88
436.284	818.88
436.505	662.88
436.727	606.88
436.949	586.88
437.17	560.88
437.392	572.88
437.614	547.88
437.835	600.88
438.057	691.88
438.278	767.88
438.5	810.88
438.721	884.88
438.943	833.88
439.165	669.88
439.386	614.88
439.608	588.88
439.829	615.88
440.05	623.88
440.272	661.88
440.493	622.88
440.715	593.88
440.936	579.88
441.158	581.88
441.379	573.88
441.6	591.88
441.822	586.88
442.043	649.88
442.264	719.88
442.486	782.88
442.707	677.88
442.928	658.88
443.149	631.88
443.371	638.88
443.592	686.88
443.813	804.88
444.034	858.88
444.255	699.88
444.476	621.88
444.698	623.88
444.919	620.88
445.14	760.88
445.361	673.88
445.582	665.88
445.803	695.88
446.024	800.88
446.245	794.88
446.466	727.88
446.687	650.88
446.908	618.88
447.129	578.88
447.35	569.88
447.571	561.88
447.792	549.88
448.013	553.88
448.234	580.88
448.455	629.88
448.675	712.88
448.896	841.88
449.117	696.88
449.338	693.88
449.559	797.88
449.779	913.88
450	708.88
450.221	595.88
450.442	558.88
450.662	563.88
450.883	541.88
451.104	554.88
451.324	546.88
451.545	532.88
451.766	504.88
451.986	481.88
452.207	474.88
452.428	499.88
452.648	486.88
452.869	502.88
453.089	480.88
453.31	507.88
453.53	506.88
453.751	506.88
453.971	500.88
454.192	508.88
454.412	490.88
454.633	478.88
454.853	466.88
455.073	486.88
455.294	513.88
455.514	569.88
455.734	565.88
455.955	498.88
456.175	487.88
456.395	460.88
456.616	463.88
456.836	478.88
457.056	461.88
457.276	454.88
457.497	482.88
457.717	472.88
457.937	473.88
458.157	466.88
458.377	465.88
458.598	488.88
458.818	540.88
459.038	594.88
459.258	644.88
459.478	569.88
459.698	538.88
459.918	541.88
460.138	548.88
460.358	562.88
460.578	567.88
460.798	561.88
461.018	599.88
461.238	583.88
461.458	557.88
461.678	541.88
461.898	547.88
462.118	582.88
462.338	581.88
462.558	587.88
462.777	593.88
462.997	623.88
463.217	643.88
463.437	643.88
463.657	607.88
463.876	595.88
464.096	617.88
464.316	602.88
464.536	623.88
464.755	592.88
464.975	597.88
465.195	622.88
465.414	654.88
465.634	621.88
465.854	567.88
466.073	532.88
466.293	557.88
466.512	513.88
466.732	502.88
466.951	525.88
467.171	517.88
467.391	526.88
467.61	510.88
467.829	524.88
468.049	517.88
468.268	533.88
468.488	500.88
468.707	506.88
468.927	519.88
469.146	495.88
469.365	497.88
469.585	511.88
469.804	519.88
470.023	523.88
470.243	524.88
470.462	524.88
470.681	567.88
470.901	522.88
471.12	531.88
471.339	517.88
471.558	522.88
471.777	534.88
471.997	522.88
472.216	521.88
472.435	592.88
472.654	539.88
472.873	510.88
473.092	519.88
473.311	520.88
473.53	503.88
473.749	499.88
473.968	566.88
474.187	641.88
474.406	677.88
474.625	563.88
474.844	521.88
475.063	531.88
475.282	524.88
475.501	533.88
475.72	523.88
475.939	519.88
476.158	524.88
476.377	523.88
476.596	536.88
476.814	528.88
477.033	545.88
477.252	559.88
477.471	543.88
477.69	561.88
477.908	557.88
478.127	567.88
478.346	582.88
478.564	589.88
478.783	564.88
479.002	591.88
479.22	577.88
479.439	610.88
479.658	614.88
479.876	611.88
480.095	633.88
480.313	643.88
480.532	647.88
480.751	650.88
480.969	656.88
481.188	703.88
481.406	731.88
481.624	681.88
481.843	633.88
482.061	622.88
482.28	611.88
482.498	604.88
482.717	599.88
482.935	602.88
483.153	607.88
483.372	613.88
483.59	617.88
483.808	591.88
484.027	590.88
484.245	600.88
484.463	610.88
484.681	626.88
484.9	635.88
485.118	625.88
485.336	598.88
485.554	631.88
485.772	630.88
485.99	637.88
486.209	649.88
486.427	625.88
486.645	663.88
486.863	659.88
487.081	651.88
487.299	642.88
487.517	652.88
487.735	632.88
487.953	658.88
488.171	638.88
488.389	669.88
488.607	646.88
488.825	670.88
489.043	646.88
489.261	673.88
489.479	674.88
489.696	650.88
489.914	668.88
490.132	670.88
490.35	703.88
490.568	699.88
490.786	694.88
491.003	702.88
491.221	712.88
491.439	743.88
491.657	773.88
491.874	703.88
492.092	718.88
492.31	739.88
492.527	751.88
492.745	743.88
492.963	750.88
493.18	754.88
493.398	745.88
493.615	773.88
493.833	771.88
494.05	741.88
494.268	757.88
494.485	783.88
494.703	755.88
494.92	767.88
495.138	767.88
495.355	772.88
495.573	747.88
495.79	768.88
496.008	786.88
496.225	787.88
496.442	779.88
496.66	753.88
496.877	788.88
497.094	787.88
497.312	810.88
497.529	829.88
497.746	802.88
497.963	823.88
498.181	857.88
498.398	846.88
498.615	895.88
498.832	893.88
499.049	930.88
499.267	961.88
499.484	997.88
499.701	1073.88
499.918	1083.88
500.135	1174.88
500.352	1221.88
500.569	1248.88
500.786	1291.88
501.003	1246.88
501.22	1165.88
501.437	1111.88
501.654	1073.88
