Data from 1975.PennyLincolnUp.Lamp.En5.5.200Scan.071719.P1.Changed Mount._HRD10591_15-57-50-859.txt Node
Date: Thu Jul 18 15:57:50 EDT 2019
User: cochatt
Spectrometer: HR+D1059
Trigger mode: 1
Integration Time (sec): 1.000000E-1
Scans to average: 1
Electric dark correction enabled: true
Nonlinearity correction enabled: false
Boxcar width: 0
XAxis mode: Wavelengths
Number of Pixels in Spectrum: 2048
>>>>>Begin Spectral Data<<<<<
223.165	-15.56
223.4	-15.56
223.635	-15.56
223.869	-10.56
224.104	-30.56
224.338	-21.56
224.573	-10.56
224.808	-11.56
225.042	-12.56
225.277	-12.56
225.511	1.44
225.746	8.44
225.98	13.44
226.215	6.44
226.449	23.44
226.683	23.44
226.918	23.44
227.152	25.44
227.387	53.44
227.621	51.44
227.856	27.44
228.09	43.44
228.324	52.44
228.559	59.44
228.793	71.44
229.027	109.44
229.262	118.44
229.496	120.44
229.73	128.44
229.964	165.44
230.199	131.44
230.433	115.44
230.667	104.44
230.901	110.44
231.136	115.44
231.37	119.44
231.604	114.44
231.838	116.44
232.072	109.44
232.306	120.44
232.541	126.44
232.775	136.44
233.009	106.44
233.243	121.44
233.477	105.44
233.711	117.44
233.945	119.44
234.179	130.44
234.413	124.44
234.647	117.44
234.881	120.44
235.115	132.44
235.349	121.44
235.583	124.44
235.817	132.44
236.051	131.44
236.285	127.44
236.519	131.44
236.753	135.44
236.987	157.44
237.221	182.44
237.455	224.44
237.689	189.44
237.922	143.44
238.156	125.44
238.39	138.44
238.624	127.44
238.858	118.44
239.091	126.44
239.325	117.44
239.559	131.44
239.793	151.44
240.027	140.44
240.26	152.44
240.494	170.44
240.728	159.44
240.961	150.44
241.195	150.44
241.429	155.44
241.662	134.44
241.896	156.44
242.13	143.44
242.363	126.44
242.597	158.44
242.83	135.44
243.064	163.44
243.298	136.44
243.531	135.44
243.765	140.44
243.998	159.44
244.232	157.44
244.465	158.44
244.699	144.44
244.932	154.44
245.166	158.44
245.399	154.44
245.633	145.44
245.866	160.44
246.099	160.44
246.333	155.44
246.566	158.44
246.8	171.44
247.033	171.44
247.266	161.44
247.5	175.44
247.733	176.44
247.966	182.44
248.2	179.44
248.433	184.44
248.666	187.44
248.899	186.44
249.133	194.44
249.366	210.44
249.599	197.44
249.832	196.44
250.066	189.44
250.299	204.44
250.532	195.44
250.765	202.44
250.998	225.44
251.231	247.44
251.465	230.44
251.698	226.44
251.931	221.44
252.164	208.44
252.397	204.44
252.63	211.44
252.863	219.44
253.096	220.44
253.329	236.44
253.562	231.44
253.795	245.44
254.028	223.44
254.261	231.44
254.494	233.44
254.727	240.44
254.96	293.44
255.193	297.44
255.426	247.44
255.659	236.44
255.892	239.44
256.124	240.44
256.357	244.44
256.59	244.44
256.823	217.44
257.056	240.44
257.289	222.44
257.521	204.44
257.754	209.44
257.987	224.44
258.22	234.44
258.452	219.44
258.685	211.44
258.918	228.44
259.151	231.44
259.383	252.44
259.616	236.44
259.849	238.44
260.081	238.44
260.314	252.44
260.547	268.44
260.779	265.44
261.012	245.44
261.244	237.44
261.477	231.44
261.71	216.44
261.942	245.44
262.175	234.44
262.407	245.44
262.64	238.44
262.872	213.44
263.105	210.44
263.337	224.44
263.57	230.44
263.802	236.44
264.035	225.44
264.267	212.44
264.499	222.44
264.732	236.44
264.964	237.44
265.197	233.44
265.429	212.44
265.661	228.44
265.894	252.44
266.126	249.44
266.358	217.44
266.591	225.44
266.823	236.44
267.055	245.44
267.287	243.44
267.52	233.44
267.752	240.44
267.984	236.44
268.216	236.44
268.448	269.44
268.681	268.44
268.913	260.44
269.145	267.44
269.377	282.44
269.609	283.44
269.841	273.44
270.073	285.44
270.306	293.44
270.538	339.44
270.77	326.44
271.002	320.44
271.234	300.44
271.466	297.44
271.698	342.44
271.93	321.44
272.162	341.44
272.394	308.44
272.626	339.44
272.858	284.44
273.09	301.44
273.322	286.44
273.553	267.44
273.785	295.44
274.017	277.44
274.249	286.44
274.481	292.44
274.713	269.44
274.945	283.44
275.176	270.44
275.408	293.44
275.64	276.44
275.872	285.44
276.104	287.44
276.335	269.44
276.567	295.44
276.799	299.44
277.031	314.44
277.262	338.44
277.494	337.44
277.726	319.44
277.957	313.44
278.189	315.44
278.421	295.44
278.652	298.44
278.884	312.44
279.115	290.44
279.347	281.44
279.579	294.44
279.81	294.44
280.042	291.44
280.273	276.44
280.505	286.44
280.736	293.44
280.968	289.44
281.199	287.44
281.431	298.44
281.662	303.44
281.894	310.44
282.125	286.44
282.356	303.44
282.588	316.44
282.819	328.44
283.051	309.44
283.282	296.44
283.513	301.44
283.745	313.44
283.976	304.44
284.207	311.44
284.439	318.44
284.67	331.44
284.901	297.44
285.132	311.44
285.364	291.44
285.595	289.44
285.826	296.44
286.057	299.44
286.288	298.44
286.52	309.44
286.751	308.44
286.982	324.44
287.213	320.44
287.444	322.44
287.675	313.44
287.906	309.44
288.138	317.44
288.369	343.44
288.6	331.44
288.831	337.44
289.062	321.44
289.293	304.44
289.524	325.44
289.755	331.44
289.986	327.44
290.217	326.44
290.448	298.44
290.679	309.44
290.91	319.44
291.141	315.44
291.371	316.44
291.602	334.44
291.833	318.44
292.064	304.44
292.295	333.44
292.526	308.44
292.757	321.44
292.987	331.44
293.218	313.44
293.449	313.44
293.68	329.44
293.91	309.44
294.141	312.44
294.372	312.44
294.603	327.44
294.833	332.44
295.064	320.44
295.295	331.44
295.525	329.44
295.756	303.44
295.987	320.44
296.217	345.44
296.448	360.44
296.679	339.44
296.909	327.44
297.14	321.44
297.37	310.44
297.601	332.44
297.831	348.44
298.062	346.44
298.292	345.44
298.523	318.44
298.753	336.44
298.984	332.44
299.214	320.44
299.445	343.44
299.675	339.44
299.905	342.44
300.136	332.44
300.366	341.44
300.597	351.44
300.827	352.44
301.057	355.44
301.288	361.44
301.518	360.44
301.748	357.44
301.979	347.44
302.209	366.44
302.439	367.44
302.669	347.44
302.9	359.44
303.13	361.44
303.36	352.44
303.59	359.44
303.82	356.44
304.051	372.44
304.281	372.44
304.511	357.44
304.741	347.44
304.971	343.44
305.201	336.44
305.431	347.44
305.661	339.44
305.891	352.44
306.121	362.44
306.352	371.44
306.582	365.44
306.812	344.44
307.042	341.44
307.272	366.44
307.502	371.44
307.731	353.44
307.961	343.44
308.191	361.44
308.421	357.44
308.651	357.44
308.881	357.44
309.111	367.44
309.341	371.44
309.571	375.44
309.8	386.44
310.03	383.44
310.26	402.44
310.49	389.44
310.72	396.44
310.949	412.44
311.179	400.44
311.409	401.44
311.639	388.44
311.868	405.44
312.098	392.44
312.328	416.44
312.557	418.44
312.787	429.44
313.017	438.44
313.246	390.44
313.476	387.44
313.706	399.44
313.935	410.44
314.165	411.44
314.394	420.44
314.624	419.44
314.853	393.44
315.083	397.44
315.312	397.44
315.542	402.44
315.771	374.44
316.001	402.44
316.23	411.44
316.46	399.44
316.689	391.44
316.919	385.44
317.148	404.44
317.377	412.44
317.607	386.44
317.836	405.44
318.065	409.44
318.295	387.44
318.524	376.44
318.753	381.44
318.983	400.44
319.212	401.44
319.441	401.44
319.67	393.44
319.9	399.44
320.129	413.44
320.358	407.44
320.587	405.44
320.816	420.44
321.046	419.44
321.275	413.44
321.504	421.44
321.733	429.44
321.962	424.44
322.191	427.44
322.42	428.44
322.649	464.44
322.878	462.44
323.108	447.44
323.337	462.44
323.566	501.44
323.795	505.44
324.024	536.44
324.253	610.44
324.482	846.44
324.71	1306.44
324.939	1931.44
325.168	1721.44
325.397	862.44
325.626	590.44
325.855	541.44
326.084	517.44
326.313	495.44
326.542	501.44
326.77	537.44
326.999	602.44
327.228	797.44
327.457	1192.44
327.686	1470.44
327.914	981.44
328.143	697.44
328.372	591.44
328.6	571.44
328.829	558.44
329.058	561.44
329.287	556.44
329.515	543.44
329.744	517.44
329.972	510.44
330.201	531.44
330.43	571.44
330.658	568.44
330.887	599.44
331.115	570.44
331.344	517.44
331.572	493.44
331.801	531.44
332.03	509.44
332.258	489.44
332.486	480.44
332.715	487.44
332.943	484.44
333.172	502.44
333.4	497.44
333.629	518.44
333.857	537.44
334.085	557.44
334.314	563.44
334.542	561.44
334.771	590.44
334.999	540.44
335.227	548.44
335.455	516.44
335.684	485.44
335.912	480.44
336.14	496.44
336.369	501.44
336.597	496.44
336.825	515.44
337.053	483.44
337.281	479.44
337.51	459.44
337.738	481.44
337.966	468.44
338.194	480.44
338.422	456.44
338.65	483.44
338.878	456.44
339.106	458.44
339.334	454.44
339.562	449.44
339.79	469.44
340.018	471.44
340.246	457.44
340.474	463.44
340.702	461.44
340.93	472.44
341.158	446.44
341.386	475.44
341.614	457.44
341.842	451.44
342.07	456.44
342.298	461.44
342.526	446.44
342.754	453.44
342.981	451.44
343.209	443.44
343.437	447.44
343.665	463.44
343.893	487.44
344.12	496.44
344.348	490.44
344.576	482.44
344.804	470.44
345.031	468.44
345.259	480.44
345.487	493.44
345.714	491.44
345.942	454.44
346.17	469.44
346.397	452.44
346.625	437.44
346.853	437.44
347.08	450.44
347.308	435.44
347.535	444.44
347.763	464.44
347.99	453.44
348.218	455.44
348.445	444.44
348.673	452.44
348.9	452.44
349.128	443.44
349.355	421.44
349.583	429.44
349.81	437.44
350.037	440.44
350.265	432.44
350.492	457.44
350.72	430.44
350.947	422.44
351.174	434.44
351.402	456.44
351.629	433.44
351.856	446.44
352.083	445.44
352.311	447.44
352.538	455.44
352.765	461.44
352.992	454.44
353.22	424.44
353.447	448.44
353.674	416.44
353.901	438.44
354.128	430.44
354.355	415.44
354.583	421.44
354.81	415.44
355.037	425.44
355.264	406.44
355.491	419.44
355.718	432.44
355.945	409.44
356.172	415.44
356.399	428.44
356.626	439.44
356.853	407.44
357.08	431.44
357.307	419.44
357.534	421.44
357.761	427.44
357.988	414.44
358.215	421.44
358.441	425.44
358.668	426.44
358.895	430.44
359.122	430.44
359.349	436.44
359.576	452.44
359.802	457.44
360.029	484.44
360.256	486.44
360.483	461.44
360.709	462.44
360.936	453.44
361.163	440.44
361.39	448.44
361.616	447.44
361.843	433.44
362.07	452.44
362.296	441.44
362.523	445.44
362.749	435.44
362.976	436.44
363.203	439.44
363.429	436.44
363.656	451.44
363.882	451.44
364.109	433.44
364.335	430.44
364.562	425.44
364.788	419.44
365.015	442.44
365.241	426.44
365.468	443.44
365.694	426.44
365.92	448.44
366.147	445.44
366.373	428.44
366.599	414.44
366.826	433.44
367.052	420.44
367.278	423.44
367.505	451.44
367.731	423.44
367.957	446.44
368.184	406.44
368.41	424.44
368.636	453.44
368.862	454.44
369.089	435.44
369.315	420.44
369.541	416.44
369.767	440.44
369.993	451.44
370.219	423.44
370.445	464.44
370.672	439.44
370.898	434.44
371.124	429.44
371.35	453.44
371.576	445.44
371.802	436.44
372.028	436.44
372.254	444.44
372.48	433.44
372.706	430.44
372.932	471.44
373.158	437.44
373.384	428.44
373.61	453.44
373.835	426.44
374.061	436.44
374.287	443.44
374.513	435.44
374.739	448.44
374.965	460.44
375.191	455.44
375.416	483.44
375.642	463.44
375.868	468.44
376.094	447.44
376.319	432.44
376.545	434.44
376.771	439.44
376.997	459.44
377.222	438.44
377.448	431.44
377.674	449.44
377.899	428.44
378.125	432.44
378.35	442.44
378.576	423.44
378.802	421.44
379.027	443.44
379.253	437.44
379.478	442.44
379.704	446.44
379.929	451.44
380.155	452.44
380.38	459.44
380.606	445.44
380.831	427.44
381.057	451.44
381.282	441.44
381.507	440.44
381.733	449.44
381.958	452.44
382.184	449.44
382.409	461.44
382.634	439.44
382.86	462.44
383.085	471.44
383.31	473.44
383.535	474.44
383.761	462.44
383.986	472.44
384.211	468.44
384.436	480.44
384.662	476.44
384.887	504.44
385.112	494.44
385.337	477.44
385.562	482.44
385.787	479.44
386.013	500.44
386.238	503.44
386.463	492.44
386.688	517.44
386.913	477.44
387.138	501.44
387.363	503.44
387.588	486.44
387.813	494.44
388.038	489.44
388.263	488.44
388.488	488.44
388.713	497.44
388.938	485.44
389.163	499.44
389.387	515.44
389.612	514.44
389.837	479.44
390.062	492.44
390.287	492.44
390.512	499.44
390.736	495.44
390.961	512.44
391.186	524.44
391.411	502.44
391.636	510.44
391.86	526.44
392.085	519.44
392.31	512.44
392.534	513.44
392.759	505.44
392.984	511.44
393.208	501.44
393.433	493.44
393.658	505.44
393.882	492.44
394.107	488.44
394.331	528.44
394.556	499.44
394.78	512.44
395.005	516.44
395.229	511.44
395.454	507.44
395.678	558.44
395.903	535.44
396.127	570.44
396.352	568.44
396.576	543.44
396.801	512.44
397.025	524.44
397.249	523.44
397.474	528.44
397.698	545.44
397.922	552.44
398.147	558.44
398.371	587.44
398.595	553.44
398.82	576.44
399.044	605.44
399.268	638.44
399.492	670.44
399.717	731.44
399.941	729.44
400.165	720.44
400.389	755.44
400.613	643.44
400.837	617.44
401.062	603.44
401.286	593.44
401.51	569.44
401.734	596.44
401.958	582.44
402.182	596.44
402.406	569.44
402.63	585.44
402.854	597.44
403.078	584.44
403.302	615.44
403.526	623.44
403.75	616.44
403.974	615.44
404.198	601.44
404.422	624.44
404.645	640.44
404.869	620.44
405.093	653.44
405.317	666.44
405.541	719.44
405.765	695.44
405.988	655.44
406.212	637.44
406.436	671.44
406.66	676.44
406.883	660.44
407.107	684.44
407.331	729.44
407.555	798.44
407.778	801.44
408.002	753.44
408.226	699.44
408.449	672.44
408.673	661.44
408.896	686.44
409.12	743.44
409.344	702.44
409.567	635.44
409.791	620.44
410.014	614.44
410.238	592.44
410.461	600.44
410.685	612.44
410.908	603.44
411.132	661.44
411.355	682.44
411.578	663.44
411.802	630.44
412.025	602.44
412.249	605.44
412.472	643.44
412.695	682.44
412.919	669.44
413.142	607.44
413.365	583.44
413.589	579.44
413.812	571.44
414.035	556.44
414.258	580.44
414.482	590.44
414.705	568.44
414.928	560.44
415.151	583.44
415.374	590.44
415.597	572.44
415.821	572.44
416.044	580.44
416.267	576.44
416.49	560.44
416.713	570.44
416.936	583.44
417.159	554.44
417.382	570.44
417.605	577.44
417.828	595.44
418.051	582.44
418.274	599.44
418.497	577.44
418.72	582.44
418.943	572.44
419.166	601.44
419.389	616.44
419.611	621.44
419.834	603.44
420.057	616.44
420.28	627.44
420.503	607.44
420.726	597.44
420.948	607.44
421.171	649.44
421.394	679.44
421.617	623.44
421.839	589.44
422.062	622.44
422.285	575.44
422.507	649.44
422.73	757.44
422.953	728.44
423.175	649.44
423.398	611.44
423.621	613.44
423.843	639.44
424.066	627.44
424.288	630.44
424.511	673.44
424.733	724.44
424.956	781.44
425.178	758.44
425.401	746.44
425.623	777.44
425.846	691.44
426.068	628.44
426.291	619.44
426.513	620.44
426.735	630.44
426.958	644.44
427.18	723.44
427.402	875.44
427.625	959.44
427.847	811.44
428.069	715.44
428.292	651.44
428.514	629.44
428.736	597.44
428.958	581.44
429.181	573.44
429.403	585.44
429.625	577.44
429.847	627.44
430.069	695.44
430.292	681.44
430.514	604.44
430.736	591.44
430.958	556.44
431.18	555.44
431.402	556.44
431.624	541.44
431.846	544.44
432.068	547.44
432.29	572.44
432.512	544.44
432.734	550.44
432.956	558.44
433.178	570.44
433.4	564.44
433.622	584.44
433.844	538.44
434.066	569.44
434.287	563.44
434.509	567.44
434.731	558.44
434.953	573.44
435.175	611.44
435.397	619.44
435.618	617.44
435.84	650.44
436.062	747.44
436.284	811.44
436.505	695.44
436.727	631.44
436.949	604.44
437.17	597.44
437.392	597.44
437.614	600.44
437.835	633.44
438.057	693.44
438.278	839.44
438.5	834.44
438.721	916.44
438.943	894.44
439.165	678.44
439.386	641.44
439.608	629.44
439.829	606.44
440.05	671.44
440.272	706.44
440.493	648.44
440.715	600.44
440.936	586.44
441.158	591.44
441.379	589.44
441.6	598.44
441.822	628.44
442.043	662.44
442.264	750.44
442.486	827.44
442.707	651.44
442.928	648.44
443.149	666.44
443.371	665.44
443.592	715.44
443.813	842.44
444.034	880.44
444.255	724.44
444.476	682.44
444.698	657.44
444.919	643.44
445.14	791.44
445.361	689.44
445.582	699.44
445.803	726.44
446.024	828.44
446.245	855.44
446.466	759.44
446.687	665.44
446.908	616.44
447.129	609.44
447.35	588.44
447.571	568.44
447.792	565.44
448.013	579.44
448.234	588.44
448.455	624.44
448.675	763.44
448.896	889.44
449.117	750.44
449.338	691.44
449.559	793.44
449.779	943.44
450	749.44
450.221	636.44
450.442	580.44
450.662	572.44
450.883	559.44
451.104	561.44
451.324	558.44
451.545	557.44
451.766	545.44
451.986	502.44
452.207	519.44
452.428	494.44
452.648	521.44
452.869	515.44
453.089	533.44
453.31	540.44
453.53	511.44
453.751	502.44
453.971	514.44
454.192	524.44
454.412	512.44
454.633	510.44
454.853	491.44
455.073	508.44
455.294	549.44
455.514	575.44
455.734	560.44
455.955	509.44
456.175	484.44
456.395	492.44
456.616	455.44
456.836	468.44
457.056	484.44
457.276	478.44
457.497	512.44
457.717	490.44
457.937	482.44
458.157	525.44
458.377	511.44
458.598	537.44
458.818	567.44
459.038	629.44
459.258	664.44
459.478	587.44
459.698	557.44
459.918	549.44
460.138	559.44
460.358	559.44
460.578	578.44
460.798	577.44
461.018	577.44
461.238	577.44
461.458	574.44
461.678	537.44
461.898	595.44
462.118	581.44
462.338	570.44
462.558	614.44
462.777	606.44
462.997	628.44
463.217	669.44
463.437	653.44
463.657	626.44
463.876	637.44
464.096	597.44
464.316	641.44
464.536	631.44
464.755	635.44
464.975	607.44
465.195	615.44
465.414	689.44
465.634	612.44
465.854	579.44
466.073	579.44
466.293	548.44
466.512	517.44
466.732	536.44
466.951	537.44
467.171	547.44
467.391	540.44
467.61	558.44
467.829	528.44
468.049	523.44
468.268	545.44
468.488	549.44
468.707	525.44
468.927	513.44
469.146	505.44
469.365	528.44
469.585	533.44
469.804	546.44
470.023	554.44
470.243	547.44
470.462	537.44
470.681	576.44
470.901	544.44
471.12	521.44
471.339	552.44
471.558	541.44
471.777	532.44
471.997	522.44
472.216	526.44
472.435	543.44
472.654	547.44
472.873	564.44
473.092	544.44
473.311	527.44
473.53	541.44
473.749	533.44
473.968	584.44
474.187	657.44
474.406	709.44
474.625	583.44
474.844	563.44
475.063	536.44
475.282	518.44
475.501	541.44
475.72	541.44
475.939	540.44
476.158	551.44
476.377	549.44
476.596	566.44
476.814	573.44
477.033	554.44
477.252	579.44
477.471	562.44
477.69	584.44
477.908	577.44
478.127	587.44
478.346	574.44
478.564	581.44
478.783	636.44
479.002	598.44
479.22	627.44
479.439	632.44
479.658	660.44
479.876	647.44
480.095	613.44
480.313	686.44
480.532	675.44
480.751	680.44
480.969	666.44
481.188	708.44
481.406	757.44
481.624	699.44
481.843	646.44
482.061	647.44
482.28	642.44
482.498	612.44
482.717	643.44
482.935	633.44
483.153	639.44
483.372	633.44
483.59	630.44
483.808	633.44
484.027	623.44
484.245	651.44
484.463	634.44
484.681	649.44
484.9	635.44
485.118	655.44
485.336	649.44
485.554	629.44
485.772	661.44
485.99	652.44
486.209	651.44
486.427	660.44
486.645	663.44
486.863	675.44
487.081	663.44
487.299	677.44
487.517	680.44
487.735	656.44
487.953	675.44
488.171	669.44
488.389	644.44
488.607	686.44
488.825	678.44
489.043	655.44
489.261	657.44
489.479	689.44
489.696	696.44
489.914	694.44
490.132	685.44
490.35	697.44
490.568	729.44
490.786	703.44
491.003	727.44
491.221	757.44
491.439	755.44
491.657	756.44
491.874	749.44
492.092	775.44
492.31	792.44
492.527	765.44
492.745	784.44
492.963	771.44
493.18	796.44
493.398	792.44
493.615	798.44
493.833	790.44
494.05	811.44
494.268	788.44
494.485	797.44
494.703	768.44
494.92	785.44
495.138	787.44
495.355	784.44
495.573	802.44
495.79	811.44
496.008	786.44
496.225	804.44
496.442	790.44
496.66	798.44
496.877	814.44
497.094	795.44
497.312	793.44
497.529	828.44
497.746	854.44
497.963	863.44
498.181	852.44
498.398	892.44
498.615	919.44
498.832	960.44
499.049	941.44
499.267	970.44
499.484	1037.44
499.701	1079.44
499.918	1124.44
500.135	1187.44
500.352	1261.44
500.569	1269.44
500.786	1291.44
501.003	1267.44
501.22	1184.44
501.437	1169.44
501.654	1135.44
