Data from 1975.PennyLincolnUp.Lamp.En5.5.200Scan.071719.P1.Changed Mount._HRD10591_15-56-49-859.txt Node
Date: Thu Jul 18 15:56:49 EDT 2019
User: cochatt
Spectrometer: HR+D1059
Trigger mode: 1
Integration Time (sec): 1.000000E-1
Scans to average: 1
Electric dark correction enabled: true
Nonlinearity correction enabled: false
Boxcar width: 0
XAxis mode: Wavelengths
Number of Pixels in Spectrum: 2048
>>>>>Begin Spectral Data<<<<<
223.165	-23.75
223.4	-23.75
223.635	-23.75
223.869	-27.75
224.104	-12.75
224.338	-21.75
224.573	-3.75
224.808	1.25
225.042	-7.75
225.277	-18.75
225.511	5.25
225.746	-9.75
225.98	9.25
226.215	11.25
226.449	11.25
226.683	21.25
226.918	38.25
227.152	28.25
227.387	36.25
227.621	38.25
227.856	50.25
228.09	39.25
228.324	54.25
228.559	50.25
228.793	71.25
229.027	94.25
229.262	111.25
229.496	120.25
229.73	123.25
229.964	141.25
230.199	117.25
230.433	123.25
230.667	113.25
230.901	109.25
231.136	94.25
231.37	109.25
231.604	126.25
231.838	116.25
232.072	109.25
232.306	108.25
232.541	106.25
232.775	112.25
233.009	111.25
233.243	122.25
233.477	120.25
233.711	113.25
233.945	125.25
234.179	124.25
234.413	113.25
234.647	133.25
234.881	128.25
235.115	108.25
235.349	116.25
235.583	138.25
235.817	135.25
236.051	133.25
236.285	136.25
236.519	132.25
236.753	130.25
236.987	140.25
237.221	182.25
237.455	219.25
237.689	184.25
237.922	134.25
238.156	137.25
238.39	138.25
238.624	127.25
238.858	138.25
239.091	139.25
239.325	131.25
239.559	118.25
239.793	122.25
240.027	123.25
240.26	149.25
240.494	171.25
240.728	164.25
240.961	149.25
241.195	145.25
241.429	127.25
241.662	125.25
241.896	127.25
242.13	139.25
242.363	142.25
242.597	151.25
242.83	150.25
243.064	153.25
243.298	137.25
243.531	147.25
243.765	134.25
243.998	144.25
244.232	136.25
244.465	151.25
244.699	152.25
244.932	150.25
245.166	145.25
245.399	154.25
245.633	144.25
245.866	153.25
246.099	176.25
246.333	154.25
246.566	143.25
246.8	141.25
247.033	163.25
247.266	158.25
247.5	156.25
247.733	157.25
247.966	161.25
248.2	190.25
248.433	198.25
248.666	181.25
248.899	203.25
249.133	206.25
249.366	212.25
249.599	220.25
249.832	194.25
250.066	193.25
250.299	178.25
250.532	197.25
250.765	212.25
250.998	236.25
251.231	239.25
251.465	216.25
251.698	205.25
251.931	220.25
252.164	197.25
252.397	219.25
252.63	204.25
252.863	203.25
253.096	223.25
253.329	237.25
253.562	223.25
253.795	219.25
254.028	225.25
254.261	198.25
254.494	231.25
254.727	246.25
254.96	300.25
255.193	268.25
255.426	268.25
255.659	239.25
255.892	244.25
256.124	242.25
256.357	235.25
256.59	229.25
256.823	232.25
257.056	210.25
257.289	228.25
257.521	220.25
257.754	219.25
257.987	212.25
258.22	219.25
258.452	222.25
258.685	204.25
258.918	225.25
259.151	245.25
259.383	223.25
259.616	209.25
259.849	239.25
260.081	246.25
260.314	265.25
260.547	264.25
260.779	238.25
261.012	213.25
261.244	237.25
261.477	233.25
261.71	226.25
261.942	239.25
262.175	238.25
262.407	245.25
262.64	218.25
262.872	207.25
263.105	207.25
263.337	217.25
263.57	216.25
263.802	210.25
264.035	216.25
264.267	222.25
264.499	231.25
264.732	221.25
264.964	237.25
265.197	241.25
265.429	216.25
265.661	198.25
265.894	228.25
266.126	233.25
266.358	245.25
266.591	236.25
266.823	230.25
267.055	227.25
267.287	238.25
267.52	244.25
267.752	239.25
267.984	234.25
268.216	234.25
268.448	230.25
268.681	263.25
268.913	264.25
269.145	253.25
269.377	295.25
269.609	242.25
269.841	260.25
270.073	290.25
270.306	299.25
270.538	315.25
270.77	316.25
271.002	316.25
271.234	287.25
271.466	306.25
271.698	319.25
271.93	323.25
272.162	320.25
272.394	313.25
272.626	321.25
272.858	286.25
273.09	275.25
273.322	278.25
273.553	294.25
273.785	276.25
274.017	293.25
274.249	279.25
274.481	269.25
274.713	272.25
274.945	290.25
275.176	282.25
275.408	273.25
275.64	284.25
275.872	261.25
276.104	287.25
276.335	290.25
276.567	294.25
276.799	297.25
277.031	306.25
277.262	320.25
277.494	335.25
277.726	317.25
277.957	292.25
278.189	291.25
278.421	274.25
278.652	291.25
278.884	282.25
279.115	266.25
279.347	265.25
279.579	284.25
279.81	284.25
280.042	276.25
280.273	284.25
280.505	286.25
280.736	280.25
280.968	296.25
281.199	275.25
281.431	271.25
281.662	292.25
281.894	286.25
282.125	287.25
282.356	282.25
282.588	307.25
282.819	301.25
283.051	310.25
283.282	295.25
283.513	313.25
283.745	291.25
283.976	294.25
284.207	288.25
284.439	310.25
284.67	285.25
284.901	283.25
285.132	300.25
285.364	307.25
285.595	293.25
285.826	301.25
286.057	281.25
286.288	299.25
286.52	295.25
286.751	309.25
286.982	298.25
287.213	314.25
287.444	283.25
287.675	307.25
287.906	333.25
288.138	305.25
288.369	326.25
288.6	313.25
288.831	334.25
289.062	301.25
289.293	298.25
289.524	316.25
289.755	331.25
289.986	305.25
290.217	311.25
290.448	303.25
290.679	306.25
290.91	298.25
291.141	295.25
291.371	306.25
291.602	303.25
291.833	316.25
292.064	315.25
292.295	321.25
292.526	302.25
292.757	299.25
292.987	309.25
293.218	307.25
293.449	314.25
293.68	307.25
293.91	317.25
294.141	320.25
294.372	319.25
294.603	300.25
294.833	319.25
295.064	314.25
295.295	308.25
295.525	299.25
295.756	318.25
295.987	330.25
296.217	324.25
296.448	338.25
296.679	329.25
296.909	318.25
297.14	317.25
297.37	319.25
297.601	330.25
297.831	330.25
298.062	312.25
298.292	340.25
298.523	314.25
298.753	329.25
298.984	332.25
299.214	304.25
299.445	337.25
299.675	330.25
299.905	330.25
300.136	331.25
300.366	332.25
300.597	329.25
300.827	357.25
301.057	341.25
301.288	343.25
301.518	347.25
301.748	345.25
301.979	340.25
302.209	340.25
302.439	333.25
302.669	362.25
302.9	363.25
303.13	349.25
303.36	350.25
303.59	343.25
303.82	349.25
304.051	350.25
304.281	348.25
304.511	339.25
304.741	343.25
304.971	335.25
305.201	340.25
305.431	339.25
305.661	334.25
305.891	353.25
306.121	356.25
306.352	349.25
306.582	349.25
306.812	347.25
307.042	359.25
307.272	345.25
307.502	346.25
307.731	377.25
307.961	341.25
308.191	338.25
308.421	350.25
308.651	359.25
308.881	352.25
309.111	345.25
309.341	355.25
309.571	355.25
309.8	364.25
310.03	394.25
310.26	378.25
310.49	380.25
310.72	377.25
310.949	380.25
311.179	384.25
311.409	377.25
311.639	363.25
311.868	380.25
312.098	384.25
312.328	382.25
312.557	405.25
312.787	396.25
313.017	386.25
313.246	408.25
313.476	381.25
313.706	389.25
313.935	395.25
314.165	382.25
314.394	396.25
314.624	397.25
314.853	384.25
315.083	383.25
315.312	390.25
315.542	379.25
315.771	369.25
316.001	383.25
316.23	371.25
316.46	376.25
316.689	377.25
316.919	388.25
317.148	396.25
317.377	411.25
317.607	378.25
317.836	397.25
318.065	394.25
318.295	385.25
318.524	396.25
318.753	379.25
318.983	389.25
319.212	390.25
319.441	389.25
319.67	393.25
319.9	381.25
320.129	376.25
320.358	388.25
320.587	408.25
320.816	389.25
321.046	400.25
321.275	404.25
321.504	392.25
321.733	393.25
321.962	420.25
322.191	422.25
322.42	424.25
322.649	416.25
322.878	431.25
323.108	458.25
323.337	444.25
323.566	490.25
323.795	489.25
324.024	522.25
324.253	601.25
324.482	806.25
324.71	1192.25
324.939	1819.25
325.168	1579.25
325.397	819.25
325.626	568.25
325.855	496.25
326.084	490.25
326.313	480.25
326.542	460.25
326.77	505.25
326.999	560.25
327.228	776.25
327.457	1116.25
327.686	1372.25
327.914	942.25
328.143	646.25
328.372	563.25
328.6	537.25
328.829	522.25
329.058	528.25
329.287	534.25
329.515	500.25
329.744	503.25
329.972	485.25
330.201	521.25
330.43	539.25
330.658	573.25
330.887	550.25
331.115	534.25
331.344	514.25
331.572	478.25
331.801	468.25
332.03	486.25
332.258	455.25
332.486	464.25
332.715	489.25
332.943	462.25
333.172	484.25
333.4	468.25
333.629	491.25
333.857	522.25
334.085	495.25
334.314	523.25
334.542	552.25
334.771	579.25
334.999	533.25
335.227	504.25
335.455	489.25
335.684	502.25
335.912	482.25
336.14	462.25
336.369	469.25
336.597	476.25
336.825	470.25
337.053	480.25
337.281	445.25
337.51	447.25
337.738	466.25
337.966	450.25
338.194	469.25
338.422	460.25
338.65	451.25
338.878	451.25
339.106	432.25
339.334	448.25
339.562	470.25
339.79	450.25
340.018	435.25
340.246	425.25
340.474	446.25
340.702	443.25
340.93	455.25
341.158	439.25
341.386	439.25
341.614	469.25
341.842	434.25
342.07	444.25
342.298	458.25
342.526	427.25
342.754	438.25
342.981	452.25
343.209	452.25
343.437	454.25
343.665	475.25
343.893	478.25
344.12	487.25
344.348	474.25
344.576	461.25
344.804	449.25
345.031	448.25
345.259	457.25
345.487	442.25
345.714	458.25
345.942	429.25
346.17	437.25
346.397	420.25
346.625	438.25
346.853	428.25
347.08	404.25
347.308	428.25
347.535	432.25
347.763	428.25
347.99	414.25
348.218	443.25
348.445	428.25
348.673	434.25
348.9	434.25
349.128	431.25
349.355	418.25
349.583	420.25
349.81	428.25
350.037	446.25
350.265	422.25
350.492	420.25
350.72	415.25
350.947	432.25
351.174	443.25
351.402	445.25
351.629	423.25
351.856	412.25
352.083	438.25
352.311	452.25
352.538	453.25
352.765	450.25
352.992	433.25
353.22	407.25
353.447	408.25
353.674	417.25
353.901	424.25
354.128	407.25
354.355	401.25
354.583	417.25
354.81	395.25
355.037	401.25
355.264	393.25
355.491	410.25
355.718	424.25
355.945	423.25
356.172	404.25
356.399	418.25
356.626	418.25
356.853	429.25
357.08	408.25
357.307	427.25
357.534	410.25
357.761	408.25
357.988	439.25
358.215	402.25
358.441	407.25
358.668	410.25
358.895	406.25
359.122	418.25
359.349	422.25
359.576	424.25
359.802	428.25
360.029	460.25
360.256	458.25
360.483	441.25
360.709	445.25
360.936	431.25
361.163	431.25
361.39	431.25
361.616	417.25
361.843	425.25
362.07	449.25
362.296	431.25
362.523	436.25
362.749	415.25
362.976	420.25
363.203	432.25
363.429	431.25
363.656	420.25
363.882	385.25
364.109	417.25
364.335	429.25
364.562	423.25
364.788	426.25
365.015	410.25
365.241	411.25
365.468	418.25
365.694	414.25
365.92	420.25
366.147	422.25
366.373	413.25
366.599	431.25
366.826	421.25
367.052	415.25
367.278	418.25
367.505	425.25
367.731	422.25
367.957	425.25
368.184	411.25
368.41	410.25
368.636	426.25
368.862	430.25
369.089	420.25
369.315	415.25
369.541	437.25
369.767	426.25
369.993	419.25
370.219	422.25
370.445	429.25
370.672	423.25
370.898	418.25
371.124	406.25
371.35	415.25
371.576	423.25
371.802	437.25
372.028	422.25
372.254	443.25
372.48	434.25
372.706	439.25
372.932	437.25
373.158	432.25
373.384	440.25
373.61	430.25
373.835	411.25
374.061	431.25
374.287	419.25
374.513	439.25
374.739	399.25
374.965	420.25
375.191	444.25
375.416	420.25
375.642	440.25
375.868	444.25
376.094	431.25
376.319	436.25
376.545	422.25
376.771	427.25
376.997	435.25
377.222	447.25
377.448	421.25
377.674	439.25
377.899	425.25
378.125	415.25
378.35	429.25
378.576	426.25
378.802	427.25
379.027	422.25
379.253	416.25
379.478	422.25
379.704	435.25
379.929	443.25
380.155	445.25
380.38	420.25
380.606	412.25
380.831	441.25
381.057	431.25
381.282	438.25
381.507	457.25
381.733	437.25
381.958	420.25
382.184	436.25
382.409	448.25
382.634	444.25
382.86	442.25
383.085	439.25
383.31	436.25
383.535	438.25
383.761	466.25
383.986	457.25
384.211	476.25
384.436	485.25
384.662	452.25
384.887	473.25
385.112	468.25
385.337	474.25
385.562	472.25
385.787	475.25
386.013	498.25
386.238	517.25
386.463	483.25
386.688	467.25
386.913	464.25
387.138	486.25
387.363	480.25
387.588	486.25
387.813	471.25
388.038	471.25
388.263	483.25
388.488	488.25
388.713	468.25
388.938	475.25
389.163	509.25
389.387	489.25
389.612	471.25
389.837	474.25
390.062	499.25
390.287	469.25
390.512	463.25
390.736	464.25
390.961	478.25
391.186	496.25
391.411	478.25
391.636	499.25
391.86	493.25
392.085	506.25
392.31	518.25
392.534	492.25
392.759	502.25
392.984	497.25
393.208	505.25
393.433	486.25
393.658	490.25
393.882	493.25
394.107	484.25
394.331	478.25
394.556	471.25
394.78	479.25
395.005	506.25
395.229	514.25
395.454	503.25
395.678	506.25
395.903	519.25
396.127	537.25
396.352	522.25
396.576	521.25
396.801	509.25
397.025	501.25
397.249	498.25
397.474	518.25
397.698	520.25
397.922	547.25
398.147	539.25
398.371	553.25
398.595	545.25
398.82	540.25
399.044	549.25
399.268	599.25
399.492	644.25
399.717	666.25
399.941	709.25
400.165	721.25
400.389	692.25
400.613	627.25
400.837	590.25
401.062	570.25
401.286	579.25
401.51	563.25
401.734	551.25
401.958	578.25
402.182	567.25
402.406	578.25
402.63	547.25
402.854	574.25
403.078	572.25
403.302	607.25
403.526	568.25
403.75	592.25
403.974	616.25
404.198	615.25
404.422	578.25
404.645	605.25
404.869	588.25
405.093	653.25
405.317	670.25
405.541	718.25
405.765	629.25
405.988	614.25
406.212	616.25
406.436	637.25
406.66	607.25
406.883	598.25
407.107	645.25
407.331	712.25
407.555	787.25
407.778	747.25
408.002	702.25
408.226	667.25
408.449	649.25
408.673	612.25
408.896	666.25
409.12	706.25
409.344	657.25
409.567	632.25
409.791	615.25
410.014	579.25
410.238	613.25
410.461	592.25
410.685	593.25
410.908	592.25
411.132	626.25
411.355	646.25
411.578	639.25
411.802	588.25
412.025	591.25
412.249	603.25
412.472	620.25
412.695	649.25
412.919	632.25
413.142	596.25
413.365	581.25
413.589	574.25
413.812	569.25
414.035	573.25
414.258	565.25
414.482	547.25
414.705	538.25
414.928	573.25
415.151	552.25
415.374	550.25
415.597	561.25
415.821	544.25
416.044	538.25
416.267	562.25
416.49	552.25
416.713	559.25
416.936	558.25
417.159	569.25
417.382	554.25
417.605	582.25
417.828	567.25
418.051	577.25
418.274	575.25
418.497	570.25
418.72	574.25
418.943	567.25
419.166	588.25
419.389	603.25
419.611	626.25
419.834	595.25
420.057	601.25
420.28	582.25
420.503	588.25
420.726	570.25
420.948	584.25
421.171	652.25
421.394	665.25
421.617	604.25
421.839	558.25
422.062	589.25
422.285	582.25
422.507	650.25
422.73	730.25
422.953	702.25
423.175	601.25
423.398	594.25
423.621	619.25
423.843	629.25
424.066	609.25
424.288	616.25
424.511	650.25
424.733	690.25
424.956	798.25
425.178	728.25
425.401	725.25
425.623	759.25
425.846	644.25
426.068	600.25
426.291	616.25
426.513	601.25
426.735	597.25
426.958	651.25
427.18	727.25
427.402	892.25
427.625	947.25
427.847	795.25
428.069	718.25
428.292	638.25
428.514	592.25
428.736	598.25
428.958	579.25
429.181	571.25
429.403	558.25
429.625	555.25
429.847	604.25
430.069	663.25
430.292	676.25
430.514	583.25
430.736	553.25
430.958	544.25
431.18	541.25
431.402	522.25
431.624	523.25
431.846	515.25
432.068	517.25
432.29	535.25
432.512	527.25
432.734	546.25
432.956	540.25
433.178	564.25
433.4	542.25
433.622	522.25
433.844	514.25
434.066	528.25
434.287	515.25
434.509	534.25
434.731	572.25
434.953	567.25
435.175	581.25
435.397	631.25
435.618	619.25
435.84	631.25
436.062	714.25
436.284	802.25
436.505	650.25
436.727	591.25
436.949	578.25
437.17	558.25
437.392	563.25
437.614	554.25
437.835	580.25
438.057	674.25
438.278	798.25
438.5	780.25
438.721	848.25
438.943	816.25
439.165	666.25
439.386	593.25
439.608	596.25
439.829	588.25
440.05	621.25
440.272	651.25
440.493	640.25
440.715	559.25
440.936	572.25
441.158	572.25
441.379	574.25
441.6	604.25
441.822	605.25
442.043	638.25
442.264	722.25
442.486	782.25
442.707	676.25
442.928	628.25
443.149	633.25
443.371	660.25
443.592	684.25
443.813	812.25
444.034	845.25
444.255	711.25
444.476	647.25
444.698	642.25
444.919	635.25
445.14	741.25
445.361	684.25
445.582	672.25
445.803	717.25
446.024	784.25
446.245	806.25
446.466	754.25
446.687	640.25
446.908	599.25
447.129	568.25
447.35	569.25
447.571	548.25
447.792	542.25
448.013	551.25
448.234	554.25
448.455	601.25
448.675	733.25
448.896	830.25
449.117	717.25
449.338	685.25
449.559	761.25
449.779	891.25
450	736.25
450.221	597.25
450.442	559.25
450.662	550.25
450.883	547.25
451.104	549.25
451.324	525.25
451.545	518.25
451.766	523.25
451.986	490.25
452.207	481.25
452.428	482.25
452.648	500.25
452.869	487.25
453.089	512.25
453.31	494.25
453.53	516.25
453.751	491.25
453.971	481.25
454.192	495.25
454.412	478.25
454.633	485.25
454.853	490.25
455.073	482.25
455.294	517.25
455.514	591.25
455.734	566.25
455.955	494.25
456.175	487.25
456.395	444.25
456.616	454.25
456.836	461.25
457.056	462.25
457.276	433.25
457.497	463.25
457.717	448.25
457.937	465.25
458.157	504.25
458.377	491.25
458.598	526.25
458.818	550.25
459.038	623.25
459.258	630.25
459.478	548.25
459.698	526.25
459.918	544.25
460.138	536.25
460.358	527.25
460.578	541.25
460.798	571.25
461.018	571.25
461.238	558.25
461.458	563.25
461.678	536.25
461.898	573.25
462.118	567.25
462.338	572.25
462.558	587.25
462.777	586.25
462.997	614.25
463.217	632.25
463.437	654.25
463.657	620.25
463.876	607.25
464.096	597.25
464.316	600.25
464.536	600.25
464.755	578.25
464.975	610.25
465.195	618.25
465.414	651.25
465.634	591.25
465.854	545.25
466.073	524.25
466.293	536.25
466.512	512.25
466.732	526.25
466.951	522.25
467.171	495.25
467.391	510.25
467.61	529.25
467.829	517.25
468.049	515.25
468.268	505.25
468.488	496.25
468.707	493.25
468.927	504.25
469.146	507.25
469.365	515.25
469.585	518.25
469.804	492.25
470.023	522.25
470.243	530.25
470.462	546.25
470.681	542.25
470.901	533.25
471.12	525.25
471.339	491.25
471.558	527.25
471.777	506.25
471.997	506.25
472.216	526.25
472.435	549.25
472.654	524.25
472.873	518.25
473.092	527.25
473.311	511.25
473.53	484.25
473.749	497.25
473.968	538.25
474.187	649.25
474.406	677.25
474.625	582.25
474.844	518.25
475.063	538.25
475.282	532.25
475.501	520.25
475.72	538.25
475.939	550.25
476.158	541.25
476.377	544.25
476.596	524.25
476.814	542.25
477.033	547.25
477.252	542.25
477.471	528.25
477.69	568.25
477.908	578.25
478.127	568.25
478.346	571.25
478.564	583.25
478.783	583.25
479.002	599.25
479.22	612.25
479.439	599.25
479.658	611.25
479.876	608.25
480.095	642.25
480.313	666.25
480.532	642.25
480.751	646.25
480.969	655.25
481.188	697.25
481.406	704.25
481.624	664.25
481.843	626.25
482.061	637.25
482.28	628.25
482.498	606.25
482.717	610.25
482.935	598.25
483.153	595.25
483.372	607.25
483.59	624.25
483.808	649.25
484.027	621.25
484.245	589.25
484.463	627.25
484.681	622.25
484.9	600.25
485.118	603.25
485.336	612.25
485.554	627.25
485.772	642.25
485.99	613.25
486.209	650.25
486.427	614.25
486.645	607.25
486.863	638.25
487.081	664.25
487.299	642.25
487.517	656.25
487.735	651.25
487.953	658.25
488.171	646.25
488.389	647.25
488.607	659.25
488.825	647.25
489.043	660.25
489.261	663.25
489.479	662.25
489.696	666.25
489.914	684.25
490.132	678.25
490.35	675.25
490.568	719.25
490.786	702.25
491.003	728.25
491.221	717.25
491.439	687.25
491.657	746.25
491.874	761.25
492.092	770.25
492.31	770.25
492.527	765.25
492.745	760.25
492.963	747.25
493.18	778.25
493.398	766.25
493.615	783.25
493.833	737.25
494.05	746.25
494.268	791.25
494.485	792.25
494.703	782.25
494.92	785.25
495.138	775.25
495.355	762.25
495.573	801.25
495.79	746.25
496.008	748.25
496.225	753.25
496.442	764.25
496.66	800.25
496.877	766.25
497.094	807.25
497.312	788.25
497.529	815.25
497.746	840.25
497.963	831.25
498.181	853.25
498.398	869.25
498.615	867.25
498.832	899.25
499.049	928.25
499.267	955.25
499.484	1023.25
499.701	1074.25
499.918	1080.25
500.135	1144.25
500.352	1216.25
500.569	1240.25
500.786	1223.25
501.003	1199.25
501.22	1176.25
501.437	1093.25
501.654	1070.25
