Data from 1975.PennyLincolnUp.Lamp.En5.5.200Scan.071719.P1.Changed Mount._HRD10591_15-56-01-858.txt Node
Date: Thu Jul 18 15:56:01 EDT 2019
User: cochatt
Spectrometer: HR+D1059
Trigger mode: 1
Integration Time (sec): 1.000000E-1
Scans to average: 1
Electric dark correction enabled: true
Nonlinearity correction enabled: false
Boxcar width: 0
XAxis mode: Wavelengths
Number of Pixels in Spectrum: 2048
>>>>>Begin Spectral Data<<<<<
223.165	-16.38
223.4	-16.38
223.635	-16.38
223.869	-28.38
224.104	-12.38
224.338	-16.38
224.573	-6.38
224.808	-17.38
225.042	-15.38
225.277	-11.38
225.511	-0.38
225.746	5.62
225.98	4.62
226.215	22.62
226.449	14.62
226.683	9.62
226.918	34.62
227.152	32.62
227.387	35.62
227.621	31.62
227.856	35.62
228.09	37.62
228.324	56.62
228.559	52.62
228.793	56.62
229.027	87.62
229.262	99.62
229.496	105.62
229.73	118.62
229.964	141.62
230.199	137.62
230.433	114.62
230.667	110.62
230.901	108.62
231.136	111.62
231.37	121.62
231.604	112.62
231.838	118.62
232.072	135.62
232.306	98.62
232.541	114.62
232.775	126.62
233.009	118.62
233.243	107.62
233.477	133.62
233.711	122.62
233.945	128.62
234.179	122.62
234.413	119.62
234.647	114.62
234.881	121.62
235.115	117.62
235.349	122.62
235.583	131.62
235.817	131.62
236.051	138.62
236.285	129.62
236.519	115.62
236.753	129.62
236.987	147.62
237.221	185.62
237.455	200.62
237.689	188.62
237.922	140.62
238.156	131.62
238.39	129.62
238.624	124.62
238.858	125.62
239.091	119.62
239.325	138.62
239.559	127.62
239.793	106.62
240.027	119.62
240.26	128.62
240.494	156.62
240.728	156.62
240.961	149.62
241.195	149.62
241.429	131.62
241.662	131.62
241.896	128.62
242.13	131.62
242.363	142.62
242.597	142.62
242.83	124.62
243.064	156.62
243.298	132.62
243.531	138.62
243.765	163.62
243.998	131.62
244.232	143.62
244.465	145.62
244.699	143.62
244.932	155.62
245.166	166.62
245.399	152.62
245.633	151.62
245.866	147.62
246.099	146.62
246.333	147.62
246.566	148.62
246.8	145.62
247.033	174.62
247.266	166.62
247.5	167.62
247.733	155.62
247.966	165.62
248.2	155.62
248.433	175.62
248.666	168.62
248.899	197.62
249.133	194.62
249.366	214.62
249.599	204.62
249.832	177.62
250.066	171.62
250.299	183.62
250.532	184.62
250.765	215.62
250.998	206.62
251.231	216.62
251.465	207.62
251.698	189.62
251.931	206.62
252.164	201.62
252.397	189.62
252.63	200.62
252.863	183.62
253.096	216.62
253.329	208.62
253.562	220.62
253.795	205.62
254.028	199.62
254.261	208.62
254.494	221.62
254.727	224.62
254.96	261.62
255.193	250.62
255.426	214.62
255.659	201.62
255.892	224.62
256.124	223.62
256.357	236.62
256.59	211.62
256.823	215.62
257.056	198.62
257.289	210.62
257.521	195.62
257.754	227.62
257.987	226.62
258.22	209.62
258.452	211.62
258.685	207.62
258.918	195.62
259.151	211.62
259.383	211.62
259.616	220.62
259.849	218.62
260.081	228.62
260.314	242.62
260.547	265.62
260.779	237.62
261.012	231.62
261.244	231.62
261.477	219.62
261.71	219.62
261.942	232.62
262.175	225.62
262.407	220.62
262.64	211.62
262.872	207.62
263.105	208.62
263.337	210.62
263.57	209.62
263.802	220.62
264.035	205.62
264.267	201.62
264.499	214.62
264.732	214.62
264.964	213.62
265.197	217.62
265.429	204.62
265.661	215.62
265.894	227.62
266.126	224.62
266.358	233.62
266.591	227.62
266.823	222.62
267.055	223.62
267.287	229.62
267.52	229.62
267.752	227.62
267.984	215.62
268.216	225.62
268.448	241.62
268.681	230.62
268.913	243.62
269.145	267.62
269.377	256.62
269.609	243.62
269.841	250.62
270.073	276.62
270.306	281.62
270.538	300.62
270.77	304.62
271.002	299.62
271.234	281.62
271.466	270.62
271.698	293.62
271.93	301.62
272.162	283.62
272.394	295.62
272.626	267.62
272.858	273.62
273.09	275.62
273.322	261.62
273.553	253.62
273.785	255.62
274.017	252.62
274.249	246.62
274.481	257.62
274.713	261.62
274.945	265.62
275.176	253.62
275.408	240.62
275.64	244.62
275.872	252.62
276.104	262.62
276.335	263.62
276.567	243.62
276.799	282.62
277.031	295.62
277.262	307.62
277.494	304.62
277.726	285.62
277.957	274.62
278.189	279.62
278.421	274.62
278.652	273.62
278.884	254.62
279.115	261.62
279.347	272.62
279.579	264.62
279.81	275.62
280.042	265.62
280.273	258.62
280.505	255.62
280.736	271.62
280.968	258.62
281.199	269.62
281.431	264.62
281.662	266.62
281.894	267.62
282.125	265.62
282.356	280.62
282.588	280.62
282.819	280.62
283.051	280.62
283.282	276.62
283.513	272.62
283.745	275.62
283.976	279.62
284.207	295.62
284.439	278.62
284.67	283.62
284.901	288.62
285.132	289.62
285.364	276.62
285.595	263.62
285.826	277.62
286.057	273.62
286.288	296.62
286.52	291.62
286.751	274.62
286.982	291.62
287.213	278.62
287.444	290.62
287.675	283.62
287.906	304.62
288.138	294.62
288.369	289.62
288.6	288.62
288.831	290.62
289.062	316.62
289.293	294.62
289.524	302.62
289.755	280.62
289.986	286.62
290.217	276.62
290.448	300.62
290.679	312.62
290.91	280.62
291.141	283.62
291.371	296.62
291.602	307.62
291.833	290.62
292.064	300.62
292.295	297.62
292.526	297.62
292.757	280.62
292.987	280.62
293.218	291.62
293.449	286.62
293.68	283.62
293.91	287.62
294.141	297.62
294.372	292.62
294.603	302.62
294.833	301.62
295.064	302.62
295.295	290.62
295.525	309.62
295.756	307.62
295.987	288.62
296.217	324.62
296.448	330.62
296.679	295.62
296.909	296.62
297.14	302.62
297.37	300.62
297.601	308.62
297.831	314.62
298.062	296.62
298.292	314.62
298.523	319.62
298.753	301.62
298.984	309.62
299.214	292.62
299.445	296.62
299.675	312.62
299.905	317.62
300.136	314.62
300.366	304.62
300.597	322.62
300.827	318.62
301.057	332.62
301.288	323.62
301.518	337.62
301.748	314.62
301.979	337.62
302.209	338.62
302.439	327.62
302.669	327.62
302.9	335.62
303.13	331.62
303.36	327.62
303.59	318.62
303.82	329.62
304.051	331.62
304.281	352.62
304.511	341.62
304.741	321.62
304.971	336.62
305.201	310.62
305.431	320.62
305.661	336.62
305.891	327.62
306.121	331.62
306.352	333.62
306.582	354.62
306.812	328.62
307.042	351.62
307.272	341.62
307.502	319.62
307.731	343.62
307.961	342.62
308.191	345.62
308.421	337.62
308.651	324.62
308.881	338.62
309.111	349.62
309.341	342.62
309.571	344.62
309.8	352.62
310.03	359.62
310.26	363.62
310.49	338.62
310.72	363.62
310.949	383.62
311.179	383.62
311.409	343.62
311.639	341.62
311.868	353.62
312.098	358.62
312.328	368.62
312.557	370.62
312.787	379.62
313.017	385.62
313.246	366.62
313.476	345.62
313.706	366.62
313.935	366.62
314.165	374.62
314.394	383.62
314.624	367.62
314.853	380.62
315.083	363.62
315.312	376.62
315.542	366.62
315.771	366.62
316.001	364.62
316.23	360.62
316.46	357.62
316.689	373.62
316.919	353.62
317.148	378.62
317.377	391.62
317.607	367.62
317.836	352.62
318.065	376.62
318.295	379.62
318.524	364.62
318.753	371.62
318.983	367.62
319.212	365.62
319.441	360.62
319.67	379.62
319.9	360.62
320.129	355.62
320.358	363.62
320.587	390.62
320.816	365.62
321.046	381.62
321.275	375.62
321.504	385.62
321.733	380.62
321.962	380.62
322.191	397.62
322.42	409.62
322.649	387.62
322.878	393.62
323.108	417.62
323.337	431.62
323.566	458.62
323.795	446.62
324.024	477.62
324.253	555.62
324.482	721.62
324.71	1099.62
324.939	1602.62
325.168	1434.62
325.397	723.62
325.626	521.62
325.855	463.62
326.084	431.62
326.313	433.62
326.542	443.62
326.77	488.62
326.999	513.62
327.228	684.62
327.457	1029.62
327.686	1251.62
327.914	840.62
328.143	575.62
328.372	525.62
328.6	494.62
328.829	499.62
329.058	484.62
329.287	509.62
329.515	501.62
329.744	464.62
329.972	457.62
330.201	482.62
330.43	483.62
330.658	518.62
330.887	519.62
331.115	505.62
331.344	467.62
331.572	459.62
331.801	459.62
332.03	473.62
332.258	474.62
332.486	454.62
332.715	442.62
332.943	439.62
333.172	449.62
333.4	459.62
333.629	453.62
333.857	482.62
334.085	491.62
334.314	494.62
334.542	505.62
334.771	509.62
334.999	483.62
335.227	477.62
335.455	463.62
335.684	461.62
335.912	436.62
336.14	444.62
336.369	465.62
336.597	460.62
336.825	437.62
337.053	448.62
337.281	430.62
337.51	455.62
337.738	447.62
337.966	435.62
338.194	424.62
338.422	439.62
338.65	419.62
338.878	441.62
339.106	448.62
339.334	424.62
339.562	428.62
339.79	437.62
340.018	434.62
340.246	431.62
340.474	436.62
340.702	419.62
340.93	419.62
341.158	424.62
341.386	421.62
341.614	429.62
341.842	406.62
342.07	407.62
342.298	412.62
342.526	433.62
342.754	418.62
342.981	421.62
343.209	415.62
343.437	419.62
343.665	439.62
343.893	437.62
344.12	452.62
344.348	440.62
344.576	446.62
344.804	432.62
345.031	461.62
345.259	465.62
345.487	436.62
345.714	427.62
345.942	412.62
346.17	410.62
346.397	411.62
346.625	399.62
346.853	408.62
347.08	413.62
347.308	426.62
347.535	401.62
347.763	410.62
347.99	428.62
348.218	402.62
348.445	433.62
348.673	393.62
348.9	399.62
349.128	405.62
349.355	407.62
349.583	384.62
349.81	378.62
350.037	402.62
350.265	391.62
350.492	396.62
350.72	399.62
350.947	400.62
351.174	401.62
351.402	417.62
351.629	401.62
351.856	424.62
352.083	413.62
352.311	431.62
352.538	416.62
352.765	408.62
352.992	412.62
353.22	396.62
353.447	429.62
353.674	396.62
353.901	406.62
354.128	384.62
354.355	408.62
354.583	406.62
354.81	412.62
355.037	381.62
355.264	392.62
355.491	390.62
355.718	395.62
355.945	389.62
356.172	393.62
356.399	391.62
356.626	380.62
356.853	389.62
357.08	382.62
357.307	405.62
357.534	381.62
357.761	380.62
357.988	405.62
358.215	390.62
358.441	384.62
358.668	400.62
358.895	390.62
359.122	407.62
359.349	403.62
359.576	426.62
359.802	427.62
360.029	452.62
360.256	435.62
360.483	433.62
360.709	415.62
360.936	424.62
361.163	403.62
361.39	414.62
361.616	401.62
361.843	409.62
362.07	391.62
362.296	421.62
362.523	396.62
362.749	409.62
362.976	398.62
363.203	410.62
363.429	410.62
363.656	411.62
363.882	416.62
364.109	394.62
364.335	400.62
364.562	400.62
364.788	390.62
365.015	401.62
365.241	392.62
365.468	409.62
365.694	404.62
365.92	400.62
366.147	398.62
366.373	399.62
366.599	406.62
366.826	406.62
367.052	401.62
367.278	393.62
367.505	405.62
367.731	396.62
367.957	408.62
368.184	421.62
368.41	405.62
368.636	421.62
368.862	424.62
369.089	408.62
369.315	376.62
369.541	397.62
369.767	433.62
369.993	416.62
370.219	415.62
370.445	400.62
370.672	397.62
370.898	400.62
371.124	392.62
371.35	398.62
371.576	398.62
371.802	405.62
372.028	416.62
372.254	416.62
372.48	398.62
372.706	430.62
372.932	409.62
373.158	411.62
373.384	404.62
373.61	414.62
373.835	416.62
374.061	412.62
374.287	410.62
374.513	430.62
374.739	428.62
374.965	416.62
375.191	458.62
375.416	425.62
375.642	411.62
375.868	405.62
376.094	432.62
376.319	440.62
376.545	409.62
376.771	412.62
376.997	428.62
377.222	408.62
377.448	400.62
377.674	405.62
377.899	393.62
378.125	408.62
378.35	404.62
378.576	410.62
378.802	400.62
379.027	396.62
379.253	424.62
379.478	397.62
379.704	409.62
379.929	407.62
380.155	407.62
380.38	407.62
380.606	428.62
380.831	412.62
381.057	396.62
381.282	413.62
381.507	416.62
381.733	419.62
381.958	429.62
382.184	419.62
382.409	416.62
382.634	431.62
382.86	421.62
383.085	443.62
383.31	431.62
383.535	424.62
383.761	436.62
383.986	432.62
384.211	440.62
384.436	433.62
384.662	462.62
384.887	466.62
385.112	447.62
385.337	471.62
385.562	500.62
385.787	457.62
386.013	468.62
386.238	452.62
386.463	453.62
386.688	460.62
386.913	452.62
387.138	455.62
387.363	452.62
387.588	451.62
387.813	475.62
388.038	453.62
388.263	469.62
388.488	478.62
388.713	436.62
388.938	448.62
389.163	463.62
389.387	463.62
389.612	469.62
389.837	444.62
390.062	445.62
390.287	477.62
390.512	453.62
390.736	474.62
390.961	455.62
391.186	457.62
391.411	467.62
391.636	455.62
391.86	491.62
392.085	505.62
392.31	469.62
392.534	473.62
392.759	463.62
392.984	472.62
393.208	479.62
393.433	477.62
393.658	471.62
393.882	449.62
394.107	469.62
394.331	469.62
394.556	483.62
394.78	487.62
395.005	466.62
395.229	458.62
395.454	485.62
395.678	494.62
395.903	491.62
396.127	520.62
396.352	522.62
396.576	502.62
396.801	482.62
397.025	477.62
397.249	493.62
397.474	492.62
397.698	508.62
397.922	514.62
398.147	526.62
398.371	522.62
398.595	509.62
398.82	528.62
399.044	564.62
399.268	596.62
399.492	619.62
399.717	632.62
399.941	680.62
400.165	686.62
400.389	673.62
400.613	611.62
400.837	572.62
401.062	561.62
401.286	570.62
401.51	531.62
401.734	543.62
401.958	505.62
402.182	538.62
402.406	545.62
402.63	539.62
402.854	542.62
403.078	535.62
403.302	552.62
403.526	555.62
403.75	579.62
403.974	570.62
404.198	556.62
404.422	567.62
404.645	575.62
404.869	572.62
405.093	612.62
405.317	638.62
405.541	684.62
405.765	616.62
405.988	591.62
406.212	583.62
406.436	589.62
406.66	607.62
406.883	603.62
407.107	620.62
407.331	692.62
407.555	759.62
407.778	729.62
408.002	664.62
408.226	645.62
408.449	604.62
408.673	629.62
408.896	614.62
409.12	661.62
409.344	655.62
409.567	576.62
409.791	575.62
410.014	577.62
410.238	550.62
410.461	579.62
410.685	559.62
410.908	575.62
411.132	598.62
411.355	635.62
411.578	605.62
411.802	574.62
412.025	525.62
412.249	571.62
412.472	599.62
412.695	614.62
412.919	607.62
413.142	565.62
413.365	557.62
413.589	537.62
413.812	519.62
414.035	541.62
414.258	539.62
414.482	528.62
414.705	509.62
414.928	535.62
415.151	523.62
415.374	533.62
415.597	560.62
415.821	521.62
416.044	525.62
416.267	505.62
416.49	507.62
416.713	539.62
416.936	532.62
417.159	524.62
417.382	523.62
417.605	551.62
417.828	551.62
418.051	554.62
418.274	544.62
418.497	537.62
418.72	552.62
418.943	527.62
419.166	560.62
419.389	589.62
419.611	578.62
419.834	551.62
420.057	581.62
420.28	565.62
420.503	542.62
420.726	552.62
420.948	545.62
421.171	614.62
421.394	620.62
421.617	583.62
421.839	548.62
422.062	555.62
422.285	547.62
422.507	609.62
422.73	675.62
422.953	657.62
423.175	585.62
423.398	552.62
423.621	557.62
423.843	599.62
424.066	575.62
424.288	576.62
424.511	586.62
424.733	636.62
424.956	727.62
425.178	689.62
425.401	663.62
425.623	734.62
425.846	600.62
426.068	591.62
426.291	588.62
426.513	569.62
426.735	598.62
426.958	604.62
427.18	702.62
427.402	803.62
427.625	885.62
427.847	783.62
428.069	681.62
428.292	603.62
428.514	560.62
428.736	531.62
428.958	551.62
429.181	506.62
429.403	523.62
429.625	527.62
429.847	560.62
430.069	597.62
430.292	613.62
430.514	559.62
430.736	546.62
430.958	527.62
431.18	500.62
431.402	517.62
431.624	509.62
431.846	534.62
432.068	494.62
432.29	492.62
432.512	491.62
432.734	537.62
432.956	504.62
433.178	534.62
433.4	519.62
433.622	521.62
433.844	523.62
434.066	511.62
434.287	513.62
434.509	516.62
434.731	537.62
434.953	533.62
435.175	548.62
435.397	567.62
435.618	577.62
435.84	609.62
436.062	694.62
436.284	744.62
436.505	621.62
436.727	569.62
436.949	536.62
437.17	535.62
437.392	518.62
437.614	535.62
437.835	554.62
438.057	629.62
438.278	738.62
438.5	735.62
438.721	827.62
438.943	801.62
439.165	616.62
439.386	589.62
439.608	586.62
439.829	574.62
440.05	572.62
440.272	640.62
440.493	600.62
440.715	569.62
440.936	527.62
441.158	520.62
441.379	541.62
441.6	564.62
441.822	579.62
442.043	614.62
442.264	692.62
442.486	738.62
442.707	603.62
442.928	595.62
443.149	600.62
443.371	620.62
443.592	624.62
443.813	729.62
444.034	801.62
444.255	677.62
444.476	612.62
444.698	600.62
444.919	599.62
445.14	671.62
445.361	630.62
445.582	628.62
445.803	655.62
446.024	741.62
446.245	764.62
446.466	675.62
446.687	619.62
446.908	570.62
447.129	542.62
447.35	537.62
447.571	539.62
447.792	521.62
448.013	521.62
448.234	537.62
448.455	591.62
448.675	707.62
448.896	820.62
449.117	692.62
449.338	639.62
449.559	725.62
449.779	819.62
450	686.62
450.221	560.62
450.442	536.62
450.662	518.62
450.883	506.62
451.104	523.62
451.324	502.62
451.545	496.62
451.766	495.62
451.986	462.62
452.207	479.62
452.428	467.62
452.648	457.62
452.869	472.62
453.089	456.62
453.31	473.62
453.53	467.62
453.751	455.62
453.971	444.62
454.192	471.62
454.412	459.62
454.633	452.62
454.853	461.62
455.073	468.62
455.294	494.62
455.514	539.62
455.734	543.62
455.955	480.62
456.175	464.62
456.395	463.62
456.616	451.62
456.836	462.62
457.056	457.62
457.276	431.62
457.497	451.62
457.717	449.62
457.937	459.62
458.157	455.62
458.377	477.62
458.598	473.62
458.818	507.62
459.038	585.62
459.258	619.62
459.478	499.62
459.698	495.62
459.918	507.62
460.138	503.62
460.358	530.62
460.578	515.62
460.798	533.62
461.018	554.62
461.238	534.62
461.458	498.62
461.678	503.62
461.898	540.62
462.118	555.62
462.338	549.62
462.558	573.62
462.777	592.62
462.997	603.62
463.217	606.62
463.437	612.62
463.657	596.62
463.876	576.62
464.096	573.62
464.316	584.62
464.536	595.62
464.755	583.62
464.975	592.62
465.195	589.62
465.414	610.62
465.634	583.62
465.854	527.62
466.073	504.62
466.293	521.62
466.512	501.62
466.732	485.62
466.951	515.62
467.171	481.62
467.391	525.62
467.61	489.62
467.829	489.62
468.049	500.62
468.268	507.62
468.488	473.62
468.707	463.62
468.927	487.62
469.146	481.62
469.365	490.62
469.585	479.62
469.804	485.62
470.023	500.62
470.243	501.62
470.462	496.62
470.681	526.62
470.901	492.62
471.12	483.62
471.339	520.62
471.558	488.62
471.777	490.62
471.997	510.62
472.216	491.62
472.435	527.62
472.654	519.62
472.873	491.62
473.092	493.62
473.311	486.62
473.53	500.62
473.749	490.62
473.968	548.62
474.187	607.62
474.406	618.62
474.625	558.62
474.844	519.62
475.063	500.62
475.282	494.62
475.501	486.62
475.72	512.62
475.939	501.62
476.158	536.62
476.377	530.62
476.596	495.62
476.814	504.62
477.033	525.62
477.252	518.62
477.471	532.62
477.69	535.62
477.908	543.62
478.127	532.62
478.346	550.62
478.564	568.62
478.783	542.62
479.002	585.62
479.22	556.62
479.439	577.62
479.658	583.62
479.876	593.62
480.095	591.62
480.313	633.62
480.532	629.62
480.751	628.62
480.969	620.62
481.188	647.62
481.406	691.62
481.624	636.62
481.843	618.62
482.061	592.62
482.28	560.62
482.498	577.62
482.717	591.62
482.935	571.62
483.153	585.62
483.372	581.62
483.59	583.62
483.808	580.62
484.027	591.62
484.245	579.62
484.463	569.62
484.681	592.62
484.9	612.62
485.118	590.62
485.336	596.62
485.554	577.62
485.772	609.62
485.99	602.62
486.209	593.62
486.427	586.62
486.645	623.62
486.863	619.62
487.081	623.62
487.299	614.62
487.517	615.62
487.735	625.62
487.953	618.62
488.171	622.62
488.389	611.62
488.607	620.62
488.825	609.62
489.043	602.62
489.261	635.62
489.479	623.62
489.696	616.62
489.914	634.62
490.132	647.62
490.35	635.62
490.568	664.62
490.786	671.62
491.003	661.62
491.221	692.62
491.439	687.62
491.657	689.62
491.874	706.62
492.092	713.62
492.31	730.62
492.527	722.62
492.745	731.62
492.963	713.62
493.18	703.62
493.398	697.62
493.615	722.62
493.833	725.62
494.05	711.62
494.268	732.62
494.485	726.62
494.703	711.62
494.92	714.62
495.138	737.62
495.355	714.62
495.573	715.62
495.79	742.62
496.008	745.62
496.225	737.62
496.442	734.62
496.66	728.62
496.877	715.62
497.094	751.62
497.312	775.62
497.529	747.62
497.746	742.62
497.963	773.62
498.181	793.62
498.398	796.62
498.615	825.62
498.832	870.62
499.049	900.62
499.267	908.62
499.484	933.62
499.701	965.62
499.918	1034.62
500.135	1120.62
500.352	1151.62
500.569	1177.62
500.786	1197.62
501.003	1169.62
501.22	1133.62
501.437	1060.62
501.654	1027.62
