Data from 1975.PennyLincolnUp.Lamp.En5.5.200Scan.071719.P1.Changed Mount._HRD10591_15-58-33-859.txt Node
Date: Thu Jul 18 15:58:33 EDT 2019
User: cochatt
Spectrometer: HR+D1059
Trigger mode: 1
Integration Time (sec): 1.000000E-1
Scans to average: 1
Electric dark correction enabled: true
Nonlinearity correction enabled: false
Boxcar width: 0
XAxis mode: Wavelengths
Number of Pixels in Spectrum: 2048
>>>>>Begin Spectral Data<<<<<
223.165	-23
223.4	-23
223.635	-23
223.869	-15
224.104	-12
224.338	-5
224.573	-13
224.808	-4
225.042	-5
225.277	-6
225.511	-2
225.746	1
225.98	-1
226.215	6
226.449	7
226.683	22
226.918	14
227.152	36
227.387	47
227.621	24
227.856	58
228.09	37
228.324	47
228.559	63
228.793	78
229.027	100
229.262	101
229.496	125
229.73	124
229.964	159
230.199	142
230.433	104
230.667	112
230.901	119
231.136	117
231.37	111
231.604	115
231.838	115
232.072	114
232.306	123
232.541	106
232.775	119
233.009	116
233.243	121
233.477	120
233.711	118
233.945	115
234.179	116
234.413	113
234.647	121
234.881	125
235.115	129
235.349	121
235.583	125
235.817	134
236.051	136
236.285	116
236.519	134
236.753	127
236.987	137
237.221	184
237.455	228
237.689	178
237.922	121
238.156	133
238.39	126
238.624	128
238.858	130
239.091	134
239.325	123
239.559	125
239.793	122
240.027	131
240.26	131
240.494	174
240.728	161
240.961	169
241.195	143
241.429	158
241.662	160
241.896	144
242.13	142
242.363	129
242.597	145
242.83	152
243.064	169
243.298	127
243.531	149
243.765	146
243.998	155
244.232	152
244.465	154
244.699	154
244.932	159
245.166	157
245.399	148
245.633	151
245.866	169
246.099	157
246.333	143
246.566	163
246.8	146
247.033	160
247.266	161
247.5	149
247.733	180
247.966	183
248.2	185
248.433	181
248.666	177
248.899	184
249.133	199
249.366	227
249.599	211
249.832	203
250.066	177
250.299	183
250.532	193
250.765	221
250.998	231
251.231	235
251.465	223
251.698	212
251.931	218
252.164	199
252.397	201
252.63	214
252.863	192
253.096	222
253.329	236
253.562	230
253.795	216
254.028	218
254.261	221
254.494	241
254.727	257
254.96	283
255.193	280
255.426	240
255.659	242
255.892	240
256.124	247
256.357	257
256.59	234
256.823	224
257.056	238
257.289	219
257.521	226
257.754	221
257.987	219
258.22	214
258.452	210
258.685	216
258.918	219
259.151	225
259.383	223
259.616	245
259.849	247
260.081	237
260.314	265
260.547	238
260.779	249
261.012	233
261.244	235
261.477	241
261.71	243
261.942	221
262.175	230
262.407	245
262.64	219
262.872	211
263.105	228
263.337	214
263.57	213
263.802	238
264.035	248
264.267	235
264.499	222
264.732	219
264.964	214
265.197	201
265.429	212
265.661	223
265.894	225
266.126	238
266.358	250
266.591	251
266.823	233
267.055	267
267.287	238
267.52	241
267.752	233
267.984	230
268.216	243
268.448	238
268.681	263
268.913	271
269.145	258
269.377	298
269.609	309
269.841	292
270.073	277
270.306	284
270.538	342
270.77	320
271.002	308
271.234	293
271.466	297
271.698	330
271.93	337
272.162	329
272.394	321
272.626	322
272.858	308
273.09	293
273.322	266
273.553	269
273.785	277
274.017	286
274.249	275
274.481	274
274.713	275
274.945	276
275.176	279
275.408	278
275.64	275
275.872	270
276.104	276
276.335	266
276.567	278
276.799	287
277.031	305
277.262	347
277.494	316
277.726	337
277.957	310
278.189	313
278.421	301
278.652	261
278.884	281
279.115	304
279.347	275
279.579	270
279.81	290
280.042	282
280.273	285
280.505	290
280.736	293
280.968	281
281.199	296
281.431	293
281.662	298
281.894	283
282.125	289
282.356	283
282.588	315
282.819	300
283.051	307
283.282	289
283.513	296
283.745	296
283.976	288
284.207	300
284.439	327
284.67	309
284.901	295
285.132	306
285.364	301
285.595	295
285.826	290
286.057	279
286.288	287
286.52	294
286.751	317
286.982	297
287.213	301
287.444	292
287.675	320
287.906	327
288.138	334
288.369	315
288.6	309
288.831	294
289.062	302
289.293	305
289.524	301
289.755	309
289.986	309
290.217	319
290.448	327
290.679	309
290.91	323
291.141	309
291.371	313
291.602	309
291.833	302
292.064	321
292.295	300
292.526	315
292.757	298
292.987	310
293.218	307
293.449	294
293.68	301
293.91	296
294.141	307
294.372	290
294.603	326
294.833	297
295.064	317
295.295	300
295.525	326
295.756	326
295.987	326
296.217	335
296.448	323
296.679	321
296.909	319
297.14	323
297.37	318
297.601	332
297.831	312
298.062	326
298.292	315
298.523	332
298.753	322
298.984	312
299.214	328
299.445	334
299.675	345
299.905	346
300.136	344
300.366	330
300.597	329
300.827	324
301.057	325
301.288	345
301.518	352
301.748	338
301.979	355
302.209	337
302.439	350
302.669	343
302.9	344
303.13	328
303.36	349
303.59	342
303.82	350
304.051	352
304.281	350
304.511	344
304.741	331
304.971	334
305.201	358
305.431	332
305.661	345
305.891	366
306.121	355
306.352	354
306.582	347
306.812	360
307.042	350
307.272	341
307.502	356
307.731	360
307.961	364
308.191	350
308.421	355
308.651	361
308.881	358
309.111	358
309.341	353
309.571	360
309.8	357
310.03	371
310.26	378
310.49	383
310.72	392
310.949	407
311.179	410
311.409	393
311.639	387
311.868	406
312.098	391
312.328	391
312.557	395
312.787	411
313.017	407
313.246	398
313.476	406
313.706	385
313.935	396
314.165	403
314.394	429
314.624	403
314.853	387
315.083	399
315.312	399
315.542	382
315.771	394
316.001	396
316.23	381
316.46	384
316.689	410
316.919	395
317.148	404
317.377	413
317.607	406
317.836	397
318.065	364
318.295	399
318.524	406
318.753	364
318.983	397
319.212	403
319.441	393
319.67	402
319.9	378
320.129	399
320.358	391
320.587	387
320.816	391
321.046	414
321.275	431
321.504	412
321.733	414
321.962	414
322.191	423
322.42	439
322.649	449
322.878	428
323.108	455
323.337	467
323.566	468
323.795	481
324.024	538
324.253	623
324.482	853
324.71	1287
324.939	1993
325.168	1749
325.397	875
325.626	589
325.855	533
326.084	513
326.313	479
326.542	487
326.77	524
326.999	582
327.228	811
327.457	1189
327.686	1501
327.914	1023
328.143	649
328.372	600
328.6	561
328.829	553
329.058	549
329.287	545
329.515	552
329.744	517
329.972	500
330.201	522
330.43	546
330.658	579
330.887	579
331.115	566
331.344	525
331.572	493
331.801	484
332.03	493
332.258	497
332.486	490
332.715	476
332.943	494
333.172	509
333.4	494
333.629	497
333.857	527
334.085	531
334.314	533
334.542	564
334.771	598
334.999	537
335.227	501
335.455	501
335.684	482
335.912	482
336.14	478
336.369	460
336.597	466
336.825	468
337.053	481
337.281	473
337.51	458
337.738	465
337.966	472
338.194	463
338.422	461
338.65	447
338.878	439
339.106	466
339.334	459
339.562	441
339.79	439
340.018	437
340.246	463
340.474	458
340.702	463
340.93	453
341.158	438
341.386	441
341.614	456
341.842	452
342.07	451
342.298	468
342.526	443
342.754	452
342.981	448
343.209	436
343.437	453
343.665	449
343.893	465
344.12	485
344.348	471
344.576	469
344.804	479
345.031	472
345.259	476
345.487	457
345.714	457
345.942	449
346.17	455
346.397	429
346.625	451
346.853	435
347.08	445
347.308	443
347.535	452
347.763	457
347.99	440
348.218	425
348.445	447
348.673	463
348.9	461
349.128	443
349.355	434
349.583	440
349.81	415
350.037	426
350.265	444
350.492	415
350.72	425
350.947	436
351.174	437
351.402	455
351.629	437
351.856	431
352.083	436
352.311	429
352.538	457
352.765	440
352.992	446
353.22	432
353.447	437
353.674	402
353.901	428
354.128	395
354.355	399
354.583	415
354.81	411
355.037	415
355.264	402
355.491	413
355.718	413
355.945	411
356.172	397
356.399	430
356.626	409
356.853	404
357.08	399
357.307	416
357.534	397
357.761	406
357.988	438
358.215	417
358.441	420
358.668	410
358.895	417
359.122	419
359.349	430
359.576	437
359.802	452
360.029	480
360.256	479
360.483	490
360.709	437
360.936	435
361.163	419
361.39	451
361.616	437
361.843	418
362.07	425
362.296	429
362.523	441
362.749	426
362.976	419
363.203	430
363.429	409
363.656	419
363.882	424
364.109	410
364.335	430
364.562	413
364.788	430
365.015	414
365.241	402
365.468	445
365.694	449
365.92	430
366.147	428
366.373	424
366.599	421
366.826	435
367.052	416
367.278	401
367.505	419
367.731	418
367.957	428
368.184	428
368.41	429
368.636	416
368.862	446
369.089	444
369.315	435
369.541	446
369.767	411
369.993	438
370.219	423
370.445	417
370.672	418
370.898	433
371.124	433
371.35	443
371.576	440
371.802	427
372.028	427
372.254	421
372.48	418
372.706	427
372.932	454
373.158	455
373.384	439
373.61	430
373.835	417
374.061	433
374.287	429
374.513	435
374.739	435
374.965	443
375.191	453
375.416	446
375.642	442
375.868	453
376.094	454
376.319	448
376.545	415
376.771	433
376.997	447
377.222	445
377.448	450
377.674	433
377.899	426
378.125	405
378.35	426
378.576	403
378.802	421
379.027	410
379.253	420
379.478	421
379.704	423
379.929	430
380.155	447
380.38	434
380.606	435
380.831	430
381.057	445
381.282	437
381.507	446
381.733	426
381.958	444
382.184	429
382.409	449
382.634	451
382.86	442
383.085	434
383.31	439
383.535	465
383.761	449
383.986	468
384.211	460
384.436	463
384.662	468
384.887	470
385.112	469
385.337	492
385.562	468
385.787	464
386.013	480
386.238	489
386.463	475
386.688	481
386.913	482
387.138	488
387.363	475
387.588	484
387.813	494
388.038	480
388.263	474
388.488	487
388.713	493
388.938	492
389.163	502
389.387	469
389.612	477
389.837	461
390.062	478
390.287	484
390.512	469
390.736	477
390.961	493
391.186	482
391.411	471
391.636	503
391.86	508
392.085	518
392.31	507
392.534	491
392.759	490
392.984	482
393.208	491
393.433	503
393.658	485
393.882	473
394.107	489
394.331	494
394.556	483
394.78	513
395.005	484
395.229	485
395.454	517
395.678	501
395.903	505
396.127	555
396.352	535
396.576	499
396.801	485
397.025	494
397.249	499
397.474	516
397.698	537
397.922	520
398.147	542
398.371	547
398.595	538
398.82	552
399.044	581
399.268	607
399.492	637
399.717	682
399.941	685
400.165	718
400.389	709
400.613	653
400.837	615
401.062	576
401.286	569
401.51	569
401.734	573
401.958	578
402.182	580
402.406	582
402.63	567
402.854	596
403.078	580
403.302	597
403.526	578
403.75	595
403.974	602
404.198	589
404.422	589
404.645	589
404.869	589
405.093	647
405.317	671
405.541	707
405.765	672
405.988	618
406.212	607
406.436	632
406.66	645
406.883	635
407.107	663
407.331	719
407.555	781
407.778	770
408.002	725
408.226	661
408.449	650
408.673	643
408.896	674
409.12	719
409.344	652
409.567	612
409.791	606
410.014	591
410.238	601
410.461	584
410.685	596
410.908	591
411.132	630
411.355	665
411.578	620
411.802	602
412.025	575
412.249	579
412.472	620
412.695	668
412.919	643
413.142	619
413.365	590
413.589	586
413.812	568
414.035	575
414.258	568
414.482	546
414.705	569
414.928	550
415.151	545
415.374	567
415.597	557
415.821	554
416.044	541
416.267	525
416.49	531
416.713	548
416.936	541
417.159	532
417.382	550
417.605	568
417.828	566
418.051	581
418.274	577
418.497	575
418.72	582
418.943	537
419.166	567
419.389	620
419.611	617
419.834	598
420.057	602
420.28	596
420.503	568
420.726	581
420.948	582
421.171	621
421.394	669
421.617	591
421.839	580
422.062	579
422.285	571
422.507	645
422.73	721
422.953	707
423.175	613
423.398	598
423.621	626
423.843	632
424.066	643
424.288	617
424.511	628
424.733	699
424.956	785
425.178	735
425.401	755
425.623	769
425.846	677
426.068	628
426.291	609
426.513	609
426.735	581
426.958	647
427.18	734
427.402	901
427.625	947
427.847	822
428.069	705
428.292	665
428.514	588
428.736	567
428.958	583
429.181	566
429.403	563
429.625	581
429.847	613
430.069	672
430.292	650
430.514	601
430.736	573
430.958	569
431.18	548
431.402	547
431.624	539
431.846	527
432.068	521
432.29	557
432.512	540
432.734	566
432.956	572
433.178	562
433.4	542
433.622	547
433.844	543
434.066	542
434.287	527
434.509	539
434.731	562
434.953	556
435.175	587
435.397	630
435.618	595
435.84	633
436.062	747
436.284	823
436.505	678
436.727	621
436.949	601
437.17	568
437.392	567
437.614	573
437.835	606
438.057	682
438.278	794
438.5	809
438.721	887
438.943	861
439.165	661
439.386	619
439.608	601
439.829	616
440.05	620
440.272	690
440.493	643
440.715	583
440.936	597
441.158	582
441.379	599
441.6	604
441.822	596
442.043	632
442.264	717
442.486	795
442.707	685
442.928	617
443.149	611
443.371	651
443.592	691
443.813	782
444.034	867
444.255	717
444.476	663
444.698	659
444.919	631
445.14	774
445.361	697
445.582	669
445.803	707
446.024	821
446.245	830
446.466	774
446.687	643
446.908	601
447.129	574
447.35	572
447.571	569
447.792	528
448.013	570
448.234	577
448.455	612
448.675	753
448.896	869
449.117	721
449.338	686
449.559	814
449.779	955
450	719
450.221	609
450.442	574
450.662	545
450.883	548
451.104	574
451.324	520
451.545	527
451.766	510
451.986	484
452.207	492
452.428	474
452.648	510
452.869	518
453.089	489
453.31	501
453.53	488
453.751	498
453.971	487
454.192	523
454.412	509
454.633	469
454.853	493
455.073	490
455.294	510
455.514	571
455.734	577
455.955	500
456.175	478
456.395	456
456.616	471
456.836	473
457.056	482
457.276	458
457.497	474
457.717	483
457.937	498
458.157	492
458.377	489
458.598	530
458.818	569
459.038	621
459.258	659
459.478	569
459.698	532
459.918	537
460.138	566
460.358	545
460.578	557
460.798	585
461.018	589
461.238	565
461.458	579
461.678	561
461.898	567
462.118	549
462.338	572
462.558	567
462.777	581
462.997	620
463.217	625
463.437	622
463.657	625
463.876	623
464.096	618
464.316	595
464.536	588
464.755	596
464.975	595
465.195	618
465.414	655
465.634	626
465.854	558
466.073	553
466.293	553
466.512	534
466.732	506
466.951	521
467.171	502
467.391	522
467.61	527
467.829	541
468.049	550
468.268	528
468.488	521
468.707	508
468.927	510
469.146	510
469.365	492
469.585	511
469.804	507
470.023	527
470.243	553
470.462	530
470.681	557
470.901	520
471.12	525
471.339	548
471.558	517
471.777	531
471.997	522
472.216	510
472.435	557
472.654	541
472.873	512
473.092	509
473.311	521
473.53	525
473.749	533
473.968	558
474.187	665
474.406	689
474.625	578
474.844	550
475.063	522
475.282	505
475.501	498
475.72	529
475.939	535
476.158	554
476.377	516
476.596	533
476.814	545
477.033	549
477.252	568
477.471	551
477.69	542
477.908	550
478.127	573
478.346	581
478.564	574
478.783	587
479.002	619
479.22	591
479.439	579
479.658	637
479.876	621
480.095	606
480.313	636
480.532	644
480.751	641
480.969	670
481.188	707
481.406	730
481.624	659
481.843	630
482.061	616
482.28	610
482.498	604
482.717	598
482.935	603
483.153	609
483.372	588
483.59	606
483.808	637
484.027	615
484.245	598
484.463	599
484.681	596
484.9	614
485.118	627
485.336	609
485.554	627
485.772	641
485.99	625
486.209	637
486.427	629
486.645	637
486.863	683
487.081	659
487.299	657
487.517	655
487.735	645
487.953	637
488.171	635
488.389	668
488.607	657
488.825	643
489.043	679
489.261	671
489.479	681
489.696	682
489.914	658
490.132	706
490.35	709
490.568	679
490.786	718
491.003	714
491.221	723
491.439	742
491.657	742
491.874	733
492.092	750
492.31	751
492.527	766
492.745	748
492.963	763
493.18	760
493.398	747
493.615	787
493.833	782
494.05	788
494.268	783
494.485	782
494.703	783
494.92	759
495.138	776
495.355	773
495.573	805
495.79	787
496.008	782
496.225	785
496.442	806
496.66	772
496.877	781
497.094	811
497.312	795
497.529	808
497.746	825
497.963	835
498.181	849
498.398	896
498.615	870
498.832	935
499.049	908
499.267	954
499.484	990
499.701	1077
499.918	1098
500.135	1189
500.352	1212
500.569	1257
500.786	1267
501.003	1208
501.22	1204
501.437	1124
501.654	1052
501.871	1021
502.088	965
502.305	947
502.522	910
502.739	867
502.956	853
503.172	842
503.389	802
503.606	822
503.823	810
504.04	789
504.256	793
504.473	802
504.69	776
504.907	787
505.123	764
505.34	766
505.557	760
505.773	711
505.99	705
506.207	714
506.423	742
506.64	739
506.856	693
507.073	722
507.289	690
507.506	707
507.722	723
507.939	737
508.155	712
508.372	677
508.588	665
508.805	663
509.021	677
509.238	693
509.454	710
509.67	714
509.887	690
510.103	675
510.319	676
510.536	757
510.752	1111
510.968	938
511.184	683
511.401	665
511.617	646
511.833	641
512.049	656
512.265	642
512.481	663
512.698	626
512.914	651
513.13	637
513.346	646
513.562	620
513.778	661
513.994	639
514.21	639
514.426	675
514.642	677
514.858	701
515.074	727
515.29	818
515.506	1118
515.721	963
515.937	755
516.153	685
516.369	693
516.585	678
516.801	676
517.016	686
517.232	693
517.448	683
517.664	717
517.879	719
518.095	709
518.311	703
518.527	680
518.742	679
518.958	671
519.173	669
519.389	648
519.605	657
519.82	663
520.036	641
520.251	646
520.467	694
520.682	663
520.898	662
521.113	668
521.329	701
521.544	757
521.76	923
521.975	1359
522.19	1356
522.406	833
522.621	670
522.836	631
523.052	601
523.267	623
523.482	585
523.698	576
523.913	571
524.128	587
524.343	557
524.559	553
524.774	550
524.989	566
525.204	585
525.419	584
525.634	531
525.849	565
526.064	569
526.28	539
526.495	534
526.71	537
526.925	525
527.14	534
527.355	531
527.57	536
527.785	517
527.999	515
528.214	529
528.429	514
528.644	524
528.859	531
529.074	535
529.289	578
529.503	600
529.718	607
529.933	539
530.148	554
530.363	537
530.577	541
530.792	537
531.007	535
531.221	533
531.436	535
531.651	530
531.865	490
532.08	505
532.295	510
532.509	511
532.724	527
532.938	527
533.153	524
533.367	524
533.582	518
533.796	510
534.011	511
534.225	524
534.44	509
534.654	511
534.868	495
535.083	516
535.297	503
535.511	531
535.726	517
535.94	503
536.154	479
536.369	513
536.583	502
536.797	502
537.011	501
537.225	486
537.44	494
537.654	484
537.868	481
538.082	484
538.296	520
538.51	510
538.724	492
538.938	491
539.153	489
539.367	498
539.581	478
539.795	467
540.009	485
540.222	497
540.436	478
540.65	513
540.864	502
541.078	495
541.292	488
541.506	504
541.72	502
541.934	489
542.147	492
542.361	486
542.575	476
542.789	490
543.002	471
543.216	499
543.43	486
543.644	492
543.857	496
544.071	491
544.285	486
544.498	492
544.712	489
544.925	505
545.139	487
545.352	516
545.566	490
545.779	482
545.993	514
546.206	494
546.42	500
546.633	513
546.847	476
547.06	495
547.274	480
547.487	475
547.7	492
547.914	462
548.127	492
548.34	501
548.554	487
548.767	485
548.98	469
549.193	476
549.407	485
549.62	493
549.833	490
550.046	502
550.259	468
550.473	481
550.686	452
550.899	481
551.112	472
551.325	478
551.538	461
551.751	462
551.964	482
552.177	463
552.39	465
552.603	493
552.816	484
553.029	490
553.242	495
553.455	493
553.667	500
553.88	499
554.093	481
554.306	524
554.519	491
554.732	479
554.944	479
555.157	484
555.37	457
555.583	474
555.795	438
556.008	433
556.221	448
556.433	444
556.646	433
556.859	437
557.071	430
557.284	430
557.496	440
557.709	443
557.921	438
558.134	434
558.346	430
558.559	424
558.771	400
558.984	435
559.196	431
559.409	418
559.621	427
559.833	425
560.046	408
560.258	420
560.47	413
560.683	423
560.895	421
561.107	415
561.32	427
561.532	428
561.744	438
561.956	417
562.168	404
562.381	429
562.593	443
562.805	428
563.017	428
563.229	442
