Data from 1975.PennyLincolnUp.Lamp.En5.5.200Scan.071719.P1.Changed Mount._HRD10591_15-57-16-859.txt Node
Date: Thu Jul 18 15:57:16 EDT 2019
User: cochatt
Spectrometer: HR+D1059
Trigger mode: 1
Integration Time (sec): 1.000000E-1
Scans to average: 1
Electric dark correction enabled: true
Nonlinearity correction enabled: false
Boxcar width: 0
XAxis mode: Wavelengths
Number of Pixels in Spectrum: 2048
>>>>>Begin Spectral Data<<<<<
223.165	-14.56
223.4	-14.56
223.635	-14.56
223.869	-12.56
224.104	-13.56
224.338	-9.56
224.573	-27.56
224.808	-3.56
225.042	-24.56
225.277	-7.56
225.511	-14.56
225.746	-3.56
225.98	20.44
226.215	12.44
226.449	32.44
226.683	14.44
226.918	29.44
227.152	22.44
227.387	28.44
227.621	50.44
227.856	44.44
228.09	55.44
228.324	47.44
228.559	60.44
228.793	70.44
229.027	94.44
229.262	94.44
229.496	104.44
229.73	109.44
229.964	140.44
230.199	120.44
230.433	125.44
230.667	107.44
230.901	115.44
231.136	109.44
231.37	94.44
231.604	112.44
231.838	107.44
232.072	117.44
232.306	125.44
232.541	110.44
232.775	123.44
233.009	122.44
233.243	113.44
233.477	120.44
233.711	108.44
233.945	129.44
234.179	120.44
234.413	120.44
234.647	131.44
234.881	123.44
235.115	114.44
235.349	103.44
235.583	116.44
235.817	115.44
236.051	124.44
236.285	119.44
236.519	123.44
236.753	121.44
236.987	153.44
237.221	171.44
237.455	219.44
237.689	195.44
237.922	148.44
238.156	132.44
238.39	119.44
238.624	116.44
238.858	132.44
239.091	137.44
239.325	112.44
239.559	134.44
239.793	134.44
240.027	141.44
240.26	138.44
240.494	157.44
240.728	150.44
240.961	140.44
241.195	137.44
241.429	119.44
241.662	133.44
241.896	144.44
242.13	131.44
242.363	125.44
242.597	126.44
242.83	137.44
243.064	132.44
243.298	140.44
243.531	157.44
243.765	125.44
243.998	158.44
244.232	142.44
244.465	153.44
244.699	154.44
244.932	153.44
245.166	151.44
245.399	149.44
245.633	130.44
245.866	153.44
246.099	150.44
246.333	164.44
246.566	165.44
246.8	162.44
247.033	158.44
247.266	169.44
247.5	168.44
247.733	160.44
247.966	189.44
248.2	155.44
248.433	170.44
248.666	177.44
248.899	191.44
249.133	196.44
249.366	205.44
249.599	196.44
249.832	183.44
250.066	157.44
250.299	190.44
250.532	194.44
250.765	189.44
250.998	233.44
251.231	221.44
251.465	183.44
251.698	201.44
251.931	190.44
252.164	194.44
252.397	187.44
252.63	184.44
252.863	197.44
253.096	213.44
253.329	221.44
253.562	213.44
253.795	217.44
254.028	200.44
254.261	209.44
254.494	208.44
254.727	257.44
254.96	265.44
255.193	273.44
255.426	240.44
255.659	231.44
255.892	225.44
256.124	245.44
256.357	247.44
256.59	233.44
256.823	210.44
257.056	214.44
257.289	212.44
257.521	208.44
257.754	215.44
257.987	215.44
258.22	199.44
258.452	180.44
258.685	200.44
258.918	207.44
259.151	203.44
259.383	216.44
259.616	214.44
259.849	211.44
260.081	244.44
260.314	250.44
260.547	244.44
260.779	256.44
261.012	235.44
261.244	225.44
261.477	224.44
261.71	229.44
261.942	238.44
262.175	237.44
262.407	222.44
262.64	217.44
262.872	209.44
263.105	218.44
263.337	219.44
263.57	229.44
263.802	220.44
264.035	216.44
264.267	211.44
264.499	225.44
264.732	225.44
264.964	213.44
265.197	212.44
265.429	204.44
265.661	208.44
265.894	212.44
266.126	215.44
266.358	215.44
266.591	226.44
266.823	219.44
267.055	222.44
267.287	240.44
267.52	260.44
267.752	222.44
267.984	224.44
268.216	243.44
268.448	221.44
268.681	233.44
268.913	252.44
269.145	248.44
269.377	272.44
269.609	266.44
269.841	263.44
270.073	265.44
270.306	296.44
270.538	310.44
270.77	302.44
271.002	298.44
271.234	286.44
271.466	315.44
271.698	317.44
271.93	327.44
272.162	306.44
272.394	308.44
272.626	283.44
272.858	287.44
273.09	266.44
273.322	263.44
273.553	261.44
273.785	259.44
274.017	273.44
274.249	280.44
274.481	261.44
274.713	265.44
274.945	277.44
275.176	278.44
275.408	258.44
275.64	271.44
275.872	287.44
276.104	266.44
276.335	262.44
276.567	263.44
276.799	294.44
277.031	308.44
277.262	312.44
277.494	310.44
277.726	296.44
277.957	275.44
278.189	288.44
278.421	270.44
278.652	281.44
278.884	281.44
279.115	281.44
279.347	276.44
279.579	274.44
279.81	265.44
280.042	242.44
280.273	282.44
280.505	270.44
280.736	259.44
280.968	292.44
281.199	274.44
281.431	267.44
281.662	278.44
281.894	280.44
282.125	286.44
282.356	281.44
282.588	304.44
282.819	303.44
283.051	270.44
283.282	270.44
283.513	297.44
283.745	282.44
283.976	283.44
284.207	280.44
284.439	286.44
284.67	301.44
284.901	282.44
285.132	296.44
285.364	305.44
285.595	308.44
285.826	293.44
286.057	304.44
286.288	276.44
286.52	305.44
286.751	276.44
286.982	290.44
287.213	280.44
287.444	273.44
287.675	304.44
287.906	302.44
288.138	319.44
288.369	325.44
288.6	313.44
288.831	315.44
289.062	294.44
289.293	285.44
289.524	302.44
289.755	266.44
289.986	304.44
290.217	312.44
290.448	303.44
290.679	294.44
290.91	306.44
291.141	302.44
291.371	306.44
291.602	307.44
291.833	292.44
292.064	293.44
292.295	306.44
292.526	280.44
292.757	296.44
292.987	289.44
293.218	290.44
293.449	305.44
293.68	313.44
293.91	317.44
294.141	309.44
294.372	300.44
294.603	294.44
294.833	321.44
295.064	293.44
295.295	292.44
295.525	309.44
295.756	306.44
295.987	308.44
296.217	333.44
296.448	334.44
296.679	324.44
296.909	327.44
297.14	318.44
297.37	312.44
297.601	320.44
297.831	322.44
298.062	311.44
298.292	310.44
298.523	286.44
298.753	320.44
298.984	322.44
299.214	306.44
299.445	318.44
299.675	332.44
299.905	331.44
300.136	348.44
300.366	310.44
300.597	311.44
300.827	324.44
301.057	322.44
301.288	329.44
301.518	335.44
301.748	334.44
301.979	325.44
302.209	333.44
302.439	325.44
302.669	339.44
302.9	340.44
303.13	329.44
303.36	343.44
303.59	336.44
303.82	357.44
304.051	339.44
304.281	337.44
304.511	344.44
304.741	347.44
304.971	356.44
305.201	332.44
305.431	331.44
305.661	326.44
305.891	337.44
306.121	354.44
306.352	338.44
306.582	344.44
306.812	321.44
307.042	338.44
307.272	353.44
307.502	331.44
307.731	328.44
307.961	334.44
308.191	347.44
308.421	358.44
308.651	342.44
308.881	332.44
309.111	332.44
309.341	362.44
309.571	353.44
309.8	357.44
310.03	364.44
310.26	377.44
310.49	354.44
310.72	371.44
310.949	394.44
311.179	405.44
311.409	364.44
311.639	363.44
311.868	382.44
312.098	380.44
312.328	386.44
312.557	388.44
312.787	384.44
313.017	409.44
313.246	394.44
313.476	398.44
313.706	378.44
313.935	380.44
314.165	382.44
314.394	381.44
314.624	391.44
314.853	378.44
315.083	382.44
315.312	381.44
315.542	363.44
315.771	370.44
316.001	374.44
316.23	379.44
316.46	378.44
316.689	381.44
316.919	387.44
317.148	385.44
317.377	391.44
317.607	393.44
317.836	388.44
318.065	372.44
318.295	389.44
318.524	380.44
318.753	382.44
318.983	371.44
319.212	373.44
319.441	393.44
319.67	387.44
319.9	374.44
320.129	388.44
320.358	380.44
320.587	346.44
320.816	402.44
321.046	387.44
321.275	411.44
321.504	394.44
321.733	393.44
321.962	418.44
322.191	398.44
322.42	393.44
322.649	430.44
322.878	420.44
323.108	419.44
323.337	441.44
323.566	454.44
323.795	471.44
324.024	517.44
324.253	570.44
324.482	780.44
324.71	1201.44
324.939	1802.44
325.168	1588.44
325.397	820.44
325.626	565.44
325.855	490.44
326.084	492.44
326.313	454.44
326.542	459.44
326.77	476.44
326.999	577.44
327.228	722.44
327.457	1117.44
327.686	1381.44
327.914	948.44
328.143	649.44
328.372	584.44
328.6	532.44
328.829	489.44
329.058	516.44
329.287	523.44
329.515	499.44
329.744	515.44
329.972	493.44
330.201	487.44
330.43	536.44
330.658	554.44
330.887	577.44
331.115	565.44
331.344	498.44
331.572	470.44
331.801	484.44
332.03	489.44
332.258	449.44
332.486	466.44
332.715	457.44
332.943	471.44
333.172	465.44
333.4	477.44
333.629	515.44
333.857	504.44
334.085	502.44
334.314	530.44
334.542	532.44
334.771	536.44
334.999	534.44
335.227	513.44
335.455	473.44
335.684	492.44
335.912	477.44
336.14	459.44
336.369	456.44
336.597	456.44
336.825	445.44
337.053	437.44
337.281	443.44
337.51	448.44
337.738	460.44
337.966	441.44
338.194	457.44
338.422	464.44
338.65	438.44
338.878	441.44
339.106	446.44
339.334	441.44
339.562	457.44
339.79	423.44
340.018	412.44
340.246	442.44
340.474	454.44
340.702	458.44
340.93	448.44
341.158	453.44
341.386	439.44
341.614	457.44
341.842	443.44
342.07	436.44
342.298	437.44
342.526	426.44
342.754	428.44
342.981	420.44
343.209	407.44
343.437	430.44
343.665	450.44
343.893	439.44
344.12	474.44
344.348	458.44
344.576	470.44
344.804	466.44
345.031	455.44
345.259	453.44
345.487	445.44
345.714	448.44
345.942	426.44
346.17	426.44
346.397	422.44
346.625	429.44
346.853	440.44
347.08	413.44
347.308	434.44
347.535	436.44
347.763	442.44
347.99	440.44
348.218	434.44
348.445	401.44
348.673	429.44
348.9	420.44
349.128	424.44
349.355	412.44
349.583	408.44
349.81	411.44
350.037	402.44
350.265	416.44
350.492	409.44
350.72	396.44
350.947	414.44
351.174	429.44
351.402	432.44
351.629	412.44
351.856	429.44
352.083	445.44
352.311	433.44
352.538	409.44
352.765	441.44
352.992	440.44
353.22	427.44
353.447	398.44
353.674	389.44
353.901	407.44
354.128	402.44
354.355	413.44
354.583	411.44
354.81	409.44
355.037	401.44
355.264	403.44
355.491	409.44
355.718	396.44
355.945	402.44
356.172	400.44
356.399	394.44
356.626	408.44
356.853	398.44
357.08	407.44
357.307	408.44
357.534	403.44
357.761	411.44
357.988	408.44
358.215	410.44
358.441	405.44
358.668	397.44
358.895	394.44
359.122	406.44
359.349	409.44
359.576	419.44
359.802	419.44
360.029	441.44
360.256	452.44
360.483	437.44
360.709	435.44
360.936	426.44
361.163	436.44
361.39	419.44
361.616	440.44
361.843	397.44
362.07	432.44
362.296	434.44
362.523	421.44
362.749	432.44
362.976	437.44
363.203	442.44
363.429	416.44
363.656	425.44
363.882	411.44
364.109	414.44
364.335	388.44
364.562	396.44
364.788	416.44
365.015	410.44
365.241	413.44
365.468	417.44
365.694	424.44
365.92	428.44
366.147	417.44
366.373	422.44
366.599	411.44
366.826	422.44
367.052	410.44
367.278	424.44
367.505	412.44
367.731	404.44
367.957	412.44
368.184	414.44
368.41	429.44
368.636	420.44
368.862	432.44
369.089	443.44
369.315	435.44
369.541	397.44
369.767	405.44
369.993	422.44
370.219	415.44
370.445	421.44
370.672	432.44
370.898	407.44
371.124	427.44
371.35	418.44
371.576	427.44
371.802	440.44
372.028	425.44
372.254	425.44
372.48	410.44
372.706	417.44
372.932	426.44
373.158	423.44
373.384	440.44
373.61	436.44
373.835	429.44
374.061	414.44
374.287	411.44
374.513	411.44
374.739	445.44
374.965	438.44
375.191	458.44
375.416	444.44
375.642	464.44
375.868	426.44
376.094	407.44
376.319	433.44
376.545	428.44
376.771	435.44
376.997	436.44
377.222	428.44
377.448	396.44
377.674	442.44
377.899	408.44
378.125	425.44
378.35	412.44
378.576	417.44
378.802	434.44
379.027	416.44
379.253	424.44
379.478	418.44
379.704	419.44
379.929	418.44
380.155	418.44
380.38	421.44
380.606	444.44
380.831	428.44
381.057	455.44
381.282	425.44
381.507	424.44
381.733	443.44
381.958	432.44
382.184	410.44
382.409	420.44
382.634	420.44
382.86	439.44
383.085	430.44
383.31	435.44
383.535	444.44
383.761	440.44
383.986	428.44
384.211	469.44
384.436	470.44
384.662	444.44
384.887	470.44
385.112	452.44
385.337	486.44
385.562	471.44
385.787	468.44
386.013	480.44
386.238	476.44
386.463	472.44
386.688	461.44
386.913	461.44
387.138	460.44
387.363	445.44
387.588	456.44
387.813	468.44
388.038	475.44
388.263	459.44
388.488	457.44
388.713	474.44
388.938	479.44
389.163	485.44
389.387	436.44
389.612	461.44
389.837	488.44
390.062	462.44
390.287	474.44
390.512	470.44
390.736	475.44
390.961	478.44
391.186	453.44
391.411	473.44
391.636	495.44
391.86	521.44
392.085	496.44
392.31	506.44
392.534	485.44
392.759	478.44
392.984	458.44
393.208	475.44
393.433	481.44
393.658	460.44
393.882	486.44
394.107	478.44
394.331	485.44
394.556	486.44
394.78	473.44
395.005	487.44
395.229	479.44
395.454	485.44
395.678	506.44
395.903	512.44
396.127	521.44
396.352	527.44
396.576	498.44
396.801	500.44
397.025	504.44
397.249	493.44
397.474	506.44
397.698	506.44
397.922	530.44
398.147	546.44
398.371	554.44
398.595	526.44
398.82	539.44
399.044	562.44
399.268	591.44
399.492	638.44
399.717	674.44
399.941	686.44
400.165	711.44
400.389	718.44
400.613	653.44
400.837	588.44
401.062	581.44
401.286	574.44
401.51	545.44
401.734	555.44
401.958	558.44
402.182	544.44
402.406	564.44
402.63	559.44
402.854	598.44
403.078	564.44
403.302	586.44
403.526	574.44
403.75	591.44
403.974	578.44
404.198	578.44
404.422	574.44
404.645	586.44
404.869	590.44
405.093	620.44
405.317	651.44
405.541	692.44
405.765	653.44
405.988	611.44
406.212	619.44
406.436	626.44
406.66	649.44
406.883	656.44
407.107	647.44
407.331	678.44
407.555	759.44
407.778	754.44
408.002	727.44
408.226	644.44
408.449	630.44
408.673	621.44
408.896	644.44
409.12	701.44
409.344	692.44
409.567	605.44
409.791	603.44
410.014	588.44
410.238	595.44
410.461	578.44
410.685	567.44
410.908	614.44
411.132	613.44
411.355	666.44
411.578	628.44
411.802	582.44
412.025	594.44
412.249	569.44
412.472	598.44
412.695	646.44
412.919	639.44
413.142	589.44
413.365	576.44
413.589	592.44
413.812	557.44
414.035	546.44
414.258	550.44
414.482	549.44
414.705	539.44
414.928	541.44
415.151	531.44
415.374	563.44
415.597	554.44
415.821	528.44
416.044	552.44
416.267	541.44
416.49	541.44
416.713	547.44
416.936	557.44
417.159	543.44
417.382	540.44
417.605	521.44
417.828	540.44
418.051	562.44
418.274	564.44
418.497	550.44
418.72	536.44
418.943	572.44
419.166	560.44
419.389	611.44
419.611	587.44
419.834	551.44
420.057	561.44
420.28	599.44
420.503	573.44
420.726	576.44
420.948	597.44
421.171	630.44
421.394	652.44
421.617	593.44
421.839	568.44
422.062	596.44
422.285	570.44
422.507	606.44
422.73	716.44
422.953	680.44
423.175	612.44
423.398	592.44
423.621	588.44
423.843	611.44
424.066	628.44
424.288	604.44
424.511	639.44
424.733	697.44
424.956	776.44
425.178	722.44
425.401	712.44
425.623	756.44
425.846	645.44
426.068	607.44
426.291	614.44
426.513	573.44
426.735	602.44
426.958	653.44
427.18	722.44
427.402	858.44
427.625	931.44
427.847	789.44
428.069	692.44
428.292	629.44
428.514	558.44
428.736	571.44
428.958	572.44
429.181	558.44
429.403	563.44
429.625	550.44
429.847	564.44
430.069	638.44
430.292	664.44
430.514	573.44
430.736	546.44
430.958	568.44
431.18	532.44
431.402	534.44
431.624	533.44
431.846	515.44
432.068	523.44
432.29	545.44
432.512	560.44
432.734	537.44
432.956	537.44
433.178	551.44
433.4	537.44
433.622	523.44
433.844	550.44
434.066	526.44
434.287	519.44
434.509	554.44
434.731	571.44
434.953	541.44
435.175	564.44
435.397	598.44
435.618	594.44
435.84	636.44
436.062	718.44
436.284	759.44
436.505	657.44
436.727	589.44
436.949	565.44
437.17	564.44
437.392	548.44
437.614	561.44
437.835	568.44
438.057	674.44
438.278	797.44
438.5	756.44
438.721	858.44
438.943	813.44
439.165	657.44
439.386	606.44
439.608	606.44
439.829	588.44
440.05	643.44
440.272	652.44
440.493	605.44
440.715	596.44
440.936	561.44
441.158	564.44
441.379	555.44
441.6	576.44
441.822	607.44
442.043	610.44
442.264	700.44
442.486	783.44
442.707	660.44
442.928	627.44
443.149	610.44
443.371	626.44
443.592	688.44
443.813	791.44
444.034	839.44
444.255	716.44
444.476	620.44
444.698	609.44
444.919	636.44
445.14	745.44
445.361	662.44
445.582	641.44
445.803	690.44
446.024	812.44
446.245	804.44
446.466	731.44
446.687	644.44
446.908	604.44
447.129	576.44
447.35	559.44
447.571	551.44
447.792	536.44
448.013	539.44
448.234	576.44
448.455	607.44
448.675	724.44
448.896	827.44
449.117	691.44
449.338	651.44
449.559	776.44
449.779	889.44
450	712.44
450.221	588.44
450.442	541.44
450.662	519.44
450.883	519.44
451.104	552.44
451.324	526.44
451.545	520.44
451.766	490.44
451.986	492.44
452.207	491.44
452.428	484.44
452.648	464.44
452.869	472.44
453.089	490.44
453.31	498.44
453.53	484.44
453.751	488.44
453.971	479.44
454.192	515.44
454.412	476.44
454.633	487.44
454.853	494.44
455.073	475.44
455.294	514.44
455.514	572.44
455.734	554.44
455.955	499.44
456.175	480.44
456.395	460.44
456.616	468.44
456.836	467.44
457.056	456.44
457.276	460.44
457.497	482.44
457.717	454.44
457.937	450.44
458.157	461.44
458.377	483.44
458.598	486.44
458.818	539.44
459.038	610.44
459.258	624.44
459.478	570.44
459.698	534.44
459.918	536.44
460.138	541.44
460.358	539.44
460.578	554.44
460.798	570.44
461.018	550.44
461.238	540.44
461.458	530.44
461.678	546.44
461.898	554.44
462.118	546.44
462.338	580.44
462.558	583.44
462.777	553.44
462.997	584.44
463.217	620.44
463.437	638.44
463.657	615.44
463.876	581.44
464.096	594.44
464.316	585.44
464.536	616.44
464.755	604.44
464.975	586.44
465.195	597.44
465.414	647.44
465.634	578.44
465.854	568.44
466.073	531.44
466.293	536.44
466.512	538.44
466.732	496.44
466.951	488.44
467.171	488.44
467.391	521.44
467.61	514.44
467.829	506.44
468.049	515.44
468.268	504.44
468.488	486.44
468.707	487.44
468.927	509.44
469.146	475.44
469.365	498.44
469.585	512.44
469.804	504.44
470.023	531.44
470.243	506.44
470.462	509.44
470.681	527.44
470.901	524.44
471.12	513.44
471.339	530.44
471.558	518.44
471.777	530.44
471.997	510.44
472.216	493.44
472.435	533.44
472.654	529.44
472.873	514.44
473.092	512.44
473.311	519.44
473.53	525.44
473.749	522.44
473.968	544.44
474.187	619.44
474.406	677.44
474.625	582.44
474.844	530.44
475.063	506.44
475.282	479.44
475.501	514.44
475.72	518.44
475.939	514.44
476.158	529.44
476.377	528.44
476.596	505.44
476.814	539.44
477.033	533.44
477.252	528.44
477.471	545.44
477.69	555.44
477.908	570.44
478.127	585.44
478.346	588.44
478.564	562.44
478.783	598.44
479.002	602.44
479.22	601.44
479.439	591.44
479.658	600.44
479.876	638.44
480.095	612.44
480.313	651.44
480.532	648.44
480.751	610.44
480.969	633.44
481.188	691.44
481.406	728.44
481.624	658.44
481.843	628.44
482.061	604.44
482.28	596.44
482.498	618.44
482.717	565.44
482.935	609.44
483.153	597.44
483.372	593.44
483.59	598.44
483.808	609.44
484.027	591.44
484.245	607.44
484.463	614.44
484.681	620.44
484.9	588.44
485.118	626.44
485.336	625.44
485.554	605.44
485.772	635.44
485.99	618.44
486.209	641.44
486.427	607.44
486.645	620.44
486.863	641.44
487.081	632.44
487.299	614.44
487.517	642.44
487.735	648.44
487.953	655.44
488.171	653.44
488.389	660.44
488.607	660.44
488.825	649.44
489.043	658.44
489.261	652.44
489.479	660.44
489.696	664.44
489.914	664.44
490.132	661.44
490.35	653.44
490.568	681.44
490.786	677.44
491.003	714.44
491.221	711.44
491.439	717.44
491.657	713.44
491.874	718.44
492.092	722.44
492.31	722.44
492.527	728.44
492.745	750.44
492.963	756.44
493.18	761.44
493.398	758.44
493.615	756.44
493.833	779.44
494.05	760.44
494.268	760.44
494.485	750.44
494.703	755.44
494.92	772.44
495.138	771.44
495.355	771.44
495.573	761.44
495.79	749.44
496.008	758.44
496.225	792.44
496.442	759.44
496.66	762.44
496.877	749.44
497.094	801.44
497.312	801.44
497.529	789.44
497.746	805.44
497.963	820.44
498.181	813.44
498.398	830.44
498.615	863.44
498.832	880.44
499.049	932.44
499.267	941.44
499.484	970.44
499.701	1025.44
499.918	1075.44
500.135	1156.44
500.352	1188.44
500.569	1218.44
500.786	1214.44
501.003	1191.44
501.22	1138.44
501.437	1122.44
501.654	1061.44
