Data from 1975.PennyLincolnUp.Lamp.En5.5.200Scan.071719.P1.Changed Mount._HRD10591_15-55-33-858.txt Node
Date: Thu Jul 18 15:55:33 EDT 2019
User: cochatt
Spectrometer: HR+D1059
Trigger mode: 1
Integration Time (sec): 1.000000E-1
Scans to average: 1
Electric dark correction enabled: true
Nonlinearity correction enabled: false
Boxcar width: 0
XAxis mode: Wavelengths
Number of Pixels in Spectrum: 2048
>>>>>Begin Spectral Data<<<<<
223.165	-12.56
223.4	-12.56
223.635	-12.56
223.869	-22.56
224.104	0.44
224.338	-13.56
224.573	-17.56
224.808	-22.56
225.042	-1.56
225.277	-12.56
225.511	-9.56
225.746	19.44
225.98	-7.56
226.215	9.44
226.449	8.44
226.683	15.44
226.918	33.44
227.152	33.44
227.387	43.44
227.621	43.44
227.856	46.44
228.09	43.44
228.324	52.44
228.559	58.44
228.793	44.44
229.027	90.44
229.262	93.44
229.496	107.44
229.73	113.44
229.964	129.44
230.199	119.44
230.433	113.44
230.667	115.44
230.901	114.44
231.136	97.44
231.37	109.44
231.604	107.44
231.838	114.44
232.072	115.44
232.306	124.44
232.541	123.44
232.775	118.44
233.009	117.44
233.243	123.44
233.477	124.44
233.711	121.44
233.945	106.44
234.179	108.44
234.413	114.44
234.647	121.44
234.881	97.44
235.115	117.44
235.349	118.44
235.583	101.44
235.817	123.44
236.051	119.44
236.285	116.44
236.519	130.44
236.753	111.44
236.987	123.44
237.221	164.44
237.455	201.44
237.689	154.44
237.922	139.44
238.156	129.44
238.39	129.44
238.624	120.44
238.858	123.44
239.091	119.44
239.325	125.44
239.559	119.44
239.793	120.44
240.027	120.44
240.26	127.44
240.494	138.44
240.728	138.44
240.961	123.44
241.195	133.44
241.429	123.44
241.662	129.44
241.896	113.44
242.13	125.44
242.363	121.44
242.597	128.44
242.83	115.44
243.064	135.44
243.298	134.44
243.531	134.44
243.765	135.44
243.998	133.44
244.232	127.44
244.465	157.44
244.699	131.44
244.932	141.44
245.166	140.44
245.399	132.44
245.633	148.44
245.866	138.44
246.099	124.44
246.333	143.44
246.566	145.44
246.8	149.44
247.033	142.44
247.266	142.44
247.5	149.44
247.733	158.44
247.966	155.44
248.2	167.44
248.433	169.44
248.666	162.44
248.899	173.44
249.133	167.44
249.366	183.44
249.599	177.44
249.832	170.44
250.066	171.44
250.299	173.44
250.532	188.44
250.765	177.44
250.998	190.44
251.231	212.44
251.465	188.44
251.698	187.44
251.931	176.44
252.164	187.44
252.397	197.44
252.63	189.44
252.863	185.44
253.096	210.44
253.329	205.44
253.562	216.44
253.795	209.44
254.028	196.44
254.261	188.44
254.494	207.44
254.727	204.44
254.96	235.44
255.193	230.44
255.426	218.44
255.659	218.44
255.892	222.44
256.124	185.44
256.357	206.44
256.59	205.44
256.823	189.44
257.056	198.44
257.289	198.44
257.521	203.44
257.754	204.44
257.987	191.44
258.22	179.44
258.452	183.44
258.685	184.44
258.918	207.44
259.151	204.44
259.383	217.44
259.616	195.44
259.849	211.44
260.081	219.44
260.314	242.44
260.547	222.44
260.779	227.44
261.012	216.44
261.244	210.44
261.477	208.44
261.71	222.44
261.942	186.44
262.175	199.44
262.407	203.44
262.64	191.44
262.872	212.44
263.105	206.44
263.337	213.44
263.57	189.44
263.802	204.44
264.035	189.44
264.267	209.44
264.499	201.44
264.732	209.44
264.964	213.44
265.197	208.44
265.429	204.44
265.661	203.44
265.894	203.44
266.126	207.44
266.358	181.44
266.591	217.44
266.823	212.44
267.055	201.44
267.287	223.44
267.52	205.44
267.752	213.44
267.984	205.44
268.216	204.44
268.448	222.44
268.681	210.44
268.913	219.44
269.145	243.44
269.377	258.44
269.609	255.44
269.841	259.44
270.073	241.44
270.306	243.44
270.538	278.44
270.77	277.44
271.002	261.44
271.234	265.44
271.466	269.44
271.698	284.44
271.93	280.44
272.162	287.44
272.394	295.44
272.626	265.44
272.858	231.44
273.09	235.44
273.322	250.44
273.553	237.44
273.785	243.44
274.017	236.44
274.249	227.44
274.481	223.44
274.713	239.44
274.945	247.44
275.176	255.44
275.408	230.44
275.64	243.44
275.872	236.44
276.104	263.44
276.335	244.44
276.567	249.44
276.799	249.44
277.031	279.44
277.262	270.44
277.494	287.44
277.726	280.44
277.957	261.44
278.189	261.44
278.421	256.44
278.652	253.44
278.884	247.44
279.115	228.44
279.347	269.44
279.579	271.44
279.81	263.44
280.042	260.44
280.273	253.44
280.505	254.44
280.736	252.44
280.968	275.44
281.199	244.44
281.431	236.44
281.662	253.44
281.894	250.44
282.125	253.44
282.356	265.44
282.588	266.44
282.819	284.44
283.051	257.44
283.282	276.44
283.513	270.44
283.745	267.44
283.976	285.44
284.207	270.44
284.439	267.44
284.67	270.44
284.901	275.44
285.132	265.44
285.364	241.44
285.595	269.44
285.826	253.44
286.057	287.44
286.288	291.44
286.52	262.44
286.751	248.44
286.982	281.44
287.213	259.44
287.444	275.44
287.675	283.44
287.906	283.44
288.138	303.44
288.369	287.44
288.6	288.44
288.831	280.44
289.062	280.44
289.293	287.44
289.524	271.44
289.755	271.44
289.986	288.44
290.217	283.44
290.448	262.44
290.679	279.44
290.91	286.44
291.141	285.44
291.371	270.44
291.602	288.44
291.833	286.44
292.064	284.44
292.295	274.44
292.526	273.44
292.757	283.44
292.987	276.44
293.218	282.44
293.449	284.44
293.68	303.44
293.91	291.44
294.141	291.44
294.372	296.44
294.603	280.44
294.833	285.44
295.064	282.44
295.295	289.44
295.525	276.44
295.756	285.44
295.987	283.44
296.217	305.44
296.448	299.44
296.679	298.44
296.909	276.44
297.14	313.44
297.37	283.44
297.601	298.44
297.831	294.44
298.062	303.44
298.292	290.44
298.523	293.44
298.753	308.44
298.984	298.44
299.214	289.44
299.445	299.44
299.675	306.44
299.905	294.44
300.136	300.44
300.366	282.44
300.597	293.44
300.827	309.44
301.057	296.44
301.288	298.44
301.518	310.44
301.748	317.44
301.979	300.44
302.209	321.44
302.439	323.44
302.669	321.44
302.9	318.44
303.13	324.44
303.36	309.44
303.59	320.44
303.82	311.44
304.051	323.44
304.281	311.44
304.511	308.44
304.741	307.44
304.971	328.44
305.201	333.44
305.431	322.44
305.661	298.44
305.891	310.44
306.121	309.44
306.352	308.44
306.582	298.44
306.812	313.44
307.042	306.44
307.272	296.44
307.502	315.44
307.731	320.44
307.961	323.44
308.191	322.44
308.421	316.44
308.651	317.44
308.881	304.44
309.111	316.44
309.341	326.44
309.571	332.44
309.8	327.44
310.03	325.44
310.26	323.44
310.49	336.44
310.72	332.44
310.949	318.44
311.179	350.44
311.409	354.44
311.639	355.44
311.868	332.44
312.098	352.44
312.328	345.44
312.557	344.44
312.787	377.44
313.017	339.44
313.246	354.44
313.476	332.44
313.706	342.44
313.935	346.44
314.165	366.44
314.394	367.44
314.624	360.44
314.853	343.44
315.083	363.44
315.312	340.44
315.542	348.44
315.771	348.44
316.001	329.44
316.23	335.44
316.46	352.44
316.689	348.44
316.919	349.44
317.148	359.44
317.377	350.44
317.607	362.44
317.836	335.44
318.065	340.44
318.295	342.44
318.524	362.44
318.753	334.44
318.983	341.44
319.212	341.44
319.441	348.44
319.67	355.44
319.9	353.44
320.129	366.44
320.358	337.44
320.587	352.44
320.816	349.44
321.046	339.44
321.275	364.44
321.504	379.44
321.733	353.44
321.962	361.44
322.191	367.44
322.42	362.44
322.649	385.44
322.878	388.44
323.108	379.44
323.337	392.44
323.566	389.44
323.795	420.44
324.024	439.44
324.253	503.44
324.482	665.44
324.71	1006.44
324.939	1463.44
325.168	1309.44
325.397	659.44
325.626	463.44
325.855	433.44
326.084	404.44
326.313	411.44
326.542	414.44
326.77	436.44
326.999	477.44
327.228	625.44
327.457	909.44
327.686	1128.44
327.914	754.44
328.143	506.44
328.372	464.44
328.6	460.44
328.829	444.44
329.058	452.44
329.287	454.44
329.515	456.44
329.744	419.44
329.972	436.44
330.201	425.44
330.43	429.44
330.658	457.44
330.887	473.44
331.115	463.44
331.344	426.44
331.572	431.44
331.801	415.44
332.03	411.44
332.258	400.44
332.486	419.44
332.715	415.44
332.943	435.44
333.172	409.44
333.4	429.44
333.629	442.44
333.857	434.44
334.085	447.44
334.314	465.44
334.542	476.44
334.771	471.44
334.999	456.44
335.227	443.44
335.455	431.44
335.684	439.44
335.912	429.44
336.14	430.44
336.369	414.44
336.597	420.44
336.825	411.44
337.053	429.44
337.281	417.44
337.51	430.44
337.738	413.44
337.966	416.44
338.194	419.44
338.422	397.44
338.65	411.44
338.878	403.44
339.106	399.44
339.334	419.44
339.562	390.44
339.79	406.44
340.018	385.44
340.246	393.44
340.474	415.44
340.702	403.44
340.93	390.44
341.158	390.44
341.386	403.44
341.614	405.44
341.842	377.44
342.07	405.44
342.298	385.44
342.526	382.44
342.754	382.44
342.981	426.44
343.209	397.44
343.437	397.44
343.665	410.44
343.893	437.44
344.12	429.44
344.348	451.44
344.576	419.44
344.804	406.44
345.031	406.44
345.259	411.44
345.487	419.44
345.714	413.44
345.942	392.44
346.17	395.44
346.397	400.44
346.625	388.44
346.853	391.44
347.08	360.44
347.308	387.44
347.535	382.44
347.763	393.44
347.99	409.44
348.218	397.44
348.445	411.44
348.673	396.44
348.9	380.44
349.128	379.44
349.355	384.44
349.583	399.44
349.81	378.44
350.037	381.44
350.265	385.44
350.492	369.44
350.72	391.44
350.947	361.44
351.174	387.44
351.402	399.44
351.629	383.44
351.856	379.44
352.083	391.44
352.311	417.44
352.538	383.44
352.765	399.44
352.992	389.44
353.22	381.44
353.447	381.44
353.674	394.44
353.901	390.44
354.128	365.44
354.355	369.44
354.583	387.44
354.81	368.44
355.037	385.44
355.264	377.44
355.491	377.44
355.718	382.44
355.945	374.44
356.172	354.44
356.399	377.44
356.626	376.44
356.853	378.44
357.08	373.44
357.307	370.44
357.534	381.44
357.761	373.44
357.988	378.44
358.215	399.44
358.441	365.44
358.668	390.44
358.895	395.44
359.122	397.44
359.349	378.44
359.576	391.44
359.802	398.44
360.029	418.44
360.256	414.44
360.483	405.44
360.709	394.44
360.936	393.44
361.163	389.44
361.39	391.44
361.616	410.44
361.843	387.44
362.07	382.44
362.296	380.44
362.523	382.44
362.749	372.44
362.976	380.44
363.203	381.44
363.429	371.44
363.656	370.44
363.882	394.44
364.109	380.44
364.335	358.44
364.562	360.44
364.788	361.44
365.015	389.44
365.241	385.44
365.468	390.44
365.694	379.44
365.92	382.44
366.147	366.44
366.373	379.44
366.599	379.44
366.826	390.44
367.052	377.44
367.278	364.44
367.505	371.44
367.731	381.44
367.957	387.44
368.184	378.44
368.41	410.44
368.636	385.44
368.862	376.44
369.089	387.44
369.315	378.44
369.541	387.44
369.767	371.44
369.993	376.44
370.219	385.44
370.445	398.44
370.672	390.44
370.898	378.44
371.124	401.44
371.35	383.44
371.576	407.44
371.802	398.44
372.028	391.44
372.254	394.44
372.48	388.44
372.706	406.44
372.932	402.44
373.158	408.44
373.384	414.44
373.61	404.44
373.835	422.44
374.061	374.44
374.287	395.44
374.513	393.44
374.739	406.44
374.965	412.44
375.191	419.44
375.416	421.44
375.642	428.44
375.868	397.44
376.094	392.44
376.319	409.44
376.545	411.44
376.771	406.44
376.997	398.44
377.222	393.44
377.448	387.44
377.674	394.44
377.899	407.44
378.125	383.44
378.35	404.44
378.576	394.44
378.802	373.44
379.027	407.44
379.253	397.44
379.478	373.44
379.704	388.44
379.929	391.44
380.155	386.44
380.38	394.44
380.606	384.44
380.831	393.44
381.057	408.44
381.282	395.44
381.507	393.44
381.733	408.44
381.958	408.44
382.184	424.44
382.409	433.44
382.634	408.44
382.86	409.44
383.085	415.44
383.31	422.44
383.535	438.44
383.761	431.44
383.986	437.44
384.211	422.44
384.436	436.44
384.662	450.44
384.887	455.44
385.112	445.44
385.337	471.44
385.562	448.44
385.787	463.44
386.013	468.44
386.238	472.44
386.463	470.44
386.688	471.44
386.913	434.44
387.138	487.44
387.363	466.44
387.588	449.44
387.813	444.44
388.038	440.44
388.263	463.44
388.488	492.44
388.713	472.44
388.938	443.44
389.163	452.44
389.387	435.44
389.612	428.44
389.837	428.44
390.062	440.44
390.287	448.44
390.512	445.44
390.736	453.44
390.961	454.44
391.186	453.44
391.411	461.44
391.636	467.44
391.86	470.44
392.085	461.44
392.31	445.44
392.534	463.44
392.759	456.44
392.984	456.44
393.208	467.44
393.433	483.44
393.658	467.44
393.882	462.44
394.107	449.44
394.331	455.44
394.556	443.44
394.78	450.44
395.005	452.44
395.229	447.44
395.454	462.44
395.678	475.44
395.903	486.44
396.127	490.44
396.352	479.44
396.576	453.44
396.801	468.44
397.025	475.44
397.249	478.44
397.474	482.44
397.698	483.44
397.922	477.44
398.147	494.44
398.371	521.44
398.595	462.44
398.82	514.44
399.044	517.44
399.268	549.44
399.492	584.44
399.717	623.44
399.941	646.44
400.165	653.44
400.389	685.44
400.613	587.44
400.837	545.44
401.062	549.44
401.286	518.44
401.51	530.44
401.734	519.44
401.958	528.44
402.182	524.44
402.406	521.44
402.63	509.44
402.854	535.44
403.078	532.44
403.302	539.44
403.526	541.44
403.75	555.44
403.974	538.44
404.198	534.44
404.422	537.44
404.645	552.44
404.869	541.44
405.093	563.44
405.317	609.44
405.541	623.44
405.765	582.44
405.988	563.44
406.212	549.44
406.436	583.44
406.66	569.44
406.883	584.44
407.107	601.44
407.331	645.44
407.555	685.44
407.778	698.44
408.002	653.44
408.226	593.44
408.449	573.44
408.673	596.44
408.896	602.44
409.12	619.44
409.344	614.44
409.567	561.44
409.791	553.44
410.014	548.44
410.238	540.44
410.461	539.44
410.685	548.44
410.908	565.44
411.132	584.44
411.355	598.44
411.578	591.44
411.802	567.44
412.025	538.44
412.249	548.44
412.472	567.44
412.695	599.44
412.919	590.44
413.142	533.44
413.365	528.44
413.589	532.44
413.812	514.44
414.035	505.44
414.258	502.44
414.482	497.44
414.705	537.44
414.928	512.44
415.151	519.44
415.374	536.44
415.597	515.44
415.821	492.44
416.044	489.44
416.267	497.44
416.49	490.44
416.713	505.44
416.936	498.44
417.159	508.44
417.382	523.44
417.605	534.44
417.828	527.44
418.051	555.44
418.274	522.44
418.497	510.44
418.72	533.44
418.943	513.44
419.166	521.44
419.389	564.44
419.611	551.44
419.834	542.44
420.057	565.44
420.28	537.44
420.503	532.44
420.726	536.44
420.948	528.44
421.171	542.44
421.394	593.44
421.617	518.44
421.839	541.44
422.062	524.44
422.285	531.44
422.507	588.44
422.73	649.44
422.953	628.44
423.175	561.44
423.398	540.44
423.621	527.44
423.843	570.44
424.066	566.44
424.288	557.44
424.511	581.44
424.733	617.44
424.956	669.44
425.178	674.44
425.401	632.44
425.623	640.44
425.846	582.44
426.068	555.44
426.291	556.44
426.513	533.44
426.735	559.44
426.958	585.44
427.18	636.44
427.402	744.44
427.625	843.44
427.847	719.44
428.069	637.44
428.292	580.44
428.514	519.44
428.736	518.44
428.958	494.44
429.181	488.44
429.403	490.44
429.625	502.44
429.847	526.44
430.069	587.44
430.292	590.44
430.514	520.44
430.736	503.44
430.958	493.44
431.18	509.44
431.402	473.44
431.624	505.44
431.846	462.44
432.068	506.44
432.29	505.44
432.512	490.44
432.734	497.44
432.956	496.44
433.178	482.44
433.4	491.44
433.622	515.44
433.844	477.44
434.066	474.44
434.287	492.44
434.509	487.44
434.731	523.44
434.953	540.44
435.175	523.44
435.397	546.44
435.618	546.44
435.84	557.44
436.062	648.44
436.284	711.44
436.505	600.44
436.727	550.44
436.949	501.44
437.17	503.44
437.392	504.44
437.614	527.44
437.835	521.44
438.057	597.44
438.278	679.44
438.5	722.44
438.721	765.44
438.943	725.44
439.165	583.44
439.386	531.44
439.608	539.44
439.829	512.44
440.05	554.44
440.272	602.44
440.493	573.44
440.715	547.44
440.936	534.44
441.158	513.44
441.379	519.44
441.6	539.44
441.822	551.44
442.043	565.44
442.264	651.44
442.486	683.44
442.707	599.44
442.928	571.44
443.149	556.44
443.371	587.44
443.592	622.44
443.813	684.44
444.034	755.44
444.255	630.44
444.476	609.44
444.698	587.44
444.919	568.44
445.14	673.44
445.361	625.44
445.582	591.44
445.803	618.44
446.024	709.44
446.245	716.44
446.466	675.44
446.687	569.44
446.908	542.44
447.129	495.44
447.35	501.44
447.571	506.44
447.792	498.44
448.013	491.44
448.234	495.44
448.455	525.44
448.675	652.44
448.896	749.44
449.117	632.44
449.338	571.44
449.559	693.44
449.779	805.44
450	618.44
450.221	529.44
450.442	500.44
450.662	490.44
450.883	478.44
451.104	497.44
451.324	505.44
451.545	484.44
451.766	460.44
451.986	454.44
452.207	433.44
452.428	445.44
452.648	467.44
452.869	458.44
453.089	459.44
453.31	463.44
453.53	458.44
453.751	476.44
453.971	447.44
454.192	451.44
454.412	444.44
454.633	427.44
454.853	451.44
455.073	433.44
455.294	442.44
455.514	509.44
455.734	488.44
455.955	458.44
456.175	427.44
456.395	434.44
456.616	420.44
456.836	441.44
457.056	444.44
457.276	443.44
457.497	413.44
457.717	439.44
457.937	423.44
458.157	464.44
458.377	446.44
458.598	458.44
458.818	503.44
459.038	552.44
459.258	584.44
459.478	525.44
459.698	485.44
459.918	488.44
460.138	479.44
460.358	493.44
460.578	525.44
460.798	505.44
461.018	525.44
461.238	516.44
461.458	522.44
461.678	524.44
461.898	521.44
462.118	505.44
462.338	508.44
462.558	557.44
462.777	542.44
462.997	580.44
463.217	590.44
463.437	575.44
463.657	570.44
463.876	580.44
464.096	589.44
464.316	561.44
464.536	551.44
464.755	545.44
464.975	551.44
465.195	563.44
465.414	557.44
465.634	507.44
465.854	514.44
466.073	497.44
466.293	509.44
466.512	497.44
466.732	482.44
466.951	469.44
467.171	453.44
467.391	466.44
467.61	474.44
467.829	492.44
468.049	477.44
468.268	464.44
468.488	470.44
468.707	460.44
468.927	447.44
469.146	461.44
469.365	477.44
469.585	461.44
469.804	466.44
470.023	484.44
470.243	490.44
470.462	491.44
470.681	494.44
470.901	475.44
471.12	480.44
471.339	484.44
471.558	493.44
471.777	453.44
471.997	469.44
472.216	473.44
472.435	505.44
472.654	488.44
472.873	474.44
473.092	485.44
473.311	472.44
473.53	482.44
473.749	461.44
473.968	488.44
474.187	584.44
474.406	602.44
474.625	522.44
474.844	486.44
475.063	462.44
475.282	477.44
475.501	465.44
475.72	481.44
475.939	481.44
476.158	479.44
476.377	484.44
476.596	483.44
476.814	498.44
477.033	497.44
477.252	499.44
477.471	517.44
477.69	525.44
477.908	532.44
478.127	533.44
478.346	537.44
478.564	539.44
478.783	540.44
479.002	556.44
479.22	565.44
479.439	590.44
479.658	575.44
479.876	580.44
480.095	586.44
480.313	630.44
480.532	603.44
480.751	599.44
480.969	622.44
481.188	639.44
481.406	623.44
481.624	601.44
481.843	568.44
482.061	571.44
482.28	555.44
482.498	576.44
482.717	577.44
482.935	563.44
483.153	585.44
483.372	597.44
483.59	577.44
483.808	565.44
484.027	575.44
484.245	566.44
484.463	570.44
484.681	581.44
484.9	583.44
485.118	576.44
485.336	578.44
485.554	581.44
485.772	581.44
485.99	577.44
486.209	590.44
486.427	580.44
486.645	586.44
486.863	606.44
487.081	625.44
487.299	604.44
487.517	606.44
487.735	609.44
487.953	613.44
488.171	614.44
488.389	616.44
488.607	612.44
488.825	614.44
489.043	609.44
489.261	623.44
489.479	613.44
489.696	606.44
489.914	632.44
490.132	638.44
490.35	614.44
490.568	607.44
490.786	647.44
491.003	628.44
491.221	667.44
491.439	662.44
491.657	673.44
491.874	675.44
492.092	666.44
492.31	663.44
492.527	681.44
492.745	677.44
492.963	685.44
493.18	696.44
493.398	701.44
493.615	674.44
493.833	711.44
494.05	730.44
494.268	708.44
494.485	686.44
494.703	665.44
494.92	706.44
495.138	694.44
495.355	686.44
495.573	713.44
495.79	702.44
496.008	698.44
496.225	692.44
496.442	721.44
496.66	696.44
496.877	703.44
497.094	728.44
497.312	715.44
497.529	708.44
497.746	751.44
497.963	777.44
498.181	769.44
498.398	763.44
498.615	797.44
498.832	835.44
499.049	868.44
499.267	856.44
499.484	927.44
499.701	959.44
499.918	1031.44
500.135	1074.44
500.352	1131.44
500.569	1185.44
500.786	1148.44
501.003	1133.44
501.22	1103.44
501.437	1054.44
501.654	998.44
