Data from 1975.PennyLincolnUp.Lamp.En5.5.200Scan.071719.P1.Changed Mount._HRD10591_15-58-34-859.txt Node
Date: Thu Jul 18 15:58:34 EDT 2019
User: cochatt
Spectrometer: HR+D1059
Trigger mode: 1
Integration Time (sec): 1.000000E-1
Scans to average: 1
Electric dark correction enabled: true
Nonlinearity correction enabled: false
Boxcar width: 0
XAxis mode: Wavelengths
Number of Pixels in Spectrum: 2048
>>>>>Begin Spectral Data<<<<<
223.165	-17.31
223.4	-17.31
223.635	-17.31
223.869	-17.31
224.104	-30.31
224.338	-22.31
224.573	-13.31
224.808	2.69
225.042	-13.31
225.277	4.69
225.511	-10.31
225.746	16.69
225.98	11.69
226.215	10.69
226.449	8.69
226.683	19.69
226.918	21.69
227.152	27.69
227.387	37.69
227.621	35.69
227.856	43.69
228.09	63.69
228.324	49.69
228.559	54.69
228.793	55.69
229.027	94.69
229.262	107.69
229.496	116.69
229.73	141.69
229.964	164.69
230.199	132.69
230.433	105.69
230.667	116.69
230.901	98.69
231.136	90.69
231.37	109.69
231.604	110.69
231.838	107.69
232.072	110.69
232.306	125.69
232.541	122.69
232.775	125.69
233.009	122.69
233.243	131.69
233.477	128.69
233.711	121.69
233.945	122.69
234.179	130.69
234.413	123.69
234.647	138.69
234.881	130.69
235.115	119.69
235.349	121.69
235.583	125.69
235.817	125.69
236.051	137.69
236.285	126.69
236.519	138.69
236.753	142.69
236.987	141.69
237.221	187.69
237.455	231.69
237.689	183.69
237.922	150.69
238.156	134.69
238.39	150.69
238.624	143.69
238.858	150.69
239.091	132.69
239.325	134.69
239.559	124.69
239.793	149.69
240.027	142.69
240.26	153.69
240.494	150.69
240.728	164.69
240.961	155.69
241.195	147.69
241.429	157.69
241.662	130.69
241.896	145.69
242.13	147.69
242.363	145.69
242.597	141.69
242.83	135.69
243.064	139.69
243.298	148.69
243.531	145.69
243.765	147.69
243.998	159.69
244.232	142.69
244.465	157.69
244.699	161.69
244.932	157.69
245.166	147.69
245.399	154.69
245.633	156.69
245.866	171.69
246.099	166.69
246.333	160.69
246.566	162.69
246.8	159.69
247.033	171.69
247.266	167.69
247.5	175.69
247.733	172.69
247.966	198.69
248.2	180.69
248.433	172.69
248.666	187.69
248.899	185.69
249.133	203.69
249.366	218.69
249.599	205.69
249.832	195.69
250.066	175.69
250.299	190.69
250.532	199.69
250.765	227.69
250.998	223.69
251.231	248.69
251.465	222.69
251.698	215.69
251.931	204.69
252.164	196.69
252.397	193.69
252.63	201.69
252.863	206.69
253.096	230.69
253.329	243.69
253.562	235.69
253.795	219.69
254.028	230.69
254.261	228.69
254.494	231.69
254.727	270.69
254.96	306.69
255.193	268.69
255.426	272.69
255.659	250.69
255.892	252.69
256.124	249.69
256.357	262.69
256.59	244.69
256.823	235.69
257.056	215.69
257.289	213.69
257.521	222.69
257.754	210.69
257.987	220.69
258.22	216.69
258.452	225.69
258.685	223.69
258.918	216.69
259.151	213.69
259.383	243.69
259.616	247.69
259.849	236.69
260.081	249.69
260.314	276.69
260.547	287.69
260.779	261.69
261.012	251.69
261.244	240.69
261.477	242.69
261.71	235.69
261.942	248.69
262.175	228.69
262.407	236.69
262.64	229.69
262.872	242.69
263.105	215.69
263.337	235.69
263.57	220.69
263.802	222.69
264.035	230.69
264.267	246.69
264.499	222.69
264.732	226.69
264.964	239.69
265.197	231.69
265.429	240.69
265.661	230.69
265.894	215.69
266.126	236.69
266.358	232.69
266.591	234.69
266.823	233.69
267.055	261.69
267.287	266.69
267.52	259.69
267.752	238.69
267.984	231.69
268.216	234.69
268.448	260.69
268.681	235.69
268.913	252.69
269.145	279.69
269.377	300.69
269.609	296.69
269.841	289.69
270.073	291.69
270.306	326.69
270.538	337.69
270.77	344.69
271.002	331.69
271.234	310.69
271.466	328.69
271.698	319.69
271.93	338.69
272.162	347.69
272.394	334.69
272.626	331.69
272.858	319.69
273.09	308.69
273.322	298.69
273.553	273.69
273.785	272.69
274.017	280.69
274.249	286.69
274.481	275.69
274.713	286.69
274.945	290.69
275.176	282.69
275.408	289.69
275.64	269.69
275.872	277.69
276.104	263.69
276.335	289.69
276.567	284.69
276.799	302.69
277.031	301.69
277.262	340.69
277.494	329.69
277.726	335.69
277.957	284.69
278.189	289.69
278.421	296.69
278.652	278.69
278.884	290.69
279.115	278.69
279.347	282.69
279.579	294.69
279.81	296.69
280.042	290.69
280.273	311.69
280.505	281.69
280.736	278.69
280.968	287.69
281.199	306.69
281.431	293.69
281.662	294.69
281.894	309.69
282.125	290.69
282.356	311.69
282.588	319.69
282.819	326.69
283.051	295.69
283.282	290.69
283.513	287.69
283.745	295.69
283.976	314.69
284.207	298.69
284.439	317.69
284.67	304.69
284.901	300.69
285.132	313.69
285.364	316.69
285.595	307.69
285.826	311.69
286.057	311.69
286.288	287.69
286.52	309.69
286.751	306.69
286.982	294.69
287.213	301.69
287.444	296.69
287.675	310.69
287.906	328.69
288.138	313.69
288.369	316.69
288.6	311.69
288.831	331.69
289.062	317.69
289.293	327.69
289.524	300.69
289.755	320.69
289.986	328.69
290.217	313.69
290.448	310.69
290.679	320.69
290.91	322.69
291.141	313.69
291.371	319.69
291.602	321.69
291.833	317.69
292.064	315.69
292.295	320.69
292.526	306.69
292.757	310.69
292.987	313.69
293.218	319.69
293.449	309.69
293.68	334.69
293.91	317.69
294.141	323.69
294.372	313.69
294.603	326.69
294.833	331.69
295.064	310.69
295.295	308.69
295.525	322.69
295.756	333.69
295.987	308.69
296.217	359.69
296.448	355.69
296.679	309.69
296.909	313.69
297.14	317.69
297.37	329.69
297.601	323.69
297.831	327.69
298.062	345.69
298.292	326.69
298.523	341.69
298.753	340.69
298.984	318.69
299.214	332.69
299.445	337.69
299.675	334.69
299.905	340.69
300.136	340.69
300.366	330.69
300.597	337.69
300.827	334.69
301.057	367.69
301.288	380.69
301.518	358.69
301.748	344.69
301.979	361.69
302.209	350.69
302.439	365.69
302.669	345.69
302.9	373.69
303.13	365.69
303.36	353.69
303.59	363.69
303.82	358.69
304.051	369.69
304.281	345.69
304.511	358.69
304.741	342.69
304.971	351.69
305.201	343.69
305.431	352.69
305.661	343.69
305.891	344.69
306.121	345.69
306.352	333.69
306.582	378.69
306.812	348.69
307.042	374.69
307.272	378.69
307.502	375.69
307.731	364.69
307.961	362.69
308.191	353.69
308.421	353.69
308.651	365.69
308.881	363.69
309.111	368.69
309.341	372.69
309.571	382.69
309.8	382.69
310.03	389.69
310.26	379.69
310.49	373.69
310.72	387.69
310.949	406.69
311.179	398.69
311.409	415.69
311.639	393.69
311.868	393.69
312.098	402.69
312.328	406.69
312.557	421.69
312.787	434.69
313.017	444.69
313.246	419.69
313.476	406.69
313.706	407.69
313.935	387.69
314.165	407.69
314.394	413.69
314.624	422.69
314.853	412.69
315.083	403.69
315.312	399.69
315.542	411.69
315.771	390.69
316.001	399.69
316.23	382.69
316.46	403.69
316.689	418.69
316.919	413.69
317.148	414.69
317.377	419.69
317.607	420.69
317.836	418.69
318.065	398.69
318.295	399.69
318.524	396.69
318.753	406.69
318.983	399.69
319.212	395.69
319.441	414.69
319.67	405.69
319.9	392.69
320.129	396.69
320.358	416.69
320.587	411.69
320.816	413.69
321.046	419.69
321.275	421.69
321.504	417.69
321.733	416.69
321.962	411.69
322.191	450.69
322.42	440.69
322.649	464.69
322.878	459.69
323.108	451.69
323.337	489.69
323.566	502.69
323.795	536.69
324.024	535.69
324.253	653.69
324.482	888.69
324.71	1346.69
324.939	2008.69
325.168	1824.69
325.397	918.69
325.626	606.69
325.855	529.69
326.084	520.69
326.313	480.69
326.542	492.69
326.77	574.69
326.999	628.69
327.228	791.69
327.457	1244.69
327.686	1552.69
327.914	1026.69
328.143	686.69
328.372	599.69
328.6	582.69
328.829	544.69
329.058	560.69
329.287	563.69
329.515	558.69
329.744	534.69
329.972	526.69
330.201	549.69
330.43	592.69
330.658	586.69
330.887	598.69
331.115	579.69
331.344	529.69
331.572	499.69
331.801	509.69
332.03	505.69
332.258	493.69
332.486	473.69
332.715	468.69
332.943	510.69
333.172	496.69
333.4	507.69
333.629	519.69
333.857	534.69
334.085	538.69
334.314	530.69
334.542	571.69
334.771	588.69
334.999	547.69
335.227	510.69
335.455	504.69
335.684	495.69
335.912	486.69
336.14	472.69
336.369	490.69
336.597	513.69
336.825	511.69
337.053	499.69
337.281	473.69
337.51	477.69
337.738	493.69
337.966	458.69
338.194	462.69
338.422	480.69
338.65	453.69
338.878	483.69
339.106	469.69
339.334	444.69
339.562	451.69
339.79	477.69
340.018	478.69
340.246	476.69
340.474	469.69
340.702	447.69
340.93	451.69
341.158	451.69
341.386	456.69
341.614	478.69
341.842	468.69
342.07	463.69
342.298	456.69
342.526	457.69
342.754	448.69
342.981	439.69
343.209	439.69
343.437	459.69
343.665	480.69
343.893	469.69
344.12	470.69
344.348	474.69
344.576	483.69
344.804	462.69
345.031	499.69
345.259	458.69
345.487	482.69
345.714	462.69
345.942	466.69
346.17	442.69
346.397	453.69
346.625	462.69
346.853	453.69
347.08	450.69
347.308	462.69
347.535	458.69
347.763	437.69
347.99	468.69
348.218	438.69
348.445	453.69
348.673	471.69
348.9	462.69
349.128	433.69
349.355	425.69
349.583	418.69
349.81	434.69
350.037	422.69
350.265	436.69
350.492	446.69
350.72	427.69
350.947	444.69
351.174	455.69
351.402	436.69
351.629	453.69
351.856	462.69
352.083	455.69
352.311	453.69
352.538	444.69
352.765	464.69
352.992	455.69
353.22	445.69
353.447	450.69
353.674	463.69
353.901	418.69
354.128	431.69
354.355	418.69
354.583	423.69
354.81	425.69
355.037	425.69
355.264	422.69
355.491	418.69
355.718	391.69
355.945	395.69
356.172	421.69
356.399	416.69
356.626	412.69
356.853	423.69
357.08	413.69
357.307	415.69
357.534	412.69
357.761	439.69
357.988	401.69
358.215	413.69
358.441	416.69
358.668	413.69
358.895	423.69
359.122	446.69
359.349	429.69
359.576	460.69
359.802	475.69
360.029	486.69
360.256	487.69
360.483	493.69
360.709	467.69
360.936	440.69
361.163	459.69
361.39	436.69
361.616	454.69
361.843	422.69
362.07	448.69
362.296	468.69
362.523	440.69
362.749	444.69
362.976	448.69
363.203	441.69
363.429	422.69
363.656	419.69
363.882	434.69
364.109	440.69
364.335	431.69
364.562	422.69
364.788	435.69
365.015	428.69
365.241	427.69
365.468	439.69
365.694	438.69
365.92	447.69
366.147	444.69
366.373	430.69
366.599	439.69
366.826	426.69
367.052	424.69
367.278	416.69
367.505	441.69
367.731	423.69
367.957	442.69
368.184	422.69
368.41	452.69
368.636	450.69
368.862	444.69
369.089	441.69
369.315	445.69
369.541	415.69
369.767	442.69
369.993	437.69
370.219	436.69
370.445	430.69
370.672	421.69
370.898	436.69
371.124	442.69
371.35	457.69
371.576	430.69
371.802	428.69
372.028	431.69
372.254	437.69
372.48	428.69
372.706	437.69
372.932	426.69
373.158	450.69
373.384	446.69
373.61	458.69
373.835	442.69
374.061	463.69
374.287	441.69
374.513	466.69
374.739	445.69
374.965	456.69
375.191	459.69
375.416	450.69
375.642	434.69
375.868	437.69
376.094	442.69
376.319	452.69
376.545	431.69
376.771	444.69
376.997	437.69
377.222	436.69
377.448	431.69
377.674	439.69
377.899	429.69
378.125	446.69
378.35	448.69
378.576	446.69
378.802	430.69
379.027	438.69
379.253	451.69
379.478	435.69
379.704	409.69
379.929	446.69
380.155	428.69
380.38	436.69
380.606	430.69
380.831	428.69
381.057	436.69
381.282	447.69
381.507	441.69
381.733	444.69
381.958	457.69
382.184	451.69
382.409	446.69
382.634	450.69
382.86	452.69
383.085	452.69
383.31	445.69
383.535	473.69
383.761	468.69
383.986	460.69
384.211	493.69
384.436	463.69
384.662	446.69
384.887	479.69
385.112	473.69
385.337	480.69
385.562	476.69
385.787	485.69
386.013	503.69
386.238	492.69
386.463	495.69
386.688	498.69
386.913	502.69
387.138	501.69
387.363	471.69
387.588	485.69
387.813	473.69
388.038	466.69
388.263	488.69
388.488	469.69
388.713	472.69
388.938	512.69
389.163	495.69
389.387	500.69
389.612	491.69
389.837	481.69
390.062	473.69
390.287	491.69
390.512	480.69
390.736	489.69
390.961	502.69
391.186	506.69
391.411	491.69
391.636	506.69
391.86	493.69
392.085	508.69
392.31	523.69
392.534	500.69
392.759	538.69
392.984	519.69
393.208	516.69
393.433	473.69
393.658	512.69
393.882	505.69
394.107	496.69
394.331	508.69
394.556	506.69
394.78	510.69
395.005	481.69
395.229	520.69
395.454	510.69
395.678	522.69
395.903	526.69
396.127	552.69
396.352	554.69
396.576	511.69
396.801	523.69
397.025	520.69
397.249	532.69
397.474	511.69
397.698	530.69
397.922	568.69
398.147	560.69
398.371	557.69
398.595	564.69
398.82	566.69
399.044	596.69
399.268	604.69
399.492	662.69
399.717	701.69
399.941	713.69
400.165	742.69
400.389	730.69
400.613	665.69
400.837	600.69
401.062	598.69
401.286	607.69
401.51	554.69
401.734	555.69
401.958	569.69
402.182	585.69
402.406	611.69
402.63	593.69
402.854	577.69
403.078	581.69
403.302	576.69
403.526	614.69
403.75	598.69
403.974	587.69
404.198	613.69
404.422	606.69
404.645	615.69
404.869	615.69
405.093	648.69
405.317	682.69
405.541	704.69
405.765	663.69
405.988	628.69
406.212	628.69
406.436	649.69
406.66	642.69
406.883	644.69
407.107	673.69
407.331	724.69
407.555	776.69
407.778	821.69
408.002	713.69
408.226	683.69
408.449	687.69
408.673	649.69
408.896	676.69
409.12	749.69
409.344	695.69
409.567	649.69
409.791	640.69
410.014	631.69
410.238	596.69
410.461	617.69
410.685	621.69
410.908	599.69
411.132	654.69
411.355	697.69
411.578	674.69
411.802	624.69
412.025	617.69
412.249	603.69
412.472	633.69
412.695	697.69
412.919	639.69
413.142	621.69
413.365	571.69
413.589	599.69
413.812	568.69
414.035	569.69
414.258	558.69
414.482	559.69
414.705	565.69
414.928	566.69
415.151	577.69
415.374	570.69
415.597	579.69
415.821	584.69
416.044	559.69
416.267	558.69
416.49	578.69
416.713	555.69
416.936	568.69
417.159	558.69
417.382	573.69
417.605	597.69
417.828	565.69
418.051	583.69
418.274	591.69
418.497	583.69
418.72	565.69
418.943	558.69
419.166	603.69
419.389	617.69
419.611	611.69
419.834	597.69
420.057	603.69
420.28	616.69
420.503	613.69
420.726	576.69
420.948	623.69
421.171	644.69
421.394	662.69
421.617	612.69
421.839	590.69
422.062	603.69
422.285	604.69
422.507	646.69
422.73	747.69
422.953	710.69
423.175	641.69
423.398	626.69
423.621	596.69
423.843	657.69
424.066	638.69
424.288	634.69
424.511	648.69
424.733	692.69
424.956	797.69
425.178	755.69
425.401	773.69
425.623	775.69
425.846	659.69
426.068	642.69
426.291	616.69
426.513	608.69
426.735	641.69
426.958	651.69
427.18	758.69
427.402	916.69
427.625	968.69
427.847	845.69
428.069	754.69
428.292	685.69
428.514	595.69
428.736	592.69
428.958	575.69
429.181	577.69
429.403	575.69
429.625	596.69
429.847	608.69
430.069	683.69
430.292	682.69
430.514	591.69
430.736	572.69
430.958	562.69
431.18	558.69
431.402	559.69
431.624	539.69
431.846	537.69
432.068	551.69
432.29	544.69
432.512	538.69
432.734	567.69
432.956	564.69
433.178	555.69
433.4	566.69
433.622	551.69
433.844	557.69
434.066	560.69
434.287	583.69
434.509	573.69
434.731	554.69
434.953	573.69
435.175	588.69
435.397	609.69
435.618	630.69
435.84	651.69
436.062	767.69
436.284	882.69
436.505	711.69
436.727	638.69
436.949	589.69
437.17	571.69
437.392	586.69
437.614	586.69
437.835	610.69
438.057	697.69
438.278	850.69
438.5	813.69
438.721	898.69
438.943	874.69
439.165	679.69
439.386	630.69
439.608	630.69
439.829	614.69
440.05	641.69
440.272	678.69
440.493	639.69
440.715	616.69
440.936	580.69
441.158	601.69
441.379	584.69
441.6	599.69
441.822	647.69
442.043	659.69
442.264	752.69
442.486	792.69
442.707	688.69
442.928	631.69
443.149	634.69
443.371	644.69
443.592	713.69
443.813	830.69
444.034	922.69
444.255	699.69
444.476	660.69
444.698	647.69
444.919	635.69
445.14	794.69
445.361	720.69
445.582	677.69
445.803	726.69
446.024	831.69
446.245	838.69
446.466	769.69
446.687	662.69
446.908	628.69
447.129	595.69
447.35	574.69
447.571	575.69
447.792	551.69
448.013	559.69
448.234	589.69
448.455	645.69
448.675	767.69
448.896	901.69
449.117	752.69
449.338	690.69
449.559	826.69
449.779	938.69
450	736.69
450.221	614.69
450.442	577.69
450.662	563.69
450.883	548.69
451.104	567.69
451.324	548.69
451.545	549.69
451.766	533.69
451.986	508.69
452.207	525.69
452.428	523.69
452.648	482.69
452.869	502.69
453.089	517.69
453.31	532.69
453.53	534.69
453.751	500.69
453.971	504.69
454.192	524.69
454.412	521.69
454.633	487.69
454.853	493.69
455.073	479.69
455.294	512.69
455.514	626.69
455.734	599.69
455.955	523.69
456.175	505.69
456.395	483.69
456.616	455.69
456.836	474.69
457.056	471.69
457.276	460.69
457.497	475.69
457.717	484.69
457.937	496.69
458.157	507.69
458.377	506.69
458.598	493.69
458.818	554.69
459.038	646.69
459.258	673.69
459.478	610.69
459.698	551.69
459.918	518.69
460.138	550.69
460.358	568.69
460.578	576.69
460.798	596.69
461.018	564.69
461.238	553.69
461.458	571.69
461.678	566.69
461.898	576.69
462.118	565.69
462.338	598.69
462.558	605.69
462.777	624.69
462.997	634.69
463.217	656.69
463.437	670.69
463.657	624.69
463.876	614.69
464.096	630.69
464.316	607.69
464.536	614.69
464.755	620.69
464.975	620.69
465.195	649.69
465.414	678.69
465.634	602.69
465.854	562.69
466.073	576.69
466.293	545.69
466.512	538.69
466.732	519.69
466.951	532.69
467.171	522.69
467.391	568.69
467.61	517.69
467.829	554.69
468.049	532.69
468.268	530.69
468.488	518.69
468.707	500.69
468.927	505.69
469.146	498.69
469.365	515.69
469.585	517.69
469.804	527.69
470.023	547.69
470.243	542.69
470.462	543.69
470.681	567.69
470.901	567.69
471.12	538.69
471.339	520.69
471.558	534.69
471.777	547.69
471.997	528.69
472.216	553.69
472.435	577.69
472.654	536.69
472.873	534.69
473.092	526.69
473.311	541.69
473.53	529.69
473.749	519.69
473.968	584.69
474.187	670.69
474.406	706.69
474.625	601.69
474.844	543.69
475.063	534.69
475.282	527.69
475.501	556.69
475.72	548.69
475.939	546.69
476.158	546.69
476.377	560.69
476.596	560.69
476.814	549.69
477.033	564.69
477.252	569.69
477.471	579.69
477.69	572.69
477.908	576.69
478.127	578.69
478.346	585.69
478.564	601.69
478.783	604.69
479.002	606.69
479.22	620.69
479.439	630.69
479.658	632.69
479.876	675.69
480.095	647.69
480.313	682.69
480.532	675.69
480.751	662.69
480.969	685.69
481.188	731.69
481.406	754.69
481.624	682.69
481.843	656.69
482.061	642.69
482.28	636.69
482.498	633.69
482.717	632.69
482.935	642.69
483.153	640.69
483.372	637.69
483.59	604.69
483.808	620.69
484.027	634.69
484.245	640.69
484.463	634.69
484.681	639.69
484.9	623.69
485.118	612.69
485.336	640.69
485.554	652.69
485.772	642.69
485.99	639.69
486.209	667.69
486.427	665.69
486.645	645.69
486.863	693.69
487.081	677.69
487.299	656.69
487.517	669.69
487.735	648.69
487.953	654.69
488.171	670.69
488.389	651.69
488.607	684.69
488.825	654.69
489.043	677.69
489.261	702.69
489.479	686.69
489.696	685.69
489.914	677.69
490.132	694.69
490.35	695.69
490.568	714.69
490.786	725.69
491.003	728.69
491.221	752.69
491.439	718.69
491.657	779.69
491.874	757.69
492.092	794.69
492.31	802.69
492.527	765.69
492.745	768.69
492.963	778.69
493.18	788.69
493.398	799.69
493.615	794.69
493.833	776.69
494.05	789.69
494.268	799.69
494.485	799.69
494.703	799.69
494.92	814.69
495.138	801.69
495.355	801.69
495.573	815.69
495.79	828.69
496.008	822.69
496.225	792.69
496.442	810.69
496.66	832.69
496.877	799.69
497.094	836.69
497.312	807.69
497.529	850.69
497.746	822.69
497.963	851.69
498.181	874.69
498.398	902.69
498.615	897.69
498.832	928.69
499.049	948.69
499.267	995.69
499.484	1025.69
499.701	1070.69
499.918	1104.69
500.135	1204.69
500.352	1241.69
500.569	1251.69
500.786	1269.69
501.003	1259.69
501.22	1206.69
501.437	1169.69
501.654	1103.69
