Data from 1975.PennyLincolnUp.Lamp.En5.5.200Scan.071719.P1.Changed Mount._HRD10591_15-57-48-860.txt Node
Date: Thu Jul 18 15:57:48 EDT 2019
User: cochatt
Spectrometer: HR+D1059
Trigger mode: 1
Integration Time (sec): 1.000000E-1
Scans to average: 1
Electric dark correction enabled: true
Nonlinearity correction enabled: false
Boxcar width: 0
XAxis mode: Wavelengths
Number of Pixels in Spectrum: 2048
>>>>>Begin Spectral Data<<<<<
223.165	-16.12
223.4	-16.12
223.635	-16.12
223.869	-22.12
224.104	-14.12
224.338	-25.12
224.573	-1.12
224.808	-18.12
225.042	-6.12
225.277	-5.12
225.511	-9.12
225.746	17.88
225.98	15.88
226.215	8.88
226.449	14.88
226.683	19.88
226.918	22.88
227.152	16.88
227.387	46.88
227.621	51.88
227.856	42.88
228.09	53.88
228.324	51.88
228.559	55.88
228.793	79.88
229.027	98.88
229.262	113.88
229.496	123.88
229.73	133.88
229.964	170.88
230.199	135.88
230.433	122.88
230.667	118.88
230.901	121.88
231.136	112.88
231.37	118.88
231.604	121.88
231.838	122.88
232.072	119.88
232.306	108.88
232.541	123.88
232.775	118.88
233.009	104.88
233.243	119.88
233.477	112.88
233.711	133.88
233.945	126.88
234.179	124.88
234.413	125.88
234.647	123.88
234.881	99.88
235.115	117.88
235.349	134.88
235.583	124.88
235.817	117.88
236.051	134.88
236.285	133.88
236.519	127.88
236.753	130.88
236.987	139.88
237.221	193.88
237.455	230.88
237.689	178.88
237.922	141.88
238.156	135.88
238.39	134.88
238.624	133.88
238.858	130.88
239.091	137.88
239.325	130.88
239.559	135.88
239.793	148.88
240.027	130.88
240.26	139.88
240.494	161.88
240.728	153.88
240.961	147.88
241.195	157.88
241.429	149.88
241.662	153.88
241.896	152.88
242.13	154.88
242.363	149.88
242.597	135.88
242.83	127.88
243.064	129.88
243.298	152.88
243.531	136.88
243.765	143.88
243.998	143.88
244.232	150.88
244.465	160.88
244.699	145.88
244.932	145.88
245.166	159.88
245.399	144.88
245.633	157.88
245.866	142.88
246.099	149.88
246.333	151.88
246.566	153.88
246.8	152.88
247.033	154.88
247.266	161.88
247.5	170.88
247.733	183.88
247.966	193.88
248.2	170.88
248.433	189.88
248.666	195.88
248.899	192.88
249.133	208.88
249.366	207.88
249.599	195.88
249.832	213.88
250.066	187.88
250.299	194.88
250.532	189.88
250.765	206.88
250.998	208.88
251.231	226.88
251.465	241.88
251.698	217.88
251.931	210.88
252.164	205.88
252.397	207.88
252.63	203.88
252.863	205.88
253.096	229.88
253.329	243.88
253.562	231.88
253.795	227.88
254.028	210.88
254.261	213.88
254.494	223.88
254.727	254.88
254.96	276.88
255.193	274.88
255.426	260.88
255.659	243.88
255.892	238.88
256.124	230.88
256.357	247.88
256.59	245.88
256.823	228.88
257.056	208.88
257.289	212.88
257.521	220.88
257.754	218.88
257.987	212.88
258.22	202.88
258.452	217.88
258.685	229.88
258.918	208.88
259.151	234.88
259.383	225.88
259.616	243.88
259.849	237.88
260.081	241.88
260.314	252.88
260.547	247.88
260.779	253.88
261.012	234.88
261.244	247.88
261.477	224.88
261.71	221.88
261.942	231.88
262.175	229.88
262.407	242.88
262.64	222.88
262.872	220.88
263.105	225.88
263.337	221.88
263.57	221.88
263.802	231.88
264.035	212.88
264.267	234.88
264.499	225.88
264.732	230.88
264.964	214.88
265.197	226.88
265.429	226.88
265.661	223.88
265.894	219.88
266.126	230.88
266.358	247.88
266.591	236.88
266.823	226.88
267.055	240.88
267.287	255.88
267.52	240.88
267.752	240.88
267.984	242.88
268.216	237.88
268.448	240.88
268.681	242.88
268.913	249.88
269.145	275.88
269.377	289.88
269.609	295.88
269.841	276.88
270.073	273.88
270.306	300.88
270.538	323.88
270.77	324.88
271.002	309.88
271.234	315.88
271.466	291.88
271.698	320.88
271.93	323.88
272.162	322.88
272.394	338.88
272.626	309.88
272.858	297.88
273.09	298.88
273.322	297.88
273.553	287.88
273.785	287.88
274.017	265.88
274.249	271.88
274.481	272.88
274.713	287.88
274.945	265.88
275.176	274.88
275.408	290.88
275.64	280.88
275.872	270.88
276.104	275.88
276.335	267.88
276.567	289.88
276.799	299.88
277.031	286.88
277.262	305.88
277.494	313.88
277.726	328.88
277.957	307.88
278.189	307.88
278.421	293.88
278.652	278.88
278.884	292.88
279.115	287.88
279.347	277.88
279.579	273.88
279.81	284.88
280.042	273.88
280.273	290.88
280.505	303.88
280.736	281.88
280.968	299.88
281.199	302.88
281.431	298.88
281.662	301.88
281.894	285.88
282.125	289.88
282.356	305.88
282.588	316.88
282.819	329.88
283.051	286.88
283.282	298.88
283.513	291.88
283.745	293.88
283.976	293.88
284.207	303.88
284.439	290.88
284.67	305.88
284.901	303.88
285.132	295.88
285.364	307.88
285.595	289.88
285.826	303.88
286.057	295.88
286.288	303.88
286.52	289.88
286.751	307.88
286.982	307.88
287.213	312.88
287.444	298.88
287.675	313.88
287.906	333.88
288.138	323.88
288.369	317.88
288.6	324.88
288.831	321.88
289.062	323.88
289.293	323.88
289.524	305.88
289.755	322.88
289.986	314.88
290.217	311.88
290.448	311.88
290.679	313.88
290.91	317.88
291.141	309.88
291.371	288.88
291.602	302.88
291.833	302.88
292.064	301.88
292.295	297.88
292.526	305.88
292.757	318.88
292.987	288.88
293.218	306.88
293.449	325.88
293.68	331.88
293.91	326.88
294.141	302.88
294.372	314.88
294.603	317.88
294.833	302.88
295.064	314.88
295.295	321.88
295.525	329.88
295.756	338.88
295.987	327.88
296.217	348.88
296.448	371.88
296.679	327.88
296.909	331.88
297.14	333.88
297.37	307.88
297.601	313.88
297.831	320.88
298.062	311.88
298.292	297.88
298.523	341.88
298.753	328.88
298.984	332.88
299.214	343.88
299.445	339.88
299.675	314.88
299.905	335.88
300.136	327.88
300.366	342.88
300.597	330.88
300.827	353.88
301.057	344.88
301.288	347.88
301.518	338.88
301.748	361.88
301.979	324.88
302.209	360.88
302.439	353.88
302.669	351.88
302.9	325.88
303.13	339.88
303.36	348.88
303.59	341.88
303.82	360.88
304.051	347.88
304.281	352.88
304.511	358.88
304.741	341.88
304.971	345.88
305.201	347.88
305.431	348.88
305.661	352.88
305.891	358.88
306.121	350.88
306.352	346.88
306.582	360.88
306.812	355.88
307.042	342.88
307.272	359.88
307.502	345.88
307.731	355.88
307.961	344.88
308.191	349.88
308.421	350.88
308.651	348.88
308.881	361.88
309.111	354.88
309.341	345.88
309.571	363.88
309.8	377.88
310.03	377.88
310.26	377.88
310.49	387.88
310.72	383.88
310.949	390.88
311.179	389.88
311.409	377.88
311.639	384.88
311.868	399.88
312.098	386.88
312.328	398.88
312.557	413.88
312.787	401.88
313.017	414.88
313.246	413.88
313.476	398.88
313.706	387.88
313.935	390.88
314.165	398.88
314.394	404.88
314.624	411.88
314.853	392.88
315.083	393.88
315.312	384.88
315.542	417.88
315.771	389.88
316.001	382.88
316.23	395.88
316.46	375.88
316.689	394.88
316.919	409.88
317.148	395.88
317.377	374.88
317.607	415.88
317.836	414.88
318.065	404.88
318.295	405.88
318.524	385.88
318.753	381.88
318.983	387.88
319.212	397.88
319.441	377.88
319.67	387.88
319.9	405.88
320.129	392.88
320.358	397.88
320.587	389.88
320.816	403.88
321.046	415.88
321.275	418.88
321.504	406.88
321.733	413.88
321.962	402.88
322.191	410.88
322.42	431.88
322.649	433.88
322.878	440.88
323.108	444.88
323.337	462.88
323.566	479.88
323.795	502.88
324.024	529.88
324.253	603.88
324.482	853.88
324.71	1286.88
324.939	1910.88
325.168	1704.88
325.397	829.88
325.626	605.88
325.855	512.88
326.084	489.88
326.313	479.88
326.542	483.88
326.77	514.88
326.999	616.88
327.228	787.88
327.457	1178.88
327.686	1426.88
327.914	948.88
328.143	658.88
328.372	599.88
328.6	562.88
328.829	543.88
329.058	555.88
329.287	559.88
329.515	539.88
329.744	504.88
329.972	514.88
330.201	511.88
330.43	547.88
330.658	584.88
330.887	584.88
331.115	581.88
331.344	525.88
331.572	498.88
331.801	477.88
332.03	507.88
332.258	483.88
332.486	488.88
332.715	496.88
332.943	486.88
333.172	498.88
333.4	480.88
333.629	517.88
333.857	505.88
334.085	524.88
334.314	521.88
334.542	567.88
334.771	560.88
334.999	545.88
335.227	507.88
335.455	517.88
335.684	492.88
335.912	473.88
336.14	462.88
336.369	462.88
336.597	490.88
336.825	493.88
337.053	480.88
337.281	450.88
337.51	450.88
337.738	465.88
337.966	447.88
338.194	471.88
338.422	454.88
338.65	457.88
338.878	444.88
339.106	442.88
339.334	455.88
339.562	454.88
339.79	454.88
340.018	448.88
340.246	454.88
340.474	469.88
340.702	445.88
340.93	454.88
341.158	457.88
341.386	451.88
341.614	448.88
341.842	458.88
342.07	453.88
342.298	430.88
342.526	453.88
342.754	451.88
342.981	422.88
343.209	449.88
343.437	454.88
343.665	450.88
343.893	487.88
344.12	497.88
344.348	488.88
344.576	480.88
344.804	480.88
345.031	460.88
345.259	460.88
345.487	465.88
345.714	457.88
345.942	422.88
346.17	454.88
346.397	444.88
346.625	441.88
346.853	427.88
347.08	415.88
347.308	412.88
347.535	441.88
347.763	447.88
347.99	437.88
348.218	438.88
348.445	445.88
348.673	460.88
348.9	413.88
349.128	450.88
349.355	410.88
349.583	424.88
349.81	422.88
350.037	428.88
350.265	413.88
350.492	407.88
350.72	428.88
350.947	427.88
351.174	423.88
351.402	447.88
351.629	451.88
351.856	452.88
352.083	433.88
352.311	464.88
352.538	449.88
352.765	447.88
352.992	425.88
353.22	428.88
353.447	429.88
353.674	425.88
353.901	420.88
354.128	421.88
354.355	417.88
354.583	433.88
354.81	400.88
355.037	431.88
355.264	417.88
355.491	415.88
355.718	409.88
355.945	419.88
356.172	417.88
356.399	414.88
356.626	411.88
356.853	412.88
357.08	402.88
357.307	422.88
357.534	404.88
357.761	415.88
357.988	425.88
358.215	417.88
358.441	398.88
358.668	428.88
358.895	390.88
359.122	419.88
359.349	410.88
359.576	444.88
359.802	462.88
360.029	470.88
360.256	491.88
360.483	481.88
360.709	445.88
360.936	437.88
361.163	429.88
361.39	441.88
361.616	442.88
361.843	446.88
362.07	434.88
362.296	440.88
362.523	446.88
362.749	441.88
362.976	433.88
363.203	445.88
363.429	421.88
363.656	431.88
363.882	427.88
364.109	432.88
364.335	448.88
364.562	407.88
364.788	426.88
365.015	434.88
365.241	416.88
365.468	429.88
365.694	436.88
365.92	435.88
366.147	432.88
366.373	431.88
366.599	437.88
366.826	429.88
367.052	414.88
367.278	420.88
367.505	448.88
367.731	447.88
367.957	418.88
368.184	398.88
368.41	413.88
368.636	429.88
368.862	460.88
369.089	449.88
369.315	420.88
369.541	435.88
369.767	418.88
369.993	419.88
370.219	415.88
370.445	438.88
370.672	414.88
370.898	414.88
371.124	410.88
371.35	451.88
371.576	431.88
371.802	431.88
372.028	434.88
372.254	428.88
372.48	456.88
372.706	453.88
372.932	443.88
373.158	433.88
373.384	438.88
373.61	440.88
373.835	461.88
374.061	442.88
374.287	450.88
374.513	441.88
374.739	457.88
374.965	448.88
375.191	445.88
375.416	448.88
375.642	449.88
375.868	462.88
376.094	447.88
376.319	439.88
376.545	441.88
376.771	431.88
376.997	416.88
377.222	403.88
377.448	445.88
377.674	425.88
377.899	449.88
378.125	454.88
378.35	440.88
378.576	423.88
378.802	431.88
379.027	433.88
379.253	425.88
379.478	423.88
379.704	440.88
379.929	447.88
380.155	425.88
380.38	451.88
380.606	423.88
380.831	430.88
381.057	440.88
381.282	441.88
381.507	438.88
381.733	449.88
381.958	432.88
382.184	434.88
382.409	439.88
382.634	469.88
382.86	460.88
383.085	467.88
383.31	439.88
383.535	455.88
383.761	452.88
383.986	478.88
384.211	459.88
384.436	460.88
384.662	481.88
384.887	460.88
385.112	471.88
385.337	452.88
385.562	473.88
385.787	495.88
386.013	508.88
386.238	511.88
386.463	490.88
386.688	487.88
386.913	480.88
387.138	488.88
387.363	490.88
387.588	463.88
387.813	483.88
388.038	465.88
388.263	480.88
388.488	514.88
388.713	475.88
388.938	475.88
389.163	499.88
389.387	482.88
389.612	466.88
389.837	493.88
390.062	475.88
390.287	458.88
390.512	470.88
390.736	494.88
390.961	477.88
391.186	487.88
391.411	477.88
391.636	474.88
391.86	515.88
392.085	521.88
392.31	520.88
392.534	502.88
392.759	503.88
392.984	509.88
393.208	493.88
393.433	487.88
393.658	496.88
393.882	477.88
394.107	480.88
394.331	487.88
394.556	481.88
394.78	493.88
395.005	489.88
395.229	495.88
395.454	504.88
395.678	517.88
395.903	528.88
396.127	559.88
396.352	541.88
396.576	511.88
396.801	506.88
397.025	514.88
397.249	513.88
397.474	507.88
397.698	537.88
397.922	552.88
398.147	535.88
398.371	559.88
398.595	573.88
398.82	543.88
399.044	581.88
399.268	580.88
399.492	625.88
399.717	679.88
399.941	717.88
400.165	717.88
400.389	709.88
400.613	635.88
400.837	615.88
401.062	606.88
401.286	574.88
401.51	578.88
401.734	572.88
401.958	548.88
402.182	579.88
402.406	577.88
402.63	571.88
402.854	609.88
403.078	580.88
403.302	604.88
403.526	592.88
403.75	602.88
403.974	602.88
404.198	582.88
404.422	598.88
404.645	604.88
404.869	616.88
405.093	638.88
405.317	673.88
405.541	697.88
405.765	665.88
405.988	627.88
406.212	622.88
406.436	634.88
406.66	651.88
406.883	634.88
407.107	670.88
407.331	725.88
407.555	783.88
407.778	785.88
408.002	723.88
408.226	668.88
408.449	650.88
408.673	641.88
408.896	684.88
409.12	718.88
409.344	677.88
409.567	626.88
409.791	633.88
410.014	610.88
410.238	589.88
410.461	591.88
410.685	626.88
410.908	589.88
411.132	640.88
411.355	669.88
411.578	659.88
411.802	603.88
412.025	588.88
412.249	581.88
412.472	610.88
412.695	648.88
412.919	660.88
413.142	591.88
413.365	582.88
413.589	560.88
413.812	561.88
414.035	566.88
414.258	571.88
414.482	562.88
414.705	562.88
414.928	559.88
415.151	549.88
415.374	574.88
415.597	551.88
415.821	544.88
416.044	572.88
416.267	562.88
416.49	535.88
416.713	545.88
416.936	552.88
417.159	542.88
417.382	561.88
417.605	568.88
417.828	565.88
418.051	590.88
418.274	573.88
418.497	554.88
418.72	575.88
418.943	554.88
419.166	579.88
419.389	602.88
419.611	625.88
419.834	578.88
420.057	588.88
420.28	581.88
420.503	596.88
420.726	582.88
420.948	589.88
421.171	625.88
421.394	666.88
421.617	615.88
421.839	606.88
422.062	566.88
422.285	585.88
422.507	669.88
422.73	720.88
422.953	706.88
423.175	643.88
423.398	620.88
423.621	591.88
423.843	638.88
424.066	624.88
424.288	629.88
424.511	641.88
424.733	685.88
424.956	766.88
425.178	750.88
425.401	731.88
425.623	768.88
425.846	667.88
426.068	613.88
426.291	599.88
426.513	606.88
426.735	624.88
426.958	653.88
427.18	722.88
427.402	848.88
427.625	975.88
427.847	842.88
428.069	738.88
428.292	642.88
428.514	583.88
428.736	589.88
428.958	575.88
429.181	570.88
429.403	567.88
429.625	572.88
429.847	600.88
430.069	663.88
430.292	672.88
430.514	590.88
430.736	573.88
430.958	582.88
431.18	555.88
431.402	550.88
431.624	544.88
431.846	553.88
432.068	535.88
432.29	553.88
432.512	546.88
432.734	549.88
432.956	547.88
433.178	547.88
433.4	571.88
433.622	557.88
433.844	546.88
434.066	551.88
434.287	523.88
434.509	555.88
434.731	569.88
434.953	546.88
435.175	592.88
435.397	607.88
435.618	597.88
435.84	649.88
436.062	742.88
436.284	802.88
436.505	670.88
436.727	620.88
436.949	587.88
437.17	579.88
437.392	551.88
437.614	567.88
437.835	592.88
438.057	695.88
438.278	789.88
438.5	789.88
438.721	867.88
438.943	832.88
439.165	680.88
439.386	607.88
439.608	612.88
439.829	591.88
440.05	630.88
440.272	671.88
440.493	644.88
440.715	589.88
440.936	579.88
441.158	581.88
441.379	578.88
441.6	593.88
441.822	600.88
442.043	621.88
442.264	721.88
442.486	781.88
442.707	694.88
442.928	630.88
443.149	623.88
443.371	621.88
443.592	673.88
443.813	801.88
444.034	857.88
444.255	702.88
444.476	659.88
444.698	623.88
444.919	652.88
445.14	783.88
445.361	680.88
445.582	662.88
445.803	679.88
446.024	792.88
446.245	822.88
446.466	746.88
446.687	661.88
446.908	607.88
447.129	595.88
447.35	572.88
447.571	580.88
447.792	569.88
448.013	562.88
448.234	586.88
448.455	618.88
448.675	746.88
448.896	866.88
449.117	724.88
449.338	674.88
449.559	775.88
449.779	878.88
450	727.88
450.221	596.88
450.442	545.88
450.662	554.88
450.883	538.88
451.104	558.88
451.324	542.88
451.545	511.88
451.766	512.88
451.986	503.88
452.207	505.88
452.428	482.88
452.648	482.88
452.869	508.88
453.089	518.88
453.31	523.88
453.53	520.88
453.751	498.88
453.971	484.88
454.192	527.88
454.412	497.88
454.633	482.88
454.853	505.88
455.073	498.88
455.294	527.88
455.514	562.88
455.734	575.88
455.955	508.88
456.175	485.88
456.395	481.88
456.616	489.88
456.836	475.88
457.056	445.88
457.276	482.88
457.497	488.88
457.717	453.88
457.937	450.88
458.157	486.88
458.377	496.88
458.598	505.88
458.818	550.88
459.038	635.88
459.258	663.88
459.478	575.88
459.698	537.88
459.918	524.88
460.138	535.88
460.358	551.88
460.578	566.88
460.798	585.88
461.018	577.88
461.238	566.88
461.458	555.88
461.678	556.88
461.898	567.88
462.118	577.88
462.338	577.88
462.558	595.88
462.777	598.88
462.997	629.88
463.217	619.88
463.437	635.88
463.657	638.88
463.876	609.88
464.096	621.88
464.316	585.88
464.536	609.88
464.755	595.88
464.975	601.88
465.195	618.88
465.414	671.88
465.634	601.88
465.854	568.88
466.073	526.88
466.293	528.88
466.512	519.88
466.732	519.88
466.951	532.88
467.171	523.88
467.391	509.88
467.61	509.88
467.829	547.88
468.049	514.88
468.268	514.88
468.488	521.88
468.707	531.88
468.927	510.88
469.146	494.88
469.365	487.88
469.585	493.88
469.804	530.88
470.023	537.88
470.243	519.88
470.462	526.88
470.681	539.88
470.901	546.88
471.12	549.88
471.339	501.88
471.558	513.88
471.777	539.88
471.997	515.88
472.216	519.88
472.435	534.88
472.654	548.88
472.873	524.88
473.092	526.88
473.311	513.88
473.53	505.88
473.749	539.88
473.968	558.88
474.187	635.88
474.406	690.88
474.625	581.88
474.844	539.88
475.063	505.88
475.282	516.88
475.501	517.88
475.72	529.88
475.939	552.88
476.158	539.88
476.377	551.88
476.596	523.88
476.814	541.88
477.033	541.88
477.252	567.88
477.471	541.88
477.69	539.88
477.908	566.88
478.127	567.88
478.346	571.88
478.564	598.88
478.783	565.88
479.002	586.88
479.22	614.88
479.439	619.88
479.658	617.88
479.876	606.88
480.095	646.88
480.313	659.88
480.532	643.88
480.751	643.88
480.969	658.88
481.188	707.88
481.406	722.88
481.624	658.88
481.843	637.88
482.061	633.88
482.28	616.88
482.498	604.88
482.717	601.88
482.935	603.88
483.153	599.88
483.372	606.88
483.59	616.88
483.808	623.88
484.027	598.88
484.245	605.88
484.463	608.88
484.681	608.88
484.9	633.88
485.118	633.88
485.336	616.88
485.554	629.88
485.772	655.88
485.99	640.88
486.209	625.88
486.427	643.88
486.645	656.88
486.863	659.88
487.081	662.88
487.299	666.88
487.517	646.88
487.735	659.88
487.953	658.88
488.171	647.88
488.389	677.88
488.607	649.88
488.825	654.88
489.043	654.88
489.261	655.88
489.479	660.88
489.696	663.88
489.914	662.88
490.132	674.88
490.35	677.88
490.568	682.88
490.786	704.88
491.003	727.88
491.221	707.88
491.439	738.88
491.657	720.88
491.874	729.88
492.092	754.88
492.31	777.88
492.527	756.88
492.745	750.88
492.963	760.88
493.18	789.88
493.398	767.88
493.615	770.88
493.833	801.88
494.05	784.88
494.268	762.88
494.485	753.88
494.703	758.88
494.92	805.88
495.138	753.88
495.355	779.88
495.573	785.88
495.79	801.88
496.008	781.88
496.225	758.88
496.442	777.88
496.66	791.88
496.877	791.88
497.094	793.88
497.312	793.88
497.529	791.88
497.746	813.88
497.963	833.88
498.181	840.88
498.398	855.88
498.615	869.88
498.832	925.88
499.049	954.88
499.267	950.88
499.484	995.88
499.701	1027.88
499.918	1090.88
500.135	1164.88
500.352	1212.88
500.569	1219.88
500.786	1242.88
501.003	1223.88
501.22	1173.88
501.437	1102.88
501.654	1070.88
