Data from 1975.PennyLincolnUp.Lamp.En5.5.200Scan.071719.P1.Changed Mount._HRD10591_15-58-47-860.txt Node
Date: Thu Jul 18 15:58:47 EDT 2019
User: cochatt
Spectrometer: HR+D1059
Trigger mode: 1
Integration Time (sec): 1.000000E-1
Scans to average: 1
Electric dark correction enabled: true
Nonlinearity correction enabled: false
Boxcar width: 0
XAxis mode: Wavelengths
Number of Pixels in Spectrum: 2048
>>>>>Begin Spectral Data<<<<<
223.165	-9.12
223.4	-9.12
223.635	-9.12
223.869	-19.12
224.104	-17.12
224.338	-27.12
224.573	-1.12
224.808	-5.12
225.042	-9.12
225.277	-1.12
225.511	-7.12
225.746	6.88
225.98	8.88
226.215	-2.12
226.449	23.88
226.683	11.88
226.918	16.88
227.152	29.88
227.387	52.88
227.621	50.88
227.856	43.88
228.09	34.88
228.324	47.88
228.559	49.88
228.793	61.88
229.027	90.88
229.262	121.88
229.496	120.88
229.73	134.88
229.964	147.88
230.199	137.88
230.433	118.88
230.667	125.88
230.901	122.88
231.136	98.88
231.37	109.88
231.604	108.88
231.838	122.88
232.072	113.88
232.306	108.88
232.541	115.88
232.775	113.88
233.009	108.88
233.243	111.88
233.477	121.88
233.711	127.88
233.945	123.88
234.179	117.88
234.413	131.88
234.647	123.88
234.881	108.88
235.115	117.88
235.349	119.88
235.583	116.88
235.817	118.88
236.051	119.88
236.285	121.88
236.519	117.88
236.753	141.88
236.987	155.88
237.221	165.88
237.455	241.88
237.689	177.88
237.922	140.88
238.156	151.88
238.39	133.88
238.624	118.88
238.858	129.88
239.091	125.88
239.325	138.88
239.559	114.88
239.793	142.88
240.027	151.88
240.26	150.88
240.494	164.88
240.728	164.88
240.961	156.88
241.195	152.88
241.429	147.88
241.662	132.88
241.896	126.88
242.13	140.88
242.363	142.88
242.597	137.88
242.83	151.88
243.064	142.88
243.298	134.88
243.531	155.88
243.765	153.88
243.998	148.88
244.232	144.88
244.465	157.88
244.699	143.88
244.932	143.88
245.166	140.88
245.399	149.88
245.633	169.88
245.866	143.88
246.099	141.88
246.333	149.88
246.566	171.88
246.8	157.88
247.033	162.88
247.266	174.88
247.5	158.88
247.733	177.88
247.966	193.88
248.2	172.88
248.433	170.88
248.666	178.88
248.899	202.88
249.133	198.88
249.366	210.88
249.599	185.88
249.832	194.88
250.066	194.88
250.299	213.88
250.532	220.88
250.765	221.88
250.998	225.88
251.231	249.88
251.465	219.88
251.698	233.88
251.931	233.88
252.164	209.88
252.397	206.88
252.63	201.88
252.863	218.88
253.096	231.88
253.329	230.88
253.562	242.88
253.795	218.88
254.028	222.88
254.261	227.88
254.494	245.88
254.727	270.88
254.96	295.88
255.193	298.88
255.426	265.88
255.659	245.88
255.892	243.88
256.124	257.88
256.357	247.88
256.59	244.88
256.823	220.88
257.056	218.88
257.289	225.88
257.521	219.88
257.754	220.88
257.987	192.88
258.22	217.88
258.452	224.88
258.685	222.88
258.918	219.88
259.151	230.88
259.383	234.88
259.616	239.88
259.849	235.88
260.081	258.88
260.314	265.88
260.547	273.88
260.779	261.88
261.012	257.88
261.244	245.88
261.477	249.88
261.71	241.88
261.942	241.88
262.175	244.88
262.407	227.88
262.64	230.88
262.872	239.88
263.105	228.88
263.337	235.88
263.57	226.88
263.802	246.88
264.035	235.88
264.267	232.88
264.499	237.88
264.732	245.88
264.964	216.88
265.197	216.88
265.429	229.88
265.661	241.88
265.894	246.88
266.126	235.88
266.358	234.88
266.591	245.88
266.823	248.88
267.055	234.88
267.287	250.88
267.52	246.88
267.752	245.88
267.984	245.88
268.216	252.88
268.448	274.88
268.681	269.88
268.913	273.88
269.145	286.88
269.377	304.88
269.609	311.88
269.841	278.88
270.073	305.88
270.306	311.88
270.538	355.88
270.77	327.88
271.002	321.88
271.234	310.88
271.466	322.88
271.698	325.88
271.93	327.88
272.162	341.88
272.394	334.88
272.626	326.88
272.858	321.88
273.09	293.88
273.322	305.88
273.553	289.88
273.785	269.88
274.017	284.88
274.249	279.88
274.481	273.88
274.713	297.88
274.945	292.88
275.176	291.88
275.408	287.88
275.64	287.88
275.872	282.88
276.104	298.88
276.335	286.88
276.567	287.88
276.799	298.88
277.031	333.88
277.262	333.88
277.494	343.88
277.726	326.88
277.957	310.88
278.189	313.88
278.421	292.88
278.652	295.88
278.884	292.88
279.115	285.88
279.347	314.88
279.579	281.88
279.81	273.88
280.042	292.88
280.273	292.88
280.505	306.88
280.736	280.88
280.968	289.88
281.199	284.88
281.431	294.88
281.662	281.88
281.894	305.88
282.125	330.88
282.356	316.88
282.588	330.88
282.819	341.88
283.051	300.88
283.282	289.88
283.513	310.88
283.745	310.88
283.976	288.88
284.207	294.88
284.439	327.88
284.67	296.88
284.901	326.88
285.132	323.88
285.364	308.88
285.595	329.88
285.826	316.88
286.057	315.88
286.288	297.88
286.52	313.88
286.751	298.88
286.982	321.88
287.213	302.88
287.444	313.88
287.675	318.88
287.906	315.88
288.138	352.88
288.369	307.88
288.6	341.88
288.831	338.88
289.062	320.88
289.293	319.88
289.524	334.88
289.755	327.88
289.986	308.88
290.217	324.88
290.448	310.88
290.679	323.88
290.91	333.88
291.141	309.88
291.371	324.88
291.602	322.88
291.833	321.88
292.064	317.88
292.295	325.88
292.526	323.88
292.757	323.88
292.987	317.88
293.218	318.88
293.449	309.88
293.68	326.88
293.91	317.88
294.141	303.88
294.372	317.88
294.603	334.88
294.833	336.88
295.064	333.88
295.295	333.88
295.525	310.88
295.756	339.88
295.987	327.88
296.217	352.88
296.448	363.88
296.679	340.88
296.909	325.88
297.14	317.88
297.37	336.88
297.601	327.88
297.831	324.88
298.062	334.88
298.292	340.88
298.523	335.88
298.753	349.88
298.984	336.88
299.214	355.88
299.445	347.88
299.675	339.88
299.905	361.88
300.136	353.88
300.366	339.88
300.597	355.88
300.827	360.88
301.057	357.88
301.288	357.88
301.518	348.88
301.748	348.88
301.979	351.88
302.209	381.88
302.439	354.88
302.669	371.88
302.9	361.88
303.13	371.88
303.36	373.88
303.59	364.88
303.82	378.88
304.051	371.88
304.281	388.88
304.511	369.88
304.741	350.88
304.971	334.88
305.201	360.88
305.431	364.88
305.661	367.88
305.891	363.88
306.121	351.88
306.352	351.88
306.582	351.88
306.812	362.88
307.042	357.88
307.272	376.88
307.502	377.88
307.731	350.88
307.961	376.88
308.191	347.88
308.421	348.88
308.651	352.88
308.881	371.88
309.111	361.88
309.341	378.88
309.571	397.88
309.8	387.88
310.03	392.88
310.26	380.88
310.49	399.88
310.72	405.88
310.949	401.88
311.179	419.88
311.409	418.88
311.639	396.88
311.868	414.88
312.098	395.88
312.328	415.88
312.557	417.88
312.787	439.88
313.017	396.88
313.246	411.88
313.476	385.88
313.706	401.88
313.935	405.88
314.165	397.88
314.394	408.88
314.624	412.88
314.853	452.88
315.083	407.88
315.312	415.88
315.542	405.88
315.771	393.88
316.001	393.88
316.23	414.88
316.46	389.88
316.689	407.88
316.919	410.88
317.148	419.88
317.377	407.88
317.607	427.88
317.836	415.88
318.065	393.88
318.295	413.88
318.524	420.88
318.753	389.88
318.983	398.88
319.212	421.88
319.441	418.88
319.67	413.88
319.9	400.88
320.129	413.88
320.358	395.88
320.587	404.88
320.816	417.88
321.046	451.88
321.275	423.88
321.504	422.88
321.733	424.88
321.962	439.88
322.191	435.88
322.42	437.88
322.649	437.88
322.878	456.88
323.108	471.88
323.337	478.88
323.566	499.88
323.795	548.88
324.024	549.88
324.253	649.88
324.482	893.88
324.71	1370.88
324.939	2056.88
325.168	1783.88
325.397	942.88
325.626	633.88
325.855	545.88
326.084	523.88
326.313	499.88
326.542	515.88
326.77	528.88
326.999	636.88
327.228	850.88
327.457	1257.88
327.686	1595.88
327.914	1043.88
328.143	678.88
328.372	615.88
328.6	581.88
328.829	549.88
329.058	587.88
329.287	582.88
329.515	544.88
329.744	530.88
329.972	519.88
330.201	540.88
330.43	571.88
330.658	593.88
330.887	620.88
331.115	602.88
331.344	557.88
331.572	517.88
331.801	501.88
332.03	492.88
332.258	490.88
332.486	487.88
332.715	492.88
332.943	512.88
333.172	511.88
333.4	516.88
333.629	519.88
333.857	535.88
334.085	555.88
334.314	558.88
334.542	591.88
334.771	617.88
334.999	552.88
335.227	517.88
335.455	518.88
335.684	498.88
335.912	488.88
336.14	478.88
336.369	469.88
336.597	512.88
336.825	477.88
337.053	486.88
337.281	492.88
337.51	474.88
337.738	505.88
337.966	493.88
338.194	485.88
338.422	480.88
338.65	475.88
338.878	477.88
339.106	473.88
339.334	484.88
339.562	473.88
339.79	450.88
340.018	458.88
340.246	453.88
340.474	456.88
340.702	478.88
340.93	469.88
341.158	462.88
341.386	469.88
341.614	460.88
341.842	480.88
342.07	460.88
342.298	458.88
342.526	444.88
342.754	473.88
342.981	442.88
343.209	445.88
343.437	439.88
343.665	478.88
343.893	491.88
344.12	504.88
344.348	488.88
344.576	467.88
344.804	469.88
345.031	469.88
345.259	484.88
345.487	461.88
345.714	485.88
345.942	474.88
346.17	461.88
346.397	435.88
346.625	444.88
346.853	452.88
347.08	414.88
347.308	474.88
347.535	452.88
347.763	465.88
347.99	469.88
348.218	451.88
348.445	467.88
348.673	462.88
348.9	460.88
349.128	451.88
349.355	438.88
349.583	446.88
349.81	436.88
350.037	439.88
350.265	453.88
350.492	414.88
350.72	452.88
350.947	437.88
351.174	438.88
351.402	451.88
351.629	455.88
351.856	469.88
352.083	443.88
352.311	442.88
352.538	437.88
352.765	452.88
352.992	469.88
353.22	459.88
353.447	445.88
353.674	441.88
353.901	442.88
354.128	429.88
354.355	445.88
354.583	415.88
354.81	412.88
355.037	426.88
355.264	407.88
355.491	411.88
355.718	453.88
355.945	425.88
356.172	410.88
356.399	445.88
356.626	405.88
356.853	428.88
357.08	417.88
357.307	439.88
357.534	427.88
357.761	433.88
357.988	437.88
358.215	434.88
358.441	426.88
358.668	449.88
358.895	435.88
359.122	466.88
359.349	439.88
359.576	446.88
359.802	464.88
360.029	484.88
360.256	512.88
360.483	460.88
360.709	438.88
360.936	464.88
361.163	450.88
361.39	448.88
361.616	460.88
361.843	442.88
362.07	459.88
362.296	461.88
362.523	447.88
362.749	429.88
362.976	436.88
363.203	433.88
363.429	447.88
363.656	449.88
363.882	430.88
364.109	414.88
364.335	425.88
364.562	434.88
364.788	446.88
365.015	438.88
365.241	429.88
365.468	460.88
365.694	447.88
365.92	444.88
366.147	433.88
366.373	435.88
366.599	444.88
366.826	430.88
367.052	423.88
367.278	438.88
367.505	424.88
367.731	459.88
367.957	424.88
368.184	449.88
368.41	458.88
368.636	445.88
368.862	472.88
369.089	459.88
369.315	440.88
369.541	442.88
369.767	448.88
369.993	435.88
370.219	446.88
370.445	448.88
370.672	428.88
370.898	444.88
371.124	439.88
371.35	454.88
371.576	452.88
371.802	447.88
372.028	444.88
372.254	446.88
372.48	448.88
372.706	424.88
372.932	451.88
373.158	438.88
373.384	457.88
373.61	443.88
373.835	454.88
374.061	417.88
374.287	456.88
374.513	445.88
374.739	471.88
374.965	445.88
375.191	470.88
375.416	456.88
375.642	451.88
375.868	456.88
376.094	455.88
376.319	442.88
376.545	445.88
376.771	450.88
376.997	454.88
377.222	443.88
377.448	454.88
377.674	431.88
377.899	454.88
378.125	446.88
378.35	454.88
378.576	453.88
378.802	440.88
379.027	429.88
379.253	469.88
379.478	442.88
379.704	458.88
379.929	444.88
380.155	434.88
380.38	436.88
380.606	445.88
380.831	443.88
381.057	458.88
381.282	455.88
381.507	458.88
381.733	431.88
381.958	464.88
382.184	472.88
382.409	436.88
382.634	462.88
382.86	461.88
383.085	471.88
383.31	476.88
383.535	444.88
383.761	481.88
383.986	494.88
384.211	475.88
384.436	475.88
384.662	474.88
384.887	502.88
385.112	489.88
385.337	483.88
385.562	481.88
385.787	497.88
386.013	511.88
386.238	503.88
386.463	494.88
386.688	488.88
386.913	503.88
387.138	506.88
387.363	479.88
387.588	492.88
387.813	474.88
388.038	492.88
388.263	501.88
388.488	506.88
388.713	490.88
388.938	493.88
389.163	504.88
389.387	506.88
389.612	488.88
389.837	499.88
390.062	511.88
390.287	491.88
390.512	515.88
390.736	485.88
390.961	494.88
391.186	495.88
391.411	517.88
391.636	505.88
391.86	520.88
392.085	534.88
392.31	521.88
392.534	486.88
392.759	525.88
392.984	527.88
393.208	505.88
393.433	514.88
393.658	505.88
393.882	505.88
394.107	501.88
394.331	521.88
394.556	503.88
394.78	484.88
395.005	519.88
395.229	521.88
395.454	524.88
395.678	540.88
395.903	538.88
396.127	563.88
396.352	553.88
396.576	539.88
396.801	536.88
397.025	536.88
397.249	536.88
397.474	546.88
397.698	534.88
397.922	542.88
398.147	562.88
398.371	552.88
398.595	581.88
398.82	556.88
399.044	603.88
399.268	626.88
399.492	648.88
399.717	702.88
399.941	740.88
400.165	719.88
400.389	738.88
400.613	655.88
400.837	596.88
401.062	615.88
401.286	580.88
401.51	581.88
401.734	581.88
401.958	597.88
402.182	595.88
402.406	594.88
402.63	599.88
402.854	604.88
403.078	613.88
403.302	611.88
403.526	609.88
403.75	602.88
403.974	616.88
404.198	618.88
404.422	640.88
404.645	628.88
404.869	603.88
405.093	670.88
405.317	689.88
405.541	738.88
405.765	673.88
405.988	628.88
406.212	670.88
406.436	654.88
406.66	672.88
406.883	643.88
407.107	683.88
407.331	734.88
407.555	803.88
407.778	790.88
408.002	719.88
408.226	676.88
408.449	645.88
408.673	672.88
408.896	701.88
409.12	765.88
409.344	700.88
409.567	628.88
409.791	638.88
410.014	639.88
410.238	618.88
410.461	618.88
410.685	614.88
410.908	633.88
411.132	645.88
411.355	694.88
411.578	668.88
411.802	629.88
412.025	599.88
412.249	595.88
412.472	643.88
412.695	682.88
412.919	684.88
413.142	610.88
413.365	603.88
413.589	613.88
413.812	573.88
414.035	586.88
414.258	582.88
414.482	563.88
414.705	593.88
414.928	567.88
415.151	570.88
415.374	574.88
415.597	571.88
415.821	567.88
416.044	570.88
416.267	557.88
416.49	573.88
416.713	573.88
416.936	570.88
417.159	575.88
417.382	585.88
417.605	582.88
417.828	603.88
418.051	607.88
418.274	628.88
418.497	595.88
418.72	581.88
418.943	584.88
419.166	606.88
419.389	636.88
419.611	641.88
419.834	631.88
420.057	609.88
420.28	629.88
420.503	607.88
420.726	603.88
420.948	603.88
421.171	659.88
421.394	694.88
421.617	645.88
421.839	603.88
422.062	581.88
422.285	613.88
422.507	703.88
422.73	748.88
422.953	735.88
423.175	652.88
423.398	633.88
423.621	627.88
423.843	646.88
424.066	669.88
424.288	674.88
424.511	659.88
424.733	704.88
424.956	807.88
425.178	782.88
425.401	768.88
425.623	805.88
425.846	689.88
426.068	651.88
426.291	611.88
426.513	618.88
426.735	642.88
426.958	667.88
427.18	769.88
427.402	917.88
427.625	987.88
427.847	846.88
428.069	741.88
428.292	670.88
428.514	606.88
428.736	601.88
428.958	572.88
429.181	577.88
429.403	563.88
429.625	608.88
429.847	605.88
430.069	689.88
430.292	693.88
430.514	594.88
430.736	594.88
430.958	580.88
431.18	567.88
431.402	548.88
431.624	546.88
431.846	569.88
432.068	569.88
432.29	554.88
432.512	552.88
432.734	564.88
432.956	564.88
433.178	557.88
433.4	580.88
433.622	556.88
433.844	585.88
434.066	571.88
434.287	567.88
434.509	548.88
434.731	598.88
434.953	589.88
435.175	605.88
435.397	635.88
435.618	635.88
435.84	661.88
436.062	773.88
436.284	830.88
436.505	712.88
436.727	653.88
436.949	602.88
437.17	601.88
437.392	592.88
437.614	586.88
437.835	607.88
438.057	703.88
438.278	827.88
438.5	839.88
438.721	918.88
438.943	892.88
439.165	698.88
439.386	637.88
439.608	650.88
439.829	618.88
440.05	662.88
440.272	717.88
440.493	642.88
440.715	629.88
440.936	607.88
441.158	595.88
441.379	602.88
441.6	613.88
441.822	618.88
442.043	659.88
442.264	764.88
442.486	831.88
442.707	709.88
442.928	645.88
443.149	669.88
443.371	673.88
443.592	713.88
443.813	802.88
444.034	888.88
444.255	707.88
444.476	659.88
444.698	645.88
444.919	659.88
445.14	797.88
445.361	715.88
445.582	704.88
445.803	742.88
446.024	841.88
446.245	884.88
446.466	784.88
446.687	686.88
446.908	639.88
447.129	613.88
447.35	585.88
447.571	586.88
447.792	575.88
448.013	579.88
448.234	609.88
448.455	638.88
448.675	759.88
448.896	889.88
449.117	767.88
449.338	686.88
449.559	833.88
449.779	969.88
450	748.88
450.221	627.88
450.442	594.88
450.662	567.88
450.883	594.88
451.104	563.88
451.324	549.88
451.545	542.88
451.766	533.88
451.986	511.88
452.207	531.88
452.428	545.88
452.648	521.88
452.869	516.88
453.089	531.88
453.31	533.88
453.53	527.88
453.751	509.88
453.971	526.88
454.192	505.88
454.412	503.88
454.633	514.88
454.853	501.88
455.073	523.88
455.294	546.88
455.514	600.88
455.734	570.88
455.955	509.88
456.175	506.88
456.395	512.88
456.616	491.88
456.836	468.88
457.056	507.88
457.276	464.88
457.497	488.88
457.717	491.88
457.937	502.88
458.157	491.88
458.377	502.88
458.598	546.88
458.818	565.88
459.038	665.88
459.258	689.88
459.478	618.88
459.698	557.88
459.918	553.88
460.138	558.88
460.358	578.88
460.578	596.88
460.798	575.88
461.018	596.88
461.238	561.88
461.458	577.88
461.678	565.88
461.898	573.88
462.118	587.88
462.338	599.88
462.558	629.88
462.777	622.88
462.997	625.88
463.217	653.88
463.437	667.88
463.657	651.88
463.876	632.88
464.096	639.88
464.316	641.88
464.536	620.88
464.755	643.88
464.975	601.88
465.195	628.88
465.414	668.88
465.634	630.88
465.854	584.88
466.073	583.88
466.293	564.88
466.512	558.88
466.732	540.88
466.951	526.88
467.171	508.88
467.391	536.88
467.61	553.88
467.829	537.88
468.049	525.88
468.268	543.88
468.488	526.88
468.707	536.88
468.927	533.88
469.146	506.88
469.365	528.88
469.585	528.88
469.804	531.88
470.023	552.88
470.243	523.88
470.462	551.88
470.681	570.88
470.901	549.88
471.12	526.88
471.339	556.88
471.558	526.88
471.777	521.88
471.997	552.88
472.216	546.88
472.435	586.88
472.654	571.88
472.873	541.88
473.092	523.88
473.311	522.88
473.53	533.88
473.749	538.88
473.968	577.88
474.187	677.88
474.406	742.88
474.625	591.88
474.844	565.88
475.063	536.88
475.282	541.88
475.501	550.88
475.72	536.88
475.939	551.88
476.158	565.88
476.377	531.88
476.596	553.88
476.814	577.88
477.033	581.88
477.252	579.88
477.471	568.88
477.69	573.88
477.908	604.88
478.127	599.88
478.346	631.88
478.564	613.88
478.783	611.88
479.002	635.88
479.22	635.88
479.439	609.88
479.658	632.88
479.876	652.88
480.095	667.88
480.313	701.88
480.532	669.88
480.751	677.88
480.969	682.88
481.188	743.88
481.406	769.88
481.624	695.88
481.843	641.88
482.061	640.88
482.28	623.88
482.498	631.88
482.717	626.88
482.935	632.88
483.153	620.88
483.372	622.88
483.59	618.88
483.808	642.88
484.027	630.88
484.245	638.88
484.463	624.88
484.681	643.88
484.9	622.88
485.118	651.88
485.336	661.88
485.554	650.88
485.772	645.88
485.99	654.88
486.209	668.88
486.427	657.88
486.645	650.88
486.863	693.88
487.081	658.88
487.299	673.88
487.517	704.88
487.735	670.88
487.953	679.88
488.171	671.88
488.389	679.88
488.607	665.88
488.825	663.88
489.043	683.88
489.261	696.88
489.479	698.88
489.696	683.88
489.914	697.88
490.132	707.88
490.35	708.88
490.568	700.88
490.786	719.88
491.003	758.88
491.221	737.88
491.439	803.88
491.657	777.88
491.874	768.88
492.092	771.88
492.31	757.88
492.527	774.88
492.745	797.88
492.963	795.88
493.18	786.88
493.398	785.88
493.615	789.88
493.833	808.88
494.05	813.88
494.268	831.88
494.485	807.88
494.703	778.88
494.92	811.88
495.138	804.88
495.355	809.88
495.573	822.88
495.79	821.88
496.008	833.88
496.225	837.88
496.442	823.88
496.66	805.88
496.877	814.88
497.094	820.88
497.312	821.88
497.529	848.88
497.746	893.88
497.963	867.88
498.181	897.88
498.398	899.88
498.615	925.88
498.832	924.88
499.049	948.88
499.267	993.88
499.484	1038.88
499.701	1081.88
499.918	1129.88
500.135	1196.88
500.352	1277.88
500.569	1262.88
500.786	1305.88
501.003	1275.88
501.22	1244.88
501.437	1167.88
501.654	1100.88
