Data from 1975.PennyLincolnUp.Lamp.En5.5.200Scan.071719.P1.Changed Mount._HRD10591_15-55-57-858.txt Node
Date: Thu Jul 18 15:55:57 EDT 2019
User: cochatt
Spectrometer: HR+D1059
Trigger mode: 1
Integration Time (sec): 1.000000E-1
Scans to average: 1
Electric dark correction enabled: true
Nonlinearity correction enabled: false
Boxcar width: 0
XAxis mode: Wavelengths
Number of Pixels in Spectrum: 2048
>>>>>Begin Spectral Data<<<<<
223.165	-26.69
223.4	-26.69
223.635	-26.69
223.869	-18.69
224.104	-14.69
224.338	-17.69
224.573	-3.69
224.808	-12.69
225.042	-19.69
225.277	-4.69
225.511	-10.69
225.746	3.31
225.98	1.31
226.215	5.31
226.449	23.31
226.683	28.31
226.918	25.31
227.152	42.31
227.387	36.31
227.621	27.31
227.856	34.31
228.09	43.31
228.324	45.31
228.559	48.31
228.793	74.31
229.027	91.31
229.262	76.31
229.496	94.31
229.73	135.31
229.964	155.31
230.199	129.31
230.433	116.31
230.667	110.31
230.901	106.31
231.136	114.31
231.37	109.31
231.604	101.31
231.838	113.31
232.072	114.31
232.306	106.31
232.541	103.31
232.775	114.31
233.009	108.31
233.243	119.31
233.477	133.31
233.711	127.31
233.945	122.31
234.179	119.31
234.413	124.31
234.647	131.31
234.881	108.31
235.115	111.31
235.349	130.31
235.583	129.31
235.817	126.31
236.051	133.31
236.285	137.31
236.519	123.31
236.753	141.31
236.987	131.31
237.221	167.31
237.455	219.31
237.689	168.31
237.922	138.31
238.156	137.31
238.39	135.31
238.624	120.31
238.858	125.31
239.091	122.31
239.325	114.31
239.559	126.31
239.793	111.31
240.027	121.31
240.26	123.31
240.494	166.31
240.728	145.31
240.961	144.31
241.195	142.31
241.429	134.31
241.662	129.31
241.896	127.31
242.13	136.31
242.363	126.31
242.597	118.31
242.83	131.31
243.064	145.31
243.298	137.31
243.531	148.31
243.765	150.31
243.998	144.31
244.232	132.31
244.465	129.31
244.699	148.31
244.932	133.31
245.166	139.31
245.399	148.31
245.633	151.31
245.866	142.31
246.099	155.31
246.333	150.31
246.566	154.31
246.8	147.31
247.033	153.31
247.266	161.31
247.5	175.31
247.733	169.31
247.966	171.31
248.2	179.31
248.433	171.31
248.666	154.31
248.899	179.31
249.133	195.31
249.366	196.31
249.599	186.31
249.832	164.31
250.066	183.31
250.299	173.31
250.532	195.31
250.765	203.31
250.998	217.31
251.231	231.31
251.465	183.31
251.698	202.31
251.931	203.31
252.164	190.31
252.397	199.31
252.63	193.31
252.863	194.31
253.096	196.31
253.329	225.31
253.562	222.31
253.795	202.31
254.028	221.31
254.261	215.31
254.494	221.31
254.727	230.31
254.96	269.31
255.193	254.31
255.426	237.31
255.659	243.31
255.892	241.31
256.124	220.31
256.357	237.31
256.59	222.31
256.823	222.31
257.056	211.31
257.289	191.31
257.521	215.31
257.754	204.31
257.987	213.31
258.22	217.31
258.452	199.31
258.685	201.31
258.918	208.31
259.151	185.31
259.383	215.31
259.616	214.31
259.849	225.31
260.081	220.31
260.314	235.31
260.547	236.31
260.779	261.31
261.012	226.31
261.244	230.31
261.477	221.31
261.71	214.31
261.942	230.31
262.175	245.31
262.407	215.31
262.64	224.31
262.872	205.31
263.105	191.31
263.337	200.31
263.57	208.31
263.802	211.31
264.035	206.31
264.267	218.31
264.499	221.31
264.732	211.31
264.964	231.31
265.197	207.31
265.429	222.31
265.661	204.31
265.894	215.31
266.126	223.31
266.358	212.31
266.591	225.31
266.823	232.31
267.055	245.31
267.287	234.31
267.52	231.31
267.752	219.31
267.984	226.31
268.216	228.31
268.448	239.31
268.681	234.31
268.913	262.31
269.145	267.31
269.377	252.31
269.609	270.31
269.841	247.31
270.073	251.31
270.306	284.31
270.538	289.31
270.77	310.31
271.002	287.31
271.234	281.31
271.466	275.31
271.698	293.31
271.93	321.31
272.162	305.31
272.394	302.31
272.626	303.31
272.858	273.31
273.09	251.31
273.322	276.31
273.553	250.31
273.785	254.31
274.017	244.31
274.249	260.31
274.481	261.31
274.713	248.31
274.945	250.31
275.176	258.31
275.408	259.31
275.64	263.31
275.872	263.31
276.104	260.31
276.335	276.31
276.567	268.31
276.799	275.31
277.031	307.31
277.262	317.31
277.494	309.31
277.726	290.31
277.957	281.31
278.189	277.31
278.421	282.31
278.652	279.31
278.884	255.31
279.115	270.31
279.347	295.31
279.579	266.31
279.81	272.31
280.042	265.31
280.273	265.31
280.505	276.31
280.736	283.31
280.968	274.31
281.199	269.31
281.431	249.31
281.662	283.31
281.894	257.31
282.125	276.31
282.356	285.31
282.588	289.31
282.819	296.31
283.051	283.31
283.282	270.31
283.513	294.31
283.745	265.31
283.976	265.31
284.207	292.31
284.439	267.31
284.67	280.31
284.901	285.31
285.132	272.31
285.364	278.31
285.595	290.31
285.826	285.31
286.057	275.31
286.288	280.31
286.52	284.31
286.751	285.31
286.982	282.31
287.213	301.31
287.444	291.31
287.675	298.31
287.906	289.31
288.138	292.31
288.369	295.31
288.6	314.31
288.831	301.31
289.062	299.31
289.293	305.31
289.524	290.31
289.755	293.31
289.986	285.31
290.217	307.31
290.448	284.31
290.679	297.31
290.91	301.31
291.141	293.31
291.371	313.31
291.602	302.31
291.833	277.31
292.064	302.31
292.295	287.31
292.526	306.31
292.757	301.31
292.987	272.31
293.218	311.31
293.449	286.31
293.68	296.31
293.91	285.31
294.141	299.31
294.372	284.31
294.603	311.31
294.833	285.31
295.064	286.31
295.295	307.31
295.525	313.31
295.756	298.31
295.987	305.31
296.217	314.31
296.448	314.31
296.679	316.31
296.909	297.31
297.14	315.31
297.37	298.31
297.601	300.31
297.831	295.31
298.062	308.31
298.292	291.31
298.523	320.31
298.753	310.31
298.984	302.31
299.214	308.31
299.445	309.31
299.675	310.31
299.905	323.31
300.136	327.31
300.366	302.31
300.597	305.31
300.827	329.31
301.057	306.31
301.288	321.31
301.518	330.31
301.748	328.31
301.979	349.31
302.209	334.31
302.439	337.31
302.669	314.31
302.9	339.31
303.13	341.31
303.36	335.31
303.59	341.31
303.82	339.31
304.051	327.31
304.281	350.31
304.511	340.31
304.741	325.31
304.971	326.31
305.201	337.31
305.431	325.31
305.661	307.31
305.891	324.31
306.121	335.31
306.352	322.31
306.582	352.31
306.812	338.31
307.042	321.31
307.272	334.31
307.502	340.31
307.731	349.31
307.961	336.31
308.191	314.31
308.421	341.31
308.651	341.31
308.881	337.31
309.111	346.31
309.341	318.31
309.571	341.31
309.8	351.31
310.03	350.31
310.26	345.31
310.49	379.31
310.72	360.31
310.949	387.31
311.179	375.31
311.409	376.31
311.639	356.31
311.868	350.31
312.098	354.31
312.328	366.31
312.557	379.31
312.787	389.31
313.017	393.31
313.246	363.31
313.476	359.31
313.706	370.31
313.935	387.31
314.165	363.31
314.394	387.31
314.624	386.31
314.853	385.31
315.083	387.31
315.312	371.31
315.542	381.31
315.771	365.31
316.001	357.31
316.23	366.31
316.46	371.31
316.689	389.31
316.919	370.31
317.148	384.31
317.377	392.31
317.607	377.31
317.836	381.31
318.065	374.31
318.295	363.31
318.524	371.31
318.753	359.31
318.983	380.31
319.212	362.31
319.441	361.31
319.67	377.31
319.9	382.31
320.129	360.31
320.358	373.31
320.587	375.31
320.816	374.31
321.046	378.31
321.275	389.31
321.504	372.31
321.733	386.31
321.962	379.31
322.191	385.31
322.42	392.31
322.649	405.31
322.878	405.31
323.108	404.31
323.337	451.31
323.566	463.31
323.795	469.31
324.024	501.31
324.253	535.31
324.482	735.31
324.71	1127.31
324.939	1622.31
325.168	1434.31
325.397	755.31
325.626	521.31
325.855	453.31
326.084	461.31
326.313	454.31
326.542	447.31
326.77	476.31
326.999	531.31
327.228	679.31
327.457	1018.31
327.686	1289.31
327.914	851.31
328.143	597.31
328.372	536.31
328.6	522.31
328.829	469.31
329.058	504.31
329.287	488.31
329.515	464.31
329.744	441.31
329.972	456.31
330.201	471.31
330.43	499.31
330.658	495.31
330.887	505.31
331.115	501.31
331.344	472.31
331.572	471.31
331.801	477.31
332.03	450.31
332.258	452.31
332.486	445.31
332.715	451.31
332.943	461.31
333.172	455.31
333.4	470.31
333.629	453.31
333.857	482.31
334.085	467.31
334.314	490.31
334.542	527.31
334.771	542.31
334.999	487.31
335.227	463.31
335.455	470.31
335.684	462.31
335.912	460.31
336.14	462.31
336.369	452.31
336.597	442.31
336.825	464.31
337.053	442.31
337.281	429.31
337.51	456.31
337.738	448.31
337.966	434.31
338.194	426.31
338.422	443.31
338.65	412.31
338.878	425.31
339.106	422.31
339.334	446.31
339.562	437.31
339.79	425.31
340.018	453.31
340.246	447.31
340.474	422.31
340.702	410.31
340.93	390.31
341.158	420.31
341.386	433.31
341.614	461.31
341.842	437.31
342.07	428.31
342.298	423.31
342.526	406.31
342.754	410.31
342.981	419.31
343.209	411.31
343.437	450.31
343.665	425.31
343.893	435.31
344.12	457.31
344.348	456.31
344.576	446.31
344.804	433.31
345.031	417.31
345.259	424.31
345.487	429.31
345.714	435.31
345.942	415.31
346.17	420.31
346.397	399.31
346.625	419.31
346.853	408.31
347.08	383.31
347.308	406.31
347.535	403.31
347.763	412.31
347.99	396.31
348.218	394.31
348.445	420.31
348.673	428.31
348.9	407.31
349.128	402.31
349.355	416.31
349.583	378.31
349.81	397.31
350.037	429.31
350.265	403.31
350.492	398.31
350.72	400.31
350.947	393.31
351.174	401.31
351.402	404.31
351.629	417.31
351.856	409.31
352.083	428.31
352.311	423.31
352.538	410.31
352.765	425.31
352.992	408.31
353.22	403.31
353.447	400.31
353.674	392.31
353.901	407.31
354.128	389.31
354.355	406.31
354.583	393.31
354.81	381.31
355.037	408.31
355.264	379.31
355.491	418.31
355.718	396.31
355.945	396.31
356.172	402.31
356.399	385.31
356.626	389.31
356.853	392.31
357.08	389.31
357.307	389.31
357.534	374.31
357.761	408.31
357.988	389.31
358.215	387.31
358.441	400.31
358.668	377.31
358.895	381.31
359.122	394.31
359.349	401.31
359.576	398.31
359.802	415.31
360.029	450.31
360.256	457.31
360.483	430.31
360.709	419.31
360.936	415.31
361.163	412.31
361.39	414.31
361.616	409.31
361.843	420.31
362.07	402.31
362.296	398.31
362.523	395.31
362.749	392.31
362.976	402.31
363.203	391.31
363.429	405.31
363.656	406.31
363.882	408.31
364.109	399.31
364.335	411.31
364.562	386.31
364.788	394.31
365.015	370.31
365.241	375.31
365.468	411.31
365.694	411.31
365.92	404.31
366.147	405.31
366.373	432.31
366.599	390.31
366.826	404.31
367.052	402.31
367.278	405.31
367.505	395.31
367.731	418.31
367.957	388.31
368.184	425.31
368.41	417.31
368.636	417.31
368.862	431.31
369.089	416.31
369.315	406.31
369.541	405.31
369.767	415.31
369.993	411.31
370.219	405.31
370.445	403.31
370.672	410.31
370.898	409.31
371.124	406.31
371.35	413.31
371.576	423.31
371.802	390.31
372.028	424.31
372.254	418.31
372.48	420.31
372.706	419.31
372.932	411.31
373.158	431.31
373.384	426.31
373.61	418.31
373.835	423.31
374.061	413.31
374.287	410.31
374.513	429.31
374.739	436.31
374.965	441.31
375.191	426.31
375.416	429.31
375.642	417.31
375.868	429.31
376.094	434.31
376.319	435.31
376.545	385.31
376.771	404.31
376.997	393.31
377.222	411.31
377.448	420.31
377.674	402.31
377.899	411.31
378.125	420.31
378.35	403.31
378.576	416.31
378.802	405.31
379.027	425.31
379.253	415.31
379.478	408.31
379.704	398.31
379.929	401.31
380.155	417.31
380.38	407.31
380.606	409.31
380.831	419.31
381.057	415.31
381.282	422.31
381.507	438.31
381.733	408.31
381.958	421.31
382.184	413.31
382.409	434.31
382.634	429.31
382.86	425.31
383.085	444.31
383.31	428.31
383.535	445.31
383.761	445.31
383.986	454.31
384.211	453.31
384.436	449.31
384.662	452.31
384.887	488.31
385.112	455.31
385.337	454.31
385.562	467.31
385.787	455.31
386.013	474.31
386.238	464.31
386.463	473.31
386.688	485.31
386.913	463.31
387.138	457.31
387.363	438.31
387.588	462.31
387.813	446.31
388.038	454.31
388.263	472.31
388.488	446.31
388.713	469.31
388.938	457.31
389.163	450.31
389.387	475.31
389.612	475.31
389.837	470.31
390.062	454.31
390.287	455.31
390.512	464.31
390.736	467.31
390.961	477.31
391.186	462.31
391.411	492.31
391.636	469.31
391.86	468.31
392.085	490.31
392.31	476.31
392.534	500.31
392.759	472.31
392.984	474.31
393.208	483.31
393.433	497.31
393.658	476.31
393.882	469.31
394.107	463.31
394.331	456.31
394.556	466.31
394.78	457.31
395.005	462.31
395.229	475.31
395.454	506.31
395.678	493.31
395.903	505.31
396.127	522.31
396.352	519.31
396.576	498.31
396.801	494.31
397.025	492.31
397.249	495.31
397.474	499.31
397.698	507.31
397.922	514.31
398.147	530.31
398.371	550.31
398.595	517.31
398.82	540.31
399.044	550.31
399.268	589.31
399.492	620.31
399.717	659.31
399.941	693.31
400.165	653.31
400.389	692.31
400.613	598.31
400.837	576.31
401.062	562.31
401.286	556.31
401.51	548.31
401.734	544.31
401.958	557.31
402.182	562.31
402.406	563.31
402.63	547.31
402.854	552.31
403.078	565.31
403.302	577.31
403.526	574.31
403.75	583.31
403.974	571.31
404.198	586.31
404.422	590.31
404.645	581.31
404.869	564.31
405.093	603.31
405.317	633.31
405.541	657.31
405.765	604.31
405.988	601.31
406.212	607.31
406.436	616.31
406.66	615.31
406.883	589.31
407.107	633.31
407.331	664.31
407.555	743.31
407.778	737.31
408.002	682.31
408.226	643.31
408.449	606.31
408.673	617.31
408.896	641.31
409.12	651.31
409.344	644.31
409.567	579.31
409.791	582.31
410.014	553.31
410.238	554.31
410.461	572.31
410.685	579.31
410.908	579.31
411.132	604.31
411.355	644.31
411.578	613.31
411.802	561.31
412.025	567.31
412.249	574.31
412.472	604.31
412.695	618.31
412.919	607.31
413.142	564.31
413.365	541.31
413.589	567.31
413.812	555.31
414.035	544.31
414.258	564.31
414.482	559.31
414.705	533.31
414.928	551.31
415.151	527.31
415.374	541.31
415.597	545.31
415.821	521.31
416.044	541.31
416.267	538.31
416.49	539.31
416.713	515.31
416.936	543.31
417.159	541.31
417.382	538.31
417.605	538.31
417.828	548.31
418.051	548.31
418.274	538.31
418.497	534.31
418.72	548.31
418.943	524.31
419.166	569.31
419.389	606.31
419.611	589.31
419.834	570.31
420.057	582.31
420.28	543.31
420.503	572.31
420.726	558.31
420.948	566.31
421.171	624.31
421.394	649.31
421.617	569.31
421.839	549.31
422.062	545.31
422.285	564.31
422.507	622.31
422.73	690.31
422.953	657.31
423.175	574.31
423.398	571.31
423.621	569.31
423.843	610.31
424.066	618.31
424.288	585.31
424.511	610.31
424.733	670.31
424.956	727.31
425.178	708.31
425.401	682.31
425.623	728.31
425.846	617.31
426.068	586.31
426.291	586.31
426.513	569.31
426.735	595.31
426.958	621.31
427.18	704.31
427.402	809.31
427.625	894.31
427.847	761.31
428.069	690.31
428.292	608.31
428.514	577.31
428.736	544.31
428.958	542.31
429.181	533.31
429.403	536.31
429.625	548.31
429.847	561.31
430.069	629.31
430.292	654.31
430.514	557.31
430.736	545.31
430.958	522.31
431.18	508.31
431.402	526.31
431.624	517.31
431.846	490.31
432.068	521.31
432.29	523.31
432.512	519.31
432.734	508.31
432.956	533.31
433.178	533.31
433.4	518.31
433.622	542.31
433.844	506.31
434.066	526.31
434.287	513.31
434.509	511.31
434.731	545.31
434.953	533.31
435.175	567.31
435.397	577.31
435.618	575.31
435.84	611.31
436.062	722.31
436.284	769.31
436.505	650.31
436.727	596.31
436.949	541.31
437.17	547.31
437.392	549.31
437.614	535.31
437.835	542.31
438.057	630.31
438.278	737.31
438.5	755.31
438.721	861.31
438.943	802.31
439.165	633.31
439.386	599.31
439.608	602.31
439.829	611.31
440.05	597.31
440.272	637.31
440.493	599.31
440.715	567.31
440.936	568.31
441.158	578.31
441.379	541.31
441.6	563.31
441.822	586.31
442.043	605.31
442.264	716.31
442.486	750.31
442.707	659.31
442.928	593.31
443.149	607.31
443.371	613.31
443.592	661.31
443.813	735.31
444.034	856.31
444.255	674.31
444.476	638.31
444.698	600.31
444.919	582.31
445.14	693.31
445.361	631.31
445.582	613.31
445.803	674.31
446.024	774.31
446.245	763.31
446.466	701.31
446.687	605.31
446.908	575.31
447.129	568.31
447.35	533.31
447.571	533.31
447.792	528.31
448.013	527.31
448.234	517.31
448.455	583.31
448.675	706.31
448.896	831.31
449.117	710.31
449.338	651.31
449.559	758.31
449.779	847.31
450	670.31
450.221	581.31
450.442	531.31
450.662	497.31
450.883	508.31
451.104	517.31
451.324	513.31
451.545	509.31
451.766	507.31
451.986	475.31
452.207	466.31
452.428	481.31
452.648	486.31
452.869	460.31
453.089	481.31
453.31	485.31
453.53	499.31
453.751	471.31
453.971	491.31
454.192	488.31
454.412	469.31
454.633	463.31
454.853	466.31
455.073	492.31
455.294	501.31
455.514	554.31
455.734	548.31
455.955	481.31
456.175	459.31
456.395	451.31
456.616	458.31
456.836	450.31
457.056	425.31
457.276	448.31
457.497	463.31
457.717	447.31
457.937	463.31
458.157	448.31
458.377	471.31
458.598	481.31
458.818	504.31
459.038	576.31
459.258	627.31
459.478	549.31
459.698	532.31
459.918	509.31
460.138	538.31
460.358	526.31
460.578	531.31
460.798	538.31
461.018	544.31
461.238	545.31
461.458	523.31
461.678	549.31
461.898	510.31
462.118	541.31
462.338	546.31
462.558	566.31
462.777	579.31
462.997	598.31
463.217	607.31
463.437	612.31
463.657	611.31
463.876	584.31
464.096	616.31
464.316	581.31
464.536	599.31
464.755	580.31
464.975	565.31
465.195	591.31
465.414	624.31
465.634	563.31
465.854	542.31
466.073	555.31
466.293	510.31
466.512	515.31
466.732	489.31
466.951	522.31
467.171	487.31
467.391	507.31
467.61	513.31
467.829	492.31
468.049	503.31
468.268	481.31
468.488	472.31
468.707	484.31
468.927	473.31
469.146	466.31
469.365	465.31
469.585	481.31
469.804	510.31
470.023	494.31
470.243	501.31
470.462	507.31
470.681	515.31
470.901	532.31
471.12	494.31
471.339	515.31
471.558	497.31
471.777	504.31
471.997	499.31
472.216	520.31
472.435	510.31
472.654	507.31
472.873	479.31
473.092	503.31
473.311	491.31
473.53	492.31
473.749	503.31
473.968	549.31
474.187	645.31
474.406	660.31
474.625	561.31
474.844	516.31
475.063	493.31
475.282	510.31
475.501	477.31
475.72	494.31
475.939	517.31
476.158	508.31
476.377	514.31
476.596	499.31
476.814	535.31
477.033	528.31
477.252	527.31
477.471	534.31
477.69	515.31
477.908	580.31
478.127	573.31
478.346	568.31
478.564	559.31
478.783	577.31
479.002	581.31
479.22	586.31
479.439	583.31
479.658	598.31
479.876	583.31
480.095	610.31
480.313	606.31
480.532	639.31
480.751	632.31
480.969	641.31
481.188	677.31
481.406	702.31
481.624	605.31
481.843	599.31
482.061	601.31
482.28	583.31
482.498	597.31
482.717	591.31
482.935	589.31
483.153	583.31
483.372	566.31
483.59	592.31
483.808	602.31
484.027	579.31
484.245	585.31
484.463	617.31
484.681	621.31
484.9	611.31
485.118	600.31
485.336	607.31
485.554	604.31
485.772	613.31
485.99	623.31
486.209	613.31
486.427	605.31
486.645	611.31
486.863	627.31
487.081	639.31
487.299	617.31
487.517	630.31
487.735	619.31
487.953	618.31
488.171	608.31
488.389	616.31
488.607	612.31
488.825	618.31
489.043	622.31
489.261	615.31
489.479	631.31
489.696	623.31
489.914	652.31
490.132	649.31
490.35	645.31
490.568	677.31
490.786	676.31
491.003	663.31
491.221	707.31
491.439	709.31
491.657	714.31
491.874	725.31
492.092	719.31
492.31	730.31
492.527	739.31
492.745	720.31
492.963	730.31
493.18	724.31
493.398	764.31
493.615	779.31
493.833	754.31
494.05	743.31
494.268	742.31
494.485	748.31
494.703	727.31
494.92	733.31
495.138	731.31
495.355	733.31
495.573	734.31
495.79	741.31
496.008	727.31
496.225	755.31
496.442	750.31
496.66	753.31
496.877	730.31
497.094	768.31
497.312	768.31
497.529	778.31
497.746	762.31
497.963	747.31
498.181	798.31
498.398	841.31
498.615	843.31
498.832	882.31
499.049	874.31
499.267	910.31
499.484	974.31
499.701	982.31
499.918	1041.31
500.135	1085.31
500.352	1192.31
500.569	1186.31
500.786	1208.31
501.003	1159.31
501.22	1142.31
501.437	1067.31
501.654	1013.31
