Data from 1975.PennyLincolnUp.Lamp.En5.5.200Scan.071719.P1.Changed Mount._HRD10591_15-57-22-860.txt Node
Date: Thu Jul 18 15:57:22 EDT 2019
User: cochatt
Spectrometer: HR+D1059
Trigger mode: 1
Integration Time (sec): 1.000000E-1
Scans to average: 1
Electric dark correction enabled: true
Nonlinearity correction enabled: false
Boxcar width: 0
XAxis mode: Wavelengths
Number of Pixels in Spectrum: 2048
>>>>>Begin Spectral Data<<<<<
223.165	-14.56
223.4	-14.56
223.635	-14.56
223.869	-17.56
224.104	-18.56
224.338	3.44
224.573	-4.56
224.808	-19.56
225.042	-10.56
225.277	-17.56
225.511	-2.56
225.746	-2.56
225.98	9.44
226.215	13.44
226.449	25.44
226.683	21.44
226.918	12.44
227.152	22.44
227.387	38.44
227.621	43.44
227.856	30.44
228.09	60.44
228.324	62.44
228.559	71.44
228.793	78.44
229.027	87.44
229.262	104.44
229.496	106.44
229.73	125.44
229.964	149.44
230.199	104.44
230.433	100.44
230.667	103.44
230.901	120.44
231.136	120.44
231.37	124.44
231.604	106.44
231.838	120.44
232.072	101.44
232.306	115.44
232.541	111.44
232.775	117.44
233.009	110.44
233.243	125.44
233.477	123.44
233.711	115.44
233.945	126.44
234.179	115.44
234.413	128.44
234.647	122.44
234.881	113.44
235.115	108.44
235.349	118.44
235.583	130.44
235.817	111.44
236.051	127.44
236.285	133.44
236.519	124.44
236.753	129.44
236.987	167.44
237.221	179.44
237.455	211.44
237.689	191.44
237.922	134.44
238.156	132.44
238.39	138.44
238.624	131.44
238.858	134.44
239.091	131.44
239.325	130.44
239.559	130.44
239.793	131.44
240.027	134.44
240.26	149.44
240.494	150.44
240.728	151.44
240.961	161.44
241.195	144.44
241.429	125.44
241.662	139.44
241.896	140.44
242.13	139.44
242.363	138.44
242.597	137.44
242.83	145.44
243.064	148.44
243.298	132.44
243.531	156.44
243.765	150.44
243.998	142.44
244.232	123.44
244.465	138.44
244.699	155.44
244.932	158.44
245.166	139.44
245.399	145.44
245.633	153.44
245.866	154.44
246.099	149.44
246.333	156.44
246.566	148.44
246.8	154.44
247.033	153.44
247.266	163.44
247.5	166.44
247.733	170.44
247.966	181.44
248.2	147.44
248.433	183.44
248.666	173.44
248.899	185.44
249.133	190.44
249.366	204.44
249.599	195.44
249.832	181.44
250.066	189.44
250.299	199.44
250.532	206.44
250.765	207.44
250.998	220.44
251.231	234.44
251.465	223.44
251.698	205.44
251.931	187.44
252.164	188.44
252.397	200.44
252.63	206.44
252.863	232.44
253.096	203.44
253.329	221.44
253.562	228.44
253.795	237.44
254.028	226.44
254.261	221.44
254.494	238.44
254.727	260.44
254.96	282.44
255.193	277.44
255.426	241.44
255.659	238.44
255.892	230.44
256.124	241.44
256.357	246.44
256.59	213.44
256.823	232.44
257.056	209.44
257.289	226.44
257.521	218.44
257.754	224.44
257.987	227.44
258.22	228.44
258.452	213.44
258.685	202.44
258.918	217.44
259.151	223.44
259.383	216.44
259.616	225.44
259.849	235.44
260.081	225.44
260.314	249.44
260.547	277.44
260.779	238.44
261.012	230.44
261.244	241.44
261.477	205.44
261.71	221.44
261.942	247.44
262.175	236.44
262.407	242.44
262.64	214.44
262.872	227.44
263.105	223.44
263.337	227.44
263.57	220.44
263.802	213.44
264.035	215.44
264.267	197.44
264.499	238.44
264.732	222.44
264.964	227.44
265.197	244.44
265.429	220.44
265.661	215.44
265.894	232.44
266.126	224.44
266.358	216.44
266.591	232.44
266.823	220.44
267.055	240.44
267.287	247.44
267.52	232.44
267.752	247.44
267.984	244.44
268.216	233.44
268.448	250.44
268.681	245.44
268.913	248.44
269.145	271.44
269.377	287.44
269.609	282.44
269.841	285.44
270.073	297.44
270.306	301.44
270.538	334.44
270.77	316.44
271.002	311.44
271.234	303.44
271.466	302.44
271.698	310.44
271.93	342.44
272.162	306.44
272.394	309.44
272.626	310.44
272.858	280.44
273.09	274.44
273.322	273.44
273.553	281.44
273.785	268.44
274.017	265.44
274.249	280.44
274.481	273.44
274.713	257.44
274.945	279.44
275.176	284.44
275.408	272.44
275.64	281.44
275.872	268.44
276.104	274.44
276.335	273.44
276.567	296.44
276.799	292.44
277.031	308.44
277.262	329.44
277.494	333.44
277.726	313.44
277.957	300.44
278.189	301.44
278.421	286.44
278.652	265.44
278.884	279.44
279.115	279.44
279.347	272.44
279.579	286.44
279.81	278.44
280.042	272.44
280.273	278.44
280.505	278.44
280.736	267.44
280.968	274.44
281.199	277.44
281.431	277.44
281.662	282.44
281.894	296.44
282.125	286.44
282.356	287.44
282.588	302.44
282.819	311.44
283.051	287.44
283.282	276.44
283.513	285.44
283.745	295.44
283.976	307.44
284.207	302.44
284.439	303.44
284.67	302.44
284.901	295.44
285.132	301.44
285.364	288.44
285.595	303.44
285.826	295.44
286.057	303.44
286.288	294.44
286.52	291.44
286.751	297.44
286.982	300.44
287.213	312.44
287.444	307.44
287.675	315.44
287.906	330.44
288.138	299.44
288.369	329.44
288.6	315.44
288.831	307.44
289.062	299.44
289.293	311.44
289.524	320.44
289.755	311.44
289.986	297.44
290.217	303.44
290.448	292.44
290.679	303.44
290.91	318.44
291.141	313.44
291.371	310.44
291.602	307.44
291.833	307.44
292.064	302.44
292.295	305.44
292.526	317.44
292.757	321.44
292.987	322.44
293.218	301.44
293.449	317.44
293.68	298.44
293.91	297.44
294.141	308.44
294.372	337.44
294.603	299.44
294.833	298.44
295.064	317.44
295.295	311.44
295.525	311.44
295.756	327.44
295.987	319.44
296.217	336.44
296.448	329.44
296.679	316.44
296.909	302.44
297.14	334.44
297.37	331.44
297.601	306.44
297.831	329.44
298.062	325.44
298.292	301.44
298.523	332.44
298.753	315.44
298.984	324.44
299.214	325.44
299.445	327.44
299.675	313.44
299.905	331.44
300.136	325.44
300.366	342.44
300.597	336.44
300.827	331.44
301.057	336.44
301.288	337.44
301.518	361.44
301.748	343.44
301.979	343.44
302.209	340.44
302.439	343.44
302.669	341.44
302.9	341.44
303.13	339.44
303.36	336.44
303.59	342.44
303.82	336.44
304.051	339.44
304.281	350.44
304.511	342.44
304.741	337.44
304.971	346.44
305.201	339.44
305.431	329.44
305.661	343.44
305.891	346.44
306.121	349.44
306.352	356.44
306.582	348.44
306.812	354.44
307.042	356.44
307.272	350.44
307.502	343.44
307.731	352.44
307.961	352.44
308.191	344.44
308.421	356.44
308.651	378.44
308.881	354.44
309.111	348.44
309.341	357.44
309.571	375.44
309.8	340.44
310.03	362.44
310.26	383.44
310.49	381.44
310.72	376.44
310.949	391.44
311.179	411.44
311.409	400.44
311.639	371.44
311.868	375.44
312.098	380.44
312.328	390.44
312.557	397.44
312.787	396.44
313.017	417.44
313.246	393.44
313.476	395.44
313.706	399.44
313.935	390.44
314.165	406.44
314.394	415.44
314.624	402.44
314.853	393.44
315.083	383.44
315.312	405.44
315.542	379.44
315.771	371.44
316.001	373.44
316.23	395.44
316.46	374.44
316.689	391.44
316.919	373.44
317.148	390.44
317.377	406.44
317.607	405.44
317.836	395.44
318.065	389.44
318.295	384.44
318.524	381.44
318.753	375.44
318.983	402.44
319.212	388.44
319.441	385.44
319.67	400.44
319.9	378.44
320.129	408.44
320.358	407.44
320.587	382.44
320.816	381.44
321.046	406.44
321.275	407.44
321.504	382.44
321.733	415.44
321.962	401.44
322.191	422.44
322.42	428.44
322.649	451.44
322.878	451.44
323.108	451.44
323.337	459.44
323.566	477.44
323.795	487.44
324.024	518.44
324.253	594.44
324.482	827.44
324.71	1264.44
324.939	1894.44
325.168	1673.44
325.397	847.44
325.626	613.44
325.855	530.44
326.084	481.44
326.313	469.44
326.542	477.44
326.77	531.44
326.999	619.44
327.228	776.44
327.457	1182.44
327.686	1443.44
327.914	947.44
328.143	650.44
328.372	571.44
328.6	536.44
328.829	515.44
329.058	533.44
329.287	556.44
329.515	525.44
329.744	498.44
329.972	522.44
330.201	542.44
330.43	545.44
330.658	565.44
330.887	570.44
331.115	565.44
331.344	499.44
331.572	475.44
331.801	477.44
332.03	492.44
332.258	505.44
332.486	475.44
332.715	483.44
332.943	457.44
333.172	502.44
333.4	497.44
333.629	491.44
333.857	509.44
334.085	515.44
334.314	527.44
334.542	557.44
334.771	584.44
334.999	527.44
335.227	522.44
335.455	500.44
335.684	478.44
335.912	481.44
336.14	487.44
336.369	467.44
336.597	470.44
336.825	457.44
337.053	460.44
337.281	467.44
337.51	472.44
337.738	470.44
337.966	469.44
338.194	472.44
338.422	468.44
338.65	472.44
338.878	448.44
339.106	458.44
339.334	440.44
339.562	459.44
339.79	448.44
340.018	446.44
340.246	466.44
340.474	450.44
340.702	468.44
340.93	434.44
341.158	452.44
341.386	463.44
341.614	433.44
341.842	445.44
342.07	447.44
342.298	452.44
342.526	433.44
342.754	424.44
342.981	413.44
343.209	435.44
343.437	435.44
343.665	443.44
343.893	475.44
344.12	472.44
344.348	489.44
344.576	460.44
344.804	479.44
345.031	457.44
345.259	472.44
345.487	453.44
345.714	429.44
345.942	437.44
346.17	442.44
346.397	453.44
346.625	431.44
346.853	430.44
347.08	439.44
347.308	433.44
347.535	438.44
347.763	437.44
347.99	453.44
348.218	440.44
348.445	442.44
348.673	444.44
348.9	421.44
349.128	437.44
349.355	418.44
349.583	419.44
349.81	411.44
350.037	410.44
350.265	429.44
350.492	413.44
350.72	422.44
350.947	430.44
351.174	443.44
351.402	421.44
351.629	431.44
351.856	416.44
352.083	454.44
352.311	437.44
352.538	441.44
352.765	455.44
352.992	447.44
353.22	421.44
353.447	421.44
353.674	431.44
353.901	397.44
354.128	400.44
354.355	405.44
354.583	405.44
354.81	431.44
355.037	422.44
355.264	412.44
355.491	407.44
355.718	415.44
355.945	417.44
356.172	410.44
356.399	391.44
356.626	420.44
356.853	428.44
357.08	407.44
357.307	406.44
357.534	428.44
357.761	420.44
357.988	426.44
358.215	392.44
358.441	418.44
358.668	427.44
358.895	438.44
359.122	413.44
359.349	440.44
359.576	418.44
359.802	427.44
360.029	462.44
360.256	500.44
360.483	468.44
360.709	415.44
360.936	435.44
361.163	424.44
361.39	449.44
361.616	429.44
361.843	418.44
362.07	441.44
362.296	430.44
362.523	449.44
362.749	441.44
362.976	421.44
363.203	402.44
363.429	404.44
363.656	418.44
363.882	410.44
364.109	419.44
364.335	413.44
364.562	401.44
364.788	398.44
365.015	420.44
365.241	435.44
365.468	427.44
365.694	417.44
365.92	423.44
366.147	437.44
366.373	424.44
366.599	428.44
366.826	409.44
367.052	406.44
367.278	417.44
367.505	417.44
367.731	439.44
367.957	441.44
368.184	413.44
368.41	419.44
368.636	438.44
368.862	443.44
369.089	455.44
369.315	414.44
369.541	415.44
369.767	411.44
369.993	415.44
370.219	422.44
370.445	437.44
370.672	428.44
370.898	418.44
371.124	420.44
371.35	433.44
371.576	427.44
371.802	421.44
372.028	413.44
372.254	433.44
372.48	425.44
372.706	426.44
372.932	426.44
373.158	436.44
373.384	423.44
373.61	453.44
373.835	433.44
374.061	432.44
374.287	436.44
374.513	439.44
374.739	442.44
374.965	462.44
375.191	462.44
375.416	433.44
375.642	421.44
375.868	430.44
376.094	442.44
376.319	439.44
376.545	431.44
376.771	452.44
376.997	433.44
377.222	444.44
377.448	434.44
377.674	462.44
377.899	427.44
378.125	413.44
378.35	408.44
378.576	431.44
378.802	415.44
379.027	421.44
379.253	416.44
379.478	425.44
379.704	416.44
379.929	426.44
380.155	438.44
380.38	417.44
380.606	430.44
380.831	430.44
381.057	442.44
381.282	441.44
381.507	429.44
381.733	441.44
381.958	443.44
382.184	417.44
382.409	452.44
382.634	429.44
382.86	453.44
383.085	453.44
383.31	441.44
383.535	473.44
383.761	450.44
383.986	469.44
384.211	452.44
384.436	456.44
384.662	468.44
384.887	460.44
385.112	452.44
385.337	470.44
385.562	486.44
385.787	479.44
386.013	484.44
386.238	476.44
386.463	472.44
386.688	473.44
386.913	481.44
387.138	490.44
387.363	477.44
387.588	466.44
387.813	469.44
388.038	476.44
388.263	466.44
388.488	493.44
388.713	475.44
388.938	492.44
389.163	481.44
389.387	489.44
389.612	482.44
389.837	494.44
390.062	476.44
390.287	467.44
390.512	469.44
390.736	473.44
390.961	474.44
391.186	480.44
391.411	481.44
391.636	502.44
391.86	504.44
392.085	486.44
392.31	498.44
392.534	513.44
392.759	482.44
392.984	479.44
393.208	483.44
393.433	491.44
393.658	504.44
393.882	492.44
394.107	477.44
394.331	476.44
394.556	476.44
394.78	483.44
395.005	493.44
395.229	491.44
395.454	500.44
395.678	515.44
395.903	539.44
396.127	556.44
396.352	529.44
396.576	504.44
396.801	488.44
397.025	514.44
397.249	513.44
397.474	530.44
397.698	541.44
397.922	536.44
398.147	526.44
398.371	546.44
398.595	548.44
398.82	561.44
399.044	578.44
399.268	606.44
399.492	653.44
399.717	680.44
399.941	691.44
400.165	695.44
400.389	698.44
400.613	654.44
400.837	602.44
401.062	591.44
401.286	591.44
401.51	560.44
401.734	563.44
401.958	551.44
402.182	565.44
402.406	583.44
402.63	578.44
402.854	575.44
403.078	601.44
403.302	604.44
403.526	587.44
403.75	599.44
403.974	583.44
404.198	588.44
404.422	599.44
404.645	614.44
404.869	609.44
405.093	631.44
405.317	689.44
405.541	702.44
405.765	633.44
405.988	631.44
406.212	616.44
406.436	637.44
406.66	638.44
406.883	608.44
407.107	661.44
407.331	722.44
407.555	777.44
407.778	788.44
408.002	701.44
408.226	677.44
408.449	667.44
408.673	655.44
408.896	666.44
409.12	725.44
409.344	687.44
409.567	617.44
409.791	587.44
410.014	599.44
410.238	625.44
410.461	587.44
410.685	607.44
410.908	614.44
411.132	654.44
411.355	661.44
411.578	643.44
411.802	576.44
412.025	605.44
412.249	615.44
412.472	627.44
412.695	672.44
412.919	647.44
413.142	594.44
413.365	577.44
413.589	569.44
413.812	566.44
414.035	556.44
414.258	574.44
414.482	571.44
414.705	564.44
414.928	548.44
415.151	556.44
415.374	566.44
415.597	569.44
415.821	555.44
416.044	563.44
416.267	573.44
416.49	572.44
416.713	525.44
416.936	538.44
417.159	537.44
417.382	564.44
417.605	558.44
417.828	573.44
418.051	579.44
418.274	544.44
418.497	567.44
418.72	584.44
418.943	556.44
419.166	591.44
419.389	641.44
419.611	628.44
419.834	614.44
420.057	600.44
420.28	611.44
420.503	596.44
420.726	569.44
420.948	587.44
421.171	628.44
421.394	679.44
421.617	599.44
421.839	574.44
422.062	589.44
422.285	574.44
422.507	652.44
422.73	736.44
422.953	718.44
423.175	610.44
423.398	593.44
423.621	635.44
423.843	628.44
424.066	645.44
424.288	632.44
424.511	632.44
424.733	683.44
424.956	765.44
425.178	715.44
425.401	733.44
425.623	744.44
425.846	658.44
426.068	600.44
426.291	594.44
426.513	608.44
426.735	604.44
426.958	656.44
427.18	770.44
427.402	863.44
427.625	935.44
427.847	818.44
428.069	703.44
428.292	650.44
428.514	615.44
428.736	555.44
428.958	586.44
429.181	544.44
429.403	570.44
429.625	570.44
429.847	603.44
430.069	683.44
430.292	661.44
430.514	583.44
430.736	563.44
430.958	552.44
431.18	541.44
431.402	551.44
431.624	535.44
431.846	523.44
432.068	546.44
432.29	537.44
432.512	544.44
432.734	541.44
432.956	539.44
433.178	546.44
433.4	557.44
433.622	558.44
433.844	531.44
434.066	542.44
434.287	527.44
434.509	553.44
434.731	561.44
434.953	583.44
435.175	580.44
435.397	608.44
435.618	611.44
435.84	638.44
436.062	744.44
436.284	825.44
436.505	667.44
436.727	639.44
436.949	599.44
437.17	579.44
437.392	554.44
437.614	575.44
437.835	586.44
438.057	690.44
438.278	804.44
438.5	809.44
438.721	878.44
438.943	837.44
439.165	671.44
439.386	654.44
439.608	582.44
439.829	603.44
440.05	630.44
440.272	669.44
440.493	631.44
440.715	588.44
440.936	573.44
441.158	580.44
441.379	564.44
441.6	589.44
441.822	596.44
442.043	646.44
442.264	746.44
442.486	799.44
442.707	697.44
442.928	650.44
443.149	628.44
443.371	643.44
443.592	683.44
443.813	791.44
444.034	837.44
444.255	723.44
444.476	641.44
444.698	636.44
444.919	637.44
445.14	782.44
445.361	689.44
445.582	649.44
445.803	727.44
446.024	821.44
446.245	801.44
446.466	744.44
446.687	638.44
446.908	611.44
447.129	581.44
447.35	577.44
447.571	559.44
447.792	566.44
448.013	566.44
448.234	571.44
448.455	613.44
448.675	737.44
448.896	863.44
449.117	722.44
449.338	681.44
449.559	804.44
449.779	904.44
450	725.44
450.221	609.44
450.442	549.44
450.662	541.44
450.883	544.44
451.104	553.44
451.324	534.44
451.545	537.44
451.766	503.44
451.986	513.44
452.207	486.44
452.428	505.44
452.648	486.44
452.869	506.44
453.089	501.44
453.31	520.44
453.53	495.44
453.751	510.44
453.971	483.44
454.192	517.44
454.412	491.44
454.633	485.44
454.853	507.44
455.073	490.44
455.294	478.44
455.514	597.44
455.734	576.44
455.955	502.44
456.175	489.44
456.395	464.44
456.616	477.44
456.836	459.44
457.056	467.44
457.276	443.44
457.497	476.44
457.717	453.44
457.937	462.44
458.157	476.44
458.377	493.44
458.598	511.44
458.818	550.44
459.038	625.44
459.258	673.44
459.478	593.44
459.698	536.44
459.918	522.44
460.138	524.44
460.358	541.44
460.578	564.44
460.798	561.44
461.018	547.44
461.238	556.44
461.458	579.44
461.678	557.44
461.898	549.44
462.118	574.44
462.338	591.44
462.558	570.44
462.777	592.44
462.997	610.44
463.217	647.44
463.437	630.44
463.657	621.44
463.876	633.44
464.096	599.44
464.316	610.44
464.536	615.44
464.755	617.44
464.975	585.44
465.195	635.44
465.414	683.44
465.634	621.44
465.854	567.44
466.073	530.44
466.293	547.44
466.512	508.44
466.732	525.44
466.951	497.44
467.171	493.44
467.391	518.44
467.61	556.44
467.829	537.44
468.049	549.44
468.268	518.44
468.488	519.44
468.707	498.44
468.927	521.44
469.146	494.44
469.365	515.44
469.585	494.44
469.804	515.44
470.023	525.44
470.243	526.44
470.462	523.44
470.681	523.44
470.901	531.44
471.12	539.44
471.339	534.44
471.558	518.44
471.777	521.44
471.997	501.44
472.216	524.44
472.435	546.44
472.654	531.44
472.873	515.44
473.092	497.44
473.311	512.44
473.53	537.44
473.749	533.44
473.968	578.44
474.187	649.44
474.406	695.44
474.625	573.44
474.844	523.44
475.063	498.44
475.282	515.44
475.501	527.44
475.72	535.44
475.939	517.44
476.158	527.44
476.377	544.44
476.596	507.44
476.814	550.44
477.033	556.44
477.252	542.44
477.471	549.44
477.69	583.44
477.908	589.44
478.127	559.44
478.346	581.44
478.564	574.44
478.783	577.44
479.002	589.44
479.22	596.44
479.439	622.44
479.658	617.44
479.876	634.44
480.095	612.44
480.313	662.44
480.532	648.44
480.751	644.44
480.969	630.44
481.188	694.44
481.406	737.44
481.624	659.44
481.843	641.44
482.061	639.44
482.28	636.44
482.498	606.44
482.717	606.44
482.935	606.44
483.153	602.44
483.372	604.44
483.59	606.44
483.808	599.44
484.027	622.44
484.245	610.44
484.463	627.44
484.681	624.44
484.9	636.44
485.118	631.44
485.336	607.44
485.554	633.44
485.772	625.44
485.99	613.44
486.209	645.44
486.427	631.44
486.645	664.44
486.863	649.44
487.081	660.44
487.299	634.44
487.517	640.44
487.735	643.44
487.953	651.44
488.171	654.44
488.389	631.44
488.607	634.44
488.825	650.44
489.043	639.44
489.261	678.44
489.479	675.44
489.696	678.44
489.914	664.44
490.132	690.44
490.35	691.44
490.568	683.44
490.786	706.44
491.003	711.44
491.221	730.44
491.439	726.44
491.657	753.44
491.874	717.44
492.092	745.44
492.31	742.44
492.527	757.44
492.745	733.44
492.963	754.44
493.18	750.44
493.398	783.44
493.615	775.44
493.833	783.44
494.05	776.44
494.268	735.44
494.485	773.44
494.703	775.44
494.92	773.44
495.138	769.44
495.355	774.44
495.573	794.44
495.79	783.44
496.008	760.44
496.225	765.44
496.442	774.44
496.66	789.44
496.877	776.44
497.094	776.44
497.312	795.44
497.529	812.44
497.746	821.44
497.963	825.44
498.181	865.44
498.398	871.44
498.615	884.44
498.832	919.44
499.049	933.44
499.267	972.44
499.484	1025.44
499.701	1025.44
499.918	1066.44
500.135	1174.44
500.352	1236.44
500.569	1260.44
500.786	1257.44
501.003	1216.44
501.22	1163.44
501.437	1135.44
501.654	1066.44
