Data from 1975.PennyLincolnUp.Lamp.En5.5.200Scan.071719.P1.Changed Mount._HRD10591_15-56-57-860.txt Node
Date: Thu Jul 18 15:56:57 EDT 2019
User: cochatt
Spectrometer: HR+D1059
Trigger mode: 1
Integration Time (sec): 1.000000E-1
Scans to average: 1
Electric dark correction enabled: true
Nonlinearity correction enabled: false
Boxcar width: 0
XAxis mode: Wavelengths
Number of Pixels in Spectrum: 2048
>>>>>Begin Spectral Data<<<<<
223.165	-9.81
223.4	-9.81
223.635	-9.81
223.869	-18.81
224.104	-14.81
224.338	-12.81
224.573	-19.81
224.808	-16.81
225.042	-3.81
225.277	-0.81
225.511	-0.81
225.746	5.19
225.98	3.19
226.215	18.19
226.449	10.19
226.683	13.19
226.918	18.19
227.152	30.19
227.387	23.19
227.621	45.19
227.856	46.19
228.09	42.19
228.324	56.19
228.559	53.19
228.793	85.19
229.027	97.19
229.262	86.19
229.496	101.19
229.73	117.19
229.964	147.19
230.199	116.19
230.433	107.19
230.667	124.19
230.901	110.19
231.136	103.19
231.37	124.19
231.604	116.19
231.838	119.19
232.072	113.19
232.306	99.19
232.541	115.19
232.775	106.19
233.009	122.19
233.243	111.19
233.477	131.19
233.711	121.19
233.945	117.19
234.179	121.19
234.413	125.19
234.647	108.19
234.881	125.19
235.115	116.19
235.349	146.19
235.583	136.19
235.817	115.19
236.051	120.19
236.285	127.19
236.519	130.19
236.753	117.19
236.987	148.19
237.221	190.19
237.455	222.19
237.689	174.19
237.922	130.19
238.156	135.19
238.39	137.19
238.624	114.19
238.858	125.19
239.091	116.19
239.325	122.19
239.559	126.19
239.793	144.19
240.027	127.19
240.26	163.19
240.494	157.19
240.728	150.19
240.961	147.19
241.195	152.19
241.429	154.19
241.662	137.19
241.896	153.19
242.13	134.19
242.363	149.19
242.597	136.19
242.83	144.19
243.064	143.19
243.298	149.19
243.531	145.19
243.765	141.19
243.998	151.19
244.232	144.19
244.465	138.19
244.699	151.19
244.932	140.19
245.166	145.19
245.399	157.19
245.633	146.19
245.866	137.19
246.099	140.19
246.333	162.19
246.566	160.19
246.8	165.19
247.033	159.19
247.266	158.19
247.5	179.19
247.733	177.19
247.966	174.19
248.2	184.19
248.433	172.19
248.666	183.19
248.899	185.19
249.133	211.19
249.366	207.19
249.599	197.19
249.832	185.19
250.066	197.19
250.299	188.19
250.532	186.19
250.765	212.19
250.998	230.19
251.231	225.19
251.465	233.19
251.698	213.19
251.931	192.19
252.164	222.19
252.397	198.19
252.63	189.19
252.863	203.19
253.096	212.19
253.329	225.19
253.562	236.19
253.795	220.19
254.028	225.19
254.261	214.19
254.494	215.19
254.727	246.19
254.96	271.19
255.193	261.19
255.426	249.19
255.659	242.19
255.892	222.19
256.124	253.19
256.357	234.19
256.59	245.19
256.823	224.19
257.056	215.19
257.289	209.19
257.521	209.19
257.754	213.19
257.987	203.19
258.22	218.19
258.452	209.19
258.685	209.19
258.918	217.19
259.151	218.19
259.383	215.19
259.616	230.19
259.849	233.19
260.081	226.19
260.314	253.19
260.547	250.19
260.779	250.19
261.012	228.19
261.244	233.19
261.477	209.19
261.71	231.19
261.942	224.19
262.175	250.19
262.407	223.19
262.64	207.19
262.872	225.19
263.105	215.19
263.337	213.19
263.57	217.19
263.802	215.19
264.035	224.19
264.267	201.19
264.499	227.19
264.732	221.19
264.964	209.19
265.197	231.19
265.429	229.19
265.661	223.19
265.894	226.19
266.126	222.19
266.358	219.19
266.591	230.19
266.823	226.19
267.055	225.19
267.287	242.19
267.52	231.19
267.752	254.19
267.984	247.19
268.216	229.19
268.448	240.19
268.681	235.19
268.913	255.19
269.145	272.19
269.377	278.19
269.609	284.19
269.841	266.19
270.073	277.19
270.306	294.19
270.538	285.19
270.77	322.19
271.002	302.19
271.234	276.19
271.466	314.19
271.698	319.19
271.93	312.19
272.162	309.19
272.394	317.19
272.626	305.19
272.858	300.19
273.09	291.19
273.322	284.19
273.553	279.19
273.785	291.19
274.017	266.19
274.249	260.19
274.481	269.19
274.713	262.19
274.945	263.19
275.176	262.19
275.408	256.19
275.64	267.19
275.872	262.19
276.104	273.19
276.335	280.19
276.567	284.19
276.799	293.19
277.031	311.19
277.262	306.19
277.494	318.19
277.726	313.19
277.957	292.19
278.189	293.19
278.421	289.19
278.652	297.19
278.884	287.19
279.115	274.19
279.347	285.19
279.579	282.19
279.81	287.19
280.042	281.19
280.273	271.19
280.505	264.19
280.736	265.19
280.968	281.19
281.199	282.19
281.431	293.19
281.662	285.19
281.894	278.19
282.125	278.19
282.356	286.19
282.588	291.19
282.819	310.19
283.051	281.19
283.282	268.19
283.513	287.19
283.745	271.19
283.976	298.19
284.207	306.19
284.439	294.19
284.67	309.19
284.901	303.19
285.132	282.19
285.364	294.19
285.595	291.19
285.826	279.19
286.057	296.19
286.288	315.19
286.52	307.19
286.751	296.19
286.982	292.19
287.213	305.19
287.444	294.19
287.675	327.19
287.906	299.19
288.138	305.19
288.369	309.19
288.6	325.19
288.831	309.19
289.062	319.19
289.293	307.19
289.524	314.19
289.755	326.19
289.986	308.19
290.217	295.19
290.448	305.19
290.679	305.19
290.91	309.19
291.141	308.19
291.371	312.19
291.602	303.19
291.833	307.19
292.064	299.19
292.295	291.19
292.526	316.19
292.757	305.19
292.987	298.19
293.218	316.19
293.449	308.19
293.68	305.19
293.91	293.19
294.141	312.19
294.372	317.19
294.603	320.19
294.833	321.19
295.064	300.19
295.295	317.19
295.525	322.19
295.756	317.19
295.987	310.19
296.217	335.19
296.448	330.19
296.679	321.19
296.909	325.19
297.14	323.19
297.37	332.19
297.601	311.19
297.831	332.19
298.062	339.19
298.292	316.19
298.523	328.19
298.753	325.19
298.984	325.19
299.214	324.19
299.445	340.19
299.675	329.19
299.905	331.19
300.136	319.19
300.366	338.19
300.597	337.19
300.827	334.19
301.057	353.19
301.288	352.19
301.518	354.19
301.748	339.19
301.979	334.19
302.209	334.19
302.439	342.19
302.669	340.19
302.9	361.19
303.13	340.19
303.36	352.19
303.59	354.19
303.82	366.19
304.051	348.19
304.281	333.19
304.511	334.19
304.741	344.19
304.971	323.19
305.201	333.19
305.431	348.19
305.661	328.19
305.891	346.19
306.121	353.19
306.352	359.19
306.582	348.19
306.812	351.19
307.042	342.19
307.272	349.19
307.502	346.19
307.731	346.19
307.961	354.19
308.191	340.19
308.421	335.19
308.651	359.19
308.881	339.19
309.111	353.19
309.341	355.19
309.571	355.19
309.8	345.19
310.03	366.19
310.26	375.19
310.49	374.19
310.72	399.19
310.949	381.19
311.179	382.19
311.409	386.19
311.639	381.19
311.868	367.19
312.098	380.19
312.328	391.19
312.557	384.19
312.787	400.19
313.017	415.19
313.246	397.19
313.476	370.19
313.706	380.19
313.935	398.19
314.165	397.19
314.394	383.19
314.624	411.19
314.853	393.19
315.083	384.19
315.312	366.19
315.542	382.19
315.771	374.19
316.001	383.19
316.23	383.19
316.46	398.19
316.689	386.19
316.919	398.19
317.148	417.19
317.377	389.19
317.607	387.19
317.836	380.19
318.065	387.19
318.295	411.19
318.524	391.19
318.753	378.19
318.983	375.19
319.212	360.19
319.441	382.19
319.67	382.19
319.9	394.19
320.129	386.19
320.358	390.19
320.587	409.19
320.816	387.19
321.046	393.19
321.275	396.19
321.504	384.19
321.733	397.19
321.962	406.19
322.191	404.19
322.42	423.19
322.649	413.19
322.878	436.19
323.108	450.19
323.337	454.19
323.566	464.19
323.795	488.19
324.024	506.19
324.253	614.19
324.482	804.19
324.71	1189.19
324.939	1837.19
325.168	1595.19
325.397	809.19
325.626	579.19
325.855	487.19
326.084	460.19
326.313	451.19
326.542	464.19
326.77	489.19
326.999	561.19
327.228	747.19
327.457	1107.19
327.686	1396.19
327.914	929.19
328.143	629.19
328.372	588.19
328.6	543.19
328.829	527.19
329.058	541.19
329.287	531.19
329.515	507.19
329.744	474.19
329.972	501.19
330.201	497.19
330.43	544.19
330.658	565.19
330.887	595.19
331.115	558.19
331.344	486.19
331.572	507.19
331.801	501.19
332.03	492.19
332.258	467.19
332.486	456.19
332.715	457.19
332.943	466.19
333.172	469.19
333.4	488.19
333.629	497.19
333.857	497.19
334.085	531.19
334.314	517.19
334.542	542.19
334.771	567.19
334.999	528.19
335.227	507.19
335.455	501.19
335.684	476.19
335.912	465.19
336.14	483.19
336.369	487.19
336.597	477.19
336.825	476.19
337.053	453.19
337.281	436.19
337.51	462.19
337.738	452.19
337.966	454.19
338.194	444.19
338.422	466.19
338.65	458.19
338.878	468.19
339.106	420.19
339.334	442.19
339.562	439.19
339.79	460.19
340.018	417.19
340.246	444.19
340.474	439.19
340.702	456.19
340.93	456.19
341.158	436.19
341.386	435.19
341.614	428.19
341.842	423.19
342.07	436.19
342.298	427.19
342.526	438.19
342.754	438.19
342.981	421.19
343.209	429.19
343.437	455.19
343.665	443.19
343.893	460.19
344.12	470.19
344.348	454.19
344.576	464.19
344.804	465.19
345.031	471.19
345.259	452.19
345.487	446.19
345.714	460.19
345.942	413.19
346.17	419.19
346.397	426.19
346.625	436.19
346.853	415.19
347.08	434.19
347.308	426.19
347.535	431.19
347.763	442.19
347.99	431.19
348.218	426.19
348.445	444.19
348.673	446.19
348.9	409.19
349.128	396.19
349.355	405.19
349.583	410.19
349.81	420.19
350.037	422.19
350.265	424.19
350.492	402.19
350.72	397.19
350.947	429.19
351.174	435.19
351.402	431.19
351.629	429.19
351.856	434.19
352.083	446.19
352.311	437.19
352.538	445.19
352.765	429.19
352.992	436.19
353.22	417.19
353.447	423.19
353.674	412.19
353.901	415.19
354.128	418.19
354.355	381.19
354.583	413.19
354.81	409.19
355.037	410.19
355.264	382.19
355.491	394.19
355.718	412.19
355.945	410.19
356.172	413.19
356.399	399.19
356.626	395.19
356.853	389.19
357.08	414.19
357.307	399.19
357.534	409.19
357.761	403.19
357.988	396.19
358.215	409.19
358.441	415.19
358.668	395.19
358.895	404.19
359.122	406.19
359.349	415.19
359.576	418.19
359.802	439.19
360.029	475.19
360.256	463.19
360.483	460.19
360.709	417.19
360.936	445.19
361.163	427.19
361.39	438.19
361.616	425.19
361.843	419.19
362.07	413.19
362.296	435.19
362.523	423.19
362.749	415.19
362.976	414.19
363.203	416.19
363.429	393.19
363.656	405.19
363.882	415.19
364.109	428.19
364.335	422.19
364.562	423.19
364.788	437.19
365.015	420.19
365.241	415.19
365.468	403.19
365.694	429.19
365.92	407.19
366.147	440.19
366.373	433.19
366.599	429.19
366.826	427.19
367.052	418.19
367.278	393.19
367.505	407.19
367.731	412.19
367.957	423.19
368.184	417.19
368.41	425.19
368.636	451.19
368.862	444.19
369.089	423.19
369.315	413.19
369.541	414.19
369.767	408.19
369.993	438.19
370.219	412.19
370.445	437.19
370.672	423.19
370.898	428.19
371.124	407.19
371.35	414.19
371.576	429.19
371.802	415.19
372.028	410.19
372.254	421.19
372.48	415.19
372.706	426.19
372.932	415.19
373.158	424.19
373.384	407.19
373.61	427.19
373.835	440.19
374.061	422.19
374.287	428.19
374.513	425.19
374.739	434.19
374.965	426.19
375.191	463.19
375.416	437.19
375.642	445.19
375.868	430.19
376.094	424.19
376.319	417.19
376.545	417.19
376.771	415.19
376.997	428.19
377.222	439.19
377.448	446.19
377.674	443.19
377.899	418.19
378.125	425.19
378.35	430.19
378.576	430.19
378.802	430.19
379.027	440.19
379.253	435.19
379.478	431.19
379.704	443.19
379.929	431.19
380.155	414.19
380.38	424.19
380.606	436.19
380.831	416.19
381.057	431.19
381.282	453.19
381.507	433.19
381.733	443.19
381.958	429.19
382.184	430.19
382.409	428.19
382.634	438.19
382.86	440.19
383.085	446.19
383.31	443.19
383.535	452.19
383.761	465.19
383.986	435.19
384.211	465.19
384.436	455.19
384.662	458.19
384.887	468.19
385.112	463.19
385.337	477.19
385.562	474.19
385.787	481.19
386.013	492.19
386.238	477.19
386.463	489.19
386.688	477.19
386.913	471.19
387.138	473.19
387.363	470.19
387.588	480.19
387.813	489.19
388.038	485.19
388.263	471.19
388.488	478.19
388.713	473.19
388.938	494.19
389.163	481.19
389.387	486.19
389.612	484.19
389.837	479.19
390.062	457.19
390.287	478.19
390.512	467.19
390.736	478.19
390.961	471.19
391.186	477.19
391.411	491.19
391.636	489.19
391.86	469.19
392.085	461.19
392.31	521.19
392.534	491.19
392.759	486.19
392.984	482.19
393.208	488.19
393.433	502.19
393.658	465.19
393.882	501.19
394.107	474.19
394.331	471.19
394.556	477.19
394.78	495.19
395.005	494.19
395.229	493.19
395.454	517.19
395.678	503.19
395.903	510.19
396.127	535.19
396.352	526.19
396.576	525.19
396.801	506.19
397.025	494.19
397.249	523.19
397.474	529.19
397.698	540.19
397.922	510.19
398.147	546.19
398.371	546.19
398.595	565.19
398.82	580.19
399.044	585.19
399.268	617.19
399.492	631.19
399.717	685.19
399.941	701.19
400.165	693.19
400.389	690.19
400.613	633.19
400.837	599.19
401.062	588.19
401.286	552.19
401.51	567.19
401.734	533.19
401.958	561.19
402.182	551.19
402.406	570.19
402.63	573.19
402.854	557.19
403.078	580.19
403.302	580.19
403.526	579.19
403.75	599.19
403.974	569.19
404.198	570.19
404.422	595.19
404.645	602.19
404.869	573.19
405.093	617.19
405.317	667.19
405.541	715.19
405.765	642.19
405.988	619.19
406.212	635.19
406.436	627.19
406.66	659.19
406.883	620.19
407.107	652.19
407.331	678.19
407.555	766.19
407.778	760.19
408.002	690.19
408.226	667.19
408.449	655.19
408.673	638.19
408.896	654.19
409.12	691.19
409.344	649.19
409.567	605.19
409.791	591.19
410.014	587.19
410.238	584.19
410.461	563.19
410.685	587.19
410.908	627.19
411.132	618.19
411.355	655.19
411.578	640.19
411.802	581.19
412.025	571.19
412.249	587.19
412.472	625.19
412.695	662.19
412.919	630.19
413.142	600.19
413.365	594.19
413.589	575.19
413.812	558.19
414.035	570.19
414.258	572.19
414.482	551.19
414.705	540.19
414.928	563.19
415.151	551.19
415.374	566.19
415.597	548.19
415.821	552.19
416.044	556.19
416.267	561.19
416.49	550.19
416.713	540.19
416.936	536.19
417.159	555.19
417.382	548.19
417.605	552.19
417.828	570.19
418.051	598.19
418.274	570.19
418.497	543.19
418.72	553.19
418.943	566.19
419.166	582.19
419.389	585.19
419.611	610.19
419.834	587.19
420.057	579.19
420.28	580.19
420.503	582.19
420.726	572.19
420.948	589.19
421.171	634.19
421.394	645.19
421.617	611.19
421.839	574.19
422.062	549.19
422.285	578.19
422.507	629.19
422.73	693.19
422.953	689.19
423.175	610.19
423.398	612.19
423.621	601.19
423.843	617.19
424.066	628.19
424.288	633.19
424.511	616.19
424.733	702.19
424.956	763.19
425.178	739.19
425.401	735.19
425.623	754.19
425.846	634.19
426.068	586.19
426.291	600.19
426.513	593.19
426.735	617.19
426.958	655.19
427.18	737.19
427.402	862.19
427.625	935.19
427.847	812.19
428.069	729.19
428.292	629.19
428.514	603.19
428.736	557.19
428.958	553.19
429.181	541.19
429.403	564.19
429.625	568.19
429.847	577.19
430.069	668.19
430.292	650.19
430.514	575.19
430.736	565.19
430.958	549.19
431.18	523.19
431.402	535.19
431.624	527.19
431.846	551.19
432.068	545.19
432.29	554.19
432.512	528.19
432.734	549.19
432.956	547.19
433.178	579.19
433.4	556.19
433.622	569.19
433.844	545.19
434.066	528.19
434.287	536.19
434.509	524.19
434.731	550.19
434.953	551.19
435.175	575.19
435.397	612.19
435.618	637.19
435.84	631.19
436.062	750.19
436.284	807.19
436.505	659.19
436.727	581.19
436.949	585.19
437.17	586.19
437.392	537.19
437.614	563.19
437.835	585.19
438.057	659.19
438.278	769.19
438.5	778.19
438.721	864.19
438.943	820.19
439.165	651.19
439.386	627.19
439.608	625.19
439.829	608.19
440.05	627.19
440.272	663.19
440.493	614.19
440.715	589.19
440.936	549.19
441.158	561.19
441.379	581.19
441.6	575.19
441.822	601.19
442.043	646.19
442.264	721.19
442.486	744.19
442.707	651.19
442.928	616.19
443.149	626.19
443.371	641.19
443.592	676.19
443.813	794.19
444.034	863.19
444.255	710.19
444.476	641.19
444.698	653.19
444.919	622.19
445.14	755.19
445.361	675.19
445.582	634.19
445.803	677.19
446.024	773.19
446.245	812.19
446.466	737.19
446.687	650.19
446.908	613.19
447.129	587.19
447.35	552.19
447.571	562.19
447.792	527.19
448.013	532.19
448.234	551.19
448.455	603.19
448.675	744.19
448.896	849.19
449.117	710.19
449.338	676.19
449.559	779.19
449.779	897.19
450	716.19
450.221	599.19
450.442	545.19
450.662	536.19
450.883	524.19
451.104	540.19
451.324	522.19
451.545	520.19
451.766	522.19
451.986	504.19
452.207	510.19
452.428	488.19
452.648	490.19
452.869	489.19
453.089	501.19
453.31	513.19
453.53	490.19
453.751	452.19
453.971	511.19
454.192	511.19
454.412	475.19
454.633	493.19
454.853	474.19
455.073	511.19
455.294	505.19
455.514	579.19
455.734	559.19
455.955	493.19
456.175	459.19
456.395	466.19
456.616	478.19
456.836	447.19
457.056	473.19
457.276	442.19
457.497	440.19
457.717	467.19
457.937	471.19
458.157	478.19
458.377	494.19
458.598	514.19
458.818	538.19
459.038	609.19
459.258	625.19
459.478	567.19
459.698	515.19
459.918	522.19
460.138	532.19
460.358	565.19
460.578	537.19
460.798	544.19
461.018	570.19
461.238	557.19
461.458	553.19
461.678	554.19
461.898	546.19
462.118	561.19
462.338	559.19
462.558	572.19
462.777	602.19
462.997	613.19
463.217	638.19
463.437	627.19
463.657	626.19
463.876	611.19
464.096	613.19
464.316	580.19
464.536	585.19
464.755	581.19
464.975	599.19
465.195	614.19
465.414	678.19
465.634	583.19
465.854	540.19
466.073	556.19
466.293	541.19
466.512	518.19
466.732	529.19
466.951	497.19
467.171	504.19
467.391	522.19
467.61	511.19
467.829	529.19
468.049	527.19
468.268	514.19
468.488	509.19
468.707	501.19
468.927	514.19
469.146	499.19
469.365	494.19
469.585	501.19
469.804	503.19
470.023	518.19
470.243	509.19
470.462	533.19
470.681	553.19
470.901	518.19
471.12	531.19
471.339	508.19
471.558	517.19
471.777	506.19
471.997	527.19
472.216	511.19
472.435	551.19
472.654	523.19
472.873	536.19
473.092	513.19
473.311	520.19
473.53	505.19
473.749	515.19
473.968	558.19
474.187	671.19
474.406	669.19
474.625	550.19
474.844	526.19
475.063	522.19
475.282	521.19
475.501	506.19
475.72	511.19
475.939	532.19
476.158	536.19
476.377	528.19
476.596	517.19
476.814	528.19
477.033	543.19
477.252	541.19
477.471	536.19
477.69	542.19
477.908	555.19
478.127	563.19
478.346	559.19
478.564	579.19
478.783	577.19
479.002	583.19
479.22	593.19
479.439	605.19
479.658	610.19
479.876	621.19
480.095	625.19
480.313	654.19
480.532	673.19
480.751	655.19
480.969	639.19
481.188	685.19
481.406	722.19
481.624	689.19
481.843	617.19
482.061	618.19
482.28	603.19
482.498	613.19
482.717	618.19
482.935	598.19
483.153	601.19
483.372	607.19
483.59	587.19
483.808	568.19
484.027	589.19
484.245	600.19
484.463	586.19
484.681	616.19
484.9	618.19
485.118	627.19
485.336	611.19
485.554	637.19
485.772	615.19
485.99	629.19
486.209	621.19
486.427	626.19
486.645	632.19
486.863	641.19
487.081	641.19
487.299	636.19
487.517	623.19
487.735	653.19
487.953	651.19
488.171	638.19
488.389	638.19
488.607	643.19
488.825	635.19
489.043	666.19
489.261	642.19
489.479	681.19
489.696	651.19
489.914	692.19
490.132	679.19
490.35	696.19
490.568	688.19
490.786	689.19
491.003	693.19
491.221	719.19
491.439	727.19
491.657	740.19
491.874	745.19
492.092	724.19
492.31	717.19
492.527	727.19
492.745	759.19
492.963	745.19
493.18	740.19
493.398	755.19
493.615	770.19
493.833	786.19
494.05	779.19
494.268	750.19
494.485	755.19
494.703	769.19
494.92	759.19
495.138	777.19
495.355	760.19
495.573	749.19
495.79	746.19
496.008	778.19
496.225	735.19
496.442	762.19
496.66	755.19
496.877	779.19
497.094	799.19
497.312	788.19
497.529	797.19
497.746	804.19
497.963	814.19
498.181	823.19
498.398	810.19
498.615	856.19
498.832	901.19
499.049	909.19
499.267	938.19
499.484	993.19
499.701	1002.19
499.918	1081.19
500.135	1147.19
500.352	1204.19
500.569	1248.19
500.786	1242.19
501.003	1222.19
501.22	1137.19
501.437	1095.19
501.654	1049.19
