Data from 1975.PennyLincolnUp.Lamp.En5.5.200Scan.071719.P1.Changed Mount._HRD10591_15-57-07-859.txt Node
Date: Thu Jul 18 15:57:07 EDT 2019
User: cochatt
Spectrometer: HR+D1059
Trigger mode: 1
Integration Time (sec): 1.000000E-1
Scans to average: 1
Electric dark correction enabled: true
Nonlinearity correction enabled: false
Boxcar width: 0
XAxis mode: Wavelengths
Number of Pixels in Spectrum: 2048
>>>>>Begin Spectral Data<<<<<
223.165	-14.5
223.4	-14.5
223.635	-14.5
223.869	-31.5
224.104	-15.5
224.338	-5.5
224.573	-3.5
224.808	-11.5
225.042	-18.5
225.277	-3.5
225.511	2.5
225.746	4.5
225.98	26.5
226.215	8.5
226.449	5.5
226.683	19.5
226.918	18.5
227.152	18.5
227.387	40.5
227.621	37.5
227.856	40.5
228.09	38.5
228.324	48.5
228.559	60.5
228.793	62.5
229.027	103.5
229.262	112.5
229.496	129.5
229.73	128.5
229.964	160.5
230.199	134.5
230.433	126.5
230.667	124.5
230.901	116.5
231.136	122.5
231.37	114.5
231.604	104.5
231.838	107.5
232.072	126.5
232.306	104.5
232.541	113.5
232.775	117.5
233.009	124.5
233.243	130.5
233.477	132.5
233.711	132.5
233.945	125.5
234.179	116.5
234.413	125.5
234.647	120.5
234.881	125.5
235.115	117.5
235.349	127.5
235.583	137.5
235.817	137.5
236.051	133.5
236.285	134.5
236.519	136.5
236.753	132.5
236.987	146.5
237.221	190.5
237.455	217.5
237.689	188.5
237.922	145.5
238.156	156.5
238.39	130.5
238.624	131.5
238.858	116.5
239.091	108.5
239.325	136.5
239.559	133.5
239.793	135.5
240.027	136.5
240.26	153.5
240.494	160.5
240.728	145.5
240.961	158.5
241.195	165.5
241.429	143.5
241.662	142.5
241.896	130.5
242.13	144.5
242.363	113.5
242.597	134.5
242.83	147.5
243.064	151.5
243.298	130.5
243.531	156.5
243.765	142.5
243.998	132.5
244.232	125.5
244.465	144.5
244.699	147.5
244.932	152.5
245.166	156.5
245.399	136.5
245.633	158.5
245.866	160.5
246.099	159.5
246.333	159.5
246.566	155.5
246.8	163.5
247.033	157.5
247.266	164.5
247.5	175.5
247.733	160.5
247.966	180.5
248.2	190.5
248.433	167.5
248.666	190.5
248.899	196.5
249.133	219.5
249.366	195.5
249.599	208.5
249.832	195.5
250.066	191.5
250.299	198.5
250.532	220.5
250.765	208.5
250.998	219.5
251.231	240.5
251.465	209.5
251.698	213.5
251.931	207.5
252.164	220.5
252.397	206.5
252.63	212.5
252.863	224.5
253.096	212.5
253.329	243.5
253.562	238.5
253.795	229.5
254.028	220.5
254.261	220.5
254.494	222.5
254.727	247.5
254.96	279.5
255.193	284.5
255.426	253.5
255.659	270.5
255.892	245.5
256.124	239.5
256.357	244.5
256.59	236.5
256.823	221.5
257.056	225.5
257.289	216.5
257.521	222.5
257.754	211.5
257.987	219.5
258.22	225.5
258.452	204.5
258.685	216.5
258.918	218.5
259.151	213.5
259.383	239.5
259.616	246.5
259.849	246.5
260.081	256.5
260.314	253.5
260.547	262.5
260.779	239.5
261.012	241.5
261.244	239.5
261.477	241.5
261.71	252.5
261.942	231.5
262.175	244.5
262.407	223.5
262.64	230.5
262.872	221.5
263.105	221.5
263.337	222.5
263.57	213.5
263.802	234.5
264.035	212.5
264.267	239.5
264.499	224.5
264.732	238.5
264.964	234.5
265.197	217.5
265.429	221.5
265.661	217.5
265.894	228.5
266.126	250.5
266.358	216.5
266.591	256.5
266.823	225.5
267.055	234.5
267.287	234.5
267.52	237.5
267.752	226.5
267.984	233.5
268.216	226.5
268.448	244.5
268.681	234.5
268.913	253.5
269.145	286.5
269.377	282.5
269.609	291.5
269.841	274.5
270.073	269.5
270.306	304.5
270.538	328.5
270.77	336.5
271.002	312.5
271.234	311.5
271.466	298.5
271.698	318.5
271.93	329.5
272.162	322.5
272.394	332.5
272.626	314.5
272.858	294.5
273.09	280.5
273.322	278.5
273.553	276.5
273.785	258.5
274.017	272.5
274.249	273.5
274.481	289.5
274.713	261.5
274.945	260.5
275.176	280.5
275.408	275.5
275.64	273.5
275.872	249.5
276.104	285.5
276.335	286.5
276.567	270.5
276.799	291.5
277.031	296.5
277.262	322.5
277.494	347.5
277.726	303.5
277.957	293.5
278.189	268.5
278.421	301.5
278.652	295.5
278.884	278.5
279.115	287.5
279.347	280.5
279.579	298.5
279.81	285.5
280.042	290.5
280.273	299.5
280.505	284.5
280.736	281.5
280.968	297.5
281.199	288.5
281.431	282.5
281.662	295.5
281.894	302.5
282.125	275.5
282.356	304.5
282.588	325.5
282.819	319.5
283.051	272.5
283.282	301.5
283.513	298.5
283.745	289.5
283.976	293.5
284.207	294.5
284.439	291.5
284.67	321.5
284.901	278.5
285.132	319.5
285.364	301.5
285.595	293.5
285.826	309.5
286.057	295.5
286.288	286.5
286.52	303.5
286.751	294.5
286.982	298.5
287.213	291.5
287.444	297.5
287.675	306.5
287.906	300.5
288.138	330.5
288.369	336.5
288.6	310.5
288.831	332.5
289.062	310.5
289.293	309.5
289.524	300.5
289.755	301.5
289.986	308.5
290.217	286.5
290.448	322.5
290.679	293.5
290.91	325.5
291.141	316.5
291.371	313.5
291.602	298.5
291.833	313.5
292.064	300.5
292.295	312.5
292.526	326.5
292.757	291.5
292.987	312.5
293.218	296.5
293.449	321.5
293.68	334.5
293.91	314.5
294.141	329.5
294.372	316.5
294.603	318.5
294.833	320.5
295.064	290.5
295.295	289.5
295.525	322.5
295.756	317.5
295.987	301.5
296.217	336.5
296.448	342.5
296.679	304.5
296.909	324.5
297.14	326.5
297.37	312.5
297.601	319.5
297.831	323.5
298.062	321.5
298.292	328.5
298.523	328.5
298.753	329.5
298.984	333.5
299.214	335.5
299.445	349.5
299.675	330.5
299.905	321.5
300.136	329.5
300.366	342.5
300.597	352.5
300.827	337.5
301.057	344.5
301.288	335.5
301.518	344.5
301.748	338.5
301.979	329.5
302.209	339.5
302.439	341.5
302.669	358.5
302.9	340.5
303.13	344.5
303.36	333.5
303.59	340.5
303.82	348.5
304.051	366.5
304.281	349.5
304.511	338.5
304.741	357.5
304.971	351.5
305.201	365.5
305.431	343.5
305.661	352.5
305.891	337.5
306.121	348.5
306.352	358.5
306.582	333.5
306.812	360.5
307.042	348.5
307.272	340.5
307.502	340.5
307.731	366.5
307.961	360.5
308.191	349.5
308.421	354.5
308.651	374.5
308.881	345.5
309.111	359.5
309.341	364.5
309.571	377.5
309.8	360.5
310.03	378.5
310.26	373.5
310.49	385.5
310.72	379.5
310.949	394.5
311.179	398.5
311.409	383.5
311.639	390.5
311.868	384.5
312.098	383.5
312.328	384.5
312.557	425.5
312.787	429.5
313.017	388.5
313.246	393.5
313.476	381.5
313.706	393.5
313.935	390.5
314.165	394.5
314.394	392.5
314.624	393.5
314.853	390.5
315.083	417.5
315.312	388.5
315.542	392.5
315.771	370.5
316.001	381.5
316.23	388.5
316.46	373.5
316.689	397.5
316.919	394.5
317.148	411.5
317.377	418.5
317.607	385.5
317.836	378.5
318.065	395.5
318.295	383.5
318.524	391.5
318.753	397.5
318.983	374.5
319.212	389.5
319.441	401.5
319.67	417.5
319.9	409.5
320.129	406.5
320.358	401.5
320.587	392.5
320.816	398.5
321.046	397.5
321.275	421.5
321.504	395.5
321.733	408.5
321.962	404.5
322.191	418.5
322.42	439.5
322.649	444.5
322.878	441.5
323.108	459.5
323.337	458.5
323.566	453.5
323.795	485.5
324.024	540.5
324.253	620.5
324.482	811.5
324.71	1242.5
324.939	1922.5
325.168	1672.5
325.397	833.5
325.626	591.5
325.855	510.5
326.084	489.5
326.313	473.5
326.542	491.5
326.77	516.5
326.999	577.5
327.228	792.5
327.457	1149.5
327.686	1452.5
327.914	970.5
328.143	639.5
328.372	586.5
328.6	549.5
328.829	535.5
329.058	542.5
329.287	560.5
329.515	520.5
329.744	493.5
329.972	502.5
330.201	512.5
330.43	540.5
330.658	560.5
330.887	570.5
331.115	591.5
331.344	524.5
331.572	483.5
331.801	474.5
332.03	487.5
332.258	487.5
332.486	460.5
332.715	459.5
332.943	487.5
333.172	465.5
333.4	494.5
333.629	521.5
333.857	524.5
334.085	513.5
334.314	540.5
334.542	573.5
334.771	587.5
334.999	548.5
335.227	505.5
335.455	486.5
335.684	482.5
335.912	464.5
336.14	447.5
336.369	468.5
336.597	494.5
336.825	480.5
337.053	489.5
337.281	462.5
337.51	464.5
337.738	463.5
337.966	451.5
338.194	473.5
338.422	485.5
338.65	448.5
338.878	445.5
339.106	451.5
339.334	446.5
339.562	431.5
339.79	451.5
340.018	461.5
340.246	437.5
340.474	469.5
340.702	424.5
340.93	436.5
341.158	455.5
341.386	461.5
341.614	448.5
341.842	467.5
342.07	440.5
342.298	441.5
342.526	452.5
342.754	434.5
342.981	446.5
343.209	456.5
343.437	453.5
343.665	477.5
343.893	476.5
344.12	484.5
344.348	475.5
344.576	463.5
344.804	481.5
345.031	450.5
345.259	477.5
345.487	466.5
345.714	446.5
345.942	455.5
346.17	446.5
346.397	406.5
346.625	423.5
346.853	422.5
347.08	427.5
347.308	416.5
347.535	466.5
347.763	443.5
347.99	438.5
348.218	429.5
348.445	446.5
348.673	457.5
348.9	452.5
349.128	410.5
349.355	407.5
349.583	401.5
349.81	423.5
350.037	411.5
350.265	441.5
350.492	432.5
350.72	418.5
350.947	443.5
351.174	454.5
351.402	441.5
351.629	441.5
351.856	439.5
352.083	449.5
352.311	444.5
352.538	446.5
352.765	464.5
352.992	438.5
353.22	425.5
353.447	432.5
353.674	427.5
353.901	441.5
354.128	414.5
354.355	420.5
354.583	402.5
354.81	421.5
355.037	428.5
355.264	429.5
355.491	392.5
355.718	403.5
355.945	388.5
356.172	398.5
356.399	399.5
356.626	411.5
356.853	410.5
357.08	424.5
357.307	396.5
357.534	400.5
357.761	400.5
357.988	402.5
358.215	415.5
358.441	399.5
358.668	424.5
358.895	428.5
359.122	403.5
359.349	420.5
359.576	457.5
359.802	459.5
360.029	470.5
360.256	459.5
360.483	473.5
360.709	440.5
360.936	449.5
361.163	418.5
361.39	446.5
361.616	448.5
361.843	446.5
362.07	436.5
362.296	459.5
362.523	440.5
362.749	420.5
362.976	424.5
363.203	440.5
363.429	439.5
363.656	440.5
363.882	444.5
364.109	421.5
364.335	420.5
364.562	437.5
364.788	412.5
365.015	402.5
365.241	434.5
365.468	427.5
365.694	430.5
365.92	410.5
366.147	428.5
366.373	427.5
366.599	430.5
366.826	440.5
367.052	442.5
367.278	438.5
367.505	430.5
367.731	436.5
367.957	438.5
368.184	441.5
368.41	420.5
368.636	445.5
368.862	440.5
369.089	429.5
369.315	428.5
369.541	428.5
369.767	427.5
369.993	436.5
370.219	434.5
370.445	434.5
370.672	431.5
370.898	432.5
371.124	410.5
371.35	448.5
371.576	450.5
371.802	413.5
372.028	417.5
372.254	434.5
372.48	426.5
372.706	433.5
372.932	428.5
373.158	446.5
373.384	452.5
373.61	457.5
373.835	425.5
374.061	444.5
374.287	431.5
374.513	452.5
374.739	449.5
374.965	427.5
375.191	427.5
375.416	442.5
375.642	431.5
375.868	443.5
376.094	438.5
376.319	438.5
376.545	442.5
376.771	433.5
376.997	426.5
377.222	422.5
377.448	430.5
377.674	438.5
377.899	452.5
378.125	434.5
378.35	433.5
378.576	414.5
378.802	436.5
379.027	444.5
379.253	422.5
379.478	425.5
379.704	448.5
379.929	432.5
380.155	430.5
380.38	423.5
380.606	426.5
380.831	423.5
381.057	434.5
381.282	421.5
381.507	454.5
381.733	429.5
381.958	434.5
382.184	465.5
382.409	458.5
382.634	445.5
382.86	452.5
383.085	454.5
383.31	442.5
383.535	459.5
383.761	430.5
383.986	448.5
384.211	492.5
384.436	471.5
384.662	483.5
384.887	458.5
385.112	485.5
385.337	481.5
385.562	457.5
385.787	473.5
386.013	494.5
386.238	514.5
386.463	489.5
386.688	486.5
386.913	476.5
387.138	478.5
387.363	468.5
387.588	494.5
387.813	472.5
388.038	484.5
388.263	472.5
388.488	487.5
388.713	500.5
388.938	481.5
389.163	497.5
389.387	508.5
389.612	488.5
389.837	477.5
390.062	458.5
390.287	476.5
390.512	462.5
390.736	488.5
390.961	502.5
391.186	487.5
391.411	486.5
391.636	500.5
391.86	506.5
392.085	506.5
392.31	509.5
392.534	502.5
392.759	497.5
392.984	510.5
393.208	498.5
393.433	511.5
393.658	489.5
393.882	493.5
394.107	486.5
394.331	492.5
394.556	503.5
394.78	499.5
395.005	489.5
395.229	490.5
395.454	519.5
395.678	516.5
395.903	527.5
396.127	550.5
396.352	572.5
396.576	525.5
396.801	500.5
397.025	527.5
397.249	511.5
397.474	536.5
397.698	522.5
397.922	542.5
398.147	554.5
398.371	559.5
398.595	546.5
398.82	556.5
399.044	557.5
399.268	584.5
399.492	633.5
399.717	702.5
399.941	702.5
400.165	706.5
400.389	728.5
400.613	651.5
400.837	622.5
401.062	600.5
401.286	568.5
401.51	576.5
401.734	585.5
401.958	557.5
402.182	571.5
402.406	597.5
402.63	593.5
402.854	577.5
403.078	584.5
403.302	590.5
403.526	601.5
403.75	614.5
403.974	577.5
404.198	580.5
404.422	588.5
404.645	600.5
404.869	614.5
405.093	642.5
405.317	687.5
405.541	712.5
405.765	666.5
405.988	620.5
406.212	626.5
406.436	634.5
406.66	642.5
406.883	641.5
407.107	647.5
407.331	715.5
407.555	790.5
407.778	777.5
408.002	713.5
408.226	665.5
408.449	670.5
408.673	650.5
408.896	670.5
409.12	695.5
409.344	686.5
409.567	617.5
409.791	598.5
410.014	602.5
410.238	605.5
410.461	626.5
410.685	600.5
410.908	616.5
411.132	639.5
411.355	689.5
411.578	656.5
411.802	588.5
412.025	578.5
412.249	606.5
412.472	624.5
412.695	660.5
412.919	665.5
413.142	611.5
413.365	560.5
413.589	582.5
413.812	594.5
414.035	569.5
414.258	573.5
414.482	564.5
414.705	571.5
414.928	568.5
415.151	579.5
415.374	549.5
415.597	564.5
415.821	562.5
416.044	556.5
416.267	593.5
416.49	538.5
416.713	560.5
416.936	569.5
417.159	547.5
417.382	545.5
417.605	553.5
417.828	564.5
418.051	572.5
418.274	568.5
418.497	549.5
418.72	560.5
418.943	558.5
419.166	581.5
419.389	645.5
419.611	605.5
419.834	601.5
420.057	615.5
420.28	600.5
420.503	584.5
420.726	585.5
420.948	601.5
421.171	642.5
421.394	657.5
421.617	615.5
421.839	577.5
422.062	566.5
422.285	594.5
422.507	652.5
422.73	740.5
422.953	713.5
423.175	641.5
423.398	590.5
423.621	601.5
423.843	637.5
424.066	628.5
424.288	628.5
424.511	630.5
424.733	715.5
424.956	775.5
425.178	756.5
425.401	720.5
425.623	766.5
425.846	646.5
426.068	610.5
426.291	628.5
426.513	594.5
426.735	613.5
426.958	653.5
427.18	725.5
427.402	833.5
427.625	948.5
427.847	828.5
428.069	741.5
428.292	646.5
428.514	595.5
428.736	560.5
428.958	577.5
429.181	550.5
429.403	567.5
429.625	568.5
429.847	593.5
430.069	668.5
430.292	672.5
430.514	577.5
430.736	557.5
430.958	556.5
431.18	557.5
431.402	548.5
431.624	524.5
431.846	535.5
432.068	554.5
432.29	543.5
432.512	548.5
432.734	537.5
432.956	544.5
433.178	537.5
433.4	558.5
433.622	530.5
433.844	559.5
434.066	539.5
434.287	521.5
434.509	536.5
434.731	560.5
434.953	573.5
435.175	594.5
435.397	612.5
435.618	606.5
435.84	653.5
436.062	733.5
436.284	820.5
436.505	675.5
436.727	598.5
436.949	582.5
437.17	577.5
437.392	575.5
437.614	558.5
437.835	581.5
438.057	682.5
438.278	808.5
438.5	759.5
438.721	865.5
438.943	850.5
439.165	677.5
439.386	615.5
439.608	624.5
439.829	626.5
440.05	612.5
440.272	684.5
440.493	614.5
440.715	612.5
440.936	562.5
441.158	550.5
441.379	575.5
441.6	615.5
441.822	630.5
442.043	666.5
442.264	745.5
442.486	792.5
442.707	668.5
442.928	632.5
443.149	616.5
443.371	646.5
443.592	689.5
443.813	800.5
444.034	853.5
444.255	712.5
444.476	656.5
444.698	639.5
444.919	635.5
445.14	751.5
445.361	676.5
445.582	671.5
445.803	713.5
446.024	822.5
446.245	841.5
446.466	752.5
446.687	652.5
446.908	607.5
447.129	587.5
447.35	578.5
447.571	591.5
447.792	553.5
448.013	548.5
448.234	570.5
448.455	602.5
448.675	721.5
448.896	837.5
449.117	733.5
449.338	685.5
449.559	791.5
449.779	920.5
450	743.5
450.221	610.5
450.442	558.5
450.662	526.5
450.883	530.5
451.104	571.5
451.324	534.5
451.545	531.5
451.766	514.5
451.986	503.5
452.207	492.5
452.428	486.5
452.648	514.5
452.869	501.5
453.089	508.5
453.31	522.5
453.53	506.5
453.751	490.5
453.971	503.5
454.192	524.5
454.412	516.5
454.633	491.5
454.853	493.5
455.073	497.5
455.294	516.5
455.514	570.5
455.734	582.5
455.955	496.5
456.175	485.5
456.395	473.5
456.616	480.5
456.836	463.5
457.056	467.5
457.276	460.5
457.497	495.5
457.717	465.5
457.937	496.5
458.157	502.5
458.377	514.5
458.598	534.5
458.818	549.5
459.038	634.5
459.258	656.5
459.478	591.5
459.698	560.5
459.918	534.5
460.138	545.5
460.358	555.5
460.578	552.5
460.798	557.5
461.018	566.5
461.238	561.5
461.458	536.5
461.678	588.5
461.898	568.5
462.118	571.5
462.338	572.5
462.558	581.5
462.777	597.5
462.997	623.5
463.217	657.5
463.437	640.5
463.657	623.5
463.876	620.5
464.096	601.5
464.316	608.5
464.536	632.5
464.755	612.5
464.975	604.5
465.195	634.5
465.414	662.5
465.634	625.5
465.854	594.5
466.073	542.5
466.293	530.5
466.512	535.5
466.732	492.5
466.951	530.5
467.171	507.5
467.391	530.5
467.61	526.5
467.829	540.5
468.049	522.5
468.268	535.5
468.488	516.5
468.707	504.5
468.927	493.5
469.146	490.5
469.365	508.5
469.585	492.5
469.804	526.5
470.023	500.5
470.243	534.5
470.462	533.5
470.681	556.5
470.901	532.5
471.12	520.5
471.339	529.5
471.558	529.5
471.777	534.5
471.997	526.5
472.216	519.5
472.435	576.5
472.654	546.5
472.873	534.5
473.092	503.5
473.311	530.5
473.53	506.5
473.749	513.5
473.968	579.5
474.187	656.5
474.406	670.5
474.625	566.5
474.844	535.5
475.063	527.5
475.282	527.5
475.501	513.5
475.72	523.5
475.939	536.5
476.158	537.5
476.377	552.5
476.596	542.5
476.814	544.5
477.033	577.5
477.252	545.5
477.471	561.5
477.69	550.5
477.908	556.5
478.127	582.5
478.346	573.5
478.564	579.5
478.783	593.5
479.002	615.5
479.22	617.5
479.439	633.5
479.658	628.5
479.876	644.5
480.095	620.5
480.313	664.5
480.532	674.5
480.751	661.5
480.969	680.5
481.188	705.5
481.406	744.5
481.624	666.5
481.843	640.5
482.061	617.5
482.28	618.5
482.498	600.5
482.717	609.5
482.935	582.5
483.153	630.5
483.372	610.5
483.59	614.5
483.808	614.5
484.027	585.5
484.245	599.5
484.463	594.5
484.681	648.5
484.9	630.5
485.118	628.5
485.336	646.5
485.554	617.5
485.772	627.5
485.99	618.5
486.209	634.5
486.427	632.5
486.645	653.5
486.863	654.5
487.081	678.5
487.299	678.5
487.517	649.5
487.735	651.5
487.953	652.5
488.171	676.5
488.389	649.5
488.607	645.5
488.825	677.5
489.043	671.5
489.261	668.5
489.479	641.5
489.696	656.5
489.914	661.5
490.132	687.5
490.35	715.5
490.568	662.5
490.786	704.5
491.003	695.5
491.221	725.5
491.439	730.5
491.657	735.5
491.874	753.5
492.092	725.5
492.31	761.5
492.527	750.5
492.745	768.5
492.963	781.5
493.18	772.5
493.398	801.5
493.615	789.5
493.833	814.5
494.05	778.5
494.268	772.5
494.485	781.5
494.703	788.5
494.92	798.5
495.138	788.5
495.355	784.5
495.573	800.5
495.79	788.5
496.008	763.5
496.225	773.5
496.442	780.5
496.66	785.5
496.877	794.5
497.094	805.5
497.312	816.5
497.529	839.5
497.746	836.5
497.963	816.5
498.181	868.5
498.398	884.5
498.615	877.5
498.832	920.5
499.049	922.5
499.267	942.5
499.484	991.5
499.701	1040.5
499.918	1096.5
500.135	1163.5
500.352	1208.5
500.569	1243.5
500.786	1282.5
501.003	1237.5
501.22	1169.5
501.437	1134.5
501.654	1068.5
501.871	1052.5
502.088	991.5
502.305	975.5
502.522	926.5
502.739	922.5
502.956	859.5
503.172	855.5
503.389	812.5
503.606	824.5
503.823	831.5
504.04	811.5
504.256	794.5
504.473	801.5
504.69	809.5
504.907	775.5
505.123	782.5
505.34	777.5
505.557	745.5
505.773	749.5
505.99	750.5
506.207	741.5
506.423	766.5
506.64	710.5
506.856	701.5
507.073	705.5
507.289	713.5
507.506	711.5
507.722	684.5
507.939	713.5
508.155	707.5
508.372	684.5
508.588	678.5
508.805	679.5
509.021	688.5
509.238	711.5
509.454	703.5
509.67	677.5
509.887	682.5
510.103	662.5
510.319	686.5
510.536	730.5
510.752	1076.5
510.968	951.5
511.184	681.5
511.401	668.5
511.617	648.5
511.833	653.5
512.049	623.5
512.265	638.5
512.481	669.5
512.698	628.5
512.914	648.5
513.13	643.5
513.346	645.5
513.562	650.5
513.778	656.5
513.994	649.5
514.21	628.5
514.426	668.5
514.642	661.5
514.858	685.5
515.074	728.5
515.29	852.5
515.506	1090.5
515.721	962.5
515.937	729.5
516.153	700.5
516.369	680.5
516.585	669.5
516.801	666.5
517.016	685.5
517.232	691.5
517.448	667.5
517.664	695.5
517.879	706.5
518.095	706.5
518.311	706.5
518.527	665.5
518.742	671.5
518.958	655.5
519.173	672.5
519.389	672.5
