Data from 1975.PennyLincolnUp.Lamp.En5.5.200Scan.071719.P1.Changed Mount._HRD10591_15-57-57-860.txt Node
Date: Thu Jul 18 15:57:57 EDT 2019
User: cochatt
Spectrometer: HR+D1059
Trigger mode: 1
Integration Time (sec): 1.000000E-1
Scans to average: 1
Electric dark correction enabled: true
Nonlinearity correction enabled: false
Boxcar width: 0
XAxis mode: Wavelengths
Number of Pixels in Spectrum: 2048
>>>>>Begin Spectral Data<<<<<
223.165	-10.75
223.4	-10.75
223.635	-10.75
223.869	-3.75
224.104	-9.75
224.338	-24.75
224.573	-11.75
224.808	-23.75
225.042	-4.75
225.277	-6.75
225.511	-24.75
225.746	11.25
225.98	8.25
226.215	15.25
226.449	24.25
226.683	11.25
226.918	17.25
227.152	33.25
227.387	23.25
227.621	34.25
227.856	45.25
228.09	51.25
228.324	55.25
228.559	68.25
228.793	81.25
229.027	97.25
229.262	103.25
229.496	91.25
229.73	130.25
229.964	133.25
230.199	138.25
230.433	99.25
230.667	114.25
230.901	105.25
231.136	131.25
231.37	96.25
231.604	101.25
231.838	105.25
232.072	116.25
232.306	106.25
232.541	115.25
232.775	117.25
233.009	106.25
233.243	125.25
233.477	112.25
233.711	117.25
233.945	133.25
234.179	113.25
234.413	127.25
234.647	111.25
234.881	104.25
235.115	124.25
235.349	107.25
235.583	119.25
235.817	125.25
236.051	118.25
236.285	139.25
236.519	125.25
236.753	111.25
236.987	141.25
237.221	174.25
237.455	223.25
237.689	172.25
237.922	133.25
238.156	136.25
238.39	125.25
238.624	122.25
238.858	117.25
239.091	117.25
239.325	121.25
239.559	124.25
239.793	134.25
240.027	150.25
240.26	148.25
240.494	150.25
240.728	145.25
240.961	148.25
241.195	140.25
241.429	133.25
241.662	131.25
241.896	147.25
242.13	132.25
242.363	136.25
242.597	153.25
242.83	137.25
243.064	134.25
243.298	146.25
243.531	126.25
243.765	161.25
243.998	153.25
244.232	141.25
244.465	157.25
244.699	156.25
244.932	153.25
245.166	156.25
245.399	134.25
245.633	170.25
245.866	155.25
246.099	142.25
246.333	157.25
246.566	147.25
246.8	165.25
247.033	150.25
247.266	157.25
247.5	161.25
247.733	180.25
247.966	170.25
248.2	153.25
248.433	178.25
248.666	171.25
248.899	196.25
249.133	201.25
249.366	203.25
249.599	198.25
249.832	185.25
250.066	191.25
250.299	173.25
250.532	212.25
250.765	189.25
250.998	217.25
251.231	243.25
251.465	234.25
251.698	213.25
251.931	206.25
252.164	183.25
252.397	207.25
252.63	197.25
252.863	213.25
253.096	213.25
253.329	219.25
253.562	233.25
253.795	215.25
254.028	210.25
254.261	231.25
254.494	225.25
254.727	264.25
254.96	269.25
255.193	269.25
255.426	267.25
255.659	235.25
255.892	242.25
256.124	236.25
256.357	241.25
256.59	233.25
256.823	219.25
257.056	217.25
257.289	217.25
257.521	236.25
257.754	210.25
257.987	210.25
258.22	205.25
258.452	228.25
258.685	209.25
258.918	209.25
259.151	225.25
259.383	227.25
259.616	218.25
259.849	220.25
260.081	226.25
260.314	253.25
260.547	257.25
260.779	244.25
261.012	245.25
261.244	239.25
261.477	221.25
261.71	236.25
261.942	225.25
262.175	244.25
262.407	218.25
262.64	221.25
262.872	236.25
263.105	228.25
263.337	208.25
263.57	220.25
263.802	215.25
264.035	214.25
264.267	214.25
264.499	233.25
264.732	212.25
264.964	227.25
265.197	225.25
265.429	238.25
265.661	234.25
265.894	221.25
266.126	230.25
266.358	237.25
266.591	234.25
266.823	233.25
267.055	233.25
267.287	241.25
267.52	232.25
267.752	250.25
267.984	250.25
268.216	222.25
268.448	245.25
268.681	253.25
268.913	264.25
269.145	269.25
269.377	294.25
269.609	280.25
269.841	269.25
270.073	268.25
270.306	269.25
270.538	337.25
270.77	334.25
271.002	300.25
271.234	305.25
271.466	275.25
271.698	320.25
271.93	335.25
272.162	319.25
272.394	328.25
272.626	306.25
272.858	297.25
273.09	284.25
273.322	280.25
273.553	270.25
273.785	291.25
274.017	287.25
274.249	283.25
274.481	289.25
274.713	267.25
274.945	260.25
275.176	272.25
275.408	291.25
275.64	271.25
275.872	276.25
276.104	272.25
276.335	273.25
276.567	284.25
276.799	316.25
277.031	321.25
277.262	326.25
277.494	327.25
277.726	315.25
277.957	293.25
278.189	298.25
278.421	287.25
278.652	274.25
278.884	276.25
279.115	269.25
279.347	277.25
279.579	286.25
279.81	275.25
280.042	276.25
280.273	270.25
280.505	295.25
280.736	275.25
280.968	279.25
281.199	285.25
281.431	270.25
281.662	273.25
281.894	294.25
282.125	283.25
282.356	295.25
282.588	305.25
282.819	308.25
283.051	287.25
283.282	285.25
283.513	293.25
283.745	291.25
283.976	303.25
284.207	301.25
284.439	307.25
284.67	294.25
284.901	282.25
285.132	279.25
285.364	298.25
285.595	296.25
285.826	277.25
286.057	297.25
286.288	299.25
286.52	292.25
286.751	303.25
286.982	285.25
287.213	307.25
287.444	295.25
287.675	283.25
287.906	329.25
288.138	315.25
288.369	326.25
288.6	322.25
288.831	311.25
289.062	293.25
289.293	313.25
289.524	314.25
289.755	313.25
289.986	316.25
290.217	308.25
290.448	302.25
290.679	313.25
290.91	322.25
291.141	309.25
291.371	308.25
291.602	310.25
291.833	313.25
292.064	317.25
292.295	315.25
292.526	315.25
292.757	306.25
292.987	306.25
293.218	310.25
293.449	310.25
293.68	297.25
293.91	323.25
294.141	313.25
294.372	316.25
294.603	309.25
294.833	323.25
295.064	298.25
295.295	316.25
295.525	326.25
295.756	327.25
295.987	306.25
296.217	331.25
296.448	334.25
296.679	329.25
296.909	337.25
297.14	317.25
297.37	314.25
297.601	297.25
297.831	331.25
298.062	318.25
298.292	329.25
298.523	327.25
298.753	346.25
298.984	314.25
299.214	334.25
299.445	335.25
299.675	328.25
299.905	327.25
300.136	333.25
300.366	346.25
300.597	343.25
300.827	336.25
301.057	346.25
301.288	344.25
301.518	329.25
301.748	344.25
301.979	340.25
302.209	349.25
302.439	350.25
302.669	340.25
302.9	346.25
303.13	333.25
303.36	355.25
303.59	371.25
303.82	346.25
304.051	370.25
304.281	363.25
304.511	357.25
304.741	352.25
304.971	345.25
305.201	361.25
305.431	343.25
305.661	351.25
305.891	353.25
306.121	351.25
306.352	356.25
306.582	365.25
306.812	358.25
307.042	364.25
307.272	355.25
307.502	349.25
307.731	355.25
307.961	356.25
308.191	351.25
308.421	345.25
308.651	364.25
308.881	350.25
309.111	354.25
309.341	365.25
309.571	353.25
309.8	377.25
310.03	354.25
310.26	382.25
310.49	378.25
310.72	383.25
310.949	395.25
311.179	399.25
311.409	374.25
311.639	382.25
311.868	395.25
312.098	371.25
312.328	384.25
312.557	403.25
312.787	419.25
313.017	405.25
313.246	390.25
313.476	385.25
313.706	369.25
313.935	405.25
314.165	406.25
314.394	418.25
314.624	390.25
314.853	403.25
315.083	385.25
315.312	401.25
315.542	392.25
315.771	405.25
316.001	387.25
316.23	377.25
316.46	391.25
316.689	375.25
316.919	386.25
317.148	407.25
317.377	414.25
317.607	417.25
317.836	369.25
318.065	386.25
318.295	404.25
318.524	412.25
318.753	386.25
318.983	392.25
319.212	380.25
319.441	394.25
319.67	413.25
319.9	389.25
320.129	391.25
320.358	386.25
320.587	411.25
320.816	415.25
321.046	425.25
321.275	388.25
321.504	417.25
321.733	398.25
321.962	406.25
322.191	419.25
322.42	436.25
322.649	441.25
322.878	455.25
323.108	463.25
323.337	475.25
323.566	460.25
323.795	512.25
324.024	528.25
324.253	603.25
324.482	849.25
324.71	1302.25
324.939	1896.25
325.168	1685.25
325.397	842.25
325.626	576.25
325.855	501.25
326.084	497.25
326.313	490.25
326.542	492.25
326.77	532.25
326.999	599.25
327.228	791.25
327.457	1167.25
327.686	1463.25
327.914	1001.25
328.143	657.25
328.372	569.25
328.6	559.25
328.829	500.25
329.058	543.25
329.287	557.25
329.515	538.25
329.744	512.25
329.972	507.25
330.201	531.25
330.43	545.25
330.658	556.25
330.887	581.25
331.115	559.25
331.344	499.25
331.572	517.25
331.801	488.25
332.03	507.25
332.258	477.25
332.486	472.25
332.715	471.25
332.943	478.25
333.172	500.25
333.4	477.25
333.629	478.25
333.857	489.25
334.085	509.25
334.314	535.25
334.542	557.25
334.771	563.25
334.999	527.25
335.227	503.25
335.455	505.25
335.684	478.25
335.912	486.25
336.14	468.25
336.369	475.25
336.597	470.25
336.825	468.25
337.053	478.25
337.281	459.25
337.51	466.25
337.738	485.25
337.966	448.25
338.194	461.25
338.422	457.25
338.65	483.25
338.878	460.25
339.106	454.25
339.334	464.25
339.562	451.25
339.79	450.25
340.018	444.25
340.246	442.25
340.474	445.25
340.702	445.25
340.93	459.25
341.158	457.25
341.386	454.25
341.614	468.25
341.842	428.25
342.07	447.25
342.298	446.25
342.526	441.25
342.754	472.25
342.981	455.25
343.209	426.25
343.437	456.25
343.665	441.25
343.893	486.25
344.12	454.25
344.348	478.25
344.576	462.25
344.804	475.25
345.031	470.25
345.259	472.25
345.487	463.25
345.714	449.25
345.942	443.25
346.17	418.25
346.397	425.25
346.625	434.25
346.853	430.25
347.08	428.25
347.308	448.25
347.535	453.25
347.763	454.25
347.99	455.25
348.218	429.25
348.445	443.25
348.673	427.25
348.9	426.25
349.128	421.25
349.355	436.25
349.583	426.25
349.81	448.25
350.037	409.25
350.265	423.25
350.492	445.25
350.72	431.25
350.947	422.25
351.174	436.25
351.402	447.25
351.629	453.25
351.856	431.25
352.083	438.25
352.311	423.25
352.538	455.25
352.765	442.25
352.992	446.25
353.22	436.25
353.447	425.25
353.674	417.25
353.901	413.25
354.128	383.25
354.355	393.25
354.583	432.25
354.81	419.25
355.037	419.25
355.264	385.25
355.491	412.25
355.718	419.25
355.945	424.25
356.172	405.25
356.399	414.25
356.626	423.25
356.853	425.25
357.08	417.25
357.307	382.25
357.534	410.25
357.761	395.25
357.988	422.25
358.215	409.25
358.441	407.25
358.668	420.25
358.895	430.25
359.122	424.25
359.349	434.25
359.576	451.25
359.802	440.25
360.029	458.25
360.256	452.25
360.483	467.25
360.709	455.25
360.936	427.25
361.163	455.25
361.39	448.25
361.616	429.25
361.843	436.25
362.07	428.25
362.296	433.25
362.523	439.25
362.749	420.25
362.976	426.25
363.203	412.25
363.429	445.25
363.656	417.25
363.882	422.25
364.109	424.25
364.335	409.25
364.562	429.25
364.788	422.25
365.015	428.25
365.241	404.25
365.468	443.25
365.694	412.25
365.92	415.25
366.147	419.25
366.373	432.25
366.599	438.25
366.826	432.25
367.052	410.25
367.278	417.25
367.505	411.25
367.731	418.25
367.957	413.25
368.184	433.25
368.41	421.25
368.636	443.25
368.862	443.25
369.089	422.25
369.315	431.25
369.541	430.25
369.767	443.25
369.993	411.25
370.219	434.25
370.445	440.25
370.672	418.25
370.898	418.25
371.124	429.25
371.35	429.25
371.576	438.25
371.802	441.25
372.028	457.25
372.254	417.25
372.48	444.25
372.706	426.25
372.932	430.25
373.158	422.25
373.384	423.25
373.61	440.25
373.835	420.25
374.061	422.25
374.287	426.25
374.513	462.25
374.739	442.25
374.965	453.25
375.191	463.25
375.416	431.25
375.642	445.25
375.868	438.25
376.094	443.25
376.319	431.25
376.545	453.25
376.771	413.25
376.997	437.25
377.222	421.25
377.448	440.25
377.674	414.25
377.899	411.25
378.125	420.25
378.35	425.25
378.576	437.25
378.802	405.25
379.027	442.25
379.253	430.25
379.478	420.25
379.704	413.25
379.929	430.25
380.155	455.25
380.38	450.25
380.606	419.25
380.831	440.25
381.057	431.25
381.282	444.25
381.507	426.25
381.733	445.25
381.958	459.25
382.184	471.25
382.409	429.25
382.634	445.25
382.86	444.25
383.085	441.25
383.31	461.25
383.535	470.25
383.761	453.25
383.986	448.25
384.211	452.25
384.436	468.25
384.662	470.25
384.887	466.25
385.112	490.25
385.337	473.25
385.562	483.25
385.787	483.25
386.013	492.25
386.238	466.25
386.463	478.25
386.688	499.25
386.913	474.25
387.138	472.25
387.363	479.25
387.588	461.25
387.813	476.25
388.038	479.25
388.263	475.25
388.488	476.25
388.713	488.25
388.938	491.25
389.163	489.25
389.387	482.25
389.612	484.25
389.837	492.25
390.062	482.25
390.287	475.25
390.512	487.25
390.736	488.25
390.961	497.25
391.186	484.25
391.411	485.25
391.636	503.25
391.86	506.25
392.085	509.25
392.31	498.25
392.534	521.25
392.759	485.25
392.984	490.25
393.208	494.25
393.433	477.25
393.658	463.25
393.882	482.25
394.107	509.25
394.331	492.25
394.556	470.25
394.78	488.25
395.005	492.25
395.229	492.25
395.454	482.25
395.678	511.25
395.903	542.25
396.127	553.25
396.352	535.25
396.576	512.25
396.801	528.25
397.025	510.25
397.249	508.25
397.474	534.25
397.698	525.25
397.922	542.25
398.147	545.25
398.371	561.25
398.595	534.25
398.82	556.25
399.044	565.25
399.268	604.25
399.492	646.25
399.717	677.25
399.941	700.25
400.165	711.25
400.389	710.25
400.613	653.25
400.837	585.25
401.062	592.25
401.286	582.25
401.51	557.25
401.734	554.25
401.958	556.25
402.182	555.25
402.406	584.25
402.63	578.25
402.854	574.25
403.078	599.25
403.302	597.25
403.526	598.25
403.75	588.25
403.974	610.25
404.198	584.25
404.422	594.25
404.645	615.25
404.869	614.25
405.093	643.25
405.317	677.25
405.541	715.25
405.765	663.25
405.988	636.25
406.212	634.25
406.436	611.25
406.66	649.25
406.883	616.25
407.107	647.25
407.331	693.25
407.555	771.25
407.778	796.25
408.002	691.25
408.226	659.25
408.449	644.25
408.673	647.25
408.896	643.25
409.12	737.25
409.344	666.25
409.567	617.25
409.791	605.25
410.014	591.25
410.238	579.25
410.461	598.25
410.685	568.25
410.908	593.25
411.132	658.25
411.355	645.25
411.578	641.25
411.802	581.25
412.025	595.25
412.249	625.25
412.472	603.25
412.695	664.25
412.919	628.25
413.142	595.25
413.365	569.25
413.589	541.25
413.812	565.25
414.035	554.25
414.258	565.25
414.482	575.25
414.705	561.25
414.928	543.25
415.151	561.25
415.374	529.25
415.597	536.25
415.821	532.25
416.044	554.25
416.267	563.25
416.49	571.25
416.713	570.25
416.936	562.25
417.159	541.25
417.382	549.25
417.605	558.25
417.828	553.25
418.051	581.25
418.274	587.25
418.497	566.25
418.72	563.25
418.943	563.25
419.166	575.25
419.389	592.25
419.611	619.25
419.834	623.25
420.057	597.25
420.28	598.25
420.503	585.25
420.726	613.25
420.948	602.25
421.171	664.25
421.394	630.25
421.617	607.25
421.839	569.25
422.062	599.25
422.285	598.25
422.507	658.25
422.73	711.25
422.953	718.25
423.175	618.25
423.398	615.25
423.621	593.25
423.843	629.25
424.066	618.25
424.288	645.25
424.511	631.25
424.733	679.25
424.956	769.25
425.178	747.25
425.401	750.25
425.623	747.25
425.846	662.25
426.068	627.25
426.291	619.25
426.513	585.25
426.735	642.25
426.958	649.25
427.18	732.25
427.402	845.25
427.625	938.25
427.847	834.25
428.069	713.25
428.292	647.25
428.514	597.25
428.736	571.25
428.958	571.25
429.181	576.25
429.403	550.25
429.625	557.25
429.847	590.25
430.069	659.25
430.292	667.25
430.514	587.25
430.736	575.25
430.958	555.25
431.18	550.25
431.402	563.25
431.624	538.25
431.846	524.25
432.068	542.25
432.29	561.25
432.512	535.25
432.734	547.25
432.956	529.25
433.178	539.25
433.4	565.25
433.622	544.25
433.844	542.25
434.066	531.25
434.287	539.25
434.509	549.25
434.731	527.25
434.953	567.25
435.175	556.25
435.397	596.25
435.618	594.25
435.84	639.25
436.062	751.25
436.284	787.25
436.505	677.25
436.727	618.25
436.949	598.25
437.17	578.25
437.392	561.25
437.614	554.25
437.835	613.25
438.057	671.25
438.278	806.25
438.5	808.25
438.721	883.25
438.943	851.25
439.165	671.25
439.386	626.25
439.608	604.25
439.829	631.25
440.05	621.25
440.272	681.25
440.493	650.25
440.715	593.25
440.936	590.25
441.158	563.25
441.379	557.25
441.6	600.25
441.822	594.25
442.043	647.25
442.264	749.25
442.486	795.25
442.707	681.25
442.928	633.25
443.149	632.25
443.371	626.25
443.592	690.25
443.813	770.25
444.034	877.25
444.255	729.25
444.476	655.25
444.698	651.25
444.919	654.25
445.14	753.25
445.361	677.25
445.582	663.25
445.803	694.25
446.024	841.25
446.245	842.25
446.466	775.25
446.687	643.25
446.908	613.25
447.129	584.25
447.35	588.25
447.571	579.25
447.792	542.25
448.013	570.25
448.234	585.25
448.455	591.25
448.675	722.25
448.896	849.25
449.117	711.25
449.338	679.25
449.559	792.25
449.779	923.25
450	737.25
450.221	609.25
450.442	562.25
450.662	528.25
450.883	534.25
451.104	572.25
451.324	534.25
451.545	535.25
451.766	519.25
451.986	494.25
452.207	495.25
452.428	485.25
452.648	500.25
452.869	490.25
453.089	485.25
453.31	513.25
453.53	515.25
453.751	501.25
453.971	491.25
454.192	502.25
454.412	517.25
454.633	506.25
454.853	513.25
455.073	488.25
455.294	519.25
455.514	586.25
455.734	579.25
455.955	489.25
456.175	495.25
456.395	482.25
456.616	449.25
456.836	468.25
457.056	465.25
457.276	451.25
457.497	475.25
457.717	463.25
457.937	493.25
458.157	490.25
458.377	497.25
458.598	513.25
458.818	539.25
459.038	610.25
459.258	644.25
459.478	593.25
459.698	522.25
459.918	530.25
460.138	535.25
460.358	566.25
460.578	542.25
460.798	575.25
461.018	555.25
461.238	579.25
461.458	540.25
461.678	555.25
461.898	572.25
462.118	555.25
462.338	557.25
462.558	596.25
462.777	601.25
462.997	606.25
463.217	616.25
463.437	669.25
463.657	601.25
463.876	602.25
464.096	605.25
464.316	627.25
464.536	630.25
464.755	615.25
464.975	598.25
465.195	618.25
465.414	665.25
465.634	613.25
465.854	573.25
466.073	549.25
466.293	532.25
466.512	501.25
466.732	517.25
466.951	527.25
467.171	520.25
467.391	508.25
467.61	496.25
467.829	537.25
468.049	540.25
468.268	535.25
468.488	513.25
468.707	507.25
468.927	526.25
469.146	501.25
469.365	511.25
469.585	487.25
469.804	493.25
470.023	507.25
470.243	517.25
470.462	520.25
470.681	553.25
470.901	541.25
471.12	528.25
471.339	554.25
471.558	524.25
471.777	538.25
471.997	515.25
472.216	495.25
472.435	563.25
472.654	537.25
472.873	535.25
473.092	507.25
473.311	513.25
473.53	517.25
473.749	542.25
473.968	551.25
474.187	655.25
474.406	664.25
474.625	600.25
474.844	546.25
475.063	528.25
475.282	509.25
475.501	527.25
475.72	525.25
475.939	537.25
476.158	516.25
476.377	533.25
476.596	537.25
476.814	538.25
477.033	546.25
477.252	548.25
477.471	559.25
477.69	550.25
477.908	559.25
478.127	583.25
478.346	569.25
478.564	567.25
478.783	573.25
479.002	587.25
479.22	603.25
479.439	613.25
479.658	611.25
479.876	639.25
480.095	645.25
480.313	684.25
480.532	658.25
480.751	672.25
480.969	670.25
481.188	718.25
481.406	725.25
481.624	670.25
481.843	650.25
482.061	642.25
482.28	605.25
482.498	614.25
482.717	604.25
482.935	605.25
483.153	605.25
483.372	605.25
483.59	636.25
483.808	610.25
484.027	595.25
484.245	584.25
484.463	613.25
484.681	615.25
484.9	616.25
485.118	619.25
485.336	634.25
485.554	647.25
485.772	625.25
485.99	638.25
486.209	642.25
486.427	643.25
486.645	647.25
486.863	646.25
487.081	674.25
487.299	638.25
487.517	659.25
487.735	632.25
487.953	659.25
488.171	639.25
488.389	647.25
488.607	638.25
488.825	645.25
489.043	655.25
489.261	657.25
489.479	657.25
489.696	675.25
489.914	683.25
490.132	685.25
490.35	689.25
490.568	717.25
490.786	684.25
491.003	685.25
491.221	727.25
491.439	738.25
491.657	719.25
491.874	753.25
492.092	742.25
492.31	765.25
492.527	751.25
492.745	761.25
492.963	743.25
493.18	767.25
493.398	775.25
493.615	757.25
493.833	774.25
494.05	772.25
494.268	763.25
494.485	779.25
494.703	775.25
494.92	775.25
495.138	760.25
495.355	764.25
495.573	742.25
495.79	778.25
496.008	791.25
496.225	757.25
496.442	769.25
496.66	779.25
496.877	769.25
497.094	799.25
497.312	799.25
497.529	797.25
497.746	812.25
497.963	829.25
498.181	833.25
498.398	855.25
498.615	862.25
498.832	910.25
499.049	919.25
499.267	931.25
499.484	980.25
499.701	1053.25
499.918	1055.25
500.135	1158.25
500.352	1203.25
500.569	1250.25
500.786	1230.25
501.003	1255.25
501.22	1189.25
501.437	1117.25
501.654	1101.25
