Data from 1975.PennyLincolnUp.Lamp.En5.5.200Scan.071719.P1.Changed Mount._HRD10591_15-58-05-860.txt Node
Date: Thu Jul 18 15:58:05 EDT 2019
User: cochatt
Spectrometer: HR+D1059
Trigger mode: 1
Integration Time (sec): 1.000000E-1
Scans to average: 1
Electric dark correction enabled: true
Nonlinearity correction enabled: false
Boxcar width: 0
XAxis mode: Wavelengths
Number of Pixels in Spectrum: 2048
>>>>>Begin Spectral Data<<<<<
223.165	-18.88
223.4	-18.88
223.635	-18.88
223.869	-11.88
224.104	-35.88
224.338	-18.88
224.573	-2.88
224.808	-1.88
225.042	2.12
225.277	7.12
225.511	-19.88
225.746	6.12
225.98	4.12
226.215	6.12
226.449	22.12
226.683	10.12
226.918	22.12
227.152	30.12
227.387	47.12
227.621	34.12
227.856	45.12
228.09	55.12
228.324	60.12
228.559	67.12
228.793	73.12
229.027	97.12
229.262	109.12
229.496	124.12
229.73	145.12
229.964	162.12
230.199	119.12
230.433	118.12
230.667	114.12
230.901	110.12
231.136	110.12
231.37	106.12
231.604	122.12
231.838	126.12
232.072	112.12
232.306	118.12
232.541	118.12
232.775	121.12
233.009	118.12
233.243	130.12
233.477	106.12
233.711	107.12
233.945	120.12
234.179	108.12
234.413	119.12
234.647	119.12
234.881	117.12
235.115	108.12
235.349	133.12
235.583	119.12
235.817	129.12
236.051	132.12
236.285	124.12
236.519	124.12
236.753	131.12
236.987	156.12
237.221	172.12
237.455	238.12
237.689	198.12
237.922	136.12
238.156	133.12
238.39	128.12
238.624	124.12
238.858	118.12
239.091	112.12
239.325	126.12
239.559	130.12
239.793	136.12
240.027	116.12
240.26	132.12
240.494	142.12
240.728	157.12
240.961	152.12
241.195	165.12
241.429	150.12
241.662	140.12
241.896	146.12
242.13	152.12
242.363	138.12
242.597	141.12
242.83	128.12
243.064	146.12
243.298	141.12
243.531	140.12
243.765	142.12
243.998	155.12
244.232	152.12
244.465	159.12
244.699	156.12
244.932	148.12
245.166	153.12
245.399	151.12
245.633	151.12
245.866	161.12
246.099	151.12
246.333	146.12
246.566	152.12
246.8	155.12
247.033	154.12
247.266	152.12
247.5	168.12
247.733	183.12
247.966	183.12
248.2	172.12
248.433	178.12
248.666	174.12
248.899	188.12
249.133	208.12
249.366	207.12
249.599	199.12
249.832	205.12
250.066	175.12
250.299	173.12
250.532	195.12
250.765	231.12
250.998	233.12
251.231	245.12
251.465	227.12
251.698	219.12
251.931	207.12
252.164	204.12
252.397	199.12
252.63	217.12
252.863	207.12
253.096	214.12
253.329	235.12
253.562	223.12
253.795	226.12
254.028	228.12
254.261	218.12
254.494	235.12
254.727	268.12
254.96	263.12
255.193	272.12
255.426	267.12
255.659	233.12
255.892	250.12
256.124	258.12
256.357	222.12
256.59	236.12
256.823	232.12
257.056	223.12
257.289	207.12
257.521	206.12
257.754	232.12
257.987	212.12
258.22	220.12
258.452	206.12
258.685	238.12
258.918	220.12
259.151	207.12
259.383	219.12
259.616	240.12
259.849	246.12
260.081	239.12
260.314	242.12
260.547	275.12
260.779	266.12
261.012	261.12
261.244	237.12
261.477	225.12
261.71	244.12
261.942	226.12
262.175	248.12
262.407	227.12
262.64	230.12
262.872	223.12
263.105	228.12
263.337	230.12
263.57	210.12
263.802	210.12
264.035	221.12
264.267	219.12
264.499	242.12
264.732	252.12
264.964	223.12
265.197	223.12
265.429	235.12
265.661	208.12
265.894	224.12
266.126	217.12
266.358	221.12
266.591	248.12
266.823	239.12
267.055	252.12
267.287	236.12
267.52	226.12
267.752	228.12
267.984	229.12
268.216	232.12
268.448	240.12
268.681	259.12
268.913	252.12
269.145	274.12
269.377	288.12
269.609	291.12
269.841	278.12
270.073	290.12
270.306	283.12
270.538	323.12
270.77	316.12
271.002	311.12
271.234	316.12
271.466	319.12
271.698	335.12
271.93	317.12
272.162	315.12
272.394	327.12
272.626	306.12
272.858	300.12
273.09	288.12
273.322	285.12
273.553	282.12
273.785	271.12
274.017	277.12
274.249	287.12
274.481	285.12
274.713	263.12
274.945	288.12
275.176	268.12
275.408	279.12
275.64	283.12
275.872	272.12
276.104	267.12
276.335	281.12
276.567	285.12
276.799	311.12
277.031	294.12
277.262	326.12
277.494	342.12
277.726	314.12
277.957	294.12
278.189	305.12
278.421	301.12
278.652	301.12
278.884	277.12
279.115	289.12
279.347	273.12
279.579	275.12
279.81	288.12
280.042	284.12
280.273	277.12
280.505	269.12
280.736	273.12
280.968	283.12
281.199	283.12
281.431	283.12
281.662	295.12
281.894	293.12
282.125	293.12
282.356	321.12
282.588	314.12
282.819	323.12
283.051	288.12
283.282	298.12
283.513	302.12
283.745	283.12
283.976	313.12
284.207	300.12
284.439	299.12
284.67	299.12
284.901	297.12
285.132	312.12
285.364	300.12
285.595	310.12
285.826	287.12
286.057	306.12
286.288	302.12
286.52	309.12
286.751	304.12
286.982	280.12
287.213	312.12
287.444	315.12
287.675	312.12
287.906	320.12
288.138	320.12
288.369	315.12
288.6	330.12
288.831	313.12
289.062	334.12
289.293	309.12
289.524	319.12
289.755	311.12
289.986	323.12
290.217	302.12
290.448	310.12
290.679	300.12
290.91	309.12
291.141	312.12
291.371	303.12
291.602	309.12
291.833	307.12
292.064	306.12
292.295	318.12
292.526	317.12
292.757	324.12
292.987	310.12
293.218	318.12
293.449	307.12
293.68	314.12
293.91	314.12
294.141	326.12
294.372	339.12
294.603	332.12
294.833	313.12
295.064	314.12
295.295	321.12
295.525	294.12
295.756	313.12
295.987	332.12
296.217	331.12
296.448	346.12
296.679	322.12
296.909	310.12
297.14	316.12
297.37	325.12
297.601	322.12
297.831	318.12
298.062	341.12
298.292	325.12
298.523	332.12
298.753	335.12
298.984	347.12
299.214	346.12
299.445	350.12
299.675	341.12
299.905	359.12
300.136	322.12
300.366	316.12
300.597	332.12
300.827	344.12
301.057	340.12
301.288	355.12
301.518	354.12
301.748	339.12
301.979	359.12
302.209	364.12
302.439	351.12
302.669	365.12
302.9	347.12
303.13	349.12
303.36	351.12
303.59	342.12
303.82	363.12
304.051	364.12
304.281	341.12
304.511	354.12
304.741	350.12
304.971	350.12
305.201	370.12
305.431	360.12
305.661	342.12
305.891	345.12
306.121	348.12
306.352	351.12
306.582	350.12
306.812	335.12
307.042	364.12
307.272	337.12
307.502	357.12
307.731	366.12
307.961	358.12
308.191	371.12
308.421	360.12
308.651	350.12
308.881	364.12
309.111	363.12
309.341	384.12
309.571	364.12
309.8	376.12
310.03	388.12
310.26	387.12
310.49	404.12
310.72	387.12
310.949	408.12
311.179	394.12
311.409	398.12
311.639	375.12
311.868	399.12
312.098	388.12
312.328	398.12
312.557	399.12
312.787	403.12
313.017	400.12
313.246	412.12
313.476	393.12
313.706	388.12
313.935	384.12
314.165	387.12
314.394	410.12
314.624	398.12
314.853	391.12
315.083	399.12
315.312	390.12
315.542	400.12
315.771	408.12
316.001	396.12
316.23	396.12
316.46	375.12
316.689	391.12
316.919	386.12
317.148	398.12
317.377	418.12
317.607	397.12
317.836	378.12
318.065	387.12
318.295	366.12
318.524	398.12
318.753	405.12
318.983	399.12
319.212	400.12
319.441	407.12
319.67	413.12
319.9	395.12
320.129	391.12
320.358	403.12
320.587	413.12
320.816	418.12
321.046	404.12
321.275	423.12
321.504	406.12
321.733	409.12
321.962	428.12
322.191	426.12
322.42	446.12
322.649	432.12
322.878	454.12
323.108	432.12
323.337	465.12
323.566	483.12
323.795	515.12
324.024	524.12
324.253	626.12
324.482	850.12
324.71	1316.12
324.939	1949.12
325.168	1723.12
325.397	878.12
325.626	622.12
325.855	528.12
326.084	485.12
326.313	484.12
326.542	488.12
326.77	547.12
326.999	582.12
327.228	802.12
327.457	1209.12
327.686	1521.12
327.914	976.12
328.143	658.12
328.372	569.12
328.6	537.12
328.829	568.12
329.058	556.12
329.287	569.12
329.515	538.12
329.744	485.12
329.972	507.12
330.201	522.12
330.43	563.12
330.658	570.12
330.887	601.12
331.115	571.12
331.344	527.12
331.572	521.12
331.801	499.12
332.03	498.12
332.258	494.12
332.486	500.12
332.715	496.12
332.943	482.12
333.172	477.12
333.4	484.12
333.629	507.12
333.857	510.12
334.085	534.12
334.314	559.12
334.542	568.12
334.771	575.12
334.999	535.12
335.227	519.12
335.455	501.12
335.684	495.12
335.912	490.12
336.14	491.12
336.369	492.12
336.597	487.12
336.825	488.12
337.053	476.12
337.281	477.12
337.51	460.12
337.738	463.12
337.966	472.12
338.194	481.12
338.422	481.12
338.65	475.12
338.878	459.12
339.106	458.12
339.334	444.12
339.562	460.12
339.79	458.12
340.018	457.12
340.246	463.12
340.474	459.12
340.702	422.12
340.93	456.12
341.158	458.12
341.386	439.12
341.614	453.12
341.842	454.12
342.07	444.12
342.298	450.12
342.526	440.12
342.754	442.12
342.981	437.12
343.209	450.12
343.437	442.12
343.665	476.12
343.893	465.12
344.12	466.12
344.348	491.12
344.576	472.12
344.804	473.12
345.031	483.12
345.259	460.12
345.487	467.12
345.714	466.12
345.942	447.12
346.17	423.12
346.397	448.12
346.625	443.12
346.853	438.12
347.08	427.12
347.308	434.12
347.535	448.12
347.763	440.12
347.99	430.12
348.218	472.12
348.445	437.12
348.673	461.12
348.9	470.12
349.128	439.12
349.355	425.12
349.583	436.12
349.81	442.12
350.037	431.12
350.265	425.12
350.492	426.12
350.72	430.12
350.947	422.12
351.174	449.12
351.402	438.12
351.629	446.12
351.856	467.12
352.083	456.12
352.311	450.12
352.538	452.12
352.765	459.12
352.992	437.12
353.22	444.12
353.447	438.12
353.674	432.12
353.901	444.12
354.128	434.12
354.355	408.12
354.583	438.12
354.81	418.12
355.037	446.12
355.264	423.12
355.491	428.12
355.718	422.12
355.945	404.12
356.172	415.12
356.399	412.12
356.626	416.12
356.853	413.12
357.08	383.12
357.307	407.12
357.534	403.12
357.761	407.12
357.988	411.12
358.215	412.12
358.441	413.12
358.668	436.12
358.895	427.12
359.122	419.12
359.349	435.12
359.576	438.12
359.802	457.12
360.029	477.12
360.256	491.12
360.483	480.12
360.709	444.12
360.936	439.12
361.163	450.12
361.39	435.12
361.616	434.12
361.843	440.12
362.07	421.12
362.296	442.12
362.523	448.12
362.749	459.12
362.976	449.12
363.203	428.12
363.429	406.12
363.656	418.12
363.882	407.12
364.109	436.12
364.335	434.12
364.562	423.12
364.788	429.12
365.015	420.12
365.241	446.12
365.468	435.12
365.694	424.12
365.92	430.12
366.147	429.12
366.373	434.12
366.599	412.12
366.826	430.12
367.052	423.12
367.278	421.12
367.505	416.12
367.731	422.12
367.957	449.12
368.184	433.12
368.41	450.12
368.636	452.12
368.862	449.12
369.089	447.12
369.315	448.12
369.541	418.12
369.767	414.12
369.993	415.12
370.219	417.12
370.445	452.12
370.672	436.12
370.898	430.12
371.124	432.12
371.35	425.12
371.576	441.12
371.802	446.12
372.028	446.12
372.254	459.12
372.48	424.12
372.706	449.12
372.932	444.12
373.158	448.12
373.384	455.12
373.61	459.12
373.835	469.12
374.061	450.12
374.287	438.12
374.513	444.12
374.739	436.12
374.965	478.12
375.191	454.12
375.416	441.12
375.642	453.12
375.868	457.12
376.094	450.12
376.319	447.12
376.545	432.12
376.771	448.12
376.997	430.12
377.222	417.12
377.448	423.12
377.674	431.12
377.899	431.12
378.125	429.12
378.35	438.12
378.576	439.12
378.802	410.12
379.027	438.12
379.253	429.12
379.478	410.12
379.704	424.12
379.929	438.12
380.155	428.12
380.38	422.12
380.606	423.12
380.831	439.12
381.057	450.12
381.282	434.12
381.507	463.12
381.733	466.12
381.958	436.12
382.184	450.12
382.409	449.12
382.634	463.12
382.86	459.12
383.085	456.12
383.31	467.12
383.535	465.12
383.761	459.12
383.986	480.12
384.211	467.12
384.436	475.12
384.662	495.12
384.887	489.12
385.112	477.12
385.337	469.12
385.562	492.12
385.787	479.12
386.013	492.12
386.238	511.12
386.463	516.12
386.688	490.12
386.913	492.12
387.138	509.12
387.363	501.12
387.588	474.12
387.813	477.12
388.038	464.12
388.263	494.12
388.488	473.12
388.713	501.12
388.938	487.12
389.163	490.12
389.387	524.12
389.612	490.12
389.837	477.12
390.062	479.12
390.287	491.12
390.512	475.12
390.736	481.12
390.961	475.12
391.186	499.12
391.411	505.12
391.636	504.12
391.86	536.12
392.085	507.12
392.31	504.12
392.534	505.12
392.759	522.12
392.984	500.12
393.208	510.12
393.433	491.12
393.658	503.12
393.882	483.12
394.107	504.12
394.331	500.12
394.556	501.12
394.78	492.12
395.005	491.12
395.229	499.12
395.454	501.12
395.678	530.12
395.903	548.12
396.127	558.12
396.352	544.12
396.576	510.12
396.801	522.12
397.025	528.12
397.249	532.12
397.474	534.12
397.698	526.12
397.922	544.12
398.147	544.12
398.371	578.12
398.595	569.12
398.82	554.12
399.044	572.12
399.268	612.12
399.492	635.12
399.717	692.12
399.941	714.12
400.165	740.12
400.389	714.12
400.613	656.12
400.837	628.12
401.062	598.12
401.286	617.12
401.51	596.12
401.734	584.12
401.958	573.12
402.182	565.12
402.406	590.12
402.63	590.12
402.854	557.12
403.078	584.12
403.302	605.12
403.526	604.12
403.75	611.12
403.974	606.12
404.198	601.12
404.422	588.12
404.645	612.12
404.869	620.12
405.093	647.12
405.317	660.12
405.541	727.12
405.765	652.12
405.988	612.12
406.212	623.12
406.436	628.12
406.66	664.12
406.883	624.12
407.107	662.12
407.331	722.12
407.555	804.12
407.778	772.12
408.002	732.12
408.226	669.12
408.449	655.12
408.673	653.12
408.896	671.12
409.12	717.12
409.344	684.12
409.567	621.12
409.791	619.12
410.014	613.12
410.238	618.12
410.461	619.12
410.685	587.12
410.908	606.12
411.132	654.12
411.355	665.12
411.578	642.12
411.802	607.12
412.025	593.12
412.249	626.12
412.472	633.12
412.695	666.12
412.919	653.12
413.142	610.12
413.365	575.12
413.589	591.12
413.812	568.12
414.035	573.12
414.258	541.12
414.482	583.12
414.705	572.12
414.928	559.12
415.151	567.12
415.374	548.12
415.597	559.12
415.821	554.12
416.044	581.12
416.267	567.12
416.49	567.12
416.713	556.12
416.936	559.12
417.159	541.12
417.382	558.12
417.605	580.12
417.828	598.12
418.051	573.12
418.274	566.12
418.497	568.12
418.72	567.12
418.943	559.12
419.166	585.12
419.389	618.12
419.611	622.12
419.834	596.12
420.057	588.12
420.28	594.12
420.503	579.12
420.726	599.12
420.948	611.12
421.171	639.12
421.394	679.12
421.617	611.12
421.839	557.12
422.062	594.12
422.285	603.12
422.507	642.12
422.73	733.12
422.953	736.12
423.175	634.12
423.398	608.12
423.621	619.12
423.843	654.12
424.066	630.12
424.288	652.12
424.511	636.12
424.733	693.12
424.956	771.12
425.178	746.12
425.401	729.12
425.623	779.12
425.846	681.12
426.068	640.12
426.291	638.12
426.513	618.12
426.735	620.12
426.958	680.12
427.18	760.12
427.402	887.12
427.625	961.12
427.847	825.12
428.069	735.12
428.292	647.12
428.514	632.12
428.736	595.12
428.958	587.12
429.181	586.12
429.403	547.12
429.625	596.12
429.847	613.12
430.069	683.12
430.292	664.12
430.514	562.12
430.736	552.12
430.958	564.12
431.18	557.12
431.402	534.12
431.624	529.12
431.846	543.12
432.068	545.12
432.29	547.12
432.512	535.12
432.734	559.12
432.956	559.12
433.178	560.12
433.4	562.12
433.622	553.12
433.844	544.12
434.066	570.12
434.287	520.12
434.509	548.12
434.731	576.12
434.953	579.12
435.175	586.12
435.397	626.12
435.618	617.12
435.84	655.12
436.062	761.12
436.284	862.12
436.505	676.12
436.727	606.12
436.949	573.12
437.17	578.12
437.392	596.12
437.614	568.12
437.835	619.12
438.057	693.12
438.278	801.12
438.5	800.12
438.721	892.12
438.943	858.12
439.165	664.12
439.386	621.12
439.608	630.12
439.829	624.12
440.05	626.12
440.272	677.12
440.493	664.12
440.715	608.12
440.936	594.12
441.158	584.12
441.379	589.12
441.6	599.12
441.822	634.12
442.043	671.12
442.264	768.12
442.486	806.12
442.707	672.12
442.928	642.12
443.149	626.12
443.371	674.12
443.592	696.12
443.813	789.12
444.034	854.12
444.255	745.12
444.476	656.12
444.698	668.12
444.919	632.12
445.14	756.12
445.361	718.12
445.582	649.12
445.803	714.12
446.024	812.12
446.245	838.12
446.466	764.12
446.687	679.12
446.908	624.12
447.129	582.12
447.35	593.12
447.571	567.12
447.792	553.12
448.013	562.12
448.234	598.12
448.455	625.12
448.675	730.12
448.896	889.12
449.117	740.12
449.338	709.12
449.559	824.12
449.779	908.12
450	718.12
450.221	601.12
450.442	564.12
450.662	546.12
450.883	538.12
451.104	586.12
451.324	541.12
451.545	522.12
451.766	506.12
451.986	520.12
452.207	524.12
452.428	495.12
452.648	507.12
452.869	506.12
453.089	524.12
453.31	527.12
453.53	523.12
453.751	520.12
453.971	498.12
454.192	500.12
454.412	526.12
454.633	495.12
454.853	484.12
455.073	485.12
455.294	547.12
455.514	586.12
455.734	594.12
455.955	495.12
456.175	484.12
456.395	468.12
456.616	464.12
456.836	483.12
457.056	480.12
457.276	456.12
457.497	467.12
457.717	485.12
457.937	485.12
458.157	476.12
458.377	503.12
458.598	518.12
458.818	574.12
459.038	652.12
459.258	679.12
459.478	591.12
459.698	538.12
459.918	554.12
460.138	545.12
460.358	585.12
460.578	559.12
460.798	548.12
461.018	588.12
461.238	585.12
461.458	576.12
461.678	575.12
461.898	575.12
462.118	574.12
462.338	594.12
462.558	588.12
462.777	597.12
462.997	622.12
463.217	609.12
463.437	654.12
463.657	624.12
463.876	618.12
464.096	587.12
464.316	604.12
464.536	629.12
464.755	630.12
464.975	587.12
465.195	626.12
465.414	665.12
465.634	590.12
465.854	547.12
466.073	562.12
466.293	555.12
466.512	527.12
466.732	520.12
466.951	508.12
467.171	529.12
467.391	558.12
467.61	529.12
467.829	549.12
468.049	532.12
468.268	550.12
468.488	533.12
468.707	520.12
468.927	516.12
469.146	494.12
469.365	490.12
469.585	479.12
469.804	489.12
470.023	535.12
470.243	523.12
470.462	559.12
470.681	557.12
470.901	559.12
471.12	547.12
471.339	524.12
471.558	519.12
471.777	523.12
471.997	511.12
472.216	529.12
472.435	556.12
472.654	545.12
472.873	548.12
473.092	520.12
473.311	509.12
473.53	542.12
473.749	519.12
473.968	547.12
474.187	654.12
474.406	692.12
474.625	582.12
474.844	549.12
475.063	523.12
475.282	520.12
475.501	516.12
475.72	527.12
475.939	526.12
476.158	542.12
476.377	546.12
476.596	536.12
476.814	550.12
477.033	546.12
477.252	566.12
477.471	556.12
477.69	589.12
477.908	582.12
478.127	574.12
478.346	579.12
478.564	589.12
478.783	599.12
479.002	619.12
479.22	622.12
479.439	616.12
479.658	642.12
479.876	651.12
480.095	645.12
480.313	660.12
480.532	670.12
480.751	668.12
480.969	659.12
481.188	715.12
481.406	729.12
481.624	657.12
481.843	624.12
482.061	636.12
482.28	622.12
482.498	614.12
482.717	615.12
482.935	622.12
483.153	629.12
483.372	614.12
483.59	626.12
483.808	608.12
484.027	606.12
484.245	627.12
484.463	638.12
484.681	636.12
484.9	636.12
485.118	615.12
485.336	630.12
485.554	642.12
485.772	650.12
485.99	628.12
486.209	648.12
486.427	672.12
486.645	650.12
486.863	665.12
487.081	681.12
487.299	649.12
487.517	653.12
487.735	644.12
487.953	686.12
488.171	650.12
488.389	696.12
488.607	658.12
488.825	644.12
489.043	653.12
489.261	676.12
489.479	677.12
489.696	656.12
489.914	662.12
490.132	672.12
490.35	718.12
490.568	692.12
490.786	745.12
491.003	727.12
491.221	727.12
491.439	729.12
491.657	741.12
491.874	757.12
492.092	762.12
492.31	759.12
492.527	775.12
492.745	778.12
492.963	778.12
493.18	744.12
493.398	788.12
493.615	790.12
493.833	808.12
494.05	785.12
494.268	803.12
494.485	768.12
494.703	766.12
494.92	791.12
495.138	771.12
495.355	785.12
495.573	797.12
495.79	801.12
496.008	795.12
496.225	782.12
496.442	815.12
496.66	800.12
496.877	780.12
497.094	807.12
497.312	786.12
497.529	810.12
497.746	829.12
497.963	853.12
498.181	862.12
498.398	856.12
498.615	904.12
498.832	918.12
499.049	921.12
499.267	965.12
499.484	985.12
499.701	1075.12
499.918	1119.12
500.135	1180.12
500.352	1250.12
500.569	1261.12
500.786	1274.12
501.003	1294.12
501.22	1226.12
501.437	1151.12
501.654	1112.12
