Data from 1975.PennyLincolnUp.Lamp.En5.5.200Scan.071719.P1.Changed Mount._HRD10591_15-58-20-859.txt Node
Date: Thu Jul 18 15:58:20 EDT 2019
User: cochatt
Spectrometer: HR+D1059
Trigger mode: 1
Integration Time (sec): 1.000000E-1
Scans to average: 1
Electric dark correction enabled: true
Nonlinearity correction enabled: false
Boxcar width: 0
XAxis mode: Wavelengths
Number of Pixels in Spectrum: 2048
>>>>>Begin Spectral Data<<<<<
223.165	-20.88
223.4	-20.88
223.635	-20.88
223.869	-21.88
224.104	-28.88
224.338	-6.88
224.573	-9.88
224.808	-16.88
225.042	0.12
225.277	2.12
225.511	7.12
225.746	-4.88
225.98	9.12
226.215	5.12
226.449	20.12
226.683	26.12
226.918	21.12
227.152	19.12
227.387	32.12
227.621	35.12
227.856	42.12
228.09	43.12
228.324	53.12
228.559	48.12
228.793	71.12
229.027	98.12
229.262	105.12
229.496	110.12
229.73	123.12
229.964	132.12
230.199	132.12
230.433	115.12
230.667	110.12
230.901	115.12
231.136	104.12
231.37	109.12
231.604	120.12
231.838	106.12
232.072	114.12
232.306	105.12
232.541	116.12
232.775	94.12
233.009	99.12
233.243	112.12
233.477	104.12
233.711	104.12
233.945	112.12
234.179	110.12
234.413	135.12
234.647	116.12
234.881	115.12
235.115	124.12
235.349	117.12
235.583	117.12
235.817	131.12
236.051	128.12
236.285	112.12
236.519	126.12
236.753	129.12
236.987	140.12
237.221	172.12
237.455	221.12
237.689	181.12
237.922	148.12
238.156	144.12
238.39	120.12
238.624	128.12
238.858	116.12
239.091	117.12
239.325	143.12
239.559	130.12
239.793	131.12
240.027	146.12
240.26	150.12
240.494	147.12
240.728	150.12
240.961	143.12
241.195	146.12
241.429	148.12
241.662	133.12
241.896	146.12
242.13	146.12
242.363	136.12
242.597	130.12
242.83	140.12
243.064	136.12
243.298	154.12
243.531	154.12
243.765	148.12
243.998	146.12
244.232	143.12
244.465	140.12
244.699	159.12
244.932	160.12
245.166	149.12
245.399	148.12
245.633	153.12
245.866	152.12
246.099	149.12
246.333	159.12
246.566	131.12
246.8	153.12
247.033	156.12
247.266	167.12
247.5	165.12
247.733	168.12
247.966	167.12
248.2	160.12
248.433	186.12
248.666	166.12
248.899	171.12
249.133	190.12
249.366	203.12
249.599	187.12
249.832	195.12
250.066	174.12
250.299	175.12
250.532	183.12
250.765	196.12
250.998	226.12
251.231	235.12
251.465	234.12
251.698	217.12
251.931	214.12
252.164	184.12
252.397	205.12
252.63	208.12
252.863	216.12
253.096	217.12
253.329	210.12
253.562	225.12
253.795	239.12
254.028	209.12
254.261	211.12
254.494	238.12
254.727	280.12
254.96	279.12
255.193	254.12
255.426	246.12
255.659	236.12
255.892	224.12
256.124	217.12
256.357	241.12
256.59	246.12
256.823	217.12
257.056	215.12
257.289	191.12
257.521	217.12
257.754	203.12
257.987	203.12
258.22	219.12
258.452	214.12
258.685	203.12
258.918	211.12
259.151	211.12
259.383	230.12
259.616	201.12
259.849	220.12
260.081	234.12
260.314	243.12
260.547	255.12
260.779	239.12
261.012	248.12
261.244	231.12
261.477	236.12
261.71	241.12
261.942	231.12
262.175	228.12
262.407	222.12
262.64	196.12
262.872	214.12
263.105	206.12
263.337	219.12
263.57	220.12
263.802	224.12
264.035	226.12
264.267	233.12
264.499	209.12
264.732	216.12
264.964	223.12
265.197	202.12
265.429	219.12
265.661	219.12
265.894	221.12
266.126	219.12
266.358	230.12
266.591	225.12
266.823	248.12
267.055	235.12
267.287	252.12
267.52	215.12
267.752	220.12
267.984	224.12
268.216	209.12
268.448	240.12
268.681	250.12
268.913	263.12
269.145	264.12
269.377	289.12
269.609	282.12
269.841	275.12
270.073	293.12
270.306	296.12
270.538	338.12
270.77	330.12
271.002	306.12
271.234	288.12
271.466	306.12
271.698	304.12
271.93	295.12
272.162	324.12
272.394	302.12
272.626	312.12
272.858	292.12
273.09	291.12
273.322	273.12
273.553	280.12
273.785	280.12
274.017	264.12
274.249	274.12
274.481	264.12
274.713	257.12
274.945	294.12
275.176	265.12
275.408	283.12
275.64	283.12
275.872	262.12
276.104	271.12
276.335	282.12
276.567	270.12
276.799	275.12
277.031	307.12
277.262	318.12
277.494	329.12
277.726	315.12
277.957	303.12
278.189	291.12
278.421	280.12
278.652	264.12
278.884	291.12
279.115	268.12
279.347	288.12
279.579	294.12
279.81	298.12
280.042	273.12
280.273	290.12
280.505	286.12
280.736	297.12
280.968	263.12
281.199	290.12
281.431	290.12
281.662	292.12
281.894	270.12
282.125	277.12
282.356	302.12
282.588	295.12
282.819	297.12
283.051	284.12
283.282	279.12
283.513	296.12
283.745	286.12
283.976	293.12
284.207	299.12
284.439	306.12
284.67	297.12
284.901	306.12
285.132	298.12
285.364	289.12
285.595	298.12
285.826	283.12
286.057	285.12
286.288	286.12
286.52	295.12
286.751	275.12
286.982	299.12
287.213	266.12
287.444	289.12
287.675	315.12
287.906	315.12
288.138	330.12
288.369	308.12
288.6	336.12
288.831	332.12
289.062	325.12
289.293	306.12
289.524	300.12
289.755	323.12
289.986	303.12
290.217	306.12
290.448	310.12
290.679	318.12
290.91	304.12
291.141	309.12
291.371	292.12
291.602	300.12
291.833	287.12
292.064	297.12
292.295	318.12
292.526	299.12
292.757	294.12
292.987	302.12
293.218	304.12
293.449	305.12
293.68	315.12
293.91	295.12
294.141	292.12
294.372	291.12
294.603	314.12
294.833	320.12
295.064	317.12
295.295	292.12
295.525	319.12
295.756	340.12
295.987	312.12
296.217	353.12
296.448	357.12
296.679	331.12
296.909	317.12
297.14	324.12
297.37	335.12
297.601	325.12
297.831	313.12
298.062	322.12
298.292	326.12
298.523	332.12
298.753	318.12
298.984	332.12
299.214	332.12
299.445	335.12
299.675	314.12
299.905	347.12
300.136	329.12
300.366	326.12
300.597	322.12
300.827	328.12
301.057	322.12
301.288	337.12
301.518	335.12
301.748	335.12
301.979	351.12
302.209	348.12
302.439	322.12
302.669	336.12
302.9	339.12
303.13	345.12
303.36	330.12
303.59	332.12
303.82	343.12
304.051	354.12
304.281	363.12
304.511	375.12
304.741	343.12
304.971	343.12
305.201	347.12
305.431	340.12
305.661	363.12
305.891	342.12
306.121	336.12
306.352	348.12
306.582	351.12
306.812	370.12
307.042	357.12
307.272	354.12
307.502	335.12
307.731	357.12
307.961	330.12
308.191	344.12
308.421	333.12
308.651	331.12
308.881	339.12
309.111	361.12
309.341	350.12
309.571	361.12
309.8	366.12
310.03	368.12
310.26	380.12
310.49	367.12
310.72	396.12
310.949	392.12
311.179	402.12
311.409	394.12
311.639	388.12
311.868	405.12
312.098	396.12
312.328	378.12
312.557	392.12
312.787	383.12
313.017	409.12
313.246	375.12
313.476	367.12
313.706	402.12
313.935	376.12
314.165	366.12
314.394	405.12
314.624	410.12
314.853	402.12
315.083	391.12
315.312	373.12
315.542	408.12
315.771	374.12
316.001	364.12
316.23	390.12
316.46	408.12
316.689	374.12
316.919	390.12
317.148	401.12
317.377	392.12
317.607	381.12
317.836	388.12
318.065	373.12
318.295	375.12
318.524	388.12
318.753	396.12
318.983	385.12
319.212	388.12
319.441	400.12
319.67	401.12
319.9	397.12
320.129	397.12
320.358	373.12
320.587	415.12
320.816	400.12
321.046	407.12
321.275	400.12
321.504	396.12
321.733	407.12
321.962	414.12
322.191	402.12
322.42	425.12
322.649	437.12
322.878	472.12
323.108	436.12
323.337	459.12
323.566	481.12
323.795	506.12
324.024	528.12
324.253	602.12
324.482	831.12
324.71	1253.12
324.939	1937.12
325.168	1684.12
325.397	841.12
325.626	578.12
325.855	527.12
326.084	500.12
326.313	469.12
326.542	451.12
326.77	525.12
326.999	577.12
327.228	763.12
327.457	1168.12
327.686	1454.12
327.914	938.12
328.143	636.12
328.372	577.12
328.6	534.12
328.829	540.12
329.058	539.12
329.287	562.12
329.515	530.12
329.744	511.12
329.972	498.12
330.201	515.12
330.43	552.12
330.658	579.12
330.887	570.12
331.115	570.12
331.344	487.12
331.572	488.12
331.801	487.12
332.03	489.12
332.258	469.12
332.486	463.12
332.715	459.12
332.943	467.12
333.172	487.12
333.4	486.12
333.629	487.12
333.857	491.12
334.085	533.12
334.314	524.12
334.542	566.12
334.771	571.12
334.999	508.12
335.227	506.12
335.455	484.12
335.684	478.12
335.912	461.12
336.14	484.12
336.369	455.12
336.597	490.12
336.825	466.12
337.053	454.12
337.281	460.12
337.51	438.12
337.738	459.12
337.966	454.12
338.194	466.12
338.422	480.12
338.65	462.12
338.878	455.12
339.106	417.12
339.334	431.12
339.562	438.12
339.79	460.12
340.018	459.12
340.246	439.12
340.474	436.12
340.702	447.12
340.93	454.12
341.158	432.12
341.386	458.12
341.614	451.12
341.842	455.12
342.07	456.12
342.298	435.12
342.526	425.12
342.754	436.12
342.981	422.12
343.209	424.12
343.437	426.12
343.665	434.12
343.893	463.12
344.12	483.12
344.348	459.12
344.576	460.12
344.804	456.12
345.031	440.12
345.259	479.12
345.487	451.12
345.714	445.12
345.942	444.12
346.17	435.12
346.397	447.12
346.625	426.12
346.853	425.12
347.08	411.12
347.308	418.12
347.535	443.12
347.763	433.12
347.99	440.12
348.218	442.12
348.445	451.12
348.673	448.12
348.9	423.12
349.128	436.12
349.355	418.12
349.583	422.12
349.81	424.12
350.037	406.12
350.265	420.12
350.492	402.12
350.72	427.12
350.947	420.12
351.174	425.12
351.402	431.12
351.629	439.12
351.856	435.12
352.083	435.12
352.311	424.12
352.538	444.12
352.765	449.12
352.992	423.12
353.22	433.12
353.447	414.12
353.674	430.12
353.901	423.12
354.128	401.12
354.355	431.12
354.583	411.12
354.81	410.12
355.037	418.12
355.264	402.12
355.491	406.12
355.718	415.12
355.945	410.12
356.172	402.12
356.399	403.12
356.626	400.12
356.853	406.12
357.08	404.12
357.307	402.12
357.534	392.12
357.761	417.12
357.988	428.12
358.215	402.12
358.441	419.12
358.668	398.12
358.895	401.12
359.122	414.12
359.349	409.12
359.576	450.12
359.802	458.12
360.029	475.12
360.256	474.12
360.483	449.12
360.709	436.12
360.936	424.12
361.163	440.12
361.39	434.12
361.616	447.12
361.843	424.12
362.07	445.12
362.296	427.12
362.523	439.12
362.749	424.12
362.976	423.12
363.203	413.12
363.429	414.12
363.656	397.12
363.882	430.12
364.109	418.12
364.335	408.12
364.562	412.12
364.788	427.12
365.015	436.12
365.241	392.12
365.468	427.12
365.694	416.12
365.92	420.12
366.147	415.12
366.373	428.12
366.599	409.12
366.826	428.12
367.052	420.12
367.278	411.12
367.505	402.12
367.731	411.12
367.957	418.12
368.184	438.12
368.41	420.12
368.636	450.12
368.862	428.12
369.089	418.12
369.315	433.12
369.541	430.12
369.767	415.12
369.993	418.12
370.219	395.12
370.445	422.12
370.672	422.12
370.898	410.12
371.124	418.12
371.35	433.12
371.576	423.12
371.802	413.12
372.028	414.12
372.254	426.12
372.48	428.12
372.706	426.12
372.932	438.12
373.158	439.12
373.384	411.12
373.61	418.12
373.835	432.12
374.061	430.12
374.287	438.12
374.513	444.12
374.739	442.12
374.965	450.12
375.191	472.12
375.416	440.12
375.642	433.12
375.868	435.12
376.094	443.12
376.319	399.12
376.545	418.12
376.771	438.12
376.997	434.12
377.222	441.12
377.448	437.12
377.674	420.12
377.899	412.12
378.125	420.12
378.35	426.12
378.576	422.12
378.802	402.12
379.027	426.12
379.253	427.12
379.478	425.12
379.704	433.12
379.929	442.12
380.155	416.12
380.38	420.12
380.606	419.12
380.831	407.12
381.057	430.12
381.282	434.12
381.507	442.12
381.733	423.12
381.958	438.12
382.184	430.12
382.409	434.12
382.634	441.12
382.86	442.12
383.085	448.12
383.31	440.12
383.535	459.12
383.761	458.12
383.986	453.12
384.211	454.12
384.436	444.12
384.662	459.12
384.887	484.12
385.112	460.12
385.337	479.12
385.562	484.12
385.787	484.12
386.013	495.12
386.238	479.12
386.463	494.12
386.688	488.12
386.913	490.12
387.138	480.12
387.363	497.12
387.588	476.12
387.813	481.12
388.038	465.12
388.263	492.12
388.488	486.12
388.713	516.12
388.938	477.12
389.163	489.12
389.387	481.12
389.612	480.12
389.837	479.12
390.062	471.12
390.287	475.12
390.512	469.12
390.736	481.12
390.961	483.12
391.186	479.12
391.411	498.12
391.636	485.12
391.86	496.12
392.085	503.12
392.31	499.12
392.534	495.12
392.759	492.12
392.984	495.12
393.208	505.12
393.433	486.12
393.658	510.12
393.882	485.12
394.107	503.12
394.331	498.12
394.556	487.12
394.78	483.12
395.005	498.12
395.229	484.12
395.454	533.12
395.678	517.12
395.903	523.12
396.127	515.12
396.352	518.12
396.576	518.12
396.801	511.12
397.025	517.12
397.249	495.12
397.474	546.12
397.698	537.12
397.922	530.12
398.147	544.12
398.371	540.12
398.595	541.12
398.82	542.12
399.044	572.12
399.268	596.12
399.492	644.12
399.717	683.12
399.941	706.12
400.165	714.12
400.389	707.12
400.613	649.12
400.837	605.12
401.062	584.12
401.286	591.12
401.51	581.12
401.734	559.12
401.958	574.12
402.182	568.12
402.406	575.12
402.63	579.12
402.854	554.12
403.078	572.12
403.302	564.12
403.526	614.12
403.75	593.12
403.974	584.12
404.198	582.12
404.422	600.12
404.645	583.12
404.869	589.12
405.093	651.12
405.317	673.12
405.541	713.12
405.765	681.12
405.988	604.12
406.212	632.12
406.436	630.12
406.66	670.12
406.883	601.12
407.107	664.12
407.331	725.12
407.555	779.12
407.778	802.12
408.002	714.12
408.226	663.12
408.449	678.12
408.673	643.12
408.896	645.12
409.12	706.12
409.344	663.12
409.567	644.12
409.791	605.12
410.014	584.12
410.238	618.12
410.461	602.12
410.685	599.12
410.908	601.12
411.132	622.12
411.355	675.12
411.578	648.12
411.802	583.12
412.025	571.12
412.249	595.12
412.472	609.12
412.695	648.12
412.919	656.12
413.142	604.12
413.365	582.12
413.589	574.12
413.812	567.12
414.035	542.12
414.258	576.12
414.482	545.12
414.705	555.12
414.928	565.12
415.151	574.12
415.374	544.12
415.597	537.12
415.821	566.12
416.044	561.12
416.267	547.12
416.49	595.12
416.713	560.12
416.936	538.12
417.159	555.12
417.382	558.12
417.605	546.12
417.828	579.12
418.051	568.12
418.274	574.12
418.497	562.12
418.72	550.12
418.943	538.12
419.166	588.12
419.389	612.12
419.611	617.12
419.834	607.12
420.057	578.12
420.28	591.12
420.503	579.12
420.726	572.12
420.948	600.12
421.171	638.12
421.394	664.12
421.617	596.12
421.839	592.12
422.062	573.12
422.285	568.12
422.507	624.12
422.73	722.12
422.953	708.12
423.175	631.12
423.398	613.12
423.621	599.12
423.843	630.12
424.066	611.12
424.288	617.12
424.511	636.12
424.733	678.12
424.956	764.12
425.178	743.12
425.401	719.12
425.623	739.12
425.846	631.12
426.068	609.12
426.291	626.12
426.513	610.12
426.735	600.12
426.958	655.12
427.18	727.12
427.402	866.12
427.625	955.12
427.847	826.12
428.069	710.12
428.292	619.12
428.514	602.12
428.736	580.12
428.958	563.12
429.181	541.12
429.403	567.12
429.625	558.12
429.847	583.12
430.069	686.12
430.292	634.12
430.514	576.12
430.736	550.12
430.958	549.12
431.18	535.12
431.402	531.12
431.624	528.12
431.846	527.12
432.068	521.12
432.29	534.12
432.512	539.12
432.734	548.12
432.956	535.12
433.178	572.12
433.4	551.12
433.622	530.12
433.844	538.12
434.066	519.12
434.287	536.12
434.509	546.12
434.731	555.12
434.953	584.12
435.175	583.12
435.397	610.12
435.618	588.12
435.84	632.12
436.062	740.12
436.284	799.12
436.505	669.12
436.727	613.12
436.949	563.12
437.17	570.12
437.392	551.12
437.614	556.12
437.835	595.12
438.057	679.12
438.278	785.12
438.5	779.12
438.721	881.12
438.943	836.12
439.165	657.12
439.386	622.12
439.608	594.12
439.829	570.12
440.05	624.12
440.272	652.12
440.493	620.12
440.715	592.12
440.936	590.12
441.158	568.12
441.379	573.12
441.6	575.12
441.822	586.12
442.043	656.12
442.264	726.12
442.486	788.12
442.707	648.12
442.928	629.12
443.149	649.12
443.371	659.12
443.592	686.12
443.813	792.12
444.034	824.12
444.255	720.12
444.476	647.12
444.698	632.12
444.919	635.12
445.14	779.12
445.361	671.12
445.582	662.12
445.803	711.12
446.024	812.12
446.245	848.12
446.466	750.12
446.687	626.12
446.908	601.12
447.129	574.12
447.35	547.12
447.571	559.12
447.792	552.12
448.013	555.12
448.234	560.12
448.455	626.12
448.675	709.12
448.896	847.12
449.117	737.12
449.338	679.12
449.559	775.12
449.779	910.12
450	696.12
450.221	607.12
450.442	552.12
450.662	543.12
450.883	531.12
451.104	555.12
451.324	507.12
451.545	502.12
451.766	499.12
451.986	497.12
452.207	486.12
452.428	509.12
452.648	489.12
452.869	500.12
453.089	502.12
453.31	495.12
453.53	511.12
453.751	483.12
453.971	499.12
454.192	509.12
454.412	472.12
454.633	488.12
454.853	482.12
455.073	480.12
455.294	520.12
455.514	582.12
455.734	555.12
455.955	479.12
456.175	483.12
456.395	468.12
456.616	455.12
456.836	451.12
457.056	469.12
457.276	469.12
457.497	471.12
457.717	476.12
457.937	465.12
458.157	490.12
458.377	477.12
458.598	501.12
458.818	535.12
459.038	600.12
459.258	646.12
459.478	562.12
459.698	530.12
459.918	519.12
460.138	548.12
460.358	530.12
460.578	551.12
460.798	563.12
461.018	559.12
461.238	563.12
461.458	567.12
461.678	564.12
461.898	539.12
462.118	557.12
462.338	592.12
462.558	607.12
462.777	582.12
462.997	616.12
463.217	646.12
463.437	634.12
463.657	610.12
463.876	603.12
464.096	598.12
464.316	597.12
464.536	610.12
464.755	612.12
464.975	599.12
465.195	598.12
465.414	648.12
465.634	585.12
465.854	580.12
466.073	561.12
466.293	527.12
466.512	516.12
466.732	517.12
466.951	525.12
467.171	518.12
467.391	534.12
467.61	520.12
467.829	519.12
468.049	504.12
468.268	512.12
468.488	506.12
468.707	501.12
468.927	494.12
469.146	496.12
469.365	495.12
469.585	518.12
469.804	531.12
470.023	537.12
470.243	526.12
470.462	536.12
470.681	520.12
470.901	544.12
471.12	523.12
471.339	503.12
471.558	514.12
471.777	506.12
471.997	535.12
472.216	535.12
472.435	545.12
472.654	529.12
472.873	504.12
473.092	533.12
473.311	513.12
473.53	520.12
473.749	553.12
473.968	570.12
474.187	656.12
474.406	670.12
474.625	573.12
474.844	532.12
475.063	500.12
475.282	534.12
475.501	538.12
475.72	518.12
475.939	509.12
476.158	512.12
476.377	560.12
476.596	534.12
476.814	541.12
477.033	535.12
477.252	545.12
477.471	543.12
477.69	553.12
477.908	575.12
478.127	595.12
478.346	575.12
478.564	588.12
478.783	606.12
479.002	595.12
479.22	597.12
479.439	610.12
479.658	617.12
479.876	623.12
480.095	636.12
480.313	671.12
480.532	673.12
480.751	638.12
480.969	652.12
481.188	714.12
481.406	734.12
481.624	662.12
481.843	633.12
482.061	623.12
482.28	631.12
482.498	608.12
482.717	588.12
482.935	614.12
483.153	597.12
483.372	606.12
483.59	623.12
483.808	590.12
484.027	582.12
484.245	611.12
484.463	600.12
484.681	586.12
484.9	598.12
485.118	641.12
485.336	618.12
485.554	627.12
485.772	647.12
485.99	631.12
486.209	643.12
486.427	650.12
486.645	647.12
486.863	646.12
487.081	659.12
487.299	642.12
487.517	650.12
487.735	635.12
487.953	650.12
488.171	675.12
488.389	658.12
488.607	646.12
488.825	672.12
489.043	652.12
489.261	652.12
489.479	656.12
489.696	697.12
489.914	640.12
490.132	679.12
490.35	658.12
490.568	675.12
490.786	685.12
491.003	705.12
491.221	724.12
491.439	735.12
491.657	724.12
491.874	745.12
492.092	728.12
492.31	723.12
492.527	754.12
492.745	756.12
492.963	760.12
493.18	778.12
493.398	789.12
493.615	780.12
493.833	799.12
494.05	774.12
494.268	776.12
494.485	760.12
494.703	756.12
494.92	757.12
495.138	778.12
495.355	778.12
495.573	759.12
495.79	771.12
496.008	794.12
496.225	785.12
496.442	781.12
496.66	771.12
496.877	778.12
497.094	774.12
497.312	773.12
497.529	798.12
497.746	834.12
497.963	814.12
498.181	855.12
498.398	883.12
498.615	888.12
498.832	891.12
499.049	921.12
499.267	948.12
499.484	983.12
499.701	1026.12
499.918	1079.12
500.135	1157.12
500.352	1227.12
500.569	1219.12
500.786	1268.12
501.003	1253.12
501.22	1200.12
501.437	1136.12
501.654	1110.12
