Data from 1975.PennyLincolnUp.Lamp.En5.5.200Scan.071719.P1.Changed Mount._HRD10591_15-56-45-858.txt Node
Date: Thu Jul 18 15:56:45 EDT 2019
User: cochatt
Spectrometer: HR+D1059
Trigger mode: 1
Integration Time (sec): 1.000000E-1
Scans to average: 1
Electric dark correction enabled: true
Nonlinearity correction enabled: false
Boxcar width: 0
XAxis mode: Wavelengths
Number of Pixels in Spectrum: 2048
>>>>>Begin Spectral Data<<<<<
223.165	-28.94
223.4	-28.94
223.635	-28.94
223.869	-17.94
224.104	-20.94
224.338	-9.94
224.573	-8.94
224.808	-18.94
225.042	-0.94
225.277	8.06
225.511	1.06
225.746	-0.94
225.98	5.06
226.215	7.06
226.449	11.06
226.683	16.06
226.918	24.06
227.152	35.06
227.387	29.06
227.621	34.06
227.856	26.06
228.09	32.06
228.324	35.06
228.559	44.06
228.793	72.06
229.027	85.06
229.262	119.06
229.496	113.06
229.73	128.06
229.964	163.06
230.199	113.06
230.433	107.06
230.667	100.06
230.901	114.06
231.136	123.06
231.37	101.06
231.604	117.06
231.838	99.06
232.072	116.06
232.306	112.06
232.541	118.06
232.775	112.06
233.009	112.06
233.243	120.06
233.477	98.06
233.711	113.06
233.945	123.06
234.179	125.06
234.413	121.06
234.647	105.06
234.881	115.06
235.115	123.06
235.349	111.06
235.583	117.06
235.817	104.06
236.051	135.06
236.285	122.06
236.519	119.06
236.753	120.06
236.987	127.06
237.221	169.06
237.455	215.06
237.689	180.06
237.922	130.06
238.156	146.06
238.39	135.06
238.624	130.06
238.858	117.06
239.091	122.06
239.325	119.06
239.559	123.06
239.793	124.06
240.027	125.06
240.26	128.06
240.494	157.06
240.728	141.06
240.961	140.06
241.195	138.06
241.429	143.06
241.662	140.06
241.896	135.06
242.13	137.06
242.363	148.06
242.597	139.06
242.83	148.06
243.064	134.06
243.298	133.06
243.531	140.06
243.765	138.06
243.998	132.06
244.232	154.06
244.465	141.06
244.699	150.06
244.932	162.06
245.166	164.06
245.399	148.06
245.633	152.06
245.866	148.06
246.099	152.06
246.333	152.06
246.566	149.06
246.8	159.06
247.033	156.06
247.266	164.06
247.5	166.06
247.733	165.06
247.966	172.06
248.2	168.06
248.433	172.06
248.666	171.06
248.899	172.06
249.133	190.06
249.366	208.06
249.599	191.06
249.832	202.06
250.066	183.06
250.299	170.06
250.532	195.06
250.765	225.06
250.998	227.06
251.231	225.06
251.465	231.06
251.698	197.06
251.931	191.06
252.164	188.06
252.397	188.06
252.63	188.06
252.863	186.06
253.096	223.06
253.329	214.06
253.562	228.06
253.795	211.06
254.028	212.06
254.261	208.06
254.494	231.06
254.727	251.06
254.96	282.06
255.193	255.06
255.426	248.06
255.659	226.06
255.892	217.06
256.124	240.06
256.357	230.06
256.59	229.06
256.823	218.06
257.056	224.06
257.289	224.06
257.521	188.06
257.754	223.06
257.987	220.06
258.22	225.06
258.452	211.06
258.685	209.06
258.918	209.06
259.151	210.06
259.383	205.06
259.616	223.06
259.849	218.06
260.081	245.06
260.314	259.06
260.547	257.06
260.779	262.06
261.012	230.06
261.244	233.06
261.477	246.06
261.71	224.06
261.942	230.06
262.175	247.06
262.407	231.06
262.64	224.06
262.872	218.06
263.105	200.06
263.337	202.06
263.57	210.06
263.802	224.06
264.035	211.06
264.267	214.06
264.499	215.06
264.732	210.06
264.964	219.06
265.197	205.06
265.429	209.06
265.661	211.06
265.894	218.06
266.126	226.06
266.358	222.06
266.591	224.06
266.823	225.06
267.055	230.06
267.287	232.06
267.52	241.06
267.752	243.06
267.984	225.06
268.216	219.06
268.448	228.06
268.681	243.06
268.913	246.06
269.145	255.06
269.377	285.06
269.609	283.06
269.841	280.06
270.073	280.06
270.306	296.06
270.538	312.06
270.77	312.06
271.002	310.06
271.234	308.06
271.466	316.06
271.698	321.06
271.93	316.06
272.162	322.06
272.394	314.06
272.626	295.06
272.858	289.06
273.09	300.06
273.322	273.06
273.553	266.06
273.785	279.06
274.017	265.06
274.249	269.06
274.481	263.06
274.713	274.06
274.945	258.06
275.176	282.06
275.408	273.06
275.64	248.06
275.872	259.06
276.104	278.06
276.335	255.06
276.567	262.06
276.799	288.06
277.031	297.06
277.262	322.06
277.494	331.06
277.726	295.06
277.957	288.06
278.189	279.06
278.421	284.06
278.652	301.06
278.884	271.06
279.115	259.06
279.347	285.06
279.579	279.06
279.81	271.06
280.042	267.06
280.273	272.06
280.505	268.06
280.736	284.06
280.968	261.06
281.199	261.06
281.431	291.06
281.662	263.06
281.894	293.06
282.125	279.06
282.356	290.06
282.588	309.06
282.819	298.06
283.051	300.06
283.282	277.06
283.513	285.06
283.745	287.06
283.976	308.06
284.207	285.06
284.439	279.06
284.67	299.06
284.901	293.06
285.132	274.06
285.364	298.06
285.595	290.06
285.826	295.06
286.057	300.06
286.288	284.06
286.52	302.06
286.751	284.06
286.982	298.06
287.213	309.06
287.444	284.06
287.675	306.06
287.906	308.06
288.138	294.06
288.369	303.06
288.6	311.06
288.831	303.06
289.062	303.06
289.293	299.06
289.524	318.06
289.755	311.06
289.986	314.06
290.217	309.06
290.448	294.06
290.679	295.06
290.91	294.06
291.141	304.06
291.371	295.06
291.602	303.06
291.833	285.06
292.064	319.06
292.295	276.06
292.526	294.06
292.757	305.06
292.987	307.06
293.218	314.06
293.449	307.06
293.68	298.06
293.91	310.06
294.141	303.06
294.372	295.06
294.603	305.06
294.833	318.06
295.064	297.06
295.295	304.06
295.525	311.06
295.756	328.06
295.987	314.06
296.217	340.06
296.448	336.06
296.679	307.06
296.909	307.06
297.14	316.06
297.37	307.06
297.601	303.06
297.831	319.06
298.062	313.06
298.292	296.06
298.523	323.06
298.753	320.06
298.984	328.06
299.214	330.06
299.445	330.06
299.675	309.06
299.905	314.06
300.136	327.06
300.366	310.06
300.597	322.06
300.827	346.06
301.057	322.06
301.288	338.06
301.518	349.06
301.748	346.06
301.979	329.06
302.209	328.06
302.439	354.06
302.669	341.06
302.9	340.06
303.13	358.06
303.36	354.06
303.59	338.06
303.82	345.06
304.051	353.06
304.281	342.06
304.511	320.06
304.741	331.06
304.971	331.06
305.201	328.06
305.431	333.06
305.661	344.06
305.891	340.06
306.121	342.06
306.352	331.06
306.582	335.06
306.812	334.06
307.042	351.06
307.272	347.06
307.502	337.06
307.731	347.06
307.961	346.06
308.191	356.06
308.421	339.06
308.651	333.06
308.881	357.06
309.111	340.06
309.341	346.06
309.571	335.06
309.8	352.06
310.03	365.06
310.26	375.06
310.49	370.06
310.72	376.06
310.949	372.06
311.179	376.06
311.409	371.06
311.639	373.06
311.868	371.06
312.098	382.06
312.328	382.06
312.557	389.06
312.787	387.06
313.017	419.06
313.246	402.06
313.476	390.06
313.706	379.06
313.935	395.06
314.165	403.06
314.394	391.06
314.624	393.06
314.853	390.06
315.083	382.06
315.312	376.06
315.542	363.06
315.771	375.06
316.001	384.06
316.23	372.06
316.46	389.06
316.689	385.06
316.919	375.06
317.148	393.06
317.377	394.06
317.607	370.06
317.836	383.06
318.065	369.06
318.295	384.06
318.524	378.06
318.753	382.06
318.983	399.06
319.212	398.06
319.441	371.06
319.67	376.06
319.9	384.06
320.129	402.06
320.358	385.06
320.587	395.06
320.816	406.06
321.046	387.06
321.275	399.06
321.504	413.06
321.733	395.06
321.962	392.06
322.191	410.06
322.42	425.06
322.649	408.06
322.878	421.06
323.108	428.06
323.337	455.06
323.566	432.06
323.795	472.06
324.024	504.06
324.253	587.06
324.482	791.06
324.71	1213.06
324.939	1764.06
325.168	1621.06
325.397	834.06
325.626	584.06
325.855	505.06
326.084	477.06
326.313	449.06
326.542	465.06
326.77	494.06
326.999	587.06
327.228	755.06
327.457	1118.06
327.686	1420.06
327.914	951.06
328.143	631.06
328.372	568.06
328.6	506.06
328.829	481.06
329.058	521.06
329.287	539.06
329.515	515.06
329.744	497.06
329.972	489.06
330.201	500.06
330.43	559.06
330.658	550.06
330.887	563.06
331.115	540.06
331.344	491.06
331.572	471.06
331.801	479.06
332.03	465.06
332.258	467.06
332.486	452.06
332.715	471.06
332.943	461.06
333.172	465.06
333.4	466.06
333.629	489.06
333.857	487.06
334.085	502.06
334.314	501.06
334.542	538.06
334.771	559.06
334.999	532.06
335.227	476.06
335.455	468.06
335.684	482.06
335.912	468.06
336.14	454.06
336.369	447.06
336.597	461.06
336.825	480.06
337.053	460.06
337.281	434.06
337.51	444.06
337.738	424.06
337.966	443.06
338.194	450.06
338.422	473.06
338.65	449.06
338.878	449.06
339.106	444.06
339.334	477.06
339.562	440.06
339.79	445.06
340.018	424.06
340.246	409.06
340.474	421.06
340.702	440.06
340.93	447.06
341.158	443.06
341.386	408.06
341.614	460.06
341.842	431.06
342.07	422.06
342.298	423.06
342.526	409.06
342.754	432.06
342.981	418.06
343.209	454.06
343.437	452.06
343.665	466.06
343.893	453.06
344.12	482.06
344.348	459.06
344.576	443.06
344.804	455.06
345.031	450.06
345.259	432.06
345.487	431.06
345.714	440.06
345.942	441.06
346.17	441.06
346.397	435.06
346.625	429.06
346.853	431.06
347.08	421.06
347.308	433.06
347.535	428.06
347.763	433.06
347.99	449.06
348.218	422.06
348.445	414.06
348.673	443.06
348.9	431.06
349.128	427.06
349.355	419.06
349.583	423.06
349.81	402.06
350.037	417.06
350.265	432.06
350.492	411.06
350.72	415.06
350.947	400.06
351.174	421.06
351.402	412.06
351.629	414.06
351.856	424.06
352.083	440.06
352.311	417.06
352.538	435.06
352.765	451.06
352.992	438.06
353.22	435.06
353.447	424.06
353.674	434.06
353.901	413.06
354.128	406.06
354.355	407.06
354.583	421.06
354.81	399.06
355.037	398.06
355.264	392.06
355.491	406.06
355.718	392.06
355.945	407.06
356.172	410.06
356.399	409.06
356.626	413.06
356.853	412.06
357.08	405.06
357.307	395.06
357.534	399.06
357.761	385.06
357.988	419.06
358.215	411.06
358.441	395.06
358.668	395.06
358.895	421.06
359.122	417.06
359.349	410.06
359.576	412.06
359.802	445.06
360.029	455.06
360.256	455.06
360.483	429.06
360.709	419.06
360.936	440.06
361.163	439.06
361.39	434.06
361.616	424.06
361.843	419.06
362.07	419.06
362.296	411.06
362.523	429.06
362.749	416.06
362.976	427.06
363.203	421.06
363.429	404.06
363.656	417.06
363.882	408.06
364.109	428.06
364.335	404.06
364.562	408.06
364.788	407.06
365.015	407.06
365.241	397.06
365.468	426.06
365.694	414.06
365.92	404.06
366.147	417.06
366.373	407.06
366.599	414.06
366.826	401.06
367.052	408.06
367.278	406.06
367.505	397.06
367.731	412.06
367.957	425.06
368.184	416.06
368.41	435.06
368.636	420.06
368.862	424.06
369.089	424.06
369.315	413.06
369.541	420.06
369.767	409.06
369.993	424.06
370.219	427.06
370.445	416.06
370.672	410.06
370.898	412.06
371.124	413.06
371.35	402.06
371.576	424.06
371.802	399.06
372.028	419.06
372.254	432.06
372.48	426.06
372.706	418.06
372.932	417.06
373.158	445.06
373.384	431.06
373.61	415.06
373.835	423.06
374.061	432.06
374.287	439.06
374.513	412.06
374.739	420.06
374.965	446.06
375.191	457.06
375.416	436.06
375.642	418.06
375.868	427.06
376.094	426.06
376.319	417.06
376.545	428.06
376.771	445.06
376.997	409.06
377.222	432.06
377.448	415.06
377.674	412.06
377.899	440.06
378.125	427.06
378.35	417.06
378.576	412.06
378.802	416.06
379.027	432.06
379.253	424.06
379.478	422.06
379.704	411.06
379.929	417.06
380.155	436.06
380.38	417.06
380.606	437.06
380.831	417.06
381.057	416.06
381.282	413.06
381.507	429.06
381.733	423.06
381.958	436.06
382.184	443.06
382.409	421.06
382.634	431.06
382.86	442.06
383.085	429.06
383.31	470.06
383.535	432.06
383.761	454.06
383.986	444.06
384.211	458.06
384.436	465.06
384.662	480.06
384.887	468.06
385.112	439.06
385.337	457.06
385.562	482.06
385.787	461.06
386.013	492.06
386.238	463.06
386.463	488.06
386.688	476.06
386.913	475.06
387.138	472.06
387.363	460.06
387.588	488.06
387.813	468.06
388.038	466.06
388.263	465.06
388.488	473.06
388.713	473.06
388.938	487.06
389.163	463.06
389.387	472.06
389.612	470.06
389.837	477.06
390.062	452.06
390.287	456.06
390.512	454.06
390.736	481.06
390.961	492.06
391.186	494.06
391.411	489.06
391.636	461.06
391.86	471.06
392.085	511.06
392.31	497.06
392.534	496.06
392.759	492.06
392.984	499.06
393.208	476.06
393.433	479.06
393.658	484.06
393.882	473.06
394.107	480.06
394.331	465.06
394.556	498.06
394.78	495.06
395.005	499.06
395.229	503.06
395.454	522.06
395.678	515.06
395.903	522.06
396.127	535.06
396.352	501.06
396.576	510.06
396.801	515.06
397.025	525.06
397.249	503.06
397.474	515.06
397.698	517.06
397.922	530.06
398.147	519.06
398.371	538.06
398.595	543.06
398.82	557.06
399.044	578.06
399.268	611.06
399.492	614.06
399.717	661.06
399.941	708.06
400.165	707.06
400.389	698.06
400.613	632.06
400.837	600.06
401.062	581.06
401.286	584.06
401.51	554.06
401.734	549.06
401.958	556.06
402.182	566.06
402.406	565.06
402.63	562.06
402.854	553.06
403.078	554.06
403.302	591.06
403.526	565.06
403.75	581.06
403.974	584.06
404.198	589.06
404.422	567.06
404.645	587.06
404.869	577.06
405.093	626.06
405.317	643.06
405.541	678.06
405.765	634.06
405.988	611.06
406.212	616.06
406.436	639.06
406.66	649.06
406.883	603.06
407.107	653.06
407.331	709.06
407.555	753.06
407.778	761.06
408.002	694.06
408.226	656.06
408.449	634.06
408.673	651.06
408.896	670.06
409.12	725.06
409.344	647.06
409.567	610.06
409.791	606.06
410.014	597.06
410.238	578.06
410.461	566.06
410.685	574.06
410.908	617.06
411.132	636.06
411.355	663.06
411.578	636.06
411.802	584.06
412.025	599.06
412.249	592.06
412.472	618.06
412.695	655.06
412.919	660.06
413.142	611.06
413.365	566.06
413.589	574.06
413.812	570.06
414.035	561.06
414.258	545.06
414.482	563.06
414.705	542.06
414.928	565.06
415.151	553.06
415.374	554.06
415.597	539.06
415.821	555.06
416.044	555.06
416.267	555.06
416.49	548.06
416.713	539.06
416.936	537.06
417.159	543.06
417.382	574.06
417.605	548.06
417.828	552.06
418.051	581.06
418.274	544.06
418.497	533.06
418.72	545.06
418.943	548.06
419.166	598.06
419.389	598.06
419.611	593.06
419.834	598.06
420.057	584.06
420.28	599.06
420.503	580.06
420.726	568.06
420.948	597.06
421.171	635.06
421.394	659.06
421.617	591.06
421.839	576.06
422.062	546.06
422.285	586.06
422.507	626.06
422.73	722.06
422.953	676.06
423.175	604.06
423.398	597.06
423.621	594.06
423.843	594.06
424.066	635.06
424.288	621.06
424.511	632.06
424.733	663.06
424.956	747.06
425.178	707.06
425.401	708.06
425.623	746.06
425.846	635.06
426.068	610.06
426.291	593.06
426.513	583.06
426.735	612.06
426.958	619.06
427.18	689.06
427.402	840.06
427.625	916.06
427.847	803.06
428.069	730.06
428.292	646.06
428.514	599.06
428.736	568.06
428.958	557.06
429.181	557.06
429.403	562.06
429.625	567.06
429.847	583.06
430.069	661.06
430.292	634.06
430.514	575.06
430.736	543.06
430.958	561.06
431.18	540.06
431.402	507.06
431.624	518.06
431.846	519.06
432.068	522.06
432.29	511.06
432.512	519.06
432.734	556.06
432.956	544.06
433.178	562.06
433.4	547.06
433.622	538.06
433.844	533.06
434.066	524.06
434.287	523.06
434.509	530.06
434.731	522.06
434.953	545.06
435.175	551.06
435.397	573.06
435.618	592.06
435.84	630.06
436.062	731.06
436.284	767.06
436.505	639.06
436.727	582.06
436.949	545.06
437.17	540.06
437.392	538.06
437.614	563.06
437.835	587.06
438.057	673.06
438.278	807.06
438.5	804.06
438.721	845.06
438.943	812.06
439.165	667.06
439.386	616.06
439.608	624.06
439.829	591.06
440.05	611.06
440.272	653.06
440.493	645.06
440.715	567.06
440.936	548.06
441.158	543.06
441.379	556.06
441.6	581.06
441.822	609.06
442.043	647.06
442.264	714.06
442.486	767.06
442.707	660.06
442.928	603.06
443.149	637.06
443.371	632.06
443.592	699.06
443.813	780.06
444.034	840.06
444.255	705.06
444.476	643.06
444.698	625.06
444.919	634.06
445.14	754.06
445.361	675.06
445.582	643.06
445.803	703.06
446.024	810.06
446.245	818.06
446.466	712.06
446.687	638.06
446.908	607.06
447.129	561.06
447.35	545.06
447.571	545.06
447.792	540.06
448.013	571.06
448.234	573.06
448.455	616.06
448.675	687.06
448.896	851.06
449.117	699.06
449.338	667.06
449.559	781.06
449.779	880.06
450	709.06
450.221	589.06
450.442	549.06
450.662	534.06
450.883	535.06
451.104	538.06
451.324	533.06
451.545	498.06
451.766	515.06
451.986	485.06
452.207	491.06
452.428	473.06
452.648	509.06
452.869	466.06
453.089	499.06
453.31	495.06
453.53	492.06
453.751	490.06
453.971	473.06
454.192	495.06
454.412	492.06
454.633	482.06
454.853	483.06
455.073	500.06
455.294	491.06
455.514	576.06
455.734	574.06
455.955	488.06
456.175	448.06
456.395	456.06
456.616	462.06
456.836	469.06
457.056	455.06
457.276	444.06
457.497	455.06
457.717	445.06
457.937	471.06
458.157	475.06
458.377	474.06
458.598	507.06
458.818	543.06
459.038	611.06
459.258	645.06
459.478	568.06
459.698	522.06
459.918	545.06
460.138	531.06
460.358	547.06
460.578	549.06
460.798	543.06
461.018	551.06
461.238	531.06
461.458	548.06
461.678	557.06
461.898	561.06
462.118	556.06
462.338	577.06
462.558	573.06
462.777	603.06
462.997	591.06
463.217	627.06
463.437	613.06
463.657	603.06
463.876	616.06
464.096	577.06
464.316	583.06
464.536	602.06
464.755	583.06
464.975	579.06
465.195	611.06
465.414	634.06
465.634	607.06
465.854	545.06
466.073	541.06
466.293	510.06
466.512	519.06
466.732	485.06
466.951	489.06
467.171	486.06
467.391	512.06
467.61	515.06
467.829	515.06
468.049	525.06
468.268	526.06
468.488	488.06
468.707	489.06
468.927	485.06
469.146	505.06
469.365	490.06
469.585	492.06
469.804	499.06
470.023	507.06
470.243	500.06
470.462	526.06
470.681	533.06
470.901	517.06
471.12	511.06
471.339	529.06
471.558	501.06
471.777	523.06
471.997	481.06
472.216	536.06
472.435	529.06
472.654	525.06
472.873	510.06
473.092	512.06
473.311	513.06
473.53	518.06
473.749	521.06
473.968	554.06
474.187	645.06
474.406	662.06
474.625	570.06
474.844	529.06
475.063	539.06
475.282	498.06
475.501	518.06
475.72	545.06
475.939	543.06
476.158	519.06
476.377	530.06
476.596	515.06
476.814	546.06
477.033	531.06
477.252	530.06
477.471	523.06
477.69	552.06
477.908	566.06
478.127	549.06
478.346	575.06
478.564	593.06
478.783	568.06
479.002	579.06
479.22	604.06
479.439	594.06
479.658	641.06
479.876	633.06
480.095	608.06
480.313	657.06
480.532	674.06
480.751	650.06
480.969	647.06
481.188	690.06
481.406	700.06
481.624	631.06
481.843	626.06
482.061	607.06
482.28	635.06
482.498	588.06
482.717	596.06
482.935	579.06
483.153	589.06
483.372	602.06
483.59	613.06
483.808	593.06
484.027	603.06
484.245	610.06
484.463	614.06
484.681	600.06
484.9	616.06
485.118	609.06
485.336	616.06
485.554	631.06
485.772	612.06
485.99	610.06
486.209	637.06
486.427	613.06
486.645	642.06
486.863	647.06
487.081	639.06
487.299	635.06
487.517	633.06
487.735	667.06
487.953	637.06
488.171	611.06
488.389	636.06
488.607	653.06
488.825	623.06
489.043	658.06
489.261	653.06
489.479	659.06
489.696	674.06
489.914	653.06
490.132	645.06
490.35	654.06
490.568	691.06
490.786	654.06
491.003	687.06
491.221	725.06
491.439	733.06
491.657	737.06
491.874	720.06
492.092	746.06
492.31	738.06
492.527	741.06
492.745	748.06
492.963	748.06
493.18	742.06
493.398	765.06
493.615	772.06
493.833	765.06
494.05	769.06
494.268	771.06
494.485	745.06
494.703	759.06
494.92	775.06
495.138	761.06
495.355	751.06
495.573	755.06
495.79	763.06
496.008	759.06
496.225	754.06
496.442	739.06
496.66	764.06
496.877	772.06
497.094	787.06
497.312	767.06
497.529	779.06
497.746	793.06
497.963	823.06
498.181	849.06
498.398	844.06
498.615	898.06
498.832	910.06
499.049	904.06
499.267	923.06
499.484	967.06
499.701	1027.06
499.918	1079.06
500.135	1157.06
500.352	1215.06
500.569	1231.06
500.786	1248.06
501.003	1205.06
501.22	1125.06
501.437	1097.06
501.654	1059.06
