Data from 1975.PennyLincolnUp.Lamp.En5.5.200Scan.071719.P1.Changed Mount._HRD10591_15-56-10-858.txt Node
Date: Thu Jul 18 15:56:10 EDT 2019
User: cochatt
Spectrometer: HR+D1059
Trigger mode: 1
Integration Time (sec): 1.000000E-1
Scans to average: 1
Electric dark correction enabled: true
Nonlinearity correction enabled: false
Boxcar width: 0
XAxis mode: Wavelengths
Number of Pixels in Spectrum: 2048
>>>>>Begin Spectral Data<<<<<
223.165	-10.25
223.4	-10.25
223.635	-10.25
223.869	-13.25
224.104	-14.25
224.338	-16.25
224.573	-29.25
224.808	-1.25
225.042	-1.25
225.277	-6.25
225.511	-6.25
225.746	-8.25
225.98	4.75
226.215	5.75
226.449	19.75
226.683	29.75
226.918	26.75
227.152	19.75
227.387	30.75
227.621	34.75
227.856	34.75
228.09	55.75
228.324	46.75
228.559	56.75
228.793	59.75
229.027	110.75
229.262	104.75
229.496	103.75
229.73	113.75
229.964	144.75
230.199	132.75
230.433	119.75
230.667	114.75
230.901	118.75
231.136	106.75
231.37	118.75
231.604	107.75
231.838	123.75
232.072	117.75
232.306	111.75
232.541	134.75
232.775	112.75
233.009	114.75
233.243	111.75
233.477	110.75
233.711	117.75
233.945	124.75
234.179	119.75
234.413	118.75
234.647	117.75
234.881	118.75
235.115	107.75
235.349	121.75
235.583	110.75
235.817	128.75
236.051	134.75
236.285	118.75
236.519	108.75
236.753	138.75
236.987	142.75
237.221	168.75
237.455	226.75
237.689	178.75
237.922	135.75
238.156	134.75
238.39	137.75
238.624	148.75
238.858	130.75
239.091	119.75
239.325	132.75
239.559	124.75
239.793	111.75
240.027	139.75
240.26	140.75
240.494	157.75
240.728	167.75
240.961	149.75
241.195	153.75
241.429	145.75
241.662	126.75
241.896	147.75
242.13	134.75
242.363	131.75
242.597	131.75
242.83	148.75
243.064	129.75
243.298	141.75
243.531	131.75
243.765	120.75
243.998	152.75
244.232	154.75
244.465	143.75
244.699	148.75
244.932	143.75
245.166	148.75
245.399	158.75
245.633	151.75
245.866	138.75
246.099	159.75
246.333	148.75
246.566	150.75
246.8	146.75
247.033	139.75
247.266	166.75
247.5	138.75
247.733	180.75
247.966	172.75
248.2	181.75
248.433	174.75
248.666	172.75
248.899	184.75
249.133	190.75
249.366	201.75
249.599	188.75
249.832	182.75
250.066	179.75
250.299	169.75
250.532	186.75
250.765	216.75
250.998	221.75
251.231	230.75
251.465	204.75
251.698	199.75
251.931	205.75
252.164	198.75
252.397	183.75
252.63	198.75
252.863	205.75
253.096	213.75
253.329	222.75
253.562	215.75
253.795	203.75
254.028	219.75
254.261	205.75
254.494	218.75
254.727	242.75
254.96	249.75
255.193	247.75
255.426	229.75
255.659	233.75
255.892	218.75
256.124	234.75
256.357	228.75
256.59	223.75
256.823	212.75
257.056	207.75
257.289	208.75
257.521	215.75
257.754	206.75
257.987	197.75
258.22	214.75
258.452	213.75
258.685	218.75
258.918	208.75
259.151	225.75
259.383	229.75
259.616	216.75
259.849	227.75
260.081	223.75
260.314	242.75
260.547	232.75
260.779	239.75
261.012	244.75
261.244	235.75
261.477	235.75
261.71	200.75
261.942	222.75
262.175	215.75
262.407	223.75
262.64	197.75
262.872	206.75
263.105	220.75
263.337	218.75
263.57	219.75
263.802	214.75
264.035	218.75
264.267	211.75
264.499	211.75
264.732	219.75
264.964	221.75
265.197	221.75
265.429	221.75
265.661	225.75
265.894	211.75
266.126	224.75
266.358	208.75
266.591	216.75
266.823	221.75
267.055	225.75
267.287	226.75
267.52	215.75
267.752	226.75
267.984	232.75
268.216	218.75
268.448	218.75
268.681	227.75
268.913	237.75
269.145	260.75
269.377	279.75
269.609	272.75
269.841	251.75
270.073	253.75
270.306	273.75
270.538	294.75
270.77	300.75
271.002	293.75
271.234	277.75
271.466	298.75
271.698	295.75
271.93	302.75
272.162	302.75
272.394	303.75
272.626	265.75
272.858	266.75
273.09	260.75
273.322	287.75
273.553	256.75
273.785	255.75
274.017	267.75
274.249	256.75
274.481	250.75
274.713	277.75
274.945	259.75
275.176	275.75
275.408	257.75
275.64	253.75
275.872	261.75
276.104	268.75
276.335	271.75
276.567	273.75
276.799	277.75
277.031	287.75
277.262	311.75
277.494	313.75
277.726	293.75
277.957	290.75
278.189	300.75
278.421	278.75
278.652	276.75
278.884	263.75
279.115	258.75
279.347	255.75
279.579	267.75
279.81	274.75
280.042	272.75
280.273	275.75
280.505	286.75
280.736	270.75
280.968	279.75
281.199	277.75
281.431	277.75
281.662	276.75
281.894	266.75
282.125	275.75
282.356	281.75
282.588	301.75
282.819	318.75
283.051	274.75
283.282	286.75
283.513	287.75
283.745	289.75
283.976	278.75
284.207	297.75
284.439	292.75
284.67	281.75
284.901	296.75
285.132	295.75
285.364	292.75
285.595	303.75
285.826	297.75
286.057	302.75
286.288	276.75
286.52	287.75
286.751	282.75
286.982	289.75
287.213	278.75
287.444	292.75
287.675	296.75
287.906	311.75
288.138	299.75
288.369	303.75
288.6	294.75
288.831	294.75
289.062	302.75
289.293	299.75
289.524	305.75
289.755	306.75
289.986	302.75
290.217	310.75
290.448	278.75
290.679	290.75
290.91	301.75
291.141	313.75
291.371	308.75
291.602	308.75
291.833	285.75
292.064	308.75
292.295	294.75
292.526	306.75
292.757	311.75
292.987	285.75
293.218	300.75
293.449	303.75
293.68	288.75
293.91	287.75
294.141	304.75
294.372	295.75
294.603	304.75
294.833	304.75
295.064	308.75
295.295	315.75
295.525	304.75
295.756	289.75
295.987	311.75
296.217	328.75
296.448	328.75
296.679	306.75
296.909	295.75
297.14	313.75
297.37	318.75
297.601	330.75
297.831	295.75
298.062	306.75
298.292	314.75
298.523	309.75
298.753	330.75
298.984	315.75
299.214	320.75
299.445	307.75
299.675	312.75
299.905	326.75
300.136	326.75
300.366	325.75
300.597	320.75
300.827	321.75
301.057	329.75
301.288	345.75
301.518	335.75
301.748	318.75
301.979	318.75
302.209	347.75
302.439	334.75
302.669	328.75
302.9	326.75
303.13	352.75
303.36	334.75
303.59	334.75
303.82	335.75
304.051	342.75
304.281	347.75
304.511	330.75
304.741	343.75
304.971	326.75
305.201	336.75
305.431	339.75
305.661	342.75
305.891	340.75
306.121	340.75
306.352	338.75
306.582	347.75
306.812	344.75
307.042	341.75
307.272	340.75
307.502	340.75
307.731	335.75
307.961	342.75
308.191	346.75
308.421	322.75
308.651	347.75
308.881	336.75
309.111	340.75
309.341	328.75
309.571	327.75
309.8	340.75
310.03	356.75
310.26	353.75
310.49	357.75
310.72	360.75
310.949	370.75
311.179	385.75
311.409	383.75
311.639	360.75
311.868	365.75
312.098	354.75
312.328	364.75
312.557	404.75
312.787	396.75
313.017	400.75
313.246	383.75
313.476	352.75
313.706	376.75
313.935	383.75
314.165	359.75
314.394	394.75
314.624	397.75
314.853	383.75
315.083	384.75
315.312	378.75
315.542	372.75
315.771	389.75
316.001	381.75
316.23	377.75
316.46	367.75
316.689	376.75
316.919	371.75
317.148	388.75
317.377	375.75
317.607	364.75
317.836	382.75
318.065	357.75
318.295	358.75
318.524	390.75
318.753	367.75
318.983	380.75
319.212	366.75
319.441	378.75
319.67	374.75
319.9	372.75
320.129	387.75
320.358	388.75
320.587	384.75
320.816	383.75
321.046	376.75
321.275	399.75
321.504	380.75
321.733	385.75
321.962	394.75
322.191	391.75
322.42	421.75
322.649	409.75
322.878	417.75
323.108	431.75
323.337	446.75
323.566	467.75
323.795	483.75
324.024	501.75
324.253	555.75
324.482	790.75
324.71	1144.75
324.939	1692.75
325.168	1494.75
325.397	790.75
325.626	537.75
325.855	474.75
326.084	456.75
326.313	458.75
326.542	468.75
326.77	477.75
326.999	531.75
327.228	695.75
327.457	1060.75
327.686	1286.75
327.914	877.75
328.143	589.75
328.372	541.75
328.6	512.75
328.829	485.75
329.058	495.75
329.287	510.75
329.515	507.75
329.744	484.75
329.972	494.75
330.201	495.75
330.43	529.75
330.658	506.75
330.887	540.75
331.115	541.75
331.344	484.75
331.572	468.75
331.801	479.75
332.03	494.75
332.258	467.75
332.486	461.75
332.715	460.75
332.943	463.75
333.172	447.75
333.4	472.75
333.629	500.75
333.857	492.75
334.085	499.75
334.314	510.75
334.542	530.75
334.771	543.75
334.999	519.75
335.227	487.75
335.455	441.75
335.684	452.75
335.912	458.75
336.14	475.75
336.369	457.75
336.597	435.75
336.825	439.75
337.053	481.75
337.281	436.75
337.51	439.75
337.738	454.75
337.966	468.75
338.194	466.75
338.422	442.75
338.65	435.75
338.878	407.75
339.106	421.75
339.334	430.75
339.562	442.75
339.79	427.75
340.018	437.75
340.246	438.75
340.474	441.75
340.702	442.75
340.93	427.75
341.158	419.75
341.386	443.75
341.614	425.75
341.842	438.75
342.07	412.75
342.298	432.75
342.526	413.75
342.754	423.75
342.981	408.75
343.209	417.75
343.437	445.75
343.665	434.75
343.893	453.75
344.12	473.75
344.348	440.75
344.576	441.75
344.804	456.75
345.031	458.75
345.259	443.75
345.487	464.75
345.714	429.75
345.942	413.75
346.17	406.75
346.397	412.75
346.625	415.75
346.853	404.75
347.08	414.75
347.308	399.75
347.535	410.75
347.763	445.75
347.99	408.75
348.218	413.75
348.445	419.75
348.673	426.75
348.9	413.75
349.128	400.75
349.355	415.75
349.583	410.75
349.81	407.75
350.037	408.75
350.265	415.75
350.492	383.75
350.72	386.75
350.947	408.75
351.174	424.75
351.402	417.75
351.629	419.75
351.856	400.75
352.083	412.75
352.311	401.75
352.538	397.75
352.765	448.75
352.992	427.75
353.22	416.75
353.447	412.75
353.674	415.75
353.901	393.75
354.128	403.75
354.355	381.75
354.583	401.75
354.81	402.75
355.037	417.75
355.264	408.75
355.491	379.75
355.718	393.75
355.945	412.75
356.172	399.75
356.399	411.75
356.626	407.75
356.853	407.75
357.08	403.75
357.307	388.75
357.534	407.75
357.761	410.75
357.988	394.75
358.215	408.75
358.441	420.75
358.668	398.75
358.895	412.75
359.122	399.75
359.349	410.75
359.576	405.75
359.802	413.75
360.029	459.75
360.256	465.75
360.483	454.75
360.709	393.75
360.936	408.75
361.163	415.75
361.39	417.75
361.616	419.75
361.843	422.75
362.07	416.75
362.296	418.75
362.523	418.75
362.749	411.75
362.976	426.75
363.203	434.75
363.429	414.75
363.656	413.75
363.882	399.75
364.109	418.75
364.335	401.75
364.562	396.75
364.788	401.75
365.015	424.75
365.241	398.75
365.468	410.75
365.694	418.75
365.92	427.75
366.147	404.75
366.373	427.75
366.599	398.75
366.826	393.75
367.052	412.75
367.278	402.75
367.505	407.75
367.731	423.75
367.957	427.75
368.184	424.75
368.41	412.75
368.636	417.75
368.862	445.75
369.089	420.75
369.315	404.75
369.541	429.75
369.767	415.75
369.993	407.75
370.219	398.75
370.445	423.75
370.672	422.75
370.898	430.75
371.124	419.75
371.35	430.75
371.576	426.75
371.802	405.75
372.028	411.75
372.254	428.75
372.48	410.75
372.706	401.75
372.932	437.75
373.158	440.75
373.384	430.75
373.61	426.75
373.835	400.75
374.061	408.75
374.287	427.75
374.513	425.75
374.739	447.75
374.965	435.75
375.191	416.75
375.416	449.75
375.642	448.75
375.868	415.75
376.094	427.75
376.319	434.75
376.545	412.75
376.771	425.75
376.997	407.75
377.222	432.75
377.448	422.75
377.674	416.75
377.899	413.75
378.125	422.75
378.35	426.75
378.576	413.75
378.802	415.75
379.027	421.75
379.253	414.75
379.478	427.75
379.704	404.75
379.929	423.75
380.155	424.75
380.38	418.75
380.606	407.75
380.831	432.75
381.057	418.75
381.282	396.75
381.507	424.75
381.733	420.75
381.958	425.75
382.184	429.75
382.409	423.75
382.634	436.75
382.86	435.75
383.085	455.75
383.31	445.75
383.535	424.75
383.761	430.75
383.986	456.75
384.211	451.75
384.436	441.75
384.662	461.75
384.887	469.75
385.112	465.75
385.337	450.75
385.562	454.75
385.787	479.75
386.013	468.75
386.238	466.75
386.463	486.75
386.688	481.75
386.913	497.75
387.138	478.75
387.363	458.75
387.588	471.75
387.813	476.75
388.038	461.75
388.263	472.75
388.488	480.75
388.713	470.75
388.938	471.75
389.163	479.75
389.387	475.75
389.612	454.75
389.837	463.75
390.062	470.75
390.287	478.75
390.512	442.75
390.736	467.75
390.961	454.75
391.186	469.75
391.411	485.75
391.636	471.75
391.86	486.75
392.085	496.75
392.31	491.75
392.534	481.75
392.759	474.75
392.984	482.75
393.208	486.75
393.433	479.75
393.658	478.75
393.882	493.75
394.107	469.75
394.331	468.75
394.556	500.75
394.78	486.75
395.005	485.75
395.229	509.75
395.454	495.75
395.678	491.75
395.903	519.75
396.127	536.75
396.352	519.75
396.576	487.75
396.801	503.75
397.025	479.75
397.249	506.75
397.474	510.75
397.698	507.75
397.922	523.75
398.147	559.75
398.371	545.75
398.595	538.75
398.82	529.75
399.044	551.75
399.268	588.75
399.492	641.75
399.717	657.75
399.941	700.75
400.165	682.75
400.389	695.75
400.613	621.75
400.837	551.75
401.062	549.75
401.286	568.75
401.51	549.75
401.734	543.75
401.958	555.75
402.182	538.75
402.406	524.75
402.63	579.75
402.854	554.75
403.078	536.75
403.302	567.75
403.526	542.75
403.75	583.75
403.974	585.75
404.198	579.75
404.422	567.75
404.645	562.75
404.869	584.75
405.093	630.75
405.317	645.75
405.541	700.75
405.765	616.75
405.988	582.75
406.212	598.75
406.436	611.75
406.66	627.75
406.883	634.75
407.107	635.75
407.331	677.75
407.555	743.75
407.778	762.75
408.002	686.75
408.226	631.75
408.449	637.75
408.673	619.75
408.896	664.75
409.12	690.75
409.344	638.75
409.567	604.75
409.791	571.75
410.014	576.75
410.238	571.75
410.461	580.75
410.685	596.75
410.908	604.75
411.132	624.75
411.355	660.75
411.578	634.75
411.802	569.75
412.025	576.75
412.249	570.75
412.472	604.75
412.695	638.75
412.919	636.75
413.142	601.75
413.365	562.75
413.589	546.75
413.812	540.75
414.035	554.75
414.258	528.75
414.482	556.75
414.705	544.75
414.928	546.75
415.151	542.75
415.374	547.75
415.597	562.75
415.821	551.75
416.044	524.75
416.267	531.75
416.49	554.75
416.713	524.75
416.936	552.75
417.159	532.75
417.382	535.75
417.605	531.75
417.828	550.75
418.051	537.75
418.274	536.75
418.497	543.75
418.72	563.75
418.943	536.75
419.166	559.75
419.389	592.75
419.611	585.75
419.834	568.75
420.057	578.75
420.28	573.75
420.503	594.75
420.726	593.75
420.948	572.75
421.171	608.75
421.394	643.75
421.617	582.75
421.839	546.75
422.062	554.75
422.285	571.75
422.507	638.75
422.73	697.75
422.953	669.75
423.175	617.75
423.398	578.75
423.621	589.75
423.843	586.75
424.066	581.75
424.288	611.75
424.511	610.75
424.733	627.75
424.956	735.75
425.178	698.75
425.401	712.75
425.623	716.75
425.846	634.75
426.068	613.75
426.291	573.75
426.513	580.75
426.735	606.75
426.958	634.75
427.18	715.75
427.402	844.75
427.625	896.75
427.847	757.75
428.069	691.75
428.292	607.75
428.514	600.75
428.736	550.75
428.958	545.75
429.181	539.75
429.403	544.75
429.625	546.75
429.847	572.75
430.069	642.75
430.292	632.75
430.514	546.75
430.736	536.75
430.958	535.75
431.18	528.75
431.402	518.75
431.624	496.75
431.846	495.75
432.068	499.75
432.29	495.75
432.512	525.75
432.734	535.75
432.956	522.75
433.178	526.75
433.4	537.75
433.622	524.75
433.844	526.75
434.066	525.75
434.287	527.75
434.509	527.75
434.731	522.75
434.953	562.75
435.175	558.75
435.397	569.75
435.618	584.75
435.84	610.75
436.062	714.75
436.284	773.75
436.505	658.75
436.727	580.75
436.949	578.75
437.17	556.75
437.392	506.75
437.614	550.75
437.835	575.75
438.057	631.75
438.278	784.75
438.5	744.75
438.721	828.75
438.943	818.75
439.165	643.75
439.386	579.75
439.608	559.75
439.829	578.75
440.05	590.75
440.272	623.75
440.493	639.75
440.715	569.75
440.936	550.75
441.158	550.75
441.379	533.75
441.6	546.75
441.822	555.75
442.043	629.75
442.264	700.75
442.486	716.75
442.707	652.75
442.928	607.75
443.149	579.75
443.371	612.75
443.592	655.75
443.813	761.75
444.034	821.75
444.255	691.75
444.476	637.75
444.698	608.75
444.919	621.75
445.14	706.75
445.361	647.75
445.582	630.75
445.803	685.75
446.024	766.75
446.245	791.75
446.466	718.75
446.687	581.75
446.908	579.75
447.129	546.75
447.35	548.75
447.571	519.75
447.792	539.75
448.013	533.75
448.234	549.75
448.455	582.75
448.675	696.75
448.896	830.75
449.117	700.75
449.338	664.75
449.559	763.75
449.779	858.75
450	674.75
450.221	562.75
450.442	503.75
450.662	495.75
450.883	507.75
451.104	501.75
451.324	526.75
451.545	502.75
451.766	491.75
451.986	468.75
452.207	490.75
452.428	478.75
452.648	468.75
452.869	472.75
453.089	476.75
453.31	502.75
453.53	468.75
453.751	483.75
453.971	455.75
454.192	493.75
454.412	486.75
454.633	485.75
454.853	473.75
455.073	441.75
455.294	504.75
455.514	542.75
455.734	522.75
455.955	490.75
456.175	448.75
456.395	456.75
456.616	436.75
456.836	445.75
457.056	443.75
457.276	442.75
457.497	439.75
457.717	446.75
457.937	459.75
458.157	461.75
458.377	450.75
458.598	485.75
458.818	543.75
459.038	586.75
459.258	638.75
459.478	540.75
459.698	528.75
459.918	509.75
460.138	510.75
460.358	519.75
460.578	535.75
460.798	542.75
461.018	535.75
461.238	535.75
461.458	540.75
461.678	547.75
461.898	557.75
462.118	545.75
462.338	544.75
462.558	563.75
462.777	574.75
462.997	597.75
463.217	626.75
463.437	623.75
463.657	596.75
463.876	582.75
464.096	585.75
464.316	583.75
464.536	557.75
464.755	592.75
464.975	570.75
465.195	606.75
465.414	635.75
465.634	574.75
465.854	540.75
466.073	550.75
466.293	516.75
466.512	500.75
466.732	495.75
466.951	495.75
467.171	481.75
467.391	504.75
467.61	520.75
467.829	529.75
468.049	513.75
468.268	484.75
468.488	463.75
468.707	464.75
468.927	479.75
469.146	487.75
469.365	482.75
469.585	483.75
469.804	508.75
470.023	500.75
470.243	505.75
470.462	506.75
470.681	510.75
470.901	513.75
471.12	529.75
471.339	501.75
471.558	490.75
471.777	487.75
471.997	476.75
472.216	513.75
472.435	550.75
472.654	495.75
472.873	494.75
473.092	495.75
473.311	502.75
473.53	509.75
473.749	495.75
473.968	547.75
474.187	610.75
474.406	658.75
474.625	552.75
474.844	525.75
475.063	514.75
475.282	490.75
475.501	490.75
475.72	524.75
475.939	495.75
476.158	534.75
476.377	519.75
476.596	513.75
476.814	511.75
477.033	509.75
477.252	527.75
477.471	529.75
477.69	535.75
477.908	560.75
478.127	578.75
478.346	550.75
478.564	567.75
478.783	573.75
479.002	578.75
479.22	587.75
479.439	602.75
479.658	576.75
479.876	596.75
480.095	610.75
480.313	653.75
480.532	622.75
480.751	636.75
480.969	627.75
481.188	662.75
481.406	682.75
481.624	648.75
481.843	613.75
482.061	587.75
482.28	614.75
482.498	592.75
482.717	605.75
482.935	590.75
483.153	600.75
483.372	570.75
483.59	602.75
483.808	573.75
484.027	591.75
484.245	610.75
484.463	588.75
484.681	585.75
484.9	600.75
485.118	603.75
485.336	615.75
485.554	596.75
485.772	616.75
485.99	602.75
486.209	608.75
486.427	616.75
486.645	628.75
486.863	640.75
487.081	633.75
487.299	595.75
487.517	602.75
487.735	636.75
487.953	652.75
488.171	651.75
488.389	626.75
488.607	617.75
488.825	636.75
489.043	627.75
489.261	607.75
489.479	615.75
489.696	656.75
489.914	660.75
490.132	664.75
490.35	639.75
490.568	670.75
490.786	669.75
491.003	668.75
491.221	691.75
491.439	703.75
491.657	686.75
491.874	716.75
492.092	730.75
492.31	724.75
492.527	725.75
492.745	741.75
492.963	737.75
493.18	739.75
493.398	735.75
493.615	728.75
493.833	756.75
494.05	777.75
494.268	747.75
494.485	740.75
494.703	733.75
494.92	723.75
495.138	731.75
495.355	730.75
495.573	735.75
495.79	750.75
496.008	755.75
496.225	738.75
496.442	749.75
496.66	748.75
496.877	717.75
497.094	761.75
497.312	754.75
497.529	770.75
497.746	790.75
497.963	763.75
498.181	798.75
498.398	854.75
498.615	840.75
498.832	865.75
499.049	909.75
499.267	916.75
499.484	947.75
499.701	996.75
499.918	1077.75
500.135	1142.75
500.352	1184.75
500.569	1215.75
500.786	1206.75
501.003	1198.75
501.22	1144.75
501.437	1094.75
501.654	1037.75
