Data from 1975.PennyLincolnUp.Lamp.En5.5.200Scan.071719.P1.Changed Mount._HRD10591_15-55-54-858.txt Node
Date: Thu Jul 18 15:55:54 EDT 2019
User: cochatt
Spectrometer: HR+D1059
Trigger mode: 1
Integration Time (sec): 1.000000E-1
Scans to average: 1
Electric dark correction enabled: true
Nonlinearity correction enabled: false
Boxcar width: 0
XAxis mode: Wavelengths
Number of Pixels in Spectrum: 2048
>>>>>Begin Spectral Data<<<<<
223.165	-9.44
223.4	-9.44
223.635	-9.44
223.869	-26.44
224.104	-21.44
224.338	-1.44
224.573	-33.44
224.808	-7.44
225.042	1.56
225.277	3.56
225.511	-8.44
225.746	-2.44
225.98	4.56
226.215	3.56
226.449	25.56
226.683	28.56
226.918	15.56
227.152	27.56
227.387	43.56
227.621	16.56
227.856	46.56
228.09	45.56
228.324	58.56
228.559	56.56
228.793	79.56
229.027	104.56
229.262	99.56
229.496	104.56
229.73	124.56
229.964	140.56
230.199	121.56
230.433	106.56
230.667	114.56
230.901	109.56
231.136	104.56
231.37	112.56
231.604	118.56
231.838	113.56
232.072	104.56
232.306	111.56
232.541	101.56
232.775	124.56
233.009	118.56
233.243	118.56
233.477	116.56
233.711	117.56
233.945	123.56
234.179	119.56
234.413	127.56
234.647	132.56
234.881	127.56
235.115	120.56
235.349	105.56
235.583	127.56
235.817	132.56
236.051	129.56
236.285	119.56
236.519	111.56
236.753	128.56
236.987	128.56
237.221	161.56
237.455	198.56
237.689	169.56
237.922	130.56
238.156	128.56
238.39	133.56
238.624	126.56
238.858	116.56
239.091	117.56
239.325	124.56
239.559	134.56
239.793	137.56
240.027	122.56
240.26	127.56
240.494	143.56
240.728	158.56
240.961	151.56
241.195	152.56
241.429	143.56
241.662	142.56
241.896	130.56
242.13	142.56
242.363	128.56
242.597	136.56
242.83	142.56
243.064	135.56
243.298	128.56
243.531	140.56
243.765	132.56
243.998	155.56
244.232	150.56
244.465	157.56
244.699	144.56
244.932	136.56
245.166	149.56
245.399	142.56
245.633	140.56
245.866	147.56
246.099	151.56
246.333	157.56
246.566	155.56
246.8	152.56
247.033	161.56
247.266	156.56
247.5	161.56
247.733	154.56
247.966	154.56
248.2	165.56
248.433	154.56
248.666	166.56
248.899	177.56
249.133	197.56
249.366	197.56
249.599	194.56
249.832	184.56
250.066	182.56
250.299	186.56
250.532	186.56
250.765	183.56
250.998	220.56
251.231	212.56
251.465	191.56
251.698	187.56
251.931	202.56
252.164	180.56
252.397	204.56
252.63	186.56
252.863	194.56
253.096	198.56
253.329	218.56
253.562	223.56
253.795	202.56
254.028	201.56
254.261	210.56
254.494	207.56
254.727	230.56
254.96	240.56
255.193	258.56
255.426	234.56
255.659	216.56
255.892	204.56
256.124	228.56
256.357	231.56
256.59	224.56
256.823	196.56
257.056	217.56
257.289	197.56
257.521	211.56
257.754	198.56
257.987	204.56
258.22	200.56
258.452	206.56
258.685	208.56
258.918	207.56
259.151	203.56
259.383	197.56
259.616	201.56
259.849	218.56
260.081	227.56
260.314	229.56
260.547	260.56
260.779	229.56
261.012	206.56
261.244	209.56
261.477	198.56
261.71	207.56
261.942	213.56
262.175	225.56
262.407	219.56
262.64	196.56
262.872	209.56
263.105	200.56
263.337	195.56
263.57	204.56
263.802	214.56
264.035	202.56
264.267	214.56
264.499	214.56
264.732	210.56
264.964	202.56
265.197	198.56
265.429	203.56
265.661	208.56
265.894	215.56
266.126	221.56
266.358	224.56
266.591	230.56
266.823	197.56
267.055	221.56
267.287	221.56
267.52	216.56
267.752	222.56
267.984	231.56
268.216	230.56
268.448	223.56
268.681	212.56
268.913	224.56
269.145	252.56
269.377	247.56
269.609	249.56
269.841	240.56
270.073	241.56
270.306	264.56
270.538	282.56
270.77	302.56
271.002	272.56
271.234	291.56
271.466	293.56
271.698	292.56
271.93	283.56
272.162	285.56
272.394	293.56
272.626	285.56
272.858	271.56
273.09	273.56
273.322	273.56
273.553	269.56
273.785	266.56
274.017	249.56
274.249	240.56
274.481	254.56
274.713	235.56
274.945	247.56
275.176	268.56
275.408	260.56
275.64	264.56
275.872	250.56
276.104	269.56
276.335	271.56
276.567	273.56
276.799	274.56
277.031	300.56
277.262	289.56
277.494	300.56
277.726	288.56
277.957	270.56
278.189	268.56
278.421	269.56
278.652	269.56
278.884	256.56
279.115	264.56
279.347	269.56
279.579	258.56
279.81	267.56
280.042	268.56
280.273	261.56
280.505	253.56
280.736	278.56
280.968	257.56
281.199	263.56
281.431	262.56
281.662	262.56
281.894	259.56
282.125	261.56
282.356	268.56
282.588	283.56
282.819	295.56
283.051	271.56
283.282	261.56
283.513	265.56
283.745	265.56
283.976	262.56
284.207	271.56
284.439	279.56
284.67	288.56
284.901	279.56
285.132	282.56
285.364	267.56
285.595	281.56
285.826	257.56
286.057	255.56
286.288	275.56
286.52	285.56
286.751	257.56
286.982	262.56
287.213	262.56
287.444	280.56
287.675	280.56
287.906	296.56
288.138	280.56
288.369	321.56
288.6	285.56
288.831	278.56
289.062	296.56
289.293	299.56
289.524	293.56
289.755	274.56
289.986	287.56
290.217	262.56
290.448	276.56
290.679	291.56
290.91	278.56
291.141	278.56
291.371	286.56
291.602	290.56
291.833	274.56
292.064	295.56
292.295	275.56
292.526	277.56
292.757	282.56
292.987	290.56
293.218	287.56
293.449	293.56
293.68	286.56
293.91	296.56
294.141	290.56
294.372	286.56
294.603	282.56
294.833	280.56
295.064	278.56
295.295	278.56
295.525	293.56
295.756	309.56
295.987	283.56
296.217	297.56
296.448	302.56
296.679	289.56
296.909	287.56
297.14	294.56
297.37	300.56
297.601	290.56
297.831	282.56
298.062	309.56
298.292	295.56
298.523	325.56
298.753	306.56
298.984	306.56
299.214	308.56
299.445	311.56
299.675	314.56
299.905	306.56
300.136	340.56
300.366	308.56
300.597	309.56
300.827	314.56
301.057	321.56
301.288	311.56
301.518	325.56
301.748	312.56
301.979	311.56
302.209	316.56
302.439	329.56
302.669	323.56
302.9	321.56
303.13	322.56
303.36	315.56
303.59	335.56
303.82	337.56
304.051	314.56
304.281	326.56
304.511	336.56
304.741	327.56
304.971	316.56
305.201	308.56
305.431	318.56
305.661	315.56
305.891	326.56
306.121	311.56
306.352	316.56
306.582	324.56
306.812	305.56
307.042	316.56
307.272	314.56
307.502	327.56
307.731	337.56
307.961	336.56
308.191	318.56
308.421	327.56
308.651	318.56
308.881	336.56
309.111	325.56
309.341	316.56
309.571	344.56
309.8	335.56
310.03	337.56
310.26	340.56
310.49	348.56
310.72	374.56
310.949	362.56
311.179	361.56
311.409	351.56
311.639	350.56
311.868	345.56
312.098	351.56
312.328	335.56
312.557	356.56
312.787	362.56
313.017	356.56
313.246	355.56
313.476	375.56
313.706	342.56
313.935	330.56
314.165	352.56
314.394	369.56
314.624	385.56
314.853	372.56
315.083	354.56
315.312	356.56
315.542	374.56
315.771	354.56
316.001	350.56
316.23	372.56
316.46	351.56
316.689	367.56
316.919	372.56
317.148	362.56
317.377	364.56
317.607	351.56
317.836	361.56
318.065	364.56
318.295	376.56
318.524	346.56
318.753	347.56
318.983	328.56
319.212	344.56
319.441	357.56
319.67	362.56
319.9	367.56
320.129	356.56
320.358	347.56
320.587	356.56
320.816	363.56
321.046	349.56
321.275	367.56
321.504	365.56
321.733	352.56
321.962	369.56
322.191	372.56
322.42	376.56
322.649	386.56
322.878	382.56
323.108	373.56
323.337	417.56
323.566	423.56
323.795	438.56
324.024	478.56
324.253	529.56
324.482	699.56
324.71	1046.56
324.939	1542.56
325.168	1368.56
325.397	700.56
325.626	496.56
325.855	462.56
326.084	427.56
326.313	436.56
326.542	447.56
326.77	469.56
326.999	500.56
327.228	659.56
327.457	964.56
327.686	1183.56
327.914	798.56
328.143	566.56
328.372	526.56
328.6	469.56
328.829	464.56
329.058	482.56
329.287	494.56
329.515	464.56
329.744	444.56
329.972	430.56
330.201	468.56
330.43	478.56
330.658	485.56
330.887	488.56
331.115	477.56
331.344	445.56
331.572	428.56
331.801	451.56
332.03	444.56
332.258	431.56
332.486	438.56
332.715	426.56
332.943	435.56
333.172	435.56
333.4	446.56
333.629	455.56
333.857	460.56
334.085	466.56
334.314	482.56
334.542	482.56
334.771	506.56
334.999	492.56
335.227	460.56
335.455	455.56
335.684	449.56
335.912	442.56
336.14	416.56
336.369	412.56
336.597	442.56
336.825	443.56
337.053	421.56
337.281	440.56
337.51	398.56
337.738	416.56
337.966	440.56
338.194	428.56
338.422	425.56
338.65	404.56
338.878	419.56
339.106	426.56
339.334	416.56
339.562	403.56
339.79	397.56
340.018	417.56
340.246	386.56
340.474	397.56
340.702	405.56
340.93	408.56
341.158	401.56
341.386	408.56
341.614	404.56
341.842	409.56
342.07	390.56
342.298	416.56
342.526	416.56
342.754	392.56
342.981	403.56
343.209	399.56
343.437	428.56
343.665	421.56
343.893	461.56
344.12	438.56
344.348	422.56
344.576	438.56
344.804	445.56
345.031	417.56
345.259	412.56
345.487	420.56
345.714	409.56
345.942	427.56
346.17	414.56
346.397	406.56
346.625	409.56
346.853	403.56
347.08	396.56
347.308	406.56
347.535	401.56
347.763	407.56
347.99	406.56
348.218	407.56
348.445	423.56
348.673	405.56
348.9	406.56
349.128	388.56
349.355	394.56
349.583	381.56
349.81	390.56
350.037	364.56
350.265	374.56
350.492	408.56
350.72	401.56
350.947	392.56
351.174	399.56
351.402	402.56
351.629	419.56
351.856	388.56
352.083	394.56
352.311	417.56
352.538	400.56
352.765	419.56
352.992	389.56
353.22	397.56
353.447	421.56
353.674	378.56
353.901	390.56
354.128	376.56
354.355	368.56
354.583	384.56
354.81	385.56
355.037	389.56
355.264	388.56
355.491	356.56
355.718	379.56
355.945	380.56
356.172	375.56
356.399	379.56
356.626	374.56
356.853	391.56
357.08	375.56
357.307	392.56
357.534	379.56
357.761	379.56
357.988	394.56
358.215	386.56
358.441	369.56
358.668	406.56
358.895	378.56
359.122	375.56
359.349	378.56
359.576	403.56
359.802	420.56
360.029	424.56
360.256	402.56
360.483	428.56
360.709	416.56
360.936	392.56
361.163	401.56
361.39	382.56
361.616	392.56
361.843	402.56
362.07	394.56
362.296	379.56
362.523	385.56
362.749	386.56
362.976	374.56
363.203	387.56
363.429	369.56
363.656	380.56
363.882	388.56
364.109	385.56
364.335	390.56
364.562	391.56
364.788	380.56
365.015	384.56
365.241	378.56
365.468	388.56
365.694	382.56
365.92	392.56
366.147	395.56
366.373	386.56
366.599	396.56
366.826	390.56
367.052	392.56
367.278	390.56
367.505	395.56
367.731	376.56
367.957	384.56
368.184	402.56
368.41	377.56
368.636	401.56
368.862	394.56
369.089	400.56
369.315	405.56
369.541	392.56
369.767	398.56
369.993	382.56
370.219	407.56
370.445	400.56
370.672	397.56
370.898	396.56
371.124	382.56
371.35	413.56
371.576	390.56
371.802	391.56
372.028	392.56
372.254	388.56
372.48	376.56
372.706	416.56
372.932	408.56
373.158	385.56
373.384	391.56
373.61	388.56
373.835	409.56
374.061	386.56
374.287	403.56
374.513	430.56
374.739	419.56
374.965	406.56
375.191	412.56
375.416	433.56
375.642	405.56
375.868	404.56
376.094	410.56
376.319	397.56
376.545	411.56
376.771	408.56
376.997	409.56
377.222	410.56
377.448	391.56
377.674	384.56
377.899	408.56
378.125	401.56
378.35	383.56
378.576	405.56
378.802	412.56
379.027	406.56
379.253	417.56
379.478	401.56
379.704	393.56
379.929	409.56
380.155	395.56
380.38	409.56
380.606	406.56
380.831	402.56
381.057	408.56
381.282	426.56
381.507	401.56
381.733	417.56
381.958	416.56
382.184	417.56
382.409	405.56
382.634	405.56
382.86	413.56
383.085	417.56
383.31	418.56
383.535	422.56
383.761	423.56
383.986	437.56
384.211	410.56
384.436	442.56
384.662	428.56
384.887	444.56
385.112	430.56
385.337	442.56
385.562	448.56
385.787	456.56
386.013	466.56
386.238	485.56
386.463	461.56
386.688	465.56
386.913	441.56
387.138	448.56
387.363	436.56
387.588	453.56
387.813	416.56
388.038	440.56
388.263	460.56
388.488	469.56
388.713	446.56
388.938	457.56
389.163	455.56
389.387	461.56
389.612	457.56
389.837	433.56
390.062	440.56
390.287	456.56
390.512	457.56
390.736	433.56
390.961	459.56
391.186	440.56
391.411	447.56
391.636	469.56
391.86	469.56
392.085	464.56
392.31	481.56
392.534	477.56
392.759	454.56
392.984	476.56
393.208	467.56
393.433	452.56
393.658	422.56
393.882	462.56
394.107	452.56
394.331	461.56
394.556	444.56
394.78	456.56
395.005	458.56
395.229	440.56
395.454	485.56
395.678	457.56
395.903	477.56
396.127	477.56
396.352	501.56
396.576	461.56
396.801	488.56
397.025	469.56
397.249	482.56
397.474	479.56
397.698	488.56
397.922	492.56
398.147	491.56
398.371	510.56
398.595	504.56
398.82	521.56
399.044	526.56
399.268	530.56
399.492	565.56
399.717	644.56
399.941	654.56
400.165	659.56
400.389	670.56
400.613	572.56
400.837	570.56
401.062	549.56
401.286	550.56
401.51	530.56
401.734	534.56
401.958	540.56
402.182	531.56
402.406	523.56
402.63	541.56
402.854	524.56
403.078	555.56
403.302	529.56
403.526	536.56
403.75	535.56
403.974	553.56
404.198	540.56
404.422	548.56
404.645	540.56
404.869	544.56
405.093	585.56
405.317	625.56
405.541	668.56
405.765	610.56
405.988	577.56
406.212	583.56
406.436	578.56
406.66	604.56
406.883	581.56
407.107	607.56
407.331	634.56
407.555	686.56
407.778	713.56
408.002	644.56
408.226	603.56
408.449	602.56
408.673	577.56
408.896	602.56
409.12	666.56
409.344	648.56
409.567	584.56
409.791	564.56
410.014	535.56
410.238	534.56
410.461	549.56
410.685	543.56
410.908	568.56
411.132	599.56
411.355	609.56
411.578	580.56
411.802	547.56
412.025	533.56
412.249	570.56
412.472	558.56
412.695	614.56
412.919	615.56
413.142	543.56
413.365	538.56
413.589	535.56
413.812	526.56
414.035	541.56
414.258	525.56
414.482	528.56
414.705	516.56
414.928	502.56
415.151	526.56
415.374	525.56
415.597	507.56
415.821	516.56
416.044	507.56
416.267	512.56
416.49	505.56
416.713	527.56
416.936	517.56
417.159	500.56
417.382	514.56
417.605	512.56
417.828	506.56
418.051	533.56
418.274	531.56
418.497	519.56
418.72	504.56
418.943	489.56
419.166	525.56
419.389	572.56
419.611	557.56
419.834	551.56
420.057	566.56
420.28	544.56
420.503	534.56
420.726	531.56
420.948	555.56
421.171	569.56
421.394	607.56
421.617	545.56
421.839	537.56
422.062	536.56
422.285	517.56
422.507	595.56
422.73	655.56
422.953	634.56
423.175	561.56
423.398	548.56
423.621	540.56
423.843	568.56
424.066	568.56
424.288	573.56
424.511	588.56
424.733	622.56
424.956	702.56
425.178	687.56
425.401	676.56
425.623	689.56
425.846	601.56
426.068	579.56
426.291	555.56
426.513	559.56
426.735	591.56
426.958	589.56
427.18	662.56
427.402	810.56
427.625	863.56
427.847	694.56
428.069	662.56
428.292	580.56
428.514	559.56
428.736	542.56
428.958	536.56
429.181	512.56
429.403	507.56
429.625	545.56
429.847	533.56
430.069	594.56
430.292	603.56
430.514	525.56
430.736	511.56
430.958	521.56
431.18	481.56
431.402	504.56
431.624	466.56
431.846	486.56
432.068	480.56
432.29	492.56
432.512	504.56
432.734	532.56
432.956	502.56
433.178	504.56
433.4	524.56
433.622	503.56
433.844	500.56
434.066	494.56
434.287	492.56
434.509	506.56
434.731	513.56
434.953	533.56
435.175	529.56
435.397	540.56
435.618	565.56
435.84	583.56
436.062	671.56
436.284	729.56
436.505	621.56
436.727	548.56
436.949	528.56
437.17	532.56
437.392	507.56
437.614	518.56
437.835	540.56
438.057	612.56
438.278	698.56
438.5	696.56
438.721	818.56
438.943	784.56
439.165	618.56
439.386	554.56
439.608	558.56
439.829	564.56
440.05	580.56
440.272	626.56
440.493	574.56
440.715	529.56
440.936	540.56
441.158	512.56
441.379	531.56
441.6	541.56
441.822	558.56
442.043	598.56
442.264	665.56
442.486	715.56
442.707	600.56
442.928	544.56
443.149	548.56
443.371	609.56
443.592	612.56
443.813	709.56
444.034	749.56
444.255	644.56
444.476	574.56
444.698	575.56
444.919	593.56
445.14	643.56
445.361	588.56
445.582	614.56
445.803	652.56
446.024	728.56
446.245	745.56
446.466	657.56
446.687	598.56
446.908	582.56
447.129	530.56
447.35	491.56
447.571	506.56
447.792	509.56
448.013	499.56
448.234	517.56
448.455	542.56
448.675	689.56
448.896	785.56
449.117	668.56
449.338	614.56
449.559	711.56
449.779	820.56
450	644.56
450.221	548.56
450.442	506.56
450.662	492.56
450.883	493.56
451.104	503.56
451.324	510.56
451.545	480.56
451.766	463.56
451.986	453.56
452.207	452.56
452.428	428.56
452.648	457.56
452.869	459.56
453.089	455.56
453.31	466.56
453.53	450.56
453.751	455.56
453.971	450.56
454.192	484.56
454.412	448.56
454.633	461.56
454.853	466.56
455.073	448.56
455.294	476.56
455.514	535.56
455.734	518.56
455.955	479.56
456.175	436.56
456.395	439.56
456.616	432.56
456.836	438.56
457.056	422.56
457.276	414.56
457.497	430.56
457.717	437.56
457.937	433.56
458.157	446.56
458.377	437.56
458.598	467.56
458.818	498.56
459.038	553.56
459.258	592.56
459.478	510.56
459.698	479.56
459.918	495.56
460.138	494.56
460.358	527.56
460.578	505.56
460.798	526.56
461.018	527.56
461.238	527.56
461.458	518.56
461.678	532.56
461.898	530.56
462.118	514.56
462.338	537.56
462.558	542.56
462.777	532.56
462.997	565.56
463.217	601.56
463.437	595.56
463.657	597.56
463.876	565.56
464.096	567.56
464.316	567.56
464.536	546.56
464.755	554.56
464.975	553.56
465.195	568.56
465.414	585.56
465.634	546.56
465.854	534.56
466.073	525.56
466.293	507.56
466.512	489.56
466.732	469.56
466.951	471.56
467.171	489.56
467.391	474.56
467.61	475.56
467.829	501.56
468.049	476.56
468.268	473.56
468.488	469.56
468.707	468.56
468.927	474.56
469.146	481.56
469.365	468.56
469.585	463.56
469.804	460.56
470.023	476.56
470.243	500.56
470.462	494.56
470.681	490.56
470.901	504.56
471.12	493.56
471.339	486.56
471.558	493.56
471.777	486.56
471.997	488.56
472.216	485.56
472.435	525.56
472.654	478.56
472.873	491.56
473.092	464.56
473.311	465.56
473.53	469.56
473.749	475.56
473.968	504.56
474.187	599.56
474.406	612.56
474.625	540.56
474.844	470.56
475.063	478.56
475.282	462.56
475.501	493.56
475.72	496.56
475.939	503.56
476.158	501.56
476.377	502.56
476.596	479.56
476.814	497.56
477.033	516.56
477.252	534.56
477.471	503.56
477.69	518.56
477.908	520.56
478.127	556.56
478.346	546.56
478.564	536.56
478.783	545.56
479.002	577.56
479.22	555.56
479.439	569.56
479.658	578.56
479.876	576.56
480.095	592.56
480.313	603.56
480.532	614.56
480.751	582.56
480.969	606.56
481.188	625.56
481.406	648.56
481.624	588.56
481.843	601.56
482.061	574.56
482.28	544.56
482.498	560.56
482.717	570.56
482.935	545.56
483.153	553.56
483.372	561.56
483.59	570.56
483.808	561.56
484.027	587.56
484.245	563.56
484.463	571.56
484.681	589.56
484.9	560.56
485.118	595.56
485.336	576.56
485.554	583.56
485.772	574.56
485.99	572.56
486.209	580.56
486.427	576.56
486.645	570.56
486.863	621.56
487.081	587.56
487.299	606.56
487.517	611.56
487.735	604.56
487.953	595.56
488.171	601.56
488.389	607.56
488.607	585.56
488.825	601.56
489.043	604.56
489.261	582.56
489.479	622.56
489.696	625.56
489.914	621.56
490.132	635.56
490.35	651.56
490.568	652.56
490.786	649.56
491.003	652.56
491.221	644.56
491.439	686.56
491.657	665.56
491.874	694.56
492.092	706.56
492.31	703.56
492.527	690.56
492.745	697.56
492.963	727.56
493.18	702.56
493.398	687.56
493.615	707.56
493.833	716.56
494.05	723.56
494.268	702.56
494.485	708.56
494.703	698.56
494.92	692.56
495.138	722.56
495.355	708.56
495.573	706.56
495.79	728.56
496.008	705.56
496.225	710.56
496.442	721.56
496.66	718.56
496.877	714.56
497.094	728.56
497.312	736.56
497.529	741.56
497.746	743.56
497.963	772.56
498.181	762.56
498.398	797.56
498.615	796.56
498.832	818.56
499.049	845.56
499.267	861.56
499.484	908.56
499.701	946.56
499.918	992.56
500.135	1049.56
500.352	1148.56
500.569	1137.56
500.786	1186.56
501.003	1166.56
501.22	1050.56
501.437	1017.56
501.654	971.56
