Data from 1975.PennyLincolnUp.Lamp.En5.5.200Scan.071719.P1.Changed Mount._HRD10591_15-57-56-861.txt Node
Date: Thu Jul 18 15:57:56 EDT 2019
User: cochatt
Spectrometer: HR+D1059
Trigger mode: 1
Integration Time (sec): 1.000000E-1
Scans to average: 1
Electric dark correction enabled: true
Nonlinearity correction enabled: false
Boxcar width: 0
XAxis mode: Wavelengths
Number of Pixels in Spectrum: 2048
>>>>>Begin Spectral Data<<<<<
223.165	-2.62
223.4	-2.62
223.635	-2.62
223.869	-25.62
224.104	-23.62
224.338	-24.62
224.573	-25.62
224.808	-15.62
225.042	-0.62
225.277	0.38
225.511	19.38
225.746	0.38
225.98	-2.62
226.215	16.38
226.449	18.38
226.683	12.38
226.918	30.38
227.152	23.38
227.387	19.38
227.621	12.38
227.856	30.38
228.09	38.38
228.324	55.38
228.559	40.38
228.793	69.38
229.027	95.38
229.262	95.38
229.496	114.38
229.73	121.38
229.964	152.38
230.199	130.38
230.433	111.38
230.667	121.38
230.901	105.38
231.136	101.38
231.37	113.38
231.604	110.38
231.838	77.38
232.072	98.38
232.306	105.38
232.541	121.38
232.775	99.38
233.009	120.38
233.243	109.38
233.477	116.38
233.711	115.38
233.945	110.38
234.179	112.38
234.413	121.38
234.647	109.38
234.881	112.38
235.115	122.38
235.349	119.38
235.583	119.38
235.817	118.38
236.051	125.38
236.285	121.38
236.519	137.38
236.753	128.38
236.987	139.38
237.221	177.38
237.455	224.38
237.689	183.38
237.922	131.38
238.156	128.38
238.39	125.38
238.624	117.38
238.858	130.38
239.091	119.38
239.325	119.38
239.559	126.38
239.793	128.38
240.027	133.38
240.26	122.38
240.494	148.38
240.728	140.38
240.961	145.38
241.195	145.38
241.429	147.38
241.662	137.38
241.896	126.38
242.13	123.38
242.363	119.38
242.597	137.38
242.83	138.38
243.064	135.38
243.298	134.38
243.531	152.38
243.765	138.38
243.998	132.38
244.232	134.38
244.465	144.38
244.699	147.38
244.932	157.38
245.166	157.38
245.399	148.38
245.633	151.38
245.866	145.38
246.099	156.38
246.333	145.38
246.566	155.38
246.8	146.38
247.033	170.38
247.266	184.38
247.5	154.38
247.733	149.38
247.966	165.38
248.2	166.38
248.433	173.38
248.666	193.38
248.899	197.38
249.133	191.38
249.366	196.38
249.599	181.38
249.832	183.38
250.066	178.38
250.299	189.38
250.532	175.38
250.765	212.38
250.998	222.38
251.231	231.38
251.465	229.38
251.698	196.38
251.931	197.38
252.164	201.38
252.397	191.38
252.63	209.38
252.863	204.38
253.096	218.38
253.329	229.38
253.562	222.38
253.795	224.38
254.028	208.38
254.261	208.38
254.494	232.38
254.727	254.38
254.96	285.38
255.193	275.38
255.426	255.38
255.659	242.38
255.892	232.38
256.124	249.38
256.357	246.38
256.59	238.38
256.823	217.38
257.056	209.38
257.289	213.38
257.521	239.38
257.754	200.38
257.987	212.38
258.22	210.38
258.452	206.38
258.685	225.38
258.918	212.38
259.151	216.38
259.383	194.38
259.616	222.38
259.849	220.38
260.081	229.38
260.314	269.38
260.547	263.38
260.779	245.38
261.012	239.38
261.244	213.38
261.477	232.38
261.71	236.38
261.942	219.38
262.175	231.38
262.407	231.38
262.64	226.38
262.872	229.38
263.105	227.38
263.337	222.38
263.57	210.38
263.802	222.38
264.035	217.38
264.267	217.38
264.499	207.38
264.732	213.38
264.964	218.38
265.197	225.38
265.429	225.38
265.661	241.38
265.894	220.38
266.126	227.38
266.358	215.38
266.591	214.38
266.823	227.38
267.055	237.38
267.287	242.38
267.52	228.38
267.752	243.38
267.984	239.38
268.216	221.38
268.448	252.38
268.681	249.38
268.913	265.38
269.145	274.38
269.377	274.38
269.609	275.38
269.841	275.38
270.073	282.38
270.306	286.38
270.538	312.38
270.77	307.38
271.002	305.38
271.234	314.38
271.466	317.38
271.698	291.38
271.93	309.38
272.162	297.38
272.394	315.38
272.626	313.38
272.858	281.38
273.09	293.38
273.322	273.38
273.553	281.38
273.785	285.38
274.017	257.38
274.249	282.38
274.481	268.38
274.713	259.38
274.945	293.38
275.176	263.38
275.408	285.38
275.64	283.38
275.872	268.38
276.104	270.38
276.335	273.38
276.567	297.38
276.799	288.38
277.031	308.38
277.262	314.38
277.494	325.38
277.726	315.38
277.957	315.38
278.189	290.38
278.421	293.38
278.652	281.38
278.884	275.38
279.115	287.38
279.347	288.38
279.579	280.38
279.81	287.38
280.042	279.38
280.273	251.38
280.505	262.38
280.736	268.38
280.968	269.38
281.199	299.38
281.431	293.38
281.662	283.38
281.894	298.38
282.125	291.38
282.356	297.38
282.588	309.38
282.819	327.38
283.051	297.38
283.282	280.38
283.513	281.38
283.745	294.38
283.976	294.38
284.207	305.38
284.439	296.38
284.67	289.38
284.901	294.38
285.132	298.38
285.364	288.38
285.595	290.38
285.826	285.38
286.057	302.38
286.288	296.38
286.52	279.38
286.751	298.38
286.982	309.38
287.213	297.38
287.444	297.38
287.675	289.38
287.906	304.38
288.138	318.38
288.369	330.38
288.6	308.38
288.831	331.38
289.062	319.38
289.293	307.38
289.524	292.38
289.755	319.38
289.986	330.38
290.217	328.38
290.448	317.38
290.679	309.38
290.91	313.38
291.141	296.38
291.371	327.38
291.602	317.38
291.833	320.38
292.064	305.38
292.295	288.38
292.526	302.38
292.757	296.38
292.987	322.38
293.218	313.38
293.449	312.38
293.68	306.38
293.91	314.38
294.141	313.38
294.372	308.38
294.603	311.38
294.833	313.38
295.064	309.38
295.295	322.38
295.525	323.38
295.756	322.38
295.987	321.38
296.217	345.38
296.448	350.38
296.679	305.38
296.909	304.38
297.14	329.38
297.37	315.38
297.601	320.38
297.831	322.38
298.062	335.38
298.292	323.38
298.523	318.38
298.753	330.38
298.984	333.38
299.214	327.38
299.445	324.38
299.675	318.38
299.905	335.38
300.136	337.38
300.366	320.38
300.597	321.38
300.827	324.38
301.057	346.38
301.288	351.38
301.518	343.38
301.748	343.38
301.979	347.38
302.209	357.38
302.439	369.38
302.669	345.38
302.9	332.38
303.13	358.38
303.36	342.38
303.59	360.38
303.82	346.38
304.051	333.38
304.281	349.38
304.511	333.38
304.741	353.38
304.971	357.38
305.201	359.38
305.431	362.38
305.661	369.38
305.891	344.38
306.121	343.38
306.352	349.38
306.582	349.38
306.812	350.38
307.042	376.38
307.272	355.38
307.502	356.38
307.731	347.38
307.961	370.38
308.191	352.38
308.421	363.38
308.651	368.38
308.881	343.38
309.111	356.38
309.341	362.38
309.571	370.38
309.8	372.38
310.03	368.38
310.26	407.38
310.49	379.38
310.72	408.38
310.949	414.38
311.179	401.38
311.409	382.38
311.639	382.38
311.868	382.38
312.098	368.38
312.328	403.38
312.557	409.38
312.787	424.38
313.017	417.38
313.246	407.38
313.476	376.38
313.706	392.38
313.935	390.38
314.165	394.38
314.394	373.38
314.624	427.38
314.853	394.38
315.083	398.38
315.312	395.38
315.542	375.38
315.771	379.38
316.001	403.38
316.23	395.38
316.46	380.38
316.689	384.38
316.919	384.38
317.148	377.38
317.377	399.38
317.607	395.38
317.836	400.38
318.065	403.38
318.295	404.38
318.524	387.38
318.753	395.38
318.983	402.38
319.212	408.38
319.441	385.38
319.67	407.38
319.9	404.38
320.129	381.38
320.358	383.38
320.587	402.38
320.816	393.38
321.046	416.38
321.275	418.38
321.504	406.38
321.733	393.38
321.962	398.38
322.191	431.38
322.42	428.38
322.649	433.38
322.878	451.38
323.108	420.38
323.337	470.38
323.566	466.38
323.795	521.38
324.024	531.38
324.253	628.38
324.482	841.38
324.71	1285.38
324.939	1899.38
325.168	1707.38
325.397	866.38
325.626	595.38
325.855	514.38
326.084	489.38
326.313	478.38
326.542	505.38
326.77	518.38
326.999	613.38
327.228	806.38
327.457	1185.38
327.686	1434.38
327.914	1011.38
328.143	656.38
328.372	583.38
328.6	557.38
328.829	546.38
329.058	532.38
329.287	553.38
329.515	526.38
329.744	487.38
329.972	499.38
330.201	517.38
330.43	561.38
330.658	565.38
330.887	583.38
331.115	569.38
331.344	518.38
331.572	495.38
331.801	511.38
332.03	493.38
332.258	478.38
332.486	485.38
332.715	453.38
332.943	480.38
333.172	479.38
333.4	506.38
333.629	494.38
333.857	536.38
334.085	505.38
334.314	531.38
334.542	544.38
334.771	561.38
334.999	549.38
335.227	525.38
335.455	487.38
335.684	473.38
335.912	476.38
336.14	470.38
336.369	477.38
336.597	465.38
336.825	486.38
337.053	483.38
337.281	458.38
337.51	460.38
337.738	464.38
337.966	472.38
338.194	457.38
338.422	457.38
338.65	437.38
338.878	478.38
339.106	458.38
339.334	443.38
339.562	453.38
339.79	467.38
340.018	469.38
340.246	469.38
340.474	454.38
340.702	446.38
340.93	449.38
341.158	453.38
341.386	447.38
341.614	455.38
341.842	445.38
342.07	435.38
342.298	445.38
342.526	449.38
342.754	431.38
342.981	448.38
343.209	446.38
343.437	446.38
343.665	448.38
343.893	477.38
344.12	480.38
344.348	469.38
344.576	468.38
344.804	466.38
345.031	457.38
345.259	479.38
345.487	476.38
345.714	444.38
345.942	440.38
346.17	445.38
346.397	434.38
346.625	433.38
346.853	433.38
347.08	428.38
347.308	418.38
347.535	431.38
347.763	439.38
347.99	441.38
348.218	439.38
348.445	434.38
348.673	453.38
348.9	440.38
349.128	442.38
349.355	441.38
349.583	414.38
349.81	435.38
350.037	421.38
350.265	418.38
350.492	413.38
350.72	410.38
350.947	411.38
351.174	449.38
351.402	441.38
351.629	450.38
351.856	429.38
352.083	425.38
352.311	439.38
352.538	461.38
352.765	463.38
352.992	454.38
353.22	457.38
353.447	418.38
353.674	421.38
353.901	409.38
354.128	430.38
354.355	419.38
354.583	419.38
354.81	425.38
355.037	425.38
355.264	414.38
355.491	404.38
355.718	411.38
355.945	410.38
356.172	401.38
356.399	399.38
356.626	399.38
356.853	402.38
357.08	413.38
357.307	393.38
357.534	397.38
357.761	417.38
357.988	406.38
358.215	431.38
358.441	409.38
358.668	418.38
358.895	425.38
359.122	397.38
359.349	423.38
359.576	427.38
359.802	450.38
360.029	470.38
360.256	481.38
360.483	458.38
360.709	430.38
360.936	439.38
361.163	445.38
361.39	430.38
361.616	440.38
361.843	426.38
362.07	431.38
362.296	442.38
362.523	434.38
362.749	431.38
362.976	422.38
363.203	438.38
363.429	430.38
363.656	422.38
363.882	420.38
364.109	406.38
364.335	427.38
364.562	424.38
364.788	434.38
365.015	443.38
365.241	419.38
365.468	404.38
365.694	413.38
365.92	429.38
366.147	419.38
366.373	432.38
366.599	425.38
366.826	408.38
367.052	410.38
367.278	441.38
367.505	415.38
367.731	423.38
367.957	417.38
368.184	423.38
368.41	437.38
368.636	449.38
368.862	432.38
369.089	439.38
369.315	418.38
369.541	433.38
369.767	431.38
369.993	417.38
370.219	427.38
370.445	413.38
370.672	412.38
370.898	429.38
371.124	447.38
371.35	421.38
371.576	403.38
371.802	418.38
372.028	428.38
372.254	432.38
372.48	427.38
372.706	424.38
372.932	419.38
373.158	418.38
373.384	435.38
373.61	455.38
373.835	423.38
374.061	435.38
374.287	447.38
374.513	434.38
374.739	438.38
374.965	465.38
375.191	454.38
375.416	455.38
375.642	454.38
375.868	442.38
376.094	444.38
376.319	435.38
376.545	440.38
376.771	427.38
376.997	407.38
377.222	424.38
377.448	437.38
377.674	435.38
377.899	417.38
378.125	441.38
378.35	437.38
378.576	422.38
378.802	417.38
379.027	435.38
379.253	451.38
379.478	439.38
379.704	447.38
379.929	422.38
380.155	436.38
380.38	426.38
380.606	442.38
380.831	443.38
381.057	437.38
381.282	455.38
381.507	445.38
381.733	449.38
381.958	442.38
382.184	453.38
382.409	449.38
382.634	448.38
382.86	446.38
383.085	453.38
383.31	463.38
383.535	455.38
383.761	460.38
383.986	465.38
384.211	472.38
384.436	443.38
384.662	470.38
384.887	481.38
385.112	470.38
385.337	482.38
385.562	473.38
385.787	457.38
386.013	490.38
386.238	481.38
386.463	496.38
386.688	495.38
386.913	481.38
387.138	495.38
387.363	510.38
387.588	489.38
387.813	483.38
388.038	491.38
388.263	481.38
388.488	486.38
388.713	476.38
388.938	493.38
389.163	493.38
389.387	493.38
389.612	461.38
389.837	486.38
390.062	487.38
390.287	495.38
390.512	482.38
390.736	466.38
390.961	474.38
391.186	491.38
391.411	512.38
391.636	501.38
391.86	501.38
392.085	509.38
392.31	510.38
392.534	521.38
392.759	511.38
392.984	515.38
393.208	473.38
393.433	487.38
393.658	495.38
393.882	486.38
394.107	480.38
394.331	518.38
394.556	498.38
394.78	491.38
395.005	473.38
395.229	487.38
395.454	499.38
395.678	511.38
395.903	516.38
396.127	537.38
396.352	551.38
396.576	529.38
396.801	525.38
397.025	511.38
397.249	534.38
397.474	545.38
397.698	515.38
397.922	549.38
398.147	531.38
398.371	559.38
398.595	546.38
398.82	541.38
399.044	580.38
399.268	593.38
399.492	665.38
399.717	682.38
399.941	704.38
400.165	717.38
400.389	727.38
400.613	627.38
400.837	585.38
401.062	581.38
401.286	586.38
401.51	550.38
401.734	569.38
401.958	578.38
402.182	588.38
402.406	574.38
402.63	568.38
402.854	581.38
403.078	563.38
403.302	586.38
403.526	599.38
403.75	624.38
403.974	599.38
404.198	596.38
404.422	606.38
404.645	620.38
404.869	622.38
405.093	635.38
405.317	693.38
405.541	731.38
405.765	664.38
405.988	639.38
406.212	615.38
406.436	643.38
406.66	641.38
406.883	646.38
407.107	658.38
407.331	699.38
407.555	782.38
407.778	797.38
408.002	715.38
408.226	671.38
408.449	655.38
408.673	670.38
408.896	694.38
409.12	718.38
409.344	667.38
409.567	615.38
409.791	611.38
410.014	601.38
410.238	580.38
410.461	600.38
410.685	576.38
410.908	617.38
411.132	639.38
411.355	673.38
411.578	665.38
411.802	599.38
412.025	604.38
412.249	595.38
412.472	633.38
412.695	648.38
412.919	675.38
413.142	582.38
413.365	593.38
413.589	601.38
413.812	564.38
414.035	571.38
414.258	573.38
414.482	557.38
414.705	558.38
414.928	581.38
415.151	560.38
415.374	575.38
415.597	585.38
415.821	540.38
416.044	555.38
416.267	560.38
416.49	555.38
416.713	561.38
416.936	536.38
417.159	548.38
417.382	551.38
417.605	559.38
417.828	564.38
418.051	585.38
418.274	568.38
418.497	571.38
418.72	582.38
418.943	562.38
419.166	599.38
419.389	621.38
419.611	596.38
419.834	579.38
420.057	601.38
420.28	599.38
420.503	580.38
420.726	598.38
420.948	597.38
421.171	654.38
421.394	683.38
421.617	605.38
421.839	586.38
422.062	600.38
422.285	599.38
422.507	645.38
422.73	707.38
422.953	699.38
423.175	636.38
423.398	621.38
423.621	599.38
423.843	644.38
424.066	625.38
424.288	622.38
424.511	635.38
424.733	695.38
424.956	778.38
425.178	747.38
425.401	750.38
425.623	785.38
425.846	675.38
426.068	629.38
426.291	605.38
426.513	606.38
426.735	617.38
426.958	662.38
427.18	705.38
427.402	881.38
427.625	974.38
427.847	829.38
428.069	737.38
428.292	643.38
428.514	603.38
428.736	593.38
428.958	585.38
429.181	565.38
429.403	561.38
429.625	574.38
429.847	592.38
430.069	670.38
430.292	658.38
430.514	586.38
430.736	585.38
430.958	541.38
431.18	538.38
431.402	554.38
431.624	542.38
431.846	543.38
432.068	530.38
432.29	544.38
432.512	548.38
432.734	565.38
432.956	541.38
433.178	550.38
433.4	546.38
433.622	578.38
433.844	548.38
434.066	543.38
434.287	535.38
434.509	558.38
434.731	547.38
434.953	582.38
435.175	604.38
435.397	614.38
435.618	611.38
435.84	641.38
436.062	745.38
436.284	826.38
436.505	677.38
436.727	615.38
436.949	578.38
437.17	561.38
437.392	556.38
437.614	558.38
437.835	630.38
438.057	691.38
438.278	814.38
438.5	810.38
438.721	865.38
438.943	863.38
439.165	682.38
439.386	622.38
439.608	626.38
439.829	596.38
440.05	645.38
440.272	689.38
440.493	657.38
440.715	577.38
440.936	586.38
441.158	587.38
441.379	557.38
441.6	589.38
441.822	606.38
442.043	641.38
442.264	743.38
442.486	803.38
442.707	696.38
442.928	636.38
443.149	609.38
443.371	677.38
443.592	695.38
443.813	793.38
444.034	892.38
444.255	734.38
444.476	674.38
444.698	656.38
444.919	635.38
445.14	739.38
445.361	706.38
445.582	657.38
445.803	705.38
446.024	817.38
446.245	858.38
446.466	753.38
446.687	667.38
446.908	621.38
447.129	575.38
447.35	583.38
447.571	582.38
447.792	548.38
448.013	566.38
448.234	577.38
448.455	617.38
448.675	735.38
448.896	864.38
449.117	735.38
449.338	711.38
449.559	798.38
449.779	895.38
450	724.38
450.221	617.38
450.442	580.38
450.662	533.38
450.883	525.38
451.104	562.38
451.324	544.38
451.545	545.38
451.766	505.38
451.986	527.38
452.207	481.38
452.428	514.38
452.648	523.38
452.869	512.38
453.089	506.38
453.31	534.38
453.53	503.38
453.751	500.38
453.971	481.38
454.192	523.38
454.412	517.38
454.633	488.38
454.853	491.38
455.073	512.38
455.294	529.38
455.514	596.38
455.734	576.38
455.955	514.38
456.175	505.38
456.395	488.38
456.616	454.38
456.836	473.38
457.056	460.38
457.276	458.38
457.497	463.38
457.717	482.38
457.937	484.38
458.157	499.38
458.377	505.38
458.598	513.38
458.818	557.38
459.038	637.38
459.258	647.38
459.478	568.38
459.698	540.38
459.918	553.38
460.138	545.38
460.358	539.38
460.578	567.38
460.798	581.38
461.018	574.38
461.238	598.38
461.458	561.38
461.678	569.38
461.898	568.38
462.118	562.38
462.338	588.38
462.558	599.38
462.777	620.38
462.997	647.38
463.217	651.38
463.437	669.38
463.657	617.38
463.876	613.38
464.096	599.38
464.316	593.38
464.536	628.38
464.755	625.38
464.975	603.38
465.195	600.38
465.414	654.38
465.634	601.38
465.854	599.38
466.073	532.38
466.293	544.38
466.512	531.38
466.732	519.38
466.951	493.38
467.171	537.38
467.391	523.38
467.61	506.38
467.829	540.38
468.049	523.38
468.268	519.38
468.488	519.38
468.707	525.38
468.927	532.38
469.146	523.38
469.365	510.38
469.585	497.38
469.804	519.38
470.023	535.38
470.243	536.38
470.462	545.38
470.681	559.38
470.901	544.38
471.12	549.38
471.339	553.38
471.558	532.38
471.777	542.38
471.997	534.38
472.216	534.38
472.435	555.38
472.654	542.38
472.873	523.38
473.092	518.38
473.311	502.38
473.53	521.38
473.749	536.38
473.968	571.38
474.187	657.38
474.406	701.38
474.625	583.38
474.844	523.38
475.063	539.38
475.282	531.38
475.501	510.38
475.72	539.38
475.939	542.38
476.158	543.38
476.377	538.38
476.596	529.38
476.814	543.38
477.033	563.38
477.252	577.38
477.471	577.38
477.69	549.38
477.908	556.38
478.127	573.38
478.346	569.38
478.564	591.38
478.783	587.38
479.002	590.38
479.22	597.38
479.439	628.38
479.658	614.38
479.876	634.38
480.095	643.38
480.313	692.38
480.532	675.38
480.751	669.38
480.969	671.38
481.188	709.38
481.406	714.38
481.624	657.38
481.843	644.38
482.061	633.38
482.28	625.38
482.498	614.38
482.717	613.38
482.935	579.38
483.153	603.38
483.372	614.38
483.59	624.38
483.808	612.38
484.027	618.38
484.245	623.38
484.463	624.38
484.681	635.38
484.9	613.38
485.118	628.38
485.336	619.38
485.554	649.38
485.772	655.38
485.99	635.38
486.209	642.38
486.427	651.38
486.645	635.38
486.863	660.38
487.081	647.38
487.299	677.38
487.517	658.38
487.735	639.38
487.953	668.38
488.171	646.38
488.389	661.38
488.607	644.38
488.825	692.38
489.043	652.38
489.261	650.38
489.479	670.38
489.696	685.38
489.914	652.38
490.132	681.38
490.35	698.38
490.568	686.38
490.786	718.38
491.003	721.38
491.221	727.38
491.439	739.38
491.657	769.38
491.874	765.38
492.092	763.38
492.31	771.38
492.527	763.38
492.745	749.38
492.963	790.38
493.18	784.38
493.398	799.38
493.615	780.38
493.833	819.38
494.05	764.38
494.268	783.38
494.485	795.38
494.703	772.38
494.92	791.38
495.138	767.38
495.355	806.38
495.573	779.38
495.79	788.38
496.008	792.38
496.225	786.38
496.442	797.38
496.66	807.38
496.877	785.38
497.094	778.38
497.312	783.38
497.529	797.38
497.746	829.38
497.963	842.38
498.181	888.38
498.398	877.38
498.615	898.38
498.832	905.38
499.049	945.38
499.267	958.38
499.484	1001.38
499.701	1039.38
499.918	1104.38
500.135	1155.38
500.352	1224.38
500.569	1232.38
500.786	1285.38
501.003	1253.38
501.22	1186.38
501.437	1148.38
501.654	1049.38
