Data from 1975.PennyLincolnUp.Lamp.En5.5.200Scan.071719.P1.Changed Mount._HRD10591_15-57-59-860.txt Node
Date: Thu Jul 18 15:57:59 EDT 2019
User: cochatt
Spectrometer: HR+D1059
Trigger mode: 1
Integration Time (sec): 1.000000E-1
Scans to average: 1
Electric dark correction enabled: true
Nonlinearity correction enabled: false
Boxcar width: 0
XAxis mode: Wavelengths
Number of Pixels in Spectrum: 2048
>>>>>Begin Spectral Data<<<<<
223.165	-13.38
223.4	-13.38
223.635	-13.38
223.869	-33.38
224.104	-5.38
224.338	-16.38
224.573	-12.38
224.808	-13.38
225.042	-7.38
225.277	-6.38
225.511	-3.38
225.746	4.62
225.98	-1.38
226.215	6.62
226.449	7.62
226.683	26.62
226.918	26.62
227.152	40.62
227.387	43.62
227.621	40.62
227.856	47.62
228.09	60.62
228.324	47.62
228.559	45.62
228.793	76.62
229.027	93.62
229.262	114.62
229.496	107.62
229.73	120.62
229.964	134.62
230.199	132.62
230.433	118.62
230.667	122.62
230.901	108.62
231.136	120.62
231.37	102.62
231.604	107.62
231.838	104.62
232.072	112.62
232.306	130.62
232.541	115.62
232.775	107.62
233.009	118.62
233.243	125.62
233.477	130.62
233.711	118.62
233.945	119.62
234.179	121.62
234.413	116.62
234.647	115.62
234.881	111.62
235.115	121.62
235.349	126.62
235.583	127.62
235.817	116.62
236.051	126.62
236.285	135.62
236.519	131.62
236.753	130.62
236.987	163.62
237.221	169.62
237.455	244.62
237.689	188.62
237.922	144.62
238.156	132.62
238.39	138.62
238.624	129.62
238.858	125.62
239.091	123.62
239.325	133.62
239.559	129.62
239.793	139.62
240.027	144.62
240.26	163.62
240.494	176.62
240.728	151.62
240.961	165.62
241.195	155.62
241.429	145.62
241.662	149.62
241.896	138.62
242.13	142.62
242.363	145.62
242.597	139.62
242.83	150.62
243.064	152.62
243.298	130.62
243.531	150.62
243.765	142.62
243.998	130.62
244.232	148.62
244.465	162.62
244.699	143.62
244.932	154.62
245.166	155.62
245.399	147.62
245.633	155.62
245.866	142.62
246.099	150.62
246.333	152.62
246.566	165.62
246.8	143.62
247.033	177.62
247.266	155.62
247.5	164.62
247.733	171.62
247.966	192.62
248.2	182.62
248.433	171.62
248.666	171.62
248.899	197.62
249.133	203.62
249.366	220.62
249.599	190.62
249.832	187.62
250.066	179.62
250.299	189.62
250.532	202.62
250.765	203.62
250.998	224.62
251.231	236.62
251.465	206.62
251.698	228.62
251.931	197.62
252.164	199.62
252.397	197.62
252.63	212.62
252.863	215.62
253.096	231.62
253.329	214.62
253.562	222.62
253.795	226.62
254.028	221.62
254.261	230.62
254.494	235.62
254.727	261.62
254.96	268.62
255.193	274.62
255.426	258.62
255.659	228.62
255.892	244.62
256.124	224.62
256.357	230.62
256.59	255.62
256.823	210.62
257.056	219.62
257.289	211.62
257.521	231.62
257.754	205.62
257.987	198.62
258.22	201.62
258.452	200.62
258.685	208.62
258.918	206.62
259.151	210.62
259.383	229.62
259.616	226.62
259.849	221.62
260.081	236.62
260.314	275.62
260.547	258.62
260.779	255.62
261.012	242.62
261.244	213.62
261.477	242.62
261.71	237.62
261.942	212.62
262.175	226.62
262.407	218.62
262.64	218.62
262.872	226.62
263.105	217.62
263.337	225.62
263.57	216.62
263.802	217.62
264.035	235.62
264.267	216.62
264.499	221.62
264.732	208.62
264.964	226.62
265.197	209.62
265.429	214.62
265.661	221.62
265.894	235.62
266.126	226.62
266.358	223.62
266.591	231.62
266.823	232.62
267.055	226.62
267.287	224.62
267.52	230.62
267.752	232.62
267.984	240.62
268.216	236.62
268.448	255.62
268.681	235.62
268.913	278.62
269.145	272.62
269.377	272.62
269.609	278.62
269.841	262.62
270.073	271.62
270.306	294.62
270.538	322.62
270.77	317.62
271.002	306.62
271.234	299.62
271.466	335.62
271.698	326.62
271.93	330.62
272.162	309.62
272.394	316.62
272.626	306.62
272.858	282.62
273.09	278.62
273.322	287.62
273.553	281.62
273.785	277.62
274.017	267.62
274.249	265.62
274.481	267.62
274.713	259.62
274.945	261.62
275.176	273.62
275.408	268.62
275.64	278.62
275.872	259.62
276.104	277.62
276.335	271.62
276.567	284.62
276.799	294.62
277.031	306.62
277.262	302.62
277.494	329.62
277.726	306.62
277.957	306.62
278.189	296.62
278.421	276.62
278.652	283.62
278.884	282.62
279.115	285.62
279.347	285.62
279.579	275.62
279.81	280.62
280.042	278.62
280.273	269.62
280.505	280.62
280.736	278.62
280.968	285.62
281.199	271.62
281.431	266.62
281.662	278.62
281.894	283.62
282.125	266.62
282.356	288.62
282.588	315.62
282.819	300.62
283.051	294.62
283.282	276.62
283.513	275.62
283.745	296.62
283.976	292.62
284.207	306.62
284.439	289.62
284.67	277.62
284.901	289.62
285.132	294.62
285.364	276.62
285.595	301.62
285.826	293.62
286.057	292.62
286.288	303.62
286.52	298.62
286.751	313.62
286.982	291.62
287.213	285.62
287.444	298.62
287.675	306.62
287.906	310.62
288.138	321.62
288.369	301.62
288.6	312.62
288.831	310.62
289.062	297.62
289.293	312.62
289.524	327.62
289.755	317.62
289.986	303.62
290.217	308.62
290.448	320.62
290.679	286.62
290.91	287.62
291.141	297.62
291.371	300.62
291.602	292.62
291.833	301.62
292.064	295.62
292.295	300.62
292.526	316.62
292.757	308.62
292.987	313.62
293.218	294.62
293.449	305.62
293.68	300.62
293.91	316.62
294.141	311.62
294.372	303.62
294.603	310.62
294.833	306.62
295.064	312.62
295.295	320.62
295.525	297.62
295.756	302.62
295.987	314.62
296.217	336.62
296.448	336.62
296.679	311.62
296.909	293.62
297.14	322.62
297.37	328.62
297.601	315.62
297.831	324.62
298.062	322.62
298.292	324.62
298.523	327.62
298.753	303.62
298.984	332.62
299.214	312.62
299.445	330.62
299.675	331.62
299.905	334.62
300.136	328.62
300.366	318.62
300.597	339.62
300.827	334.62
301.057	332.62
301.288	346.62
301.518	330.62
301.748	333.62
301.979	343.62
302.209	357.62
302.439	346.62
302.669	338.62
302.9	330.62
303.13	337.62
303.36	336.62
303.59	344.62
303.82	325.62
304.051	350.62
304.281	341.62
304.511	331.62
304.741	344.62
304.971	345.62
305.201	334.62
305.431	337.62
305.661	345.62
305.891	346.62
306.121	322.62
306.352	331.62
306.582	345.62
306.812	331.62
307.042	343.62
307.272	340.62
307.502	353.62
307.731	351.62
307.961	344.62
308.191	342.62
308.421	331.62
308.651	351.62
308.881	357.62
309.111	355.62
309.341	345.62
309.571	353.62
309.8	350.62
310.03	374.62
310.26	380.62
310.49	385.62
310.72	387.62
310.949	398.62
311.179	396.62
311.409	371.62
311.639	383.62
311.868	382.62
312.098	399.62
312.328	378.62
312.557	401.62
312.787	403.62
313.017	399.62
313.246	389.62
313.476	387.62
313.706	388.62
313.935	390.62
314.165	378.62
314.394	417.62
314.624	419.62
314.853	379.62
315.083	380.62
315.312	398.62
315.542	400.62
315.771	393.62
316.001	372.62
316.23	382.62
316.46	364.62
316.689	392.62
316.919	388.62
317.148	395.62
317.377	376.62
317.607	390.62
317.836	399.62
318.065	370.62
318.295	378.62
318.524	370.62
318.753	393.62
318.983	390.62
319.212	395.62
319.441	386.62
319.67	382.62
319.9	384.62
320.129	384.62
320.358	409.62
320.587	384.62
320.816	398.62
321.046	399.62
321.275	396.62
321.504	404.62
321.733	403.62
321.962	396.62
322.191	404.62
322.42	414.62
322.649	429.62
322.878	427.62
323.108	430.62
323.337	449.62
323.566	475.62
323.795	507.62
324.024	509.62
324.253	600.62
324.482	847.62
324.71	1262.62
324.939	1914.62
325.168	1670.62
325.397	858.62
325.626	598.62
325.855	504.62
326.084	499.62
326.313	460.62
326.542	484.62
326.77	510.62
326.999	580.62
327.228	764.62
327.457	1174.62
327.686	1483.62
327.914	991.62
328.143	650.62
328.372	574.62
328.6	566.62
328.829	552.62
329.058	541.62
329.287	541.62
329.515	525.62
329.744	507.62
329.972	497.62
330.201	505.62
330.43	542.62
330.658	551.62
330.887	567.62
331.115	561.62
331.344	512.62
331.572	506.62
331.801	499.62
332.03	507.62
332.258	449.62
332.486	452.62
332.715	458.62
332.943	479.62
333.172	469.62
333.4	471.62
333.629	485.62
333.857	481.62
334.085	498.62
334.314	541.62
334.542	556.62
334.771	567.62
334.999	540.62
335.227	493.62
335.455	456.62
335.684	501.62
335.912	468.62
336.14	468.62
336.369	470.62
336.597	475.62
336.825	462.62
337.053	452.62
337.281	460.62
337.51	452.62
337.738	462.62
337.966	442.62
338.194	453.62
338.422	458.62
338.65	465.62
338.878	452.62
339.106	432.62
339.334	439.62
339.562	446.62
339.79	448.62
340.018	420.62
340.246	422.62
340.474	431.62
340.702	452.62
340.93	434.62
341.158	426.62
341.386	419.62
341.614	448.62
341.842	459.62
342.07	457.62
342.298	452.62
342.526	428.62
342.754	438.62
342.981	424.62
343.209	420.62
343.437	444.62
343.665	444.62
343.893	444.62
344.12	459.62
344.348	495.62
344.576	444.62
344.804	474.62
345.031	464.62
345.259	457.62
345.487	465.62
345.714	446.62
345.942	419.62
346.17	442.62
346.397	422.62
346.625	430.62
346.853	415.62
347.08	428.62
347.308	429.62
347.535	456.62
347.763	447.62
347.99	424.62
348.218	429.62
348.445	434.62
348.673	428.62
348.9	433.62
349.128	430.62
349.355	413.62
349.583	389.62
349.81	410.62
350.037	411.62
350.265	429.62
350.492	415.62
350.72	419.62
350.947	417.62
351.174	433.62
351.402	432.62
351.629	420.62
351.856	415.62
352.083	422.62
352.311	438.62
352.538	449.62
352.765	427.62
352.992	428.62
353.22	430.62
353.447	420.62
353.674	415.62
353.901	398.62
354.128	402.62
354.355	423.62
354.583	406.62
354.81	407.62
355.037	406.62
355.264	386.62
355.491	387.62
355.718	397.62
355.945	418.62
356.172	400.62
356.399	399.62
356.626	391.62
356.853	397.62
357.08	392.62
357.307	403.62
357.534	415.62
357.761	415.62
357.988	397.62
358.215	391.62
358.441	415.62
358.668	406.62
358.895	400.62
359.122	410.62
359.349	428.62
359.576	426.62
359.802	438.62
360.029	442.62
360.256	474.62
360.483	460.62
360.709	404.62
360.936	422.62
361.163	423.62
361.39	408.62
361.616	421.62
361.843	432.62
362.07	422.62
362.296	426.62
362.523	424.62
362.749	430.62
362.976	426.62
363.203	412.62
363.429	412.62
363.656	419.62
363.882	410.62
364.109	409.62
364.335	406.62
364.562	398.62
364.788	405.62
365.015	418.62
365.241	425.62
365.468	418.62
365.694	428.62
365.92	408.62
366.147	406.62
366.373	413.62
366.599	420.62
366.826	397.62
367.052	410.62
367.278	400.62
367.505	421.62
367.731	418.62
367.957	414.62
368.184	404.62
368.41	419.62
368.636	424.62
368.862	408.62
369.089	412.62
369.315	410.62
369.541	423.62
369.767	414.62
369.993	414.62
370.219	400.62
370.445	410.62
370.672	414.62
370.898	381.62
371.124	438.62
371.35	416.62
371.576	415.62
371.802	405.62
372.028	406.62
372.254	418.62
372.48	409.62
372.706	413.62
372.932	445.62
373.158	416.62
373.384	423.62
373.61	443.62
373.835	418.62
374.061	430.62
374.287	425.62
374.513	419.62
374.739	429.62
374.965	439.62
375.191	444.62
375.416	450.62
375.642	416.62
375.868	419.62
376.094	428.62
376.319	435.62
376.545	428.62
376.771	402.62
376.997	414.62
377.222	424.62
377.448	442.62
377.674	445.62
377.899	420.62
378.125	431.62
378.35	419.62
378.576	422.62
378.802	401.62
379.027	423.62
379.253	424.62
379.478	400.62
379.704	425.62
379.929	428.62
380.155	399.62
380.38	415.62
380.606	424.62
380.831	421.62
381.057	423.62
381.282	415.62
381.507	414.62
381.733	443.62
381.958	447.62
382.184	420.62
382.409	433.62
382.634	416.62
382.86	427.62
383.085	441.62
383.31	428.62
383.535	463.62
383.761	438.62
383.986	436.62
384.211	459.62
384.436	439.62
384.662	458.62
384.887	446.62
385.112	454.62
385.337	459.62
385.562	467.62
385.787	475.62
386.013	498.62
386.238	493.62
386.463	476.62
386.688	483.62
386.913	474.62
387.138	493.62
387.363	493.62
387.588	472.62
387.813	469.62
388.038	478.62
388.263	450.62
388.488	463.62
388.713	460.62
388.938	469.62
389.163	476.62
389.387	457.62
389.612	465.62
389.837	469.62
390.062	462.62
390.287	476.62
390.512	470.62
390.736	466.62
390.961	490.62
391.186	464.62
391.411	506.62
391.636	475.62
391.86	482.62
392.085	496.62
392.31	483.62
392.534	498.62
392.759	493.62
392.984	495.62
393.208	482.62
393.433	486.62
393.658	477.62
393.882	499.62
394.107	458.62
394.331	477.62
394.556	472.62
394.78	473.62
395.005	482.62
395.229	493.62
395.454	494.62
395.678	504.62
395.903	512.62
396.127	525.62
396.352	538.62
396.576	483.62
396.801	524.62
397.025	490.62
397.249	500.62
397.474	513.62
397.698	512.62
397.922	536.62
398.147	541.62
398.371	559.62
398.595	550.62
398.82	550.62
399.044	571.62
399.268	586.62
399.492	611.62
399.717	667.62
399.941	684.62
400.165	704.62
400.389	690.62
400.613	626.62
400.837	601.62
401.062	574.62
401.286	562.62
401.51	567.62
401.734	564.62
401.958	530.62
402.182	567.62
402.406	579.62
402.63	564.62
402.854	567.62
403.078	564.62
403.302	581.62
403.526	572.62
403.75	576.62
403.974	592.62
404.198	589.62
404.422	579.62
404.645	591.62
404.869	587.62
405.093	619.62
405.317	653.62
405.541	678.62
405.765	659.62
405.988	602.62
406.212	630.62
406.436	605.62
406.66	626.62
406.883	606.62
407.107	640.62
407.331	696.62
407.555	772.62
407.778	779.62
408.002	714.62
408.226	648.62
408.449	640.62
408.673	638.62
408.896	644.62
409.12	704.62
409.344	650.62
409.567	594.62
409.791	586.62
410.014	586.62
410.238	593.62
410.461	589.62
410.685	579.62
410.908	603.62
411.132	615.62
411.355	654.62
411.578	602.62
411.802	580.62
412.025	571.62
412.249	585.62
412.472	612.62
412.695	636.62
412.919	638.62
413.142	616.62
413.365	588.62
413.589	552.62
413.812	542.62
414.035	558.62
414.258	550.62
414.482	523.62
414.705	566.62
414.928	549.62
415.151	555.62
415.374	558.62
415.597	546.62
415.821	528.62
416.044	555.62
416.267	543.62
416.49	553.62
416.713	551.62
416.936	538.62
417.159	541.62
417.382	549.62
417.605	550.62
417.828	523.62
418.051	583.62
418.274	583.62
418.497	557.62
418.72	543.62
418.943	556.62
419.166	574.62
419.389	590.62
419.611	579.62
419.834	591.62
420.057	583.62
420.28	603.62
420.503	564.62
420.726	602.62
420.948	563.62
421.171	635.62
421.394	634.62
421.617	602.62
421.839	565.62
422.062	579.62
422.285	581.62
422.507	618.62
422.73	720.62
422.953	679.62
423.175	619.62
423.398	577.62
423.621	576.62
423.843	607.62
424.066	627.62
424.288	621.62
424.511	646.62
424.733	687.62
424.956	768.62
425.178	709.62
425.401	714.62
425.623	753.62
425.846	648.62
426.068	589.62
426.291	591.62
426.513	611.62
426.735	603.62
426.958	639.62
427.18	715.62
427.402	848.62
427.625	921.62
427.847	810.62
428.069	722.62
428.292	650.62
428.514	573.62
428.736	591.62
428.958	553.62
429.181	532.62
429.403	533.62
429.625	548.62
429.847	598.62
430.069	666.62
430.292	646.62
430.514	565.62
430.736	540.62
430.958	555.62
431.18	534.62
431.402	529.62
431.624	528.62
431.846	525.62
432.068	540.62
432.29	541.62
432.512	540.62
432.734	571.62
432.956	524.62
433.178	538.62
433.4	559.62
433.622	542.62
433.844	548.62
434.066	548.62
434.287	518.62
434.509	542.62
434.731	568.62
434.953	550.62
435.175	570.62
435.397	604.62
435.618	581.62
435.84	626.62
436.062	710.62
436.284	792.62
436.505	678.62
436.727	642.62
436.949	570.62
437.17	542.62
437.392	550.62
437.614	566.62
437.835	572.62
438.057	666.62
438.278	762.62
438.5	780.62
438.721	878.62
438.943	822.62
439.165	659.62
439.386	575.62
439.608	614.62
439.829	584.62
440.05	606.62
440.272	678.62
440.493	642.62
440.715	587.62
440.936	572.62
441.158	565.62
441.379	576.62
441.6	571.62
441.822	586.62
442.043	606.62
442.264	724.62
442.486	782.62
442.707	668.62
442.928	614.62
443.149	626.62
443.371	627.62
443.592	671.62
443.813	788.62
444.034	851.62
444.255	712.62
444.476	636.62
444.698	627.62
444.919	639.62
445.14	741.62
445.361	696.62
445.582	666.62
445.803	696.62
446.024	798.62
446.245	811.62
446.466	735.62
446.687	619.62
446.908	572.62
447.129	563.62
447.35	552.62
447.571	542.62
447.792	569.62
448.013	564.62
448.234	562.62
448.455	610.62
448.675	708.62
448.896	833.62
449.117	697.62
449.338	660.62
449.559	774.62
449.779	882.62
450	723.62
450.221	603.62
450.442	537.62
450.662	515.62
450.883	527.62
451.104	534.62
451.324	506.62
451.545	511.62
451.766	500.62
451.986	493.62
452.207	476.62
452.428	487.62
452.648	493.62
452.869	512.62
453.089	481.62
453.31	512.62
453.53	498.62
453.751	467.62
453.971	503.62
454.192	493.62
454.412	494.62
454.633	457.62
454.853	484.62
455.073	483.62
455.294	501.62
455.514	559.62
455.734	563.62
455.955	486.62
456.175	472.62
456.395	461.62
456.616	460.62
456.836	444.62
457.056	467.62
457.276	458.62
457.497	473.62
457.717	446.62
457.937	484.62
458.157	469.62
458.377	474.62
458.598	489.62
458.818	559.62
459.038	604.62
459.258	640.62
459.478	577.62
459.698	526.62
459.918	537.62
460.138	524.62
460.358	560.62
460.578	546.62
460.798	550.62
461.018	562.62
461.238	560.62
461.458	542.62
461.678	551.62
461.898	547.62
462.118	536.62
462.338	581.62
462.558	576.62
462.777	586.62
462.997	610.62
463.217	634.62
463.437	655.62
463.657	604.62
463.876	598.62
464.096	578.62
464.316	590.62
464.536	593.62
464.755	588.62
464.975	589.62
465.195	605.62
465.414	646.62
465.634	598.62
465.854	557.62
466.073	549.62
466.293	528.62
466.512	533.62
466.732	505.62
466.951	517.62
467.171	487.62
467.391	511.62
467.61	519.62
467.829	517.62
468.049	507.62
468.268	488.62
468.488	490.62
468.707	514.62
468.927	487.62
469.146	479.62
469.365	512.62
469.585	493.62
469.804	498.62
470.023	499.62
470.243	525.62
470.462	502.62
470.681	518.62
470.901	521.62
471.12	515.62
471.339	528.62
471.558	506.62
471.777	495.62
471.997	506.62
472.216	508.62
472.435	548.62
472.654	536.62
472.873	505.62
473.092	506.62
473.311	483.62
473.53	508.62
473.749	516.62
473.968	569.62
474.187	670.62
474.406	657.62
474.625	580.62
474.844	542.62
475.063	516.62
475.282	524.62
475.501	507.62
475.72	514.62
475.939	548.62
476.158	492.62
476.377	527.62
476.596	522.62
476.814	530.62
477.033	529.62
477.252	528.62
477.471	552.62
477.69	547.62
477.908	574.62
478.127	568.62
478.346	557.62
478.564	564.62
478.783	573.62
479.002	599.62
479.22	599.62
479.439	603.62
479.658	612.62
479.876	600.62
480.095	621.62
480.313	644.62
480.532	652.62
480.751	637.62
480.969	652.62
481.188	684.62
481.406	710.62
481.624	642.62
481.843	639.62
482.061	618.62
482.28	615.62
482.498	606.62
482.717	598.62
482.935	614.62
483.153	596.62
483.372	607.62
483.59	597.62
483.808	596.62
484.027	611.62
484.245	628.62
484.463	613.62
484.681	637.62
484.9	612.62
485.118	586.62
485.336	622.62
485.554	612.62
485.772	612.62
485.99	598.62
486.209	638.62
486.427	635.62
486.645	638.62
486.863	654.62
487.081	639.62
487.299	663.62
487.517	623.62
487.735	660.62
487.953	638.62
488.171	644.62
488.389	644.62
488.607	672.62
488.825	648.62
489.043	639.62
489.261	637.62
489.479	647.62
489.696	642.62
489.914	645.62
490.132	678.62
490.35	692.62
490.568	686.62
490.786	678.62
491.003	678.62
491.221	715.62
491.439	701.62
491.657	754.62
491.874	748.62
492.092	731.62
492.31	728.62
492.527	751.62
492.745	727.62
492.963	747.62
493.18	725.62
493.398	740.62
493.615	757.62
493.833	750.62
494.05	761.62
494.268	772.62
494.485	735.62
494.703	727.62
494.92	759.62
495.138	784.62
495.355	776.62
495.573	757.62
495.79	751.62
496.008	780.62
496.225	773.62
496.442	790.62
496.66	772.62
496.877	761.62
497.094	756.62
497.312	769.62
497.529	805.62
497.746	808.62
497.963	820.62
498.181	832.62
498.398	842.62
498.615	847.62
498.832	876.62
499.049	876.62
499.267	952.62
499.484	980.62
499.701	1016.62
499.918	1090.62
500.135	1118.62
500.352	1216.62
500.569	1212.62
500.786	1217.62
501.003	1214.62
501.22	1158.62
501.437	1070.62
501.654	1020.62
