Data from 1975.PennyLincolnUp.Lamp.En5.5.200Scan.071719.P1.Changed Mount._HRD10591_15-57-09-859.txt Node
Date: Thu Jul 18 15:57:09 EDT 2019
User: cochatt
Spectrometer: HR+D1059
Trigger mode: 1
Integration Time (sec): 1.000000E-1
Scans to average: 1
Electric dark correction enabled: true
Nonlinearity correction enabled: false
Boxcar width: 0
XAxis mode: Wavelengths
Number of Pixels in Spectrum: 2048
>>>>>Begin Spectral Data<<<<<
223.165	-13.31
223.4	-13.31
223.635	-13.31
223.869	-20.31
224.104	-14.31
224.338	-9.31
224.573	-13.31
224.808	2.69
225.042	-3.31
225.277	-0.31
225.511	2.69
225.746	-0.31
225.98	-7.31
226.215	4.69
226.449	1.69
226.683	20.69
226.918	25.69
227.152	23.69
227.387	26.69
227.621	25.69
227.856	39.69
228.09	43.69
228.324	55.69
228.559	55.69
228.793	68.69
229.027	100.69
229.262	99.69
229.496	111.69
229.73	119.69
229.964	152.69
230.199	117.69
230.433	127.69
230.667	100.69
230.901	119.69
231.136	113.69
231.37	113.69
231.604	118.69
231.838	103.69
232.072	93.69
232.306	110.69
232.541	102.69
232.775	103.69
233.009	104.69
233.243	118.69
233.477	115.69
233.711	117.69
233.945	118.69
234.179	123.69
234.413	119.69
234.647	111.69
234.881	125.69
235.115	121.69
235.349	121.69
235.583	112.69
235.817	118.69
236.051	102.69
236.285	109.69
236.519	130.69
236.753	105.69
236.987	143.69
237.221	172.69
237.455	234.69
237.689	179.69
237.922	151.69
238.156	132.69
238.39	131.69
238.624	132.69
238.858	127.69
239.091	109.69
239.325	123.69
239.559	123.69
239.793	123.69
240.027	144.69
240.26	140.69
240.494	149.69
240.728	157.69
240.961	152.69
241.195	153.69
241.429	126.69
241.662	146.69
241.896	142.69
242.13	142.69
242.363	126.69
242.597	127.69
242.83	139.69
243.064	132.69
243.298	143.69
243.531	128.69
243.765	130.69
243.998	151.69
244.232	147.69
244.465	131.69
244.699	135.69
244.932	148.69
245.166	161.69
245.399	140.69
245.633	131.69
245.866	151.69
246.099	139.69
246.333	152.69
246.566	155.69
246.8	164.69
247.033	149.69
247.266	169.69
247.5	162.69
247.733	167.69
247.966	185.69
248.2	187.69
248.433	177.69
248.666	170.69
248.899	170.69
249.133	205.69
249.366	204.69
249.599	201.69
249.832	173.69
250.066	186.69
250.299	172.69
250.532	200.69
250.765	199.69
250.998	225.69
251.231	234.69
251.465	235.69
251.698	197.69
251.931	206.69
252.164	207.69
252.397	196.69
252.63	193.69
252.863	200.69
253.096	227.69
253.329	234.69
253.562	228.69
253.795	216.69
254.028	226.69
254.261	215.69
254.494	207.69
254.727	245.69
254.96	241.69
255.193	261.69
255.426	250.69
255.659	224.69
255.892	233.69
256.124	229.69
256.357	243.69
256.59	232.69
256.823	213.69
257.056	223.69
257.289	221.69
257.521	217.69
257.754	212.69
257.987	217.69
258.22	211.69
258.452	203.69
258.685	197.69
258.918	207.69
259.151	202.69
259.383	214.69
259.616	241.69
259.849	239.69
260.081	241.69
260.314	250.69
260.547	280.69
260.779	254.69
261.012	242.69
261.244	247.69
261.477	236.69
261.71	220.69
261.942	224.69
262.175	241.69
262.407	216.69
262.64	204.69
262.872	217.69
263.105	224.69
263.337	223.69
263.57	226.69
263.802	212.69
264.035	212.69
264.267	225.69
264.499	225.69
264.732	225.69
264.964	210.69
265.197	214.69
265.429	218.69
265.661	231.69
265.894	222.69
266.126	226.69
266.358	229.69
266.591	225.69
266.823	236.69
267.055	259.69
267.287	244.69
267.52	233.69
267.752	236.69
267.984	228.69
268.216	209.69
268.448	225.69
268.681	244.69
268.913	230.69
269.145	272.69
269.377	270.69
269.609	269.69
269.841	281.69
270.073	279.69
270.306	280.69
270.538	314.69
270.77	312.69
271.002	305.69
271.234	270.69
271.466	288.69
271.698	312.69
271.93	311.69
272.162	309.69
272.394	309.69
272.626	306.69
272.858	293.69
273.09	270.69
273.322	289.69
273.553	261.69
273.785	245.69
274.017	264.69
274.249	264.69
274.481	266.69
274.713	280.69
274.945	277.69
275.176	263.69
275.408	269.69
275.64	282.69
275.872	259.69
276.104	275.69
276.335	270.69
276.567	275.69
276.799	279.69
277.031	311.69
277.262	322.69
277.494	325.69
277.726	310.69
277.957	262.69
278.189	300.69
278.421	280.69
278.652	283.69
278.884	275.69
279.115	283.69
279.347	287.69
279.579	283.69
279.81	286.69
280.042	267.69
280.273	263.69
280.505	270.69
280.736	281.69
280.968	273.69
281.199	291.69
281.431	288.69
281.662	283.69
281.894	283.69
282.125	284.69
282.356	308.69
282.588	298.69
282.819	283.69
283.051	284.69
283.282	298.69
283.513	296.69
283.745	300.69
283.976	321.69
284.207	284.69
284.439	306.69
284.67	277.69
284.901	307.69
285.132	276.69
285.364	296.69
285.595	296.69
285.826	294.69
286.057	283.69
286.288	281.69
286.52	307.69
286.751	294.69
286.982	287.69
287.213	305.69
287.444	290.69
287.675	307.69
287.906	288.69
288.138	329.69
288.369	315.69
288.6	300.69
288.831	324.69
289.062	297.69
289.293	307.69
289.524	300.69
289.755	303.69
289.986	312.69
290.217	304.69
290.448	309.69
290.679	299.69
290.91	312.69
291.141	305.69
291.371	314.69
291.602	299.69
291.833	310.69
292.064	294.69
292.295	287.69
292.526	301.69
292.757	307.69
292.987	308.69
293.218	307.69
293.449	308.69
293.68	302.69
293.91	310.69
294.141	294.69
294.372	303.69
294.603	300.69
294.833	291.69
295.064	309.69
295.295	303.69
295.525	309.69
295.756	326.69
295.987	309.69
296.217	320.69
296.448	328.69
296.679	317.69
296.909	315.69
297.14	312.69
297.37	315.69
297.601	314.69
297.831	321.69
298.062	305.69
298.292	320.69
298.523	332.69
298.753	311.69
298.984	328.69
299.214	319.69
299.445	317.69
299.675	323.69
299.905	328.69
300.136	329.69
300.366	326.69
300.597	330.69
300.827	316.69
301.057	332.69
301.288	340.69
301.518	332.69
301.748	343.69
301.979	343.69
302.209	349.69
302.439	351.69
302.669	355.69
302.9	333.69
303.13	337.69
303.36	330.69
303.59	346.69
303.82	359.69
304.051	359.69
304.281	338.69
304.511	342.69
304.741	340.69
304.971	344.69
305.201	331.69
305.431	340.69
305.661	343.69
305.891	348.69
306.121	321.69
306.352	340.69
306.582	309.69
306.812	348.69
307.042	345.69
307.272	334.69
307.502	315.69
307.731	349.69
307.961	335.69
308.191	331.69
308.421	359.69
308.651	355.69
308.881	343.69
309.111	365.69
309.341	354.69
309.571	368.69
309.8	349.69
310.03	376.69
310.26	387.69
310.49	379.69
310.72	373.69
310.949	384.69
311.179	388.69
311.409	370.69
311.639	383.69
311.868	373.69
312.098	368.69
312.328	383.69
312.557	381.69
312.787	396.69
313.017	402.69
313.246	392.69
313.476	375.69
313.706	386.69
313.935	397.69
314.165	397.69
314.394	397.69
314.624	390.69
314.853	403.69
315.083	385.69
315.312	375.69
315.542	382.69
315.771	381.69
316.001	391.69
316.23	378.69
316.46	384.69
316.689	369.69
316.919	383.69
317.148	397.69
317.377	394.69
317.607	394.69
317.836	400.69
318.065	364.69
318.295	379.69
318.524	371.69
318.753	382.69
318.983	388.69
319.212	383.69
319.441	387.69
319.67	389.69
319.9	375.69
320.129	382.69
320.358	391.69
320.587	385.69
320.816	397.69
321.046	412.69
321.275	392.69
321.504	401.69
321.733	398.69
321.962	417.69
322.191	422.69
322.42	438.69
322.649	435.69
322.878	441.69
323.108	432.69
323.337	464.69
323.566	474.69
323.795	508.69
324.024	522.69
324.253	617.69
324.482	799.69
324.71	1240.69
324.939	1785.69
325.168	1603.69
325.397	844.69
325.626	595.69
325.855	513.69
326.084	471.69
326.313	456.69
326.542	469.69
326.77	511.69
326.999	567.69
327.228	748.69
327.457	1129.69
327.686	1392.69
327.914	929.69
328.143	652.69
328.372	556.69
328.6	549.69
328.829	519.69
329.058	531.69
329.287	537.69
329.515	503.69
329.744	503.69
329.972	487.69
330.201	506.69
330.43	530.69
330.658	572.69
330.887	565.69
331.115	566.69
331.344	519.69
331.572	484.69
331.801	485.69
332.03	509.69
332.258	481.69
332.486	464.69
332.715	471.69
332.943	450.69
333.172	474.69
333.4	477.69
333.629	481.69
333.857	481.69
334.085	523.69
334.314	517.69
334.542	555.69
334.771	567.69
334.999	519.69
335.227	517.69
335.455	486.69
335.684	480.69
335.912	489.69
336.14	446.69
336.369	452.69
336.597	454.69
336.825	479.69
337.053	488.69
337.281	445.69
337.51	469.69
337.738	465.69
337.966	455.69
338.194	457.69
338.422	453.69
338.65	453.69
338.878	443.69
339.106	455.69
339.334	464.69
339.562	434.69
339.79	447.69
340.018	445.69
340.246	433.69
340.474	423.69
340.702	435.69
340.93	460.69
341.158	433.69
341.386	419.69
341.614	421.69
341.842	445.69
342.07	421.69
342.298	421.69
342.526	435.69
342.754	418.69
342.981	440.69
343.209	431.69
343.437	421.69
343.665	438.69
343.893	447.69
344.12	490.69
344.348	471.69
344.576	463.69
344.804	456.69
345.031	439.69
345.259	457.69
345.487	459.69
345.714	424.69
345.942	435.69
346.17	431.69
346.397	443.69
346.625	412.69
346.853	433.69
347.08	411.69
347.308	432.69
347.535	439.69
347.763	444.69
347.99	420.69
348.218	448.69
348.445	431.69
348.673	407.69
348.9	425.69
349.128	437.69
349.355	399.69
349.583	412.69
349.81	418.69
350.037	428.69
350.265	402.69
350.492	433.69
350.72	409.69
350.947	412.69
351.174	431.69
351.402	411.69
351.629	428.69
351.856	425.69
352.083	424.69
352.311	434.69
352.538	435.69
352.765	438.69
352.992	428.69
353.22	419.69
353.447	394.69
353.674	413.69
353.901	405.69
354.128	422.69
354.355	418.69
354.583	397.69
354.81	386.69
355.037	417.69
355.264	407.69
355.491	404.69
355.718	407.69
355.945	393.69
356.172	401.69
356.399	392.69
356.626	400.69
356.853	420.69
357.08	398.69
357.307	397.69
357.534	410.69
357.761	412.69
357.988	397.69
358.215	409.69
358.441	403.69
358.668	402.69
358.895	405.69
359.122	401.69
359.349	409.69
359.576	417.69
359.802	404.69
360.029	437.69
360.256	480.69
360.483	461.69
360.709	425.69
360.936	426.69
361.163	423.69
361.39	424.69
361.616	431.69
361.843	425.69
362.07	423.69
362.296	413.69
362.523	447.69
362.749	434.69
362.976	394.69
363.203	428.69
363.429	412.69
363.656	415.69
363.882	418.69
364.109	403.69
364.335	419.69
364.562	425.69
364.788	439.69
365.015	403.69
365.241	421.69
365.468	426.69
365.694	437.69
365.92	449.69
366.147	408.69
366.373	394.69
366.599	407.69
366.826	399.69
367.052	416.69
367.278	409.69
367.505	412.69
367.731	412.69
367.957	381.69
368.184	424.69
368.41	431.69
368.636	428.69
368.862	433.69
369.089	433.69
369.315	412.69
369.541	409.69
369.767	415.69
369.993	414.69
370.219	408.69
370.445	429.69
370.672	429.69
370.898	441.69
371.124	423.69
371.35	424.69
371.576	422.69
371.802	418.69
372.028	421.69
372.254	424.69
372.48	437.69
372.706	416.69
372.932	424.69
373.158	428.69
373.384	424.69
373.61	433.69
373.835	423.69
374.061	425.69
374.287	409.69
374.513	414.69
374.739	453.69
374.965	438.69
375.191	415.69
375.416	431.69
375.642	423.69
375.868	441.69
376.094	408.69
376.319	448.69
376.545	433.69
376.771	420.69
376.997	444.69
377.222	435.69
377.448	423.69
377.674	415.69
377.899	424.69
378.125	435.69
378.35	417.69
378.576	425.69
378.802	408.69
379.027	415.69
379.253	403.69
379.478	408.69
379.704	419.69
379.929	404.69
380.155	434.69
380.38	441.69
380.606	422.69
380.831	429.69
381.057	420.69
381.282	455.69
381.507	417.69
381.733	425.69
381.958	425.69
382.184	438.69
382.409	428.69
382.634	449.69
382.86	455.69
383.085	434.69
383.31	459.69
383.535	444.69
383.761	444.69
383.986	455.69
384.211	444.69
384.436	439.69
384.662	471.69
384.887	469.69
385.112	451.69
385.337	464.69
385.562	472.69
385.787	467.69
386.013	476.69
386.238	488.69
386.463	506.69
386.688	471.69
386.913	456.69
387.138	476.69
387.363	499.69
387.588	465.69
387.813	479.69
388.038	469.69
388.263	498.69
388.488	457.69
388.713	467.69
388.938	485.69
389.163	477.69
389.387	485.69
389.612	470.69
389.837	501.69
390.062	461.69
390.287	476.69
390.512	480.69
390.736	463.69
390.961	475.69
391.186	476.69
391.411	472.69
391.636	498.69
391.86	473.69
392.085	517.69
392.31	495.69
392.534	503.69
392.759	475.69
392.984	496.69
393.208	485.69
393.433	486.69
393.658	464.69
393.882	470.69
394.107	483.69
394.331	499.69
394.556	481.69
394.78	468.69
395.005	487.69
395.229	473.69
395.454	496.69
395.678	522.69
395.903	501.69
396.127	527.69
396.352	552.69
396.576	531.69
396.801	505.69
397.025	508.69
397.249	508.69
397.474	514.69
397.698	526.69
397.922	519.69
398.147	535.69
398.371	544.69
398.595	547.69
398.82	548.69
399.044	575.69
399.268	600.69
399.492	647.69
399.717	674.69
399.941	691.69
400.165	698.69
400.389	699.69
400.613	638.69
400.837	597.69
401.062	583.69
401.286	548.69
401.51	557.69
401.734	547.69
401.958	547.69
402.182	564.69
402.406	569.69
402.63	562.69
402.854	563.69
403.078	569.69
403.302	571.69
403.526	595.69
403.75	581.69
403.974	575.69
404.198	579.69
404.422	600.69
404.645	611.69
404.869	618.69
405.093	662.69
405.317	659.69
405.541	705.69
405.765	663.69
405.988	611.69
406.212	623.69
406.436	613.69
406.66	630.69
406.883	638.69
407.107	659.69
407.331	704.69
407.555	753.69
407.778	760.69
408.002	697.69
408.226	629.69
408.449	653.69
408.673	650.69
408.896	655.69
409.12	701.69
409.344	646.69
409.567	602.69
409.791	568.69
410.014	589.69
410.238	586.69
410.461	603.69
410.685	592.69
410.908	609.69
411.132	643.69
411.355	659.69
411.578	654.69
411.802	586.69
412.025	588.69
412.249	610.69
412.472	629.69
412.695	642.69
412.919	651.69
413.142	590.69
413.365	585.69
413.589	561.69
413.812	557.69
414.035	572.69
414.258	532.69
414.482	566.69
414.705	556.69
414.928	547.69
415.151	563.69
415.374	548.69
415.597	534.69
415.821	559.69
416.044	553.69
416.267	533.69
416.49	531.69
416.713	548.69
416.936	535.69
417.159	557.69
417.382	564.69
417.605	569.69
417.828	567.69
418.051	578.69
418.274	564.69
418.497	553.69
418.72	559.69
418.943	565.69
419.166	585.69
419.389	594.69
419.611	612.69
419.834	579.69
420.057	600.69
420.28	569.69
420.503	564.69
420.726	573.69
420.948	592.69
421.171	630.69
421.394	657.69
421.617	587.69
421.839	572.69
422.062	595.69
422.285	615.69
422.507	645.69
422.73	710.69
422.953	665.69
423.175	629.69
423.398	589.69
423.621	593.69
423.843	619.69
424.066	621.69
424.288	618.69
424.511	626.69
424.733	665.69
424.956	750.69
425.178	710.69
425.401	716.69
425.623	746.69
425.846	652.69
426.068	612.69
426.291	595.69
426.513	594.69
426.735	617.69
426.958	635.69
427.18	718.69
427.402	840.69
427.625	916.69
427.847	786.69
428.069	690.69
428.292	623.69
428.514	571.69
428.736	568.69
428.958	566.69
429.181	584.69
429.403	545.69
429.625	565.69
429.847	591.69
430.069	665.69
430.292	659.69
430.514	585.69
430.736	548.69
430.958	552.69
431.18	539.69
431.402	537.69
431.624	526.69
431.846	500.69
432.068	530.69
432.29	525.69
432.512	519.69
432.734	538.69
432.956	541.69
433.178	531.69
433.4	556.69
433.622	531.69
433.844	543.69
434.066	534.69
434.287	540.69
434.509	534.69
434.731	544.69
434.953	568.69
435.175	584.69
435.397	605.69
435.618	616.69
435.84	625.69
436.062	716.69
436.284	793.69
436.505	682.69
436.727	600.69
436.949	572.69
437.17	561.69
437.392	542.69
437.614	582.69
437.835	611.69
438.057	662.69
438.278	775.69
438.5	794.69
438.721	848.69
438.943	833.69
439.165	684.69
439.386	616.69
439.608	595.69
439.829	589.69
440.05	628.69
440.272	670.69
440.493	632.69
440.715	587.69
440.936	559.69
441.158	572.69
441.379	586.69
441.6	582.69
441.822	606.69
442.043	619.69
442.264	700.69
442.486	748.69
442.707	664.69
442.928	628.69
443.149	627.69
443.371	647.69
443.592	689.69
443.813	782.69
444.034	853.69
444.255	730.69
444.476	628.69
444.698	633.69
444.919	632.69
445.14	747.69
445.361	682.69
445.582	651.69
445.803	668.69
446.024	804.69
446.245	796.69
446.466	728.69
446.687	646.69
446.908	602.69
447.129	579.69
447.35	567.69
447.571	541.69
447.792	544.69
448.013	565.69
448.234	570.69
448.455	601.69
448.675	719.69
448.896	858.69
449.117	703.69
449.338	657.69
449.559	775.69
449.779	879.69
450	722.69
450.221	617.69
450.442	555.69
450.662	523.69
450.883	533.69
451.104	543.69
451.324	549.69
451.545	526.69
451.766	500.69
451.986	486.69
452.207	471.69
452.428	468.69
452.648	481.69
452.869	485.69
453.089	501.69
453.31	518.69
453.53	502.69
453.751	486.69
453.971	478.69
454.192	499.69
454.412	505.69
454.633	499.69
454.853	467.69
455.073	489.69
455.294	511.69
455.514	559.69
455.734	556.69
455.955	508.69
456.175	480.69
456.395	477.69
456.616	471.69
456.836	464.69
457.056	470.69
457.276	459.69
457.497	449.69
457.717	457.69
457.937	485.69
458.157	476.69
458.377	488.69
458.598	509.69
458.818	554.69
459.038	620.69
459.258	657.69
459.478	564.69
459.698	538.69
459.918	548.69
460.138	547.69
460.358	554.69
460.578	552.69
460.798	553.69
461.018	553.69
461.238	556.69
461.458	546.69
461.678	546.69
461.898	557.69
462.118	575.69
462.338	570.69
462.558	593.69
462.777	591.69
462.997	613.69
463.217	657.69
463.437	643.69
463.657	594.69
463.876	613.69
464.096	593.69
464.316	618.69
464.536	603.69
464.755	609.69
464.975	609.69
465.195	601.69
465.414	641.69
465.634	581.69
465.854	560.69
466.073	533.69
466.293	531.69
466.512	526.69
466.732	515.69
466.951	530.69
467.171	525.69
467.391	531.69
467.61	515.69
467.829	524.69
468.049	520.69
468.268	510.69
468.488	518.69
468.707	510.69
468.927	476.69
469.146	487.69
469.365	501.69
469.585	512.69
469.804	504.69
470.023	535.69
470.243	530.69
470.462	525.69
470.681	532.69
470.901	530.69
471.12	533.69
471.339	518.69
471.558	529.69
471.777	511.69
471.997	511.69
472.216	536.69
472.435	533.69
472.654	550.69
472.873	493.69
473.092	505.69
473.311	519.69
473.53	501.69
473.749	523.69
473.968	570.69
474.187	636.69
474.406	655.69
474.625	565.69
474.844	523.69
475.063	524.69
475.282	519.69
475.501	501.69
475.72	503.69
475.939	501.69
476.158	537.69
476.377	544.69
476.596	553.69
476.814	554.69
477.033	545.69
477.252	571.69
477.471	547.69
477.69	560.69
477.908	553.69
478.127	566.69
478.346	574.69
478.564	583.69
478.783	576.69
479.002	599.69
479.22	615.69
479.439	611.69
479.658	610.69
479.876	600.69
480.095	615.69
480.313	664.69
480.532	659.69
480.751	651.69
480.969	644.69
481.188	707.69
481.406	737.69
481.624	650.69
481.843	627.69
482.061	608.69
482.28	595.69
482.498	570.69
482.717	600.69
482.935	607.69
483.153	597.69
483.372	597.69
483.59	613.69
483.808	599.69
484.027	602.69
484.245	605.69
484.463	639.69
484.681	609.69
484.9	601.69
485.118	603.69
485.336	601.69
485.554	629.69
485.772	629.69
485.99	616.69
486.209	628.69
486.427	610.69
486.645	647.69
486.863	645.69
487.081	631.69
487.299	625.69
487.517	642.69
487.735	645.69
487.953	646.69
488.171	650.69
488.389	627.69
488.607	671.69
488.825	674.69
489.043	642.69
489.261	625.69
489.479	672.69
489.696	677.69
489.914	663.69
490.132	665.69
490.35	682.69
490.568	695.69
490.786	695.69
491.003	705.69
491.221	713.69
491.439	706.69
491.657	710.69
491.874	745.69
492.092	739.69
492.31	724.69
492.527	728.69
492.745	734.69
492.963	766.69
493.18	751.69
493.398	791.69
493.615	771.69
493.833	757.69
494.05	758.69
494.268	761.69
494.485	751.69
494.703	755.69
494.92	746.69
495.138	753.69
495.355	743.69
495.573	755.69
495.79	771.69
496.008	781.69
496.225	758.69
496.442	769.69
496.66	761.69
496.877	792.69
497.094	787.69
497.312	803.69
497.529	783.69
497.746	807.69
497.963	827.69
498.181	845.69
498.398	852.69
498.615	851.69
498.832	915.69
499.049	922.69
499.267	992.69
499.484	979.69
499.701	1037.69
499.918	1101.69
500.135	1106.69
500.352	1211.69
500.569	1219.69
500.786	1264.69
501.003	1210.69
501.22	1181.69
501.437	1110.69
501.654	1061.69
