Data from 1975.PennyLincolnUp.Lamp.En5.5.200Scan.071719.P1.Changed Mount._HRD10591_15-56-58-859.txt Node
Date: Thu Jul 18 15:56:58 EDT 2019
User: cochatt
Spectrometer: HR+D1059
Trigger mode: 1
Integration Time (sec): 1.000000E-1
Scans to average: 1
Electric dark correction enabled: true
Nonlinearity correction enabled: false
Boxcar width: 0
XAxis mode: Wavelengths
Number of Pixels in Spectrum: 2048
>>>>>Begin Spectral Data<<<<<
223.165	-5.31
223.4	-5.31
223.635	-5.31
223.869	-24.31
224.104	-12.31
224.338	-10.31
224.573	-9.31
224.808	-20.31
225.042	-9.31
225.277	-2.31
225.511	-10.31
225.746	8.69
225.98	15.69
226.215	3.69
226.449	18.69
226.683	10.69
226.918	21.69
227.152	24.69
227.387	26.69
227.621	41.69
227.856	30.69
228.09	47.69
228.324	47.69
228.559	55.69
228.793	53.69
229.027	91.69
229.262	107.69
229.496	107.69
229.73	132.69
229.964	163.69
230.199	129.69
230.433	122.69
230.667	115.69
230.901	117.69
231.136	127.69
231.37	117.69
231.604	106.69
231.838	118.69
232.072	111.69
232.306	119.69
232.541	117.69
232.775	121.69
233.009	133.69
233.243	113.69
233.477	106.69
233.711	107.69
233.945	125.69
234.179	126.69
234.413	124.69
234.647	121.69
234.881	117.69
235.115	109.69
235.349	117.69
235.583	127.69
235.817	123.69
236.051	128.69
236.285	111.69
236.519	119.69
236.753	142.69
236.987	150.69
237.221	186.69
237.455	225.69
237.689	186.69
237.922	161.69
238.156	149.69
238.39	126.69
238.624	128.69
238.858	124.69
239.091	138.69
239.325	114.69
239.559	132.69
239.793	133.69
240.027	143.69
240.26	140.69
240.494	170.69
240.728	146.69
240.961	146.69
241.195	147.69
241.429	150.69
241.662	124.69
241.896	131.69
242.13	143.69
242.363	127.69
242.597	136.69
242.83	140.69
243.064	156.69
243.298	140.69
243.531	142.69
243.765	141.69
243.998	135.69
244.232	152.69
244.465	127.69
244.699	158.69
244.932	136.69
245.166	156.69
245.399	165.69
245.633	145.69
245.866	160.69
246.099	138.69
246.333	144.69
246.566	138.69
246.8	148.69
247.033	152.69
247.266	172.69
247.5	172.69
247.733	167.69
247.966	188.69
248.2	168.69
248.433	182.69
248.666	187.69
248.899	196.69
249.133	182.69
249.366	193.69
249.599	198.69
249.832	186.69
250.066	187.69
250.299	184.69
250.532	205.69
250.765	201.69
250.998	219.69
251.231	221.69
251.465	221.69
251.698	209.69
251.931	199.69
252.164	207.69
252.397	199.69
252.63	213.69
252.863	220.69
253.096	230.69
253.329	223.69
253.562	222.69
253.795	210.69
254.028	234.69
254.261	227.69
254.494	224.69
254.727	254.69
254.96	290.69
255.193	261.69
255.426	248.69
255.659	232.69
255.892	221.69
256.124	237.69
256.357	235.69
256.59	230.69
256.823	217.69
257.056	228.69
257.289	226.69
257.521	219.69
257.754	201.69
257.987	205.69
258.22	225.69
258.452	210.69
258.685	222.69
258.918	219.69
259.151	214.69
259.383	208.69
259.616	227.69
259.849	224.69
260.081	221.69
260.314	251.69
260.547	255.69
260.779	251.69
261.012	238.69
261.244	223.69
261.477	248.69
261.71	220.69
261.942	229.69
262.175	233.69
262.407	218.69
262.64	219.69
262.872	211.69
263.105	219.69
263.337	234.69
263.57	225.69
263.802	210.69
264.035	222.69
264.267	229.69
264.499	210.69
264.732	223.69
264.964	235.69
265.197	219.69
265.429	229.69
265.661	226.69
265.894	227.69
266.126	243.69
266.358	216.69
266.591	233.69
266.823	243.69
267.055	245.69
267.287	241.69
267.52	258.69
267.752	242.69
267.984	233.69
268.216	232.69
268.448	236.69
268.681	239.69
268.913	239.69
269.145	261.69
269.377	285.69
269.609	295.69
269.841	275.69
270.073	274.69
270.306	293.69
270.538	323.69
270.77	332.69
271.002	315.69
271.234	300.69
271.466	313.69
271.698	319.69
271.93	347.69
272.162	330.69
272.394	317.69
272.626	315.69
272.858	311.69
273.09	283.69
273.322	263.69
273.553	273.69
273.785	280.69
274.017	269.69
274.249	284.69
274.481	282.69
274.713	277.69
274.945	272.69
275.176	282.69
275.408	275.69
275.64	279.69
275.872	263.69
276.104	270.69
276.335	266.69
276.567	276.69
276.799	289.69
277.031	308.69
277.262	339.69
277.494	326.69
277.726	317.69
277.957	301.69
278.189	278.69
278.421	297.69
278.652	267.69
278.884	298.69
279.115	283.69
279.347	286.69
279.579	290.69
279.81	283.69
280.042	278.69
280.273	275.69
280.505	295.69
280.736	270.69
280.968	274.69
281.199	288.69
281.431	284.69
281.662	285.69
281.894	264.69
282.125	299.69
282.356	283.69
282.588	333.69
282.819	319.69
283.051	286.69
283.282	294.69
283.513	291.69
283.745	288.69
283.976	293.69
284.207	315.69
284.439	300.69
284.67	297.69
284.901	293.69
285.132	290.69
285.364	291.69
285.595	285.69
285.826	305.69
286.057	319.69
286.288	299.69
286.52	314.69
286.751	286.69
286.982	274.69
287.213	305.69
287.444	303.69
287.675	309.69
287.906	321.69
288.138	325.69
288.369	313.69
288.6	324.69
288.831	328.69
289.062	321.69
289.293	331.69
289.524	310.69
289.755	316.69
289.986	307.69
290.217	317.69
290.448	296.69
290.679	298.69
290.91	300.69
291.141	308.69
291.371	323.69
291.602	306.69
291.833	314.69
292.064	336.69
292.295	310.69
292.526	291.69
292.757	309.69
292.987	313.69
293.218	322.69
293.449	299.69
293.68	310.69
293.91	301.69
294.141	315.69
294.372	317.69
294.603	302.69
294.833	312.69
295.064	295.69
295.295	308.69
295.525	317.69
295.756	330.69
295.987	330.69
296.217	326.69
296.448	327.69
296.679	297.69
296.909	313.69
297.14	338.69
297.37	316.69
297.601	327.69
297.831	316.69
298.062	328.69
298.292	294.69
298.523	305.69
298.753	334.69
298.984	321.69
299.214	335.69
299.445	306.69
299.675	323.69
299.905	325.69
300.136	340.69
300.366	348.69
300.597	328.69
300.827	343.69
301.057	349.69
301.288	353.69
301.518	348.69
301.748	340.69
301.979	355.69
302.209	344.69
302.439	353.69
302.669	350.69
302.9	334.69
303.13	339.69
303.36	354.69
303.59	359.69
303.82	350.69
304.051	357.69
304.281	349.69
304.511	348.69
304.741	341.69
304.971	333.69
305.201	339.69
305.431	347.69
305.661	355.69
305.891	361.69
306.121	362.69
306.352	376.69
306.582	349.69
306.812	335.69
307.042	339.69
307.272	341.69
307.502	355.69
307.731	369.69
307.961	364.69
308.191	357.69
308.421	345.69
308.651	356.69
308.881	352.69
309.111	350.69
309.341	347.69
309.571	369.69
309.8	361.69
310.03	371.69
310.26	398.69
310.49	360.69
310.72	375.69
310.949	404.69
311.179	413.69
311.409	393.69
311.639	375.69
311.868	371.69
312.098	362.69
312.328	399.69
312.557	395.69
312.787	399.69
313.017	397.69
313.246	406.69
313.476	381.69
313.706	381.69
313.935	372.69
314.165	396.69
314.394	418.69
314.624	421.69
314.853	392.69
315.083	395.69
315.312	387.69
315.542	378.69
315.771	379.69
316.001	386.69
316.23	387.69
316.46	402.69
316.689	411.69
316.919	385.69
317.148	387.69
317.377	417.69
317.607	402.69
317.836	389.69
318.065	393.69
318.295	388.69
318.524	381.69
318.753	382.69
318.983	379.69
319.212	387.69
319.441	387.69
319.67	382.69
319.9	391.69
320.129	401.69
320.358	405.69
320.587	397.69
320.816	396.69
321.046	407.69
321.275	396.69
321.504	398.69
321.733	382.69
321.962	408.69
322.191	427.69
322.42	427.69
322.649	420.69
322.878	437.69
323.108	461.69
323.337	474.69
323.566	473.69
323.795	478.69
324.024	522.69
324.253	638.69
324.482	813.69
324.71	1252.69
324.939	1918.69
325.168	1661.69
325.397	836.69
325.626	600.69
325.855	490.69
326.084	479.69
326.313	474.69
326.542	490.69
326.77	526.69
326.999	595.69
327.228	787.69
327.457	1179.69
327.686	1473.69
327.914	953.69
328.143	646.69
328.372	586.69
328.6	549.69
328.829	556.69
329.058	566.69
329.287	553.69
329.515	541.69
329.744	507.69
329.972	497.69
330.201	510.69
330.43	540.69
330.658	559.69
330.887	572.69
331.115	550.69
331.344	527.69
331.572	507.69
331.801	493.69
332.03	484.69
332.258	482.69
332.486	476.69
332.715	485.69
332.943	461.69
333.172	487.69
333.4	506.69
333.629	501.69
333.857	518.69
334.085	519.69
334.314	530.69
334.542	570.69
334.771	575.69
334.999	522.69
335.227	528.69
335.455	500.69
335.684	499.69
335.912	486.69
336.14	487.69
336.369	484.69
336.597	472.69
336.825	466.69
337.053	482.69
337.281	459.69
337.51	458.69
337.738	462.69
337.966	461.69
338.194	465.69
338.422	460.69
338.65	473.69
338.878	473.69
339.106	455.69
339.334	455.69
339.562	455.69
339.79	436.69
340.018	467.69
340.246	461.69
340.474	454.69
340.702	450.69
340.93	446.69
341.158	457.69
341.386	458.69
341.614	448.69
341.842	446.69
342.07	444.69
342.298	463.69
342.526	444.69
342.754	435.69
342.981	452.69
343.209	438.69
343.437	444.69
343.665	432.69
343.893	480.69
344.12	455.69
344.348	475.69
344.576	470.69
344.804	445.69
345.031	462.69
345.259	465.69
345.487	461.69
345.714	445.69
345.942	446.69
346.17	449.69
346.397	435.69
346.625	442.69
346.853	426.69
347.08	425.69
347.308	435.69
347.535	441.69
347.763	453.69
347.99	452.69
348.218	439.69
348.445	449.69
348.673	445.69
348.9	421.69
349.128	430.69
349.355	422.69
349.583	427.69
349.81	427.69
350.037	413.69
350.265	443.69
350.492	429.69
350.72	411.69
350.947	437.69
351.174	419.69
351.402	423.69
351.629	417.69
351.856	450.69
352.083	461.69
352.311	448.69
352.538	465.69
352.765	451.69
352.992	434.69
353.22	450.69
353.447	436.69
353.674	441.69
353.901	434.69
354.128	409.69
354.355	403.69
354.583	402.69
354.81	412.69
355.037	429.69
355.264	419.69
355.491	396.69
355.718	406.69
355.945	410.69
356.172	408.69
356.399	400.69
356.626	410.69
356.853	422.69
357.08	415.69
357.307	414.69
357.534	422.69
357.761	406.69
357.988	397.69
358.215	401.69
358.441	415.69
358.668	423.69
358.895	426.69
359.122	417.69
359.349	401.69
359.576	435.69
359.802	462.69
360.029	467.69
360.256	452.69
360.483	460.69
360.709	443.69
360.936	451.69
361.163	432.69
361.39	429.69
361.616	451.69
361.843	433.69
362.07	418.69
362.296	423.69
362.523	419.69
362.749	424.69
362.976	435.69
363.203	403.69
363.429	425.69
363.656	435.69
363.882	429.69
364.109	435.69
364.335	440.69
364.562	414.69
364.788	419.69
365.015	423.69
365.241	428.69
365.468	421.69
365.694	402.69
365.92	406.69
366.147	422.69
366.373	430.69
366.599	423.69
366.826	406.69
367.052	428.69
367.278	419.69
367.505	414.69
367.731	421.69
367.957	396.69
368.184	434.69
368.41	397.69
368.636	427.69
368.862	439.69
369.089	419.69
369.315	418.69
369.541	425.69
369.767	438.69
369.993	428.69
370.219	420.69
370.445	430.69
370.672	412.69
370.898	428.69
371.124	410.69
371.35	418.69
371.576	434.69
371.802	440.69
372.028	445.69
372.254	424.69
372.48	434.69
372.706	463.69
372.932	428.69
373.158	439.69
373.384	426.69
373.61	427.69
373.835	440.69
374.061	447.69
374.287	444.69
374.513	443.69
374.739	445.69
374.965	446.69
375.191	439.69
375.416	462.69
375.642	463.69
375.868	429.69
376.094	441.69
376.319	428.69
376.545	425.69
376.771	440.69
376.997	418.69
377.222	444.69
377.448	419.69
377.674	405.69
377.899	423.69
378.125	407.69
378.35	439.69
378.576	419.69
378.802	428.69
379.027	438.69
379.253	425.69
379.478	439.69
379.704	435.69
379.929	417.69
380.155	437.69
380.38	416.69
380.606	425.69
380.831	427.69
381.057	453.69
381.282	436.69
381.507	438.69
381.733	444.69
381.958	425.69
382.184	435.69
382.409	455.69
382.634	464.69
382.86	465.69
383.085	442.69
383.31	463.69
383.535	438.69
383.761	458.69
383.986	469.69
384.211	472.69
384.436	450.69
384.662	481.69
384.887	473.69
385.112	506.69
385.337	492.69
385.562	472.69
385.787	484.69
386.013	486.69
386.238	476.69
386.463	504.69
386.688	485.69
386.913	476.69
387.138	481.69
387.363	481.69
387.588	471.69
387.813	487.69
388.038	478.69
388.263	499.69
388.488	456.69
388.713	478.69
388.938	490.69
389.163	486.69
389.387	491.69
389.612	490.69
389.837	488.69
390.062	485.69
390.287	501.69
390.512	467.69
390.736	467.69
390.961	463.69
391.186	503.69
391.411	492.69
391.636	503.69
391.86	480.69
392.085	489.69
392.31	515.69
392.534	514.69
392.759	492.69
392.984	502.69
393.208	477.69
393.433	509.69
393.658	494.69
393.882	498.69
394.107	493.69
394.331	516.69
394.556	483.69
394.78	491.69
395.005	500.69
395.229	489.69
395.454	509.69
395.678	507.69
395.903	526.69
396.127	517.69
396.352	533.69
396.576	500.69
396.801	482.69
397.025	506.69
397.249	477.69
397.474	496.69
397.698	507.69
397.922	532.69
398.147	547.69
398.371	563.69
398.595	578.69
398.82	547.69
399.044	578.69
399.268	614.69
399.492	668.69
399.717	665.69
399.941	717.69
400.165	734.69
400.389	716.69
400.613	630.69
400.837	580.69
401.062	582.69
401.286	569.69
401.51	577.69
401.734	559.69
401.958	554.69
402.182	546.69
402.406	556.69
402.63	574.69
402.854	595.69
403.078	569.69
403.302	582.69
403.526	597.69
403.75	590.69
403.974	585.69
404.198	573.69
404.422	598.69
404.645	609.69
404.869	612.69
405.093	634.69
405.317	679.69
405.541	705.69
405.765	655.69
405.988	634.69
406.212	625.69
406.436	635.69
406.66	646.69
406.883	625.69
407.107	671.69
407.331	711.69
407.555	787.69
407.778	771.69
408.002	709.69
408.226	651.69
408.449	652.69
408.673	641.69
408.896	673.69
409.12	724.69
409.344	691.69
409.567	611.69
409.791	604.69
410.014	590.69
410.238	591.69
410.461	595.69
410.685	603.69
410.908	605.69
411.132	636.69
411.355	673.69
411.578	656.69
411.802	617.69
412.025	597.69
412.249	605.69
412.472	623.69
412.695	659.69
412.919	639.69
413.142	598.69
413.365	568.69
413.589	567.69
413.812	585.69
414.035	578.69
414.258	542.69
414.482	551.69
414.705	559.69
414.928	570.69
415.151	567.69
415.374	565.69
415.597	562.69
415.821	555.69
416.044	573.69
416.267	531.69
416.49	565.69
416.713	573.69
416.936	561.69
417.159	542.69
417.382	574.69
417.605	545.69
417.828	598.69
418.051	591.69
418.274	594.69
418.497	558.69
418.72	563.69
418.943	567.69
419.166	603.69
419.389	621.69
419.611	612.69
419.834	599.69
420.057	589.69
420.28	601.69
420.503	593.69
420.726	598.69
420.948	597.69
421.171	633.69
421.394	684.69
421.617	595.69
421.839	563.69
422.062	575.69
422.285	593.69
422.507	657.69
422.73	743.69
422.953	697.69
423.175	661.69
423.398	604.69
423.621	604.69
423.843	626.69
424.066	627.69
424.288	613.69
424.511	639.69
424.733	671.69
424.956	791.69
425.178	739.69
425.401	741.69
425.623	773.69
425.846	634.69
426.068	595.69
426.291	589.69
426.513	614.69
426.735	600.69
426.958	661.69
427.18	748.69
427.402	846.69
427.625	927.69
427.847	812.69
428.069	744.69
428.292	637.69
428.514	614.69
428.736	569.69
428.958	576.69
429.181	577.69
429.403	557.69
429.625	563.69
429.847	613.69
430.069	679.69
430.292	659.69
430.514	579.69
430.736	558.69
430.958	570.69
431.18	574.69
431.402	548.69
431.624	505.69
431.846	512.69
432.068	533.69
432.29	543.69
432.512	565.69
432.734	557.69
432.956	545.69
433.178	547.69
433.4	550.69
433.622	563.69
433.844	533.69
434.066	526.69
434.287	547.69
434.509	549.69
434.731	574.69
434.953	587.69
435.175	568.69
435.397	621.69
435.618	621.69
435.84	664.69
436.062	759.69
436.284	847.69
436.505	679.69
436.727	634.69
436.949	578.69
437.17	567.69
437.392	551.69
437.614	581.69
437.835	589.69
438.057	687.69
438.278	810.69
438.5	792.69
438.721	889.69
438.943	850.69
439.165	668.69
439.386	609.69
439.608	600.69
439.829	622.69
440.05	629.69
440.272	663.69
440.493	641.69
440.715	590.69
440.936	559.69
441.158	574.69
441.379	546.69
441.6	588.69
441.822	602.69
442.043	661.69
442.264	734.69
442.486	786.69
442.707	678.69
442.928	623.69
443.149	641.69
443.371	670.69
443.592	679.69
443.813	789.69
444.034	877.69
444.255	742.69
444.476	660.69
444.698	634.69
444.919	637.69
445.14	769.69
445.361	700.69
445.582	673.69
445.803	709.69
446.024	830.69
446.245	813.69
446.466	755.69
446.687	637.69
446.908	612.69
447.129	574.69
447.35	559.69
447.571	563.69
447.792	539.69
448.013	566.69
448.234	569.69
448.455	606.69
448.675	777.69
448.896	866.69
449.117	703.69
449.338	700.69
449.559	802.69
449.779	917.69
450	717.69
450.221	593.69
450.442	565.69
450.662	543.69
450.883	555.69
451.104	548.69
451.324	531.69
451.545	526.69
451.766	513.69
451.986	478.69
452.207	494.69
452.428	504.69
452.648	511.69
452.869	477.69
453.089	487.69
453.31	500.69
453.53	502.69
453.751	498.69
453.971	502.69
454.192	490.69
454.412	476.69
454.633	504.69
454.853	482.69
455.073	486.69
455.294	514.69
455.514	579.69
455.734	573.69
455.955	509.69
456.175	486.69
456.395	475.69
456.616	475.69
456.836	444.69
457.056	481.69
457.276	474.69
457.497	471.69
457.717	476.69
457.937	493.69
458.157	497.69
458.377	485.69
458.598	519.69
458.818	554.69
459.038	628.69
459.258	657.69
459.478	591.69
459.698	546.69
459.918	545.69
460.138	564.69
460.358	578.69
460.578	546.69
460.798	585.69
461.018	552.69
461.238	571.69
461.458	565.69
461.678	562.69
461.898	550.69
462.118	556.69
462.338	580.69
462.558	572.69
462.777	603.69
462.997	630.69
463.217	625.69
463.437	652.69
463.657	626.69
463.876	597.69
464.096	597.69
464.316	598.69
464.536	606.69
464.755	589.69
464.975	589.69
465.195	605.69
465.414	662.69
465.634	604.69
465.854	563.69
466.073	557.69
466.293	545.69
466.512	548.69
466.732	517.69
466.951	553.69
467.171	517.69
467.391	527.69
467.61	542.69
467.829	525.69
468.049	513.69
468.268	533.69
468.488	515.69
468.707	490.69
468.927	519.69
469.146	499.69
469.365	483.69
469.585	487.69
469.804	523.69
470.023	521.69
470.243	517.69
470.462	541.69
470.681	543.69
470.901	535.69
471.12	528.69
471.339	533.69
471.558	519.69
471.777	526.69
471.997	520.69
472.216	519.69
472.435	558.69
472.654	543.69
472.873	539.69
473.092	534.69
473.311	511.69
473.53	522.69
473.749	520.69
473.968	569.69
474.187	646.69
474.406	674.69
474.625	573.69
474.844	515.69
475.063	534.69
475.282	538.69
475.501	525.69
475.72	509.69
475.939	540.69
476.158	549.69
476.377	545.69
476.596	535.69
476.814	563.69
477.033	539.69
477.252	567.69
477.471	548.69
477.69	581.69
477.908	572.69
478.127	571.69
478.346	570.69
478.564	601.69
478.783	583.69
479.002	595.69
479.22	627.69
479.439	590.69
479.658	623.69
479.876	652.69
480.095	652.69
480.313	659.69
480.532	673.69
480.751	625.69
480.969	648.69
481.188	681.69
481.406	758.69
481.624	659.69
481.843	639.69
482.061	608.69
482.28	608.69
482.498	621.69
482.717	601.69
482.935	618.69
483.153	636.69
483.372	623.69
483.59	610.69
483.808	629.69
484.027	620.69
484.245	599.69
484.463	598.69
484.681	615.69
484.9	628.69
485.118	615.69
485.336	625.69
485.554	629.69
485.772	632.69
485.99	623.69
486.209	635.69
486.427	616.69
486.645	653.69
486.863	672.69
487.081	630.69
487.299	647.69
487.517	650.69
487.735	654.69
487.953	666.69
488.171	647.69
488.389	651.69
488.607	665.69
488.825	671.69
489.043	644.69
489.261	677.69
489.479	669.69
489.696	692.69
489.914	681.69
490.132	677.69
490.35	705.69
490.568	695.69
490.786	696.69
491.003	721.69
491.221	715.69
491.439	748.69
491.657	731.69
491.874	737.69
492.092	749.69
492.31	782.69
492.527	763.69
492.745	777.69
492.963	789.69
493.18	767.69
493.398	791.69
493.615	797.69
493.833	771.69
494.05	801.69
494.268	793.69
494.485	799.69
494.703	787.69
494.92	797.69
495.138	796.69
495.355	774.69
495.573	785.69
495.79	765.69
496.008	786.69
496.225	797.69
496.442	779.69
496.66	766.69
496.877	771.69
497.094	790.69
497.312	813.69
497.529	815.69
497.746	845.69
497.963	843.69
498.181	841.69
498.398	884.69
498.615	895.69
498.832	939.69
499.049	941.69
499.267	957.69
499.484	1006.69
499.701	1054.69
499.918	1106.69
500.135	1145.69
500.352	1235.69
500.569	1242.69
500.786	1236.69
501.003	1223.69
501.22	1201.69
501.437	1108.69
501.654	1078.69
