Data from 1975.PennyLincolnUp.Lamp.En5.5.200Scan.071719.P1.Changed Mount._HRD10591_15-58-00-861.txt Node
Date: Thu Jul 18 15:58:00 EDT 2019
User: cochatt
Spectrometer: HR+D1059
Trigger mode: 1
Integration Time (sec): 1.000000E-1
Scans to average: 1
Electric dark correction enabled: true
Nonlinearity correction enabled: false
Boxcar width: 0
XAxis mode: Wavelengths
Number of Pixels in Spectrum: 2048
>>>>>Begin Spectral Data<<<<<
223.165	-17.81
223.4	-17.81
223.635	-17.81
223.869	-10.81
224.104	-9.81
224.338	-19.81
224.573	-10.81
224.808	-20.81
225.042	-15.81
225.277	-13.81
225.511	4.19
225.746	10.19
225.98	11.19
226.215	17.19
226.449	17.19
226.683	7.19
226.918	26.19
227.152	26.19
227.387	37.19
227.621	29.19
227.856	53.19
228.09	48.19
228.324	39.19
228.559	57.19
228.793	63.19
229.027	89.19
229.262	114.19
229.496	115.19
229.73	130.19
229.964	148.19
230.199	141.19
230.433	133.19
230.667	98.19
230.901	123.19
231.136	116.19
231.37	119.19
231.604	102.19
231.838	120.19
232.072	125.19
232.306	103.19
232.541	103.19
232.775	124.19
233.009	119.19
233.243	119.19
233.477	109.19
233.711	119.19
233.945	119.19
234.179	132.19
234.413	125.19
234.647	123.19
234.881	121.19
235.115	123.19
235.349	127.19
235.583	128.19
235.817	120.19
236.051	117.19
236.285	122.19
236.519	145.19
236.753	131.19
236.987	140.19
237.221	180.19
237.455	223.19
237.689	195.19
237.922	138.19
238.156	136.19
238.39	121.19
238.624	128.19
238.858	119.19
239.091	125.19
239.325	127.19
239.559	117.19
239.793	124.19
240.027	132.19
240.26	135.19
240.494	156.19
240.728	151.19
240.961	143.19
241.195	143.19
241.429	147.19
241.662	128.19
241.896	137.19
242.13	141.19
242.363	134.19
242.597	139.19
242.83	134.19
243.064	143.19
243.298	151.19
243.531	131.19
243.765	145.19
243.998	137.19
244.232	140.19
244.465	141.19
244.699	139.19
244.932	161.19
245.166	137.19
245.399	167.19
245.633	156.19
245.866	162.19
246.099	152.19
246.333	156.19
246.566	153.19
246.8	155.19
247.033	158.19
247.266	163.19
247.5	172.19
247.733	181.19
247.966	185.19
248.2	165.19
248.433	175.19
248.666	180.19
248.899	188.19
249.133	204.19
249.366	204.19
249.599	205.19
249.832	190.19
250.066	183.19
250.299	173.19
250.532	173.19
250.765	213.19
250.998	233.19
251.231	242.19
251.465	217.19
251.698	226.19
251.931	205.19
252.164	203.19
252.397	211.19
252.63	205.19
252.863	214.19
253.096	228.19
253.329	229.19
253.562	223.19
253.795	220.19
254.028	236.19
254.261	217.19
254.494	241.19
254.727	279.19
254.96	294.19
255.193	278.19
255.426	259.19
255.659	240.19
255.892	257.19
256.124	243.19
256.357	258.19
256.59	237.19
256.823	235.19
257.056	226.19
257.289	215.19
257.521	232.19
257.754	216.19
257.987	219.19
258.22	228.19
258.452	199.19
258.685	206.19
258.918	214.19
259.151	224.19
259.383	209.19
259.616	228.19
259.849	245.19
260.081	247.19
260.314	277.19
260.547	276.19
260.779	257.19
261.012	239.19
261.244	268.19
261.477	245.19
261.71	236.19
261.942	239.19
262.175	253.19
262.407	224.19
262.64	228.19
262.872	234.19
263.105	241.19
263.337	218.19
263.57	231.19
263.802	220.19
264.035	223.19
264.267	204.19
264.499	220.19
264.732	221.19
264.964	219.19
265.197	251.19
265.429	246.19
265.661	211.19
265.894	217.19
266.126	228.19
266.358	228.19
266.591	234.19
266.823	221.19
267.055	223.19
267.287	237.19
267.52	236.19
267.752	244.19
267.984	234.19
268.216	245.19
268.448	251.19
268.681	247.19
268.913	253.19
269.145	259.19
269.377	304.19
269.609	284.19
269.841	276.19
270.073	269.19
270.306	288.19
270.538	337.19
270.77	338.19
271.002	309.19
271.234	306.19
271.466	296.19
271.698	315.19
271.93	332.19
272.162	337.19
272.394	344.19
272.626	313.19
272.858	315.19
273.09	293.19
273.322	292.19
273.553	285.19
273.785	282.19
274.017	274.19
274.249	291.19
274.481	274.19
274.713	263.19
274.945	278.19
275.176	290.19
275.408	279.19
275.64	293.19
275.872	271.19
276.104	274.19
276.335	278.19
276.567	309.19
276.799	296.19
277.031	312.19
277.262	325.19
277.494	335.19
277.726	313.19
277.957	307.19
278.189	307.19
278.421	278.19
278.652	280.19
278.884	283.19
279.115	291.19
279.347	295.19
279.579	282.19
279.81	282.19
280.042	273.19
280.273	289.19
280.505	288.19
280.736	277.19
280.968	269.19
281.199	286.19
281.431	303.19
281.662	275.19
281.894	295.19
282.125	281.19
282.356	310.19
282.588	313.19
282.819	319.19
283.051	293.19
283.282	300.19
283.513	285.19
283.745	283.19
283.976	289.19
284.207	308.19
284.439	301.19
284.67	311.19
284.901	310.19
285.132	307.19
285.364	290.19
285.595	317.19
285.826	299.19
286.057	306.19
286.288	301.19
286.52	312.19
286.751	315.19
286.982	312.19
287.213	298.19
287.444	299.19
287.675	304.19
287.906	300.19
288.138	331.19
288.369	327.19
288.6	338.19
288.831	289.19
289.062	330.19
289.293	301.19
289.524	309.19
289.755	307.19
289.986	324.19
290.217	305.19
290.448	310.19
290.679	309.19
290.91	308.19
291.141	311.19
291.371	307.19
291.602	316.19
291.833	316.19
292.064	303.19
292.295	321.19
292.526	330.19
292.757	304.19
292.987	311.19
293.218	299.19
293.449	326.19
293.68	349.19
293.91	324.19
294.141	332.19
294.372	313.19
294.603	300.19
294.833	322.19
295.064	320.19
295.295	313.19
295.525	315.19
295.756	326.19
295.987	328.19
296.217	345.19
296.448	345.19
296.679	323.19
296.909	316.19
297.14	331.19
297.37	333.19
297.601	327.19
297.831	343.19
298.062	322.19
298.292	310.19
298.523	333.19
298.753	339.19
298.984	333.19
299.214	313.19
299.445	339.19
299.675	353.19
299.905	336.19
300.136	345.19
300.366	336.19
300.597	353.19
300.827	345.19
301.057	370.19
301.288	371.19
301.518	348.19
301.748	351.19
301.979	359.19
302.209	358.19
302.439	353.19
302.669	369.19
302.9	352.19
303.13	338.19
303.36	365.19
303.59	359.19
303.82	358.19
304.051	375.19
304.281	346.19
304.511	346.19
304.741	358.19
304.971	336.19
305.201	353.19
305.431	353.19
305.661	351.19
305.891	359.19
306.121	364.19
306.352	335.19
306.582	373.19
306.812	345.19
307.042	347.19
307.272	369.19
307.502	337.19
307.731	357.19
307.961	367.19
308.191	349.19
308.421	358.19
308.651	352.19
308.881	360.19
309.111	354.19
309.341	358.19
309.571	364.19
309.8	389.19
310.03	379.19
310.26	384.19
310.49	377.19
310.72	387.19
310.949	412.19
311.179	417.19
311.409	398.19
311.639	383.19
311.868	397.19
312.098	401.19
312.328	398.19
312.557	395.19
312.787	407.19
313.017	428.19
313.246	407.19
313.476	387.19
313.706	418.19
313.935	403.19
314.165	399.19
314.394	424.19
314.624	419.19
314.853	404.19
315.083	392.19
315.312	382.19
315.542	370.19
315.771	377.19
316.001	377.19
316.23	411.19
316.46	382.19
316.689	389.19
316.919	390.19
317.148	404.19
317.377	405.19
317.607	419.19
317.836	392.19
318.065	408.19
318.295	382.19
318.524	393.19
318.753	405.19
318.983	393.19
319.212	394.19
319.441	400.19
319.67	393.19
319.9	385.19
320.129	413.19
320.358	411.19
320.587	406.19
320.816	413.19
321.046	422.19
321.275	421.19
321.504	397.19
321.733	401.19
321.962	401.19
322.191	415.19
322.42	431.19
322.649	449.19
322.878	435.19
323.108	444.19
323.337	487.19
323.566	483.19
323.795	524.19
324.024	535.19
324.253	635.19
324.482	880.19
324.71	1309.19
324.939	1939.19
325.168	1703.19
325.397	889.19
325.626	609.19
325.855	536.19
326.084	481.19
326.313	484.19
326.542	468.19
326.77	519.19
326.999	620.19
327.228	793.19
327.457	1213.19
327.686	1475.19
327.914	996.19
328.143	679.19
328.372	595.19
328.6	587.19
328.829	541.19
329.058	530.19
329.287	567.19
329.515	542.19
329.744	521.19
329.972	535.19
330.201	541.19
330.43	548.19
330.658	590.19
330.887	589.19
331.115	577.19
331.344	505.19
331.572	496.19
331.801	506.19
332.03	499.19
332.258	477.19
332.486	479.19
332.715	492.19
332.943	480.19
333.172	482.19
333.4	511.19
333.629	492.19
333.857	518.19
334.085	536.19
334.314	525.19
334.542	572.19
334.771	594.19
334.999	546.19
335.227	535.19
335.455	490.19
335.684	483.19
335.912	483.19
336.14	494.19
336.369	476.19
336.597	483.19
336.825	484.19
337.053	487.19
337.281	467.19
337.51	476.19
337.738	467.19
337.966	461.19
338.194	468.19
338.422	473.19
338.65	453.19
338.878	462.19
339.106	452.19
339.334	450.19
339.562	435.19
339.79	450.19
340.018	476.19
340.246	451.19
340.474	456.19
340.702	451.19
340.93	473.19
341.158	452.19
341.386	440.19
341.614	459.19
341.842	435.19
342.07	441.19
342.298	458.19
342.526	440.19
342.754	458.19
342.981	447.19
343.209	452.19
343.437	446.19
343.665	472.19
343.893	476.19
344.12	486.19
344.348	482.19
344.576	472.19
344.804	446.19
345.031	473.19
345.259	468.19
345.487	439.19
345.714	439.19
345.942	457.19
346.17	443.19
346.397	443.19
346.625	424.19
346.853	445.19
347.08	435.19
347.308	448.19
347.535	443.19
347.763	433.19
347.99	440.19
348.218	420.19
348.445	447.19
348.673	465.19
348.9	426.19
349.128	419.19
349.355	442.19
349.583	417.19
349.81	427.19
350.037	438.19
350.265	432.19
350.492	436.19
350.72	432.19
350.947	418.19
351.174	450.19
351.402	436.19
351.629	436.19
351.856	449.19
352.083	452.19
352.311	449.19
352.538	459.19
352.765	452.19
352.992	444.19
353.22	406.19
353.447	415.19
353.674	429.19
353.901	430.19
354.128	418.19
354.355	427.19
354.583	418.19
354.81	432.19
355.037	435.19
355.264	402.19
355.491	420.19
355.718	417.19
355.945	406.19
356.172	416.19
356.399	396.19
356.626	421.19
356.853	441.19
357.08	440.19
357.307	424.19
357.534	427.19
357.761	424.19
357.988	432.19
358.215	425.19
358.441	421.19
358.668	418.19
358.895	399.19
359.122	426.19
359.349	434.19
359.576	435.19
359.802	437.19
360.029	472.19
360.256	500.19
360.483	473.19
360.709	432.19
360.936	467.19
361.163	435.19
361.39	440.19
361.616	439.19
361.843	440.19
362.07	444.19
362.296	442.19
362.523	440.19
362.749	432.19
362.976	436.19
363.203	435.19
363.429	436.19
363.656	440.19
363.882	419.19
364.109	454.19
364.335	432.19
364.562	433.19
364.788	422.19
365.015	415.19
365.241	437.19
365.468	417.19
365.694	420.19
365.92	444.19
366.147	413.19
366.373	431.19
366.599	422.19
366.826	420.19
367.052	432.19
367.278	445.19
367.505	428.19
367.731	435.19
367.957	421.19
368.184	421.19
368.41	443.19
368.636	446.19
368.862	448.19
369.089	435.19
369.315	426.19
369.541	443.19
369.767	434.19
369.993	439.19
370.219	424.19
370.445	424.19
370.672	436.19
370.898	423.19
371.124	424.19
371.35	450.19
371.576	452.19
371.802	429.19
372.028	433.19
372.254	445.19
372.48	448.19
372.706	428.19
372.932	441.19
373.158	452.19
373.384	441.19
373.61	448.19
373.835	457.19
374.061	428.19
374.287	428.19
374.513	447.19
374.739	439.19
374.965	459.19
375.191	445.19
375.416	452.19
375.642	442.19
375.868	445.19
376.094	451.19
376.319	437.19
376.545	427.19
376.771	435.19
376.997	427.19
377.222	435.19
377.448	437.19
377.674	434.19
377.899	422.19
378.125	431.19
378.35	412.19
378.576	421.19
378.802	419.19
379.027	419.19
379.253	428.19
379.478	435.19
379.704	424.19
379.929	433.19
380.155	440.19
380.38	435.19
380.606	437.19
380.831	422.19
381.057	433.19
381.282	448.19
381.507	445.19
381.733	449.19
381.958	425.19
382.184	477.19
382.409	471.19
382.634	466.19
382.86	454.19
383.085	444.19
383.31	445.19
383.535	439.19
383.761	448.19
383.986	473.19
384.211	451.19
384.436	480.19
384.662	484.19
384.887	482.19
385.112	474.19
385.337	479.19
385.562	489.19
385.787	495.19
386.013	500.19
386.238	492.19
386.463	507.19
386.688	499.19
386.913	489.19
387.138	490.19
387.363	497.19
387.588	483.19
387.813	492.19
388.038	497.19
388.263	481.19
388.488	467.19
388.713	488.19
388.938	495.19
389.163	483.19
389.387	482.19
389.612	472.19
389.837	473.19
390.062	492.19
390.287	505.19
390.512	501.19
390.736	473.19
390.961	483.19
391.186	491.19
391.411	473.19
391.636	505.19
391.86	514.19
392.085	513.19
392.31	529.19
392.534	532.19
392.759	497.19
392.984	491.19
393.208	492.19
393.433	496.19
393.658	497.19
393.882	491.19
394.107	515.19
394.331	487.19
394.556	505.19
394.78	492.19
395.005	497.19
395.229	503.19
395.454	523.19
395.678	521.19
395.903	529.19
396.127	563.19
396.352	551.19
396.576	548.19
396.801	518.19
397.025	508.19
397.249	537.19
397.474	535.19
397.698	539.19
397.922	553.19
398.147	533.19
398.371	575.19
398.595	586.19
398.82	590.19
399.044	571.19
399.268	595.19
399.492	647.19
399.717	702.19
399.941	713.19
400.165	711.19
400.389	733.19
400.613	657.19
400.837	620.19
401.062	614.19
401.286	581.19
401.51	593.19
401.734	571.19
401.958	563.19
402.182	574.19
402.406	582.19
402.63	590.19
402.854	611.19
403.078	592.19
403.302	591.19
403.526	611.19
403.75	600.19
403.974	573.19
404.198	601.19
404.422	620.19
404.645	624.19
404.869	609.19
405.093	615.19
405.317	663.19
405.541	736.19
405.765	661.19
405.988	620.19
406.212	632.19
406.436	631.19
406.66	658.19
406.883	636.19
407.107	703.19
407.331	716.19
407.555	801.19
407.778	802.19
408.002	729.19
408.226	694.19
408.449	687.19
408.673	656.19
408.896	679.19
409.12	727.19
409.344	691.19
409.567	608.19
409.791	601.19
410.014	582.19
410.238	599.19
410.461	595.19
410.685	603.19
410.908	626.19
411.132	624.19
411.355	682.19
411.578	646.19
411.802	599.19
412.025	593.19
412.249	585.19
412.472	633.19
412.695	682.19
412.919	650.19
413.142	611.19
413.365	599.19
413.589	572.19
413.812	586.19
414.035	563.19
414.258	570.19
414.482	565.19
414.705	555.19
414.928	573.19
415.151	546.19
415.374	555.19
415.597	571.19
415.821	560.19
416.044	563.19
416.267	574.19
416.49	569.19
416.713	540.19
416.936	561.19
417.159	549.19
417.382	589.19
417.605	564.19
417.828	584.19
418.051	609.19
418.274	567.19
418.497	572.19
418.72	592.19
418.943	573.19
419.166	587.19
419.389	633.19
419.611	601.19
419.834	607.19
420.057	610.19
420.28	582.19
420.503	601.19
420.726	605.19
420.948	603.19
421.171	648.19
421.394	679.19
421.617	627.19
421.839	594.19
422.062	588.19
422.285	577.19
422.507	659.19
422.73	744.19
422.953	712.19
423.175	658.19
423.398	613.19
423.621	609.19
423.843	625.19
424.066	651.19
424.288	615.19
424.511	641.19
424.733	720.19
424.956	781.19
425.178	746.19
425.401	716.19
425.623	769.19
425.846	680.19
426.068	637.19
426.291	635.19
426.513	603.19
426.735	609.19
426.958	667.19
427.18	757.19
427.402	865.19
427.625	963.19
427.847	842.19
428.069	735.19
428.292	669.19
428.514	594.19
428.736	565.19
428.958	573.19
429.181	584.19
429.403	552.19
429.625	601.19
429.847	618.19
430.069	660.19
430.292	675.19
430.514	582.19
430.736	573.19
430.958	577.19
431.18	549.19
431.402	557.19
431.624	546.19
431.846	525.19
432.068	555.19
432.29	533.19
432.512	559.19
432.734	573.19
432.956	554.19
433.178	554.19
433.4	544.19
433.622	588.19
433.844	550.19
434.066	553.19
434.287	564.19
434.509	557.19
434.731	563.19
434.953	555.19
435.175	608.19
435.397	611.19
435.618	624.19
435.84	676.19
436.062	739.19
436.284	833.19
436.505	675.19
436.727	619.19
436.949	599.19
437.17	564.19
437.392	561.19
437.614	600.19
437.835	592.19
438.057	706.19
438.278	801.19
438.5	823.19
438.721	906.19
438.943	858.19
439.165	669.19
439.386	637.19
439.608	629.19
439.829	623.19
440.05	628.19
440.272	692.19
440.493	656.19
440.715	625.19
440.936	576.19
441.158	571.19
441.379	572.19
441.6	619.19
441.822	637.19
442.043	643.19
442.264	748.19
442.486	809.19
442.707	669.19
442.928	656.19
443.149	659.19
443.371	661.19
443.592	692.19
443.813	815.19
444.034	908.19
444.255	720.19
444.476	641.19
444.698	647.19
444.919	644.19
445.14	766.19
445.361	696.19
445.582	671.19
445.803	732.19
446.024	807.19
446.245	861.19
446.466	772.19
446.687	662.19
446.908	645.19
447.129	569.19
447.35	575.19
447.571	564.19
447.792	556.19
448.013	551.19
448.234	589.19
448.455	623.19
448.675	755.19
448.896	875.19
449.117	751.19
449.338	683.19
449.559	802.19
449.779	933.19
450	729.19
450.221	631.19
450.442	576.19
450.662	559.19
450.883	557.19
451.104	578.19
451.324	554.19
451.545	523.19
451.766	527.19
451.986	518.19
452.207	507.19
452.428	505.19
452.648	500.19
452.869	519.19
453.089	518.19
453.31	538.19
453.53	524.19
453.751	506.19
453.971	516.19
454.192	535.19
454.412	522.19
454.633	497.19
454.853	509.19
455.073	505.19
455.294	524.19
455.514	595.19
455.734	568.19
455.955	496.19
456.175	492.19
456.395	492.19
456.616	458.19
456.836	481.19
457.056	465.19
457.276	474.19
457.497	493.19
457.717	507.19
457.937	485.19
458.157	488.19
458.377	489.19
458.598	515.19
458.818	588.19
459.038	625.19
459.258	649.19
459.478	603.19
459.698	543.19
459.918	525.19
460.138	564.19
460.358	549.19
460.578	569.19
460.798	585.19
461.018	561.19
461.238	564.19
461.458	559.19
461.678	555.19
461.898	573.19
462.118	565.19
462.338	595.19
462.558	594.19
462.777	632.19
462.997	625.19
463.217	639.19
463.437	662.19
463.657	643.19
463.876	614.19
464.096	611.19
464.316	625.19
464.536	639.19
464.755	605.19
464.975	631.19
465.195	645.19
465.414	691.19
465.634	618.19
465.854	579.19
466.073	555.19
466.293	541.19
466.512	515.19
466.732	532.19
466.951	523.19
467.171	503.19
467.391	541.19
467.61	541.19
467.829	543.19
468.049	548.19
468.268	532.19
468.488	527.19
468.707	507.19
468.927	506.19
469.146	501.19
469.365	513.19
469.585	501.19
469.804	547.19
470.023	530.19
470.243	540.19
470.462	547.19
470.681	554.19
470.901	561.19
471.12	533.19
471.339	546.19
471.558	516.19
471.777	535.19
471.997	539.19
472.216	532.19
472.435	536.19
472.654	541.19
472.873	524.19
473.092	522.19
473.311	537.19
473.53	511.19
473.749	534.19
473.968	575.19
474.187	682.19
474.406	682.19
474.625	620.19
474.844	545.19
475.063	531.19
475.282	535.19
475.501	530.19
475.72	538.19
475.939	530.19
476.158	532.19
476.377	544.19
476.596	531.19
476.814	553.19
477.033	563.19
477.252	588.19
477.471	553.19
477.69	547.19
477.908	580.19
478.127	587.19
478.346	590.19
478.564	593.19
478.783	608.19
479.002	608.19
479.22	610.19
479.439	645.19
479.658	632.19
479.876	625.19
480.095	655.19
480.313	678.19
480.532	661.19
480.751	675.19
480.969	650.19
481.188	729.19
481.406	745.19
481.624	688.19
481.843	657.19
482.061	639.19
482.28	654.19
482.498	625.19
482.717	618.19
482.935	647.19
483.153	632.19
483.372	621.19
483.59	627.19
483.808	601.19
484.027	623.19
484.245	616.19
484.463	596.19
484.681	648.19
484.9	651.19
485.118	649.19
485.336	629.19
485.554	652.19
485.772	629.19
485.99	624.19
486.209	640.19
486.427	645.19
486.645	636.19
486.863	677.19
487.081	664.19
487.299	672.19
487.517	668.19
487.735	657.19
487.953	672.19
488.171	673.19
488.389	675.19
488.607	664.19
488.825	660.19
489.043	659.19
489.261	674.19
489.479	670.19
489.696	690.19
489.914	690.19
490.132	676.19
490.35	695.19
490.568	714.19
490.786	722.19
491.003	721.19
491.221	740.19
491.439	731.19
491.657	767.19
491.874	767.19
492.092	777.19
492.31	759.19
492.527	763.19
492.745	788.19
492.963	786.19
493.18	790.19
493.398	809.19
493.615	781.19
493.833	789.19
494.05	800.19
494.268	789.19
494.485	787.19
494.703	795.19
494.92	795.19
495.138	772.19
495.355	788.19
495.573	792.19
495.79	784.19
496.008	795.19
496.225	802.19
496.442	788.19
496.66	768.19
496.877	811.19
497.094	799.19
497.312	814.19
497.529	827.19
497.746	846.19
497.963	842.19
498.181	889.19
498.398	886.19
498.615	924.19
498.832	915.19
499.049	974.19
499.267	973.19
499.484	1028.19
499.701	1063.19
499.918	1102.19
500.135	1177.19
500.352	1247.19
500.569	1283.19
500.786	1281.19
501.003	1250.19
501.22	1161.19
501.437	1128.19
501.654	1121.19
