Data from 1975.PennyLincolnUp.Lamp.En5.5.200Scan.071719.P1.Changed Mount._HRD10591_15-58-19-859.txt Node
Date: Thu Jul 18 15:58:19 EDT 2019
User: cochatt
Spectrometer: HR+D1059
Trigger mode: 1
Integration Time (sec): 1.000000E-1
Scans to average: 1
Electric dark correction enabled: true
Nonlinearity correction enabled: false
Boxcar width: 0
XAxis mode: Wavelengths
Number of Pixels in Spectrum: 2048
>>>>>Begin Spectral Data<<<<<
223.165	-10.31
223.4	-10.31
223.635	-10.31
223.869	-27.31
224.104	-26.31
224.338	1.69
224.573	-21.31
224.808	-4.31
225.042	-4.31
225.277	-10.31
225.511	6.69
225.746	6.69
225.98	9.69
226.215	10.69
226.449	11.69
226.683	8.69
226.918	20.69
227.152	27.69
227.387	19.69
227.621	40.69
227.856	33.69
228.09	58.69
228.324	54.69
228.559	48.69
228.793	62.69
229.027	93.69
229.262	94.69
229.496	111.69
229.73	122.69
229.964	148.69
230.199	133.69
230.433	110.69
230.667	119.69
230.901	107.69
231.136	103.69
231.37	117.69
231.604	108.69
231.838	123.69
232.072	116.69
232.306	118.69
232.541	106.69
232.775	124.69
233.009	112.69
233.243	128.69
233.477	116.69
233.711	107.69
233.945	114.69
234.179	120.69
234.413	108.69
234.647	122.69
234.881	121.69
235.115	105.69
235.349	116.69
235.583	120.69
235.817	128.69
236.051	114.69
236.285	141.69
236.519	116.69
236.753	133.69
236.987	133.69
237.221	173.69
237.455	214.69
237.689	186.69
237.922	134.69
238.156	140.69
238.39	130.69
238.624	133.69
238.858	121.69
239.091	130.69
239.325	129.69
239.559	109.69
239.793	140.69
240.027	119.69
240.26	144.69
240.494	154.69
240.728	154.69
240.961	148.69
241.195	157.69
241.429	124.69
241.662	130.69
241.896	126.69
242.13	132.69
242.363	124.69
242.597	128.69
242.83	148.69
243.064	134.69
243.298	138.69
243.531	160.69
243.765	145.69
243.998	156.69
244.232	146.69
244.465	141.69
244.699	147.69
244.932	150.69
245.166	144.69
245.399	132.69
245.633	155.69
245.866	160.69
246.099	154.69
246.333	163.69
246.566	136.69
246.8	151.69
247.033	157.69
247.266	155.69
247.5	160.69
247.733	176.69
247.966	159.69
248.2	178.69
248.433	173.69
248.666	182.69
248.899	174.69
249.133	197.69
249.366	204.69
249.599	191.69
249.832	200.69
250.066	178.69
250.299	191.69
250.532	185.69
250.765	189.69
250.998	222.69
251.231	229.69
251.465	209.69
251.698	186.69
251.931	216.69
252.164	177.69
252.397	190.69
252.63	189.69
252.863	202.69
253.096	188.69
253.329	219.69
253.562	217.69
253.795	200.69
254.028	206.69
254.261	214.69
254.494	221.69
254.727	251.69
254.96	266.69
255.193	260.69
255.426	242.69
255.659	228.69
255.892	224.69
256.124	249.69
256.357	244.69
256.59	239.69
256.823	226.69
257.056	211.69
257.289	211.69
257.521	212.69
257.754	229.69
257.987	210.69
258.22	214.69
258.452	205.69
258.685	213.69
258.918	204.69
259.151	204.69
259.383	224.69
259.616	227.69
259.849	236.69
260.081	242.69
260.314	258.69
260.547	254.69
260.779	265.69
261.012	251.69
261.244	233.69
261.477	240.69
261.71	214.69
261.942	214.69
262.175	216.69
262.407	252.69
262.64	216.69
262.872	215.69
263.105	212.69
263.337	204.69
263.57	244.69
263.802	229.69
264.035	214.69
264.267	211.69
264.499	195.69
264.732	208.69
264.964	212.69
265.197	210.69
265.429	230.69
265.661	229.69
265.894	220.69
266.126	211.69
266.358	228.69
266.591	230.69
266.823	235.69
267.055	221.69
267.287	233.69
267.52	226.69
267.752	223.69
267.984	226.69
268.216	230.69
268.448	231.69
268.681	233.69
268.913	234.69
269.145	230.69
269.377	282.69
269.609	273.69
269.841	277.69
270.073	260.69
270.306	288.69
270.538	307.69
270.77	326.69
271.002	300.69
271.234	315.69
271.466	292.69
271.698	322.69
271.93	301.69
272.162	310.69
272.394	328.69
272.626	322.69
272.858	285.69
273.09	270.69
273.322	277.69
273.553	274.69
273.785	266.69
274.017	270.69
274.249	263.69
274.481	278.69
274.713	281.69
274.945	301.69
275.176	281.69
275.408	274.69
275.64	278.69
275.872	264.69
276.104	283.69
276.335	263.69
276.567	278.69
276.799	280.69
277.031	306.69
277.262	324.69
277.494	323.69
277.726	327.69
277.957	298.69
278.189	292.69
278.421	278.69
278.652	283.69
278.884	277.69
279.115	285.69
279.347	268.69
279.579	278.69
279.81	282.69
280.042	269.69
280.273	284.69
280.505	266.69
280.736	283.69
280.968	286.69
281.199	282.69
281.431	292.69
281.662	289.69
281.894	297.69
282.125	287.69
282.356	309.69
282.588	314.69
282.819	301.69
283.051	283.69
283.282	270.69
283.513	282.69
283.745	322.69
283.976	276.69
284.207	316.69
284.439	314.69
284.67	281.69
284.901	292.69
285.132	306.69
285.364	282.69
285.595	292.69
285.826	270.69
286.057	288.69
286.288	297.69
286.52	291.69
286.751	304.69
286.982	292.69
287.213	264.69
287.444	299.69
287.675	293.69
287.906	298.69
288.138	317.69
288.369	325.69
288.6	317.69
288.831	324.69
289.062	309.69
289.293	326.69
289.524	309.69
289.755	299.69
289.986	297.69
290.217	299.69
290.448	295.69
290.679	294.69
290.91	284.69
291.141	297.69
291.371	282.69
291.602	306.69
291.833	293.69
292.064	295.69
292.295	296.69
292.526	301.69
292.757	284.69
292.987	318.69
293.218	316.69
293.449	308.69
293.68	299.69
293.91	292.69
294.141	284.69
294.372	312.69
294.603	286.69
294.833	311.69
295.064	304.69
295.295	307.69
295.525	308.69
295.756	302.69
295.987	303.69
296.217	328.69
296.448	339.69
296.679	314.69
296.909	310.69
297.14	302.69
297.37	321.69
297.601	307.69
297.831	308.69
298.062	325.69
298.292	317.69
298.523	328.69
298.753	321.69
298.984	325.69
299.214	308.69
299.445	320.69
299.675	319.69
299.905	326.69
300.136	341.69
300.366	326.69
300.597	334.69
300.827	340.69
301.057	339.69
301.288	325.69
301.518	341.69
301.748	333.69
301.979	333.69
302.209	348.69
302.439	345.69
302.669	354.69
302.9	334.69
303.13	337.69
303.36	339.69
303.59	342.69
303.82	355.69
304.051	344.69
304.281	329.69
304.511	327.69
304.741	339.69
304.971	324.69
305.201	341.69
305.431	346.69
305.661	335.69
305.891	339.69
306.121	343.69
306.352	331.69
306.582	347.69
306.812	340.69
307.042	345.69
307.272	335.69
307.502	356.69
307.731	340.69
307.961	334.69
308.191	353.69
308.421	363.69
308.651	345.69
308.881	348.69
309.111	342.69
309.341	346.69
309.571	332.69
309.8	370.69
310.03	340.69
310.26	382.69
310.49	371.69
310.72	381.69
310.949	387.69
311.179	393.69
311.409	371.69
311.639	371.69
311.868	379.69
312.098	403.69
312.328	389.69
312.557	390.69
312.787	378.69
313.017	414.69
313.246	387.69
313.476	394.69
313.706	366.69
313.935	392.69
314.165	408.69
314.394	386.69
314.624	413.69
314.853	392.69
315.083	390.69
315.312	370.69
315.542	382.69
315.771	391.69
316.001	386.69
316.23	377.69
316.46	391.69
316.689	405.69
316.919	395.69
317.148	409.69
317.377	390.69
317.607	372.69
317.836	377.69
318.065	388.69
318.295	378.69
318.524	388.69
318.753	371.69
318.983	376.69
319.212	374.69
319.441	385.69
319.67	390.69
319.9	418.69
320.129	392.69
320.358	379.69
320.587	390.69
320.816	395.69
321.046	404.69
321.275	393.69
321.504	401.69
321.733	402.69
321.962	389.69
322.191	398.69
322.42	422.69
322.649	426.69
322.878	422.69
323.108	434.69
323.337	457.69
323.566	461.69
323.795	482.69
324.024	508.69
324.253	583.69
324.482	812.69
324.71	1256.69
324.939	1834.69
325.168	1640.69
325.397	834.69
325.626	589.69
325.855	503.69
326.084	500.69
326.313	473.69
326.542	479.69
326.77	499.69
326.999	576.69
327.228	754.69
327.457	1150.69
327.686	1457.69
327.914	960.69
328.143	631.69
328.372	567.69
328.6	529.69
328.829	506.69
329.058	535.69
329.287	540.69
329.515	510.69
329.744	507.69
329.972	484.69
330.201	515.69
330.43	535.69
330.658	551.69
330.887	579.69
331.115	571.69
331.344	480.69
331.572	489.69
331.801	494.69
332.03	475.69
332.258	466.69
332.486	472.69
332.715	459.69
332.943	470.69
333.172	469.69
333.4	484.69
333.629	488.69
333.857	513.69
334.085	509.69
334.314	496.69
334.542	568.69
334.771	562.69
334.999	523.69
335.227	505.69
335.455	479.69
335.684	448.69
335.912	464.69
336.14	486.69
336.369	467.69
336.597	467.69
336.825	481.69
337.053	467.69
337.281	456.69
337.51	450.69
337.738	475.69
337.966	452.69
338.194	457.69
338.422	455.69
338.65	442.69
338.878	441.69
339.106	426.69
339.334	456.69
339.562	456.69
339.79	440.69
340.018	445.69
340.246	408.69
340.474	447.69
340.702	441.69
340.93	461.69
341.158	459.69
341.386	437.69
341.614	432.69
341.842	453.69
342.07	440.69
342.298	424.69
342.526	445.69
342.754	423.69
342.981	407.69
343.209	423.69
343.437	422.69
343.665	429.69
343.893	455.69
344.12	485.69
344.348	469.69
344.576	456.69
344.804	468.69
345.031	476.69
345.259	454.69
345.487	453.69
345.714	441.69
345.942	448.69
346.17	444.69
346.397	434.69
346.625	423.69
346.853	419.69
347.08	429.69
347.308	415.69
347.535	442.69
347.763	422.69
347.99	457.69
348.218	449.69
348.445	442.69
348.673	419.69
348.9	426.69
349.128	405.69
349.355	427.69
349.583	414.69
349.81	419.69
350.037	419.69
350.265	413.69
350.492	414.69
350.72	439.69
350.947	440.69
351.174	420.69
351.402	420.69
351.629	425.69
351.856	422.69
352.083	443.69
352.311	413.69
352.538	433.69
352.765	429.69
352.992	430.69
353.22	409.69
353.447	424.69
353.674	418.69
353.901	417.69
354.128	392.69
354.355	408.69
354.583	381.69
354.81	426.69
355.037	422.69
355.264	396.69
355.491	414.69
355.718	405.69
355.945	415.69
356.172	414.69
356.399	398.69
356.626	404.69
356.853	410.69
357.08	399.69
357.307	423.69
357.534	418.69
357.761	418.69
357.988	405.69
358.215	422.69
358.441	416.69
358.668	411.69
358.895	400.69
359.122	422.69
359.349	403.69
359.576	429.69
359.802	447.69
360.029	459.69
360.256	465.69
360.483	464.69
360.709	444.69
360.936	426.69
361.163	438.69
361.39	437.69
361.616	430.69
361.843	410.69
362.07	421.69
362.296	426.69
362.523	421.69
362.749	422.69
362.976	426.69
363.203	418.69
363.429	402.69
363.656	406.69
363.882	419.69
364.109	395.69
364.335	417.69
364.562	423.69
364.788	419.69
365.015	427.69
365.241	426.69
365.468	404.69
365.694	428.69
365.92	423.69
366.147	420.69
366.373	411.69
366.599	437.69
366.826	417.69
367.052	444.69
367.278	432.69
367.505	397.69
367.731	410.69
367.957	388.69
368.184	436.69
368.41	433.69
368.636	438.69
368.862	446.69
369.089	437.69
369.315	403.69
369.541	422.69
369.767	431.69
369.993	412.69
370.219	415.69
370.445	424.69
370.672	417.69
370.898	410.69
371.124	398.69
371.35	421.69
371.576	419.69
371.802	417.69
372.028	432.69
372.254	439.69
372.48	417.69
372.706	432.69
372.932	454.69
373.158	427.69
373.384	428.69
373.61	416.69
373.835	409.69
374.061	420.69
374.287	427.69
374.513	418.69
374.739	437.69
374.965	437.69
375.191	439.69
375.416	441.69
375.642	412.69
375.868	438.69
376.094	420.69
376.319	419.69
376.545	405.69
376.771	446.69
376.997	417.69
377.222	416.69
377.448	405.69
377.674	421.69
377.899	414.69
378.125	419.69
378.35	406.69
378.576	434.69
378.802	428.69
379.027	411.69
379.253	417.69
379.478	428.69
379.704	416.69
379.929	413.69
380.155	413.69
380.38	424.69
380.606	410.69
380.831	406.69
381.057	425.69
381.282	423.69
381.507	453.69
381.733	434.69
381.958	414.69
382.184	425.69
382.409	432.69
382.634	432.69
382.86	433.69
383.085	456.69
383.31	438.69
383.535	435.69
383.761	444.69
383.986	455.69
384.211	464.69
384.436	454.69
384.662	477.69
384.887	464.69
385.112	470.69
385.337	473.69
385.562	473.69
385.787	460.69
386.013	465.69
386.238	476.69
386.463	464.69
386.688	467.69
386.913	464.69
387.138	466.69
387.363	481.69
387.588	462.69
387.813	471.69
388.038	481.69
388.263	474.69
388.488	472.69
388.713	479.69
388.938	480.69
389.163	469.69
389.387	464.69
389.612	470.69
389.837	453.69
390.062	494.69
390.287	460.69
390.512	462.69
390.736	475.69
390.961	475.69
391.186	472.69
391.411	497.69
391.636	508.69
391.86	497.69
392.085	506.69
392.31	491.69
392.534	501.69
392.759	472.69
392.984	471.69
393.208	472.69
393.433	500.69
393.658	477.69
393.882	456.69
394.107	467.69
394.331	468.69
394.556	468.69
394.78	489.69
395.005	501.69
395.229	491.69
395.454	509.69
395.678	483.69
395.903	501.69
396.127	526.69
396.352	522.69
396.576	512.69
396.801	491.69
397.025	481.69
397.249	473.69
397.474	499.69
397.698	502.69
397.922	561.69
398.147	531.69
398.371	540.69
398.595	538.69
398.82	563.69
399.044	587.69
399.268	577.69
399.492	633.69
399.717	669.69
399.941	707.69
400.165	710.69
400.389	691.69
400.613	615.69
400.837	581.69
401.062	582.69
401.286	557.69
401.51	547.69
401.734	548.69
401.958	569.69
402.182	557.69
402.406	563.69
402.63	581.69
402.854	565.69
403.078	584.69
403.302	576.69
403.526	582.69
403.75	590.69
403.974	574.69
404.198	568.69
404.422	626.69
404.645	605.69
404.869	580.69
405.093	630.69
405.317	677.69
405.541	676.69
405.765	647.69
405.988	598.69
406.212	600.69
406.436	619.69
406.66	627.69
406.883	635.69
407.107	643.69
407.331	682.69
407.555	779.69
407.778	767.69
408.002	704.69
408.226	670.69
408.449	656.69
408.673	630.69
408.896	644.69
409.12	725.69
409.344	651.69
409.567	604.69
409.791	587.69
410.014	592.69
410.238	575.69
410.461	594.69
410.685	584.69
410.908	604.69
411.132	622.69
411.355	654.69
411.578	638.69
411.802	609.69
412.025	576.69
412.249	574.69
412.472	607.69
412.695	662.69
412.919	636.69
413.142	599.69
413.365	587.69
413.589	567.69
413.812	547.69
414.035	534.69
414.258	556.69
414.482	555.69
414.705	565.69
414.928	550.69
415.151	531.69
415.374	552.69
415.597	526.69
415.821	524.69
416.044	572.69
416.267	534.69
416.49	529.69
416.713	541.69
416.936	530.69
417.159	530.69
417.382	528.69
417.605	540.69
417.828	565.69
418.051	587.69
418.274	565.69
418.497	581.69
418.72	541.69
418.943	556.69
419.166	598.69
419.389	598.69
419.611	554.69
419.834	572.69
420.057	606.69
420.28	581.69
420.503	584.69
420.726	579.69
420.948	580.69
421.171	617.69
421.394	661.69
421.617	582.69
421.839	554.69
422.062	567.69
422.285	555.69
422.507	633.69
422.73	689.69
422.953	698.69
423.175	597.69
423.398	603.69
423.621	594.69
423.843	600.69
424.066	609.69
424.288	620.69
424.511	622.69
424.733	655.69
424.956	738.69
425.178	715.69
425.401	723.69
425.623	756.69
425.846	644.69
426.068	601.69
426.291	592.69
426.513	582.69
426.735	609.69
426.958	626.69
427.18	697.69
427.402	838.69
427.625	927.69
427.847	788.69
428.069	734.69
428.292	629.69
428.514	600.69
428.736	552.69
428.958	564.69
429.181	523.69
429.403	533.69
429.625	557.69
429.847	578.69
430.069	666.69
430.292	634.69
430.514	561.69
430.736	576.69
430.958	551.69
431.18	532.69
431.402	539.69
431.624	537.69
431.846	519.69
432.068	516.69
432.29	525.69
432.512	513.69
432.734	541.69
432.956	543.69
433.178	547.69
433.4	550.69
433.622	542.69
433.844	522.69
434.066	512.69
434.287	527.69
434.509	552.69
434.731	547.69
434.953	571.69
435.175	588.69
435.397	599.69
435.618	604.69
435.84	649.69
436.062	716.69
436.284	813.69
436.505	667.69
436.727	611.69
436.949	576.69
437.17	581.69
437.392	555.69
437.614	576.69
437.835	576.69
438.057	658.69
438.278	770.69
438.5	784.69
438.721	850.69
438.943	838.69
439.165	650.69
439.386	585.69
439.608	592.69
439.829	582.69
440.05	614.69
440.272	673.69
440.493	655.69
440.715	595.69
440.936	569.69
441.158	538.69
441.379	565.69
441.6	576.69
441.822	594.69
442.043	620.69
442.264	711.69
442.486	746.69
442.707	673.69
442.928	635.69
443.149	628.69
443.371	614.69
443.592	671.69
443.813	776.69
444.034	846.69
444.255	715.69
444.476	637.69
444.698	625.69
444.919	595.69
445.14	741.69
445.361	682.69
445.582	629.69
445.803	668.69
446.024	798.69
446.245	792.69
446.466	742.69
446.687	614.69
446.908	598.69
447.129	567.69
447.35	553.69
447.571	567.69
447.792	547.69
448.013	544.69
448.234	551.69
448.455	605.69
448.675	692.69
448.896	840.69
449.117	708.69
449.338	657.69
449.559	771.69
449.779	870.69
450	713.69
450.221	600.69
450.442	566.69
450.662	538.69
450.883	541.69
451.104	532.69
451.324	540.69
451.545	526.69
451.766	497.69
451.986	510.69
452.207	501.69
452.428	490.69
452.648	494.69
452.869	497.69
453.089	488.69
453.31	528.69
453.53	494.69
453.751	465.69
453.971	479.69
454.192	509.69
454.412	504.69
454.633	486.69
454.853	459.69
455.073	477.69
455.294	498.69
455.514	576.69
455.734	567.69
455.955	484.69
456.175	490.69
456.395	446.69
456.616	466.69
456.836	443.69
457.056	443.69
457.276	460.69
457.497	478.69
457.717	474.69
457.937	462.69
458.157	461.69
458.377	479.69
458.598	490.69
458.818	534.69
459.038	618.69
459.258	655.69
459.478	579.69
459.698	542.69
459.918	530.69
460.138	527.69
460.358	551.69
460.578	543.69
460.798	560.69
461.018	572.69
461.238	568.69
461.458	540.69
461.678	515.69
461.898	546.69
462.118	546.69
462.338	547.69
462.558	585.69
462.777	601.69
462.997	616.69
463.217	633.69
463.437	618.69
463.657	587.69
463.876	594.69
464.096	598.69
464.316	596.69
464.536	605.69
464.755	570.69
464.975	568.69
465.195	625.69
465.414	629.69
465.634	589.69
465.854	567.69
466.073	544.69
466.293	549.69
466.512	523.69
466.732	512.69
466.951	509.69
467.171	488.69
467.391	510.69
467.61	534.69
467.829	518.69
468.049	520.69
468.268	515.69
468.488	494.69
468.707	516.69
468.927	464.69
469.146	485.69
469.365	499.69
469.585	488.69
469.804	481.69
470.023	533.69
470.243	509.69
470.462	494.69
470.681	526.69
470.901	528.69
471.12	535.69
471.339	530.69
471.558	508.69
471.777	512.69
471.997	519.69
472.216	531.69
472.435	528.69
472.654	532.69
472.873	507.69
473.092	513.69
473.311	512.69
473.53	515.69
473.749	486.69
473.968	546.69
474.187	643.69
474.406	679.69
474.625	569.69
474.844	529.69
475.063	510.69
475.282	514.69
475.501	509.69
475.72	507.69
475.939	516.69
476.158	521.69
476.377	529.69
476.596	535.69
476.814	536.69
477.033	537.69
477.252	539.69
477.471	558.69
477.69	563.69
477.908	558.69
478.127	560.69
478.346	591.69
478.564	604.69
478.783	577.69
479.002	583.69
479.22	596.69
479.439	618.69
479.658	630.69
479.876	650.69
480.095	627.69
480.313	651.69
480.532	657.69
480.751	638.69
480.969	632.69
481.188	707.69
481.406	721.69
481.624	648.69
481.843	632.69
482.061	610.69
482.28	595.69
482.498	588.69
482.717	560.69
482.935	602.69
483.153	596.69
483.372	591.69
483.59	598.69
483.808	596.69
484.027	595.69
484.245	599.69
484.463	636.69
484.681	604.69
484.9	629.69
485.118	622.69
485.336	598.69
485.554	616.69
485.772	631.69
485.99	609.69
486.209	625.69
486.427	622.69
486.645	636.69
486.863	653.69
487.081	669.69
487.299	635.69
487.517	674.69
487.735	642.69
487.953	646.69
488.171	648.69
488.389	651.69
488.607	650.69
488.825	641.69
489.043	646.69
489.261	644.69
489.479	651.69
489.696	663.69
489.914	646.69
490.132	659.69
490.35	664.69
490.568	679.69
490.786	695.69
491.003	701.69
491.221	695.69
491.439	734.69
491.657	717.69
491.874	731.69
492.092	756.69
492.31	757.69
492.527	757.69
492.745	728.69
492.963	775.69
493.18	763.69
493.398	764.69
493.615	755.69
493.833	771.69
494.05	754.69
494.268	741.69
494.485	743.69
494.703	765.69
494.92	772.69
495.138	790.69
495.355	771.69
495.573	757.69
495.79	757.69
496.008	767.69
496.225	756.69
496.442	762.69
496.66	770.69
496.877	763.69
497.094	772.69
497.312	762.69
497.529	789.69
497.746	817.69
497.963	816.69
498.181	838.69
498.398	854.69
498.615	824.69
498.832	885.69
499.049	896.69
499.267	919.69
499.484	972.69
499.701	1060.69
499.918	1088.69
500.135	1124.69
500.352	1210.69
500.569	1241.69
500.786	1242.69
501.003	1231.69
501.22	1139.69
501.437	1096.69
501.654	1050.69
