Data from 1975.PennyLincolnUp.Lamp.En5.5.200Scan.071719.P1.Changed Mount._HRD10591_15-58-13-859.txt Node
Date: Thu Jul 18 15:58:13 EDT 2019
User: cochatt
Spectrometer: HR+D1059
Trigger mode: 1
Integration Time (sec): 1.000000E-1
Scans to average: 1
Electric dark correction enabled: true
Nonlinearity correction enabled: false
Boxcar width: 0
XAxis mode: Wavelengths
Number of Pixels in Spectrum: 2048
>>>>>Begin Spectral Data<<<<<
223.165	-16.06
223.4	-16.06
223.635	-16.06
223.869	-17.06
224.104	-17.06
224.338	-7.06
224.573	-21.06
224.808	-6.06
225.042	9.94
225.277	-19.06
225.511	-8.06
225.746	10.94
225.98	-2.06
226.215	8.94
226.449	8.94
226.683	8.94
226.918	25.94
227.152	39.94
227.387	29.94
227.621	30.94
227.856	48.94
228.09	51.94
228.324	57.94
228.559	54.94
228.793	68.94
229.027	100.94
229.262	106.94
229.496	122.94
229.73	133.94
229.964	142.94
230.199	131.94
230.433	117.94
230.667	115.94
230.901	117.94
231.136	119.94
231.37	126.94
231.604	126.94
231.838	124.94
232.072	118.94
232.306	111.94
232.541	119.94
232.775	111.94
233.009	125.94
233.243	133.94
233.477	118.94
233.711	128.94
233.945	119.94
234.179	115.94
234.413	121.94
234.647	120.94
234.881	102.94
235.115	126.94
235.349	117.94
235.583	134.94
235.817	133.94
236.051	124.94
236.285	125.94
236.519	125.94
236.753	127.94
236.987	152.94
237.221	187.94
237.455	235.94
237.689	196.94
237.922	141.94
238.156	134.94
238.39	142.94
238.624	143.94
238.858	135.94
239.091	143.94
239.325	140.94
239.559	139.94
239.793	142.94
240.027	150.94
240.26	152.94
240.494	163.94
240.728	149.94
240.961	163.94
241.195	151.94
241.429	141.94
241.662	153.94
241.896	141.94
242.13	141.94
242.363	156.94
242.597	156.94
242.83	150.94
243.064	155.94
243.298	150.94
243.531	135.94
243.765	162.94
243.998	159.94
244.232	163.94
244.465	152.94
244.699	145.94
244.932	135.94
245.166	141.94
245.399	170.94
245.633	163.94
245.866	166.94
246.099	160.94
246.333	158.94
246.566	168.94
246.8	163.94
247.033	174.94
247.266	175.94
247.5	180.94
247.733	184.94
247.966	187.94
248.2	187.94
248.433	196.94
248.666	186.94
248.899	193.94
249.133	209.94
249.366	219.94
249.599	204.94
249.832	186.94
250.066	182.94
250.299	191.94
250.532	219.94
250.765	220.94
250.998	229.94
251.231	242.94
251.465	209.94
251.698	214.94
251.931	210.94
252.164	215.94
252.397	219.94
252.63	213.94
252.863	211.94
253.096	232.94
253.329	238.94
253.562	239.94
253.795	239.94
254.028	231.94
254.261	229.94
254.494	248.94
254.727	273.94
254.96	299.94
255.193	286.94
255.426	264.94
255.659	247.94
255.892	245.94
256.124	264.94
256.357	248.94
256.59	256.94
256.823	208.94
257.056	204.94
257.289	226.94
257.521	221.94
257.754	236.94
257.987	219.94
258.22	228.94
258.452	223.94
258.685	216.94
258.918	231.94
259.151	230.94
259.383	223.94
259.616	224.94
259.849	222.94
260.081	243.94
260.314	267.94
260.547	276.94
260.779	255.94
261.012	263.94
261.244	247.94
261.477	233.94
261.71	232.94
261.942	238.94
262.175	255.94
262.407	232.94
262.64	221.94
262.872	245.94
263.105	243.94
263.337	237.94
263.57	221.94
263.802	255.94
264.035	216.94
264.267	220.94
264.499	226.94
264.732	222.94
264.964	228.94
265.197	230.94
265.429	232.94
265.661	229.94
265.894	236.94
266.126	229.94
266.358	214.94
266.591	221.94
266.823	259.94
267.055	240.94
267.287	239.94
267.52	240.94
267.752	241.94
267.984	238.94
268.216	245.94
268.448	240.94
268.681	243.94
268.913	245.94
269.145	291.94
269.377	284.94
269.609	302.94
269.841	297.94
270.073	291.94
270.306	292.94
270.538	341.94
270.77	331.94
271.002	310.94
271.234	326.94
271.466	325.94
271.698	312.94
271.93	340.94
272.162	321.94
272.394	330.94
272.626	325.94
272.858	313.94
273.09	312.94
273.322	279.94
273.553	282.94
273.785	299.94
274.017	284.94
274.249	285.94
274.481	285.94
274.713	284.94
274.945	300.94
275.176	298.94
275.408	282.94
275.64	283.94
275.872	281.94
276.104	279.94
276.335	287.94
276.567	299.94
276.799	312.94
277.031	318.94
277.262	355.94
277.494	336.94
277.726	315.94
277.957	317.94
278.189	305.94
278.421	301.94
278.652	285.94
278.884	297.94
279.115	297.94
279.347	286.94
279.579	275.94
279.81	302.94
280.042	289.94
280.273	299.94
280.505	301.94
280.736	291.94
280.968	289.94
281.199	285.94
281.431	285.94
281.662	292.94
281.894	307.94
282.125	292.94
282.356	295.94
282.588	304.94
282.819	325.94
283.051	309.94
283.282	297.94
283.513	316.94
283.745	311.94
283.976	302.94
284.207	315.94
284.439	302.94
284.67	295.94
284.901	311.94
285.132	311.94
285.364	307.94
285.595	317.94
285.826	290.94
286.057	315.94
286.288	302.94
286.52	317.94
286.751	303.94
286.982	304.94
287.213	317.94
287.444	326.94
287.675	318.94
287.906	344.94
288.138	329.94
288.369	324.94
288.6	324.94
288.831	334.94
289.062	332.94
289.293	321.94
289.524	316.94
289.755	305.94
289.986	319.94
290.217	299.94
290.448	307.94
290.679	295.94
290.91	320.94
291.141	319.94
291.371	325.94
291.602	310.94
291.833	316.94
292.064	338.94
292.295	322.94
292.526	318.94
292.757	313.94
292.987	320.94
293.218	313.94
293.449	330.94
293.68	323.94
293.91	319.94
294.141	303.94
294.372	325.94
294.603	320.94
294.833	332.94
295.064	317.94
295.295	325.94
295.525	313.94
295.756	338.94
295.987	319.94
296.217	350.94
296.448	350.94
296.679	331.94
296.909	307.94
297.14	330.94
297.37	344.94
297.601	324.94
297.831	337.94
298.062	336.94
298.292	327.94
298.523	356.94
298.753	329.94
298.984	326.94
299.214	331.94
299.445	359.94
299.675	340.94
299.905	344.94
300.136	348.94
300.366	353.94
300.597	348.94
300.827	356.94
301.057	354.94
301.288	368.94
301.518	379.94
301.748	349.94
301.979	367.94
302.209	348.94
302.439	360.94
302.669	355.94
302.9	348.94
303.13	352.94
303.36	361.94
303.59	366.94
303.82	369.94
304.051	372.94
304.281	349.94
304.511	356.94
304.741	352.94
304.971	362.94
305.201	375.94
305.431	355.94
305.661	358.94
305.891	348.94
306.121	355.94
306.352	365.94
306.582	368.94
306.812	367.94
307.042	373.94
307.272	373.94
307.502	367.94
307.731	357.94
307.961	343.94
308.191	353.94
308.421	383.94
308.651	365.94
308.881	375.94
309.111	362.94
309.341	373.94
309.571	361.94
309.8	385.94
310.03	363.94
310.26	386.94
310.49	385.94
310.72	405.94
310.949	413.94
311.179	422.94
311.409	407.94
311.639	384.94
311.868	386.94
312.098	394.94
312.328	408.94
312.557	414.94
312.787	414.94
313.017	423.94
313.246	448.94
313.476	395.94
313.706	393.94
313.935	427.94
314.165	409.94
314.394	406.94
314.624	397.94
314.853	444.94
315.083	405.94
315.312	402.94
315.542	405.94
315.771	399.94
316.001	408.94
316.23	398.94
316.46	385.94
316.689	388.94
316.919	419.94
317.148	388.94
317.377	420.94
317.607	404.94
317.836	389.94
318.065	393.94
318.295	381.94
318.524	391.94
318.753	408.94
318.983	385.94
319.212	405.94
319.441	414.94
319.67	409.94
319.9	401.94
320.129	409.94
320.358	392.94
320.587	418.94
320.816	421.94
321.046	428.94
321.275	444.94
321.504	419.94
321.733	433.94
321.962	420.94
322.191	438.94
322.42	456.94
322.649	460.94
322.878	474.94
323.108	436.94
323.337	477.94
323.566	503.94
323.795	517.94
324.024	540.94
324.253	620.94
324.482	877.94
324.71	1326.94
324.939	2016.94
325.168	1765.94
325.397	894.94
325.626	639.94
325.855	535.94
326.084	505.94
326.313	485.94
326.542	504.94
326.77	550.94
326.999	614.94
327.228	811.94
327.457	1209.94
327.686	1504.94
327.914	991.94
328.143	647.94
328.372	606.94
328.6	578.94
328.829	526.94
329.058	557.94
329.287	577.94
329.515	584.94
329.744	527.94
329.972	518.94
330.201	541.94
330.43	547.94
330.658	615.94
330.887	597.94
331.115	599.94
331.344	559.94
331.572	501.94
331.801	507.94
332.03	509.94
332.258	522.94
332.486	491.94
332.715	500.94
332.943	488.94
333.172	504.94
333.4	498.94
333.629	501.94
333.857	498.94
334.085	530.94
334.314	539.94
334.542	571.94
334.771	606.94
334.999	552.94
335.227	534.94
335.455	520.94
335.684	480.94
335.912	492.94
336.14	470.94
336.369	477.94
336.597	493.94
336.825	455.94
337.053	480.94
337.281	489.94
337.51	473.94
337.738	487.94
337.966	476.94
338.194	452.94
338.422	481.94
338.65	476.94
338.878	471.94
339.106	467.94
339.334	486.94
339.562	464.94
339.79	463.94
340.018	468.94
340.246	457.94
340.474	472.94
340.702	483.94
340.93	472.94
341.158	467.94
341.386	463.94
341.614	462.94
341.842	472.94
342.07	458.94
342.298	472.94
342.526	446.94
342.754	451.94
342.981	452.94
343.209	464.94
343.437	462.94
343.665	481.94
343.893	502.94
344.12	495.94
344.348	493.94
344.576	469.94
344.804	476.94
345.031	478.94
345.259	480.94
345.487	471.94
345.714	478.94
345.942	464.94
346.17	451.94
346.397	458.94
346.625	426.94
346.853	438.94
347.08	446.94
347.308	448.94
347.535	437.94
347.763	481.94
347.99	456.94
348.218	435.94
348.445	441.94
348.673	448.94
348.9	459.94
349.128	446.94
349.355	435.94
349.583	427.94
349.81	436.94
350.037	441.94
350.265	436.94
350.492	438.94
350.72	438.94
350.947	451.94
351.174	448.94
351.402	455.94
351.629	425.94
351.856	446.94
352.083	453.94
352.311	435.94
352.538	461.94
352.765	455.94
352.992	423.94
353.22	443.94
353.447	435.94
353.674	441.94
353.901	410.94
354.128	445.94
354.355	437.94
354.583	439.94
354.81	425.94
355.037	425.94
355.264	423.94
355.491	441.94
355.718	431.94
355.945	422.94
356.172	427.94
356.399	394.94
356.626	427.94
356.853	428.94
357.08	421.94
357.307	420.94
357.534	437.94
357.761	429.94
357.988	444.94
358.215	430.94
358.441	437.94
358.668	419.94
358.895	430.94
359.122	421.94
359.349	451.94
359.576	475.94
359.802	460.94
360.029	482.94
360.256	481.94
360.483	469.94
360.709	449.94
360.936	445.94
361.163	454.94
361.39	464.94
361.616	455.94
361.843	453.94
362.07	445.94
362.296	447.94
362.523	455.94
362.749	455.94
362.976	442.94
363.203	423.94
363.429	446.94
363.656	446.94
363.882	436.94
364.109	438.94
364.335	422.94
364.562	431.94
364.788	433.94
365.015	438.94
365.241	453.94
365.468	431.94
365.694	427.94
365.92	443.94
366.147	421.94
366.373	430.94
366.599	431.94
366.826	439.94
367.052	424.94
367.278	448.94
367.505	442.94
367.731	446.94
367.957	445.94
368.184	448.94
368.41	431.94
368.636	451.94
368.862	445.94
369.089	454.94
369.315	437.94
369.541	447.94
369.767	425.94
369.993	433.94
370.219	419.94
370.445	437.94
370.672	436.94
370.898	436.94
371.124	453.94
371.35	442.94
371.576	421.94
371.802	422.94
372.028	450.94
372.254	415.94
372.48	431.94
372.706	428.94
372.932	441.94
373.158	446.94
373.384	458.94
373.61	437.94
373.835	441.94
374.061	445.94
374.287	452.94
374.513	447.94
374.739	435.94
374.965	470.94
375.191	459.94
375.416	456.94
375.642	452.94
375.868	448.94
376.094	463.94
376.319	451.94
376.545	442.94
376.771	440.94
376.997	454.94
377.222	433.94
377.448	447.94
377.674	447.94
377.899	423.94
378.125	427.94
378.35	437.94
378.576	463.94
378.802	460.94
379.027	444.94
379.253	441.94
379.478	430.94
379.704	431.94
379.929	433.94
380.155	442.94
380.38	448.94
380.606	429.94
380.831	451.94
381.057	433.94
381.282	464.94
381.507	440.94
381.733	478.94
381.958	466.94
382.184	439.94
382.409	447.94
382.634	448.94
382.86	444.94
383.085	473.94
383.31	443.94
383.535	470.94
383.761	468.94
383.986	484.94
384.211	494.94
384.436	483.94
384.662	465.94
384.887	479.94
385.112	467.94
385.337	491.94
385.562	491.94
385.787	476.94
386.013	507.94
386.238	487.94
386.463	512.94
386.688	509.94
386.913	495.94
387.138	484.94
387.363	495.94
387.588	481.94
387.813	517.94
388.038	480.94
388.263	496.94
388.488	506.94
388.713	499.94
388.938	492.94
389.163	496.94
389.387	515.94
389.612	502.94
389.837	502.94
390.062	501.94
390.287	505.94
390.512	491.94
390.736	483.94
390.961	492.94
391.186	486.94
391.411	476.94
391.636	519.94
391.86	525.94
392.085	547.94
392.31	513.94
392.534	518.94
392.759	525.94
392.984	514.94
393.208	506.94
393.433	511.94
393.658	501.94
393.882	514.94
394.107	503.94
394.331	523.94
394.556	511.94
394.78	500.94
395.005	515.94
395.229	507.94
395.454	547.94
395.678	505.94
395.903	510.94
396.127	554.94
396.352	529.94
396.576	529.94
396.801	536.94
397.025	510.94
397.249	515.94
397.474	533.94
397.698	542.94
397.922	549.94
398.147	545.94
398.371	582.94
398.595	552.94
398.82	543.94
399.044	586.94
399.268	613.94
399.492	645.94
399.717	707.94
399.941	731.94
400.165	751.94
400.389	725.94
400.613	656.94
400.837	614.94
401.062	590.94
401.286	589.94
401.51	586.94
401.734	587.94
401.958	584.94
402.182	569.94
402.406	603.94
402.63	589.94
402.854	597.94
403.078	571.94
403.302	591.94
403.526	632.94
403.75	613.94
403.974	618.94
404.198	597.94
404.422	628.94
404.645	623.94
404.869	627.94
405.093	634.94
405.317	700.94
405.541	754.94
405.765	673.94
405.988	652.94
406.212	646.94
406.436	664.94
406.66	678.94
406.883	644.94
407.107	671.94
407.331	721.94
407.555	814.94
407.778	807.94
408.002	712.94
408.226	668.94
408.449	646.94
408.673	648.94
408.896	676.94
409.12	716.94
409.344	695.94
409.567	647.94
409.791	628.94
410.014	629.94
410.238	615.94
410.461	612.94
410.685	623.94
410.908	619.94
411.132	665.94
411.355	673.94
411.578	677.94
411.802	604.94
412.025	618.94
412.249	620.94
412.472	630.94
412.695	684.94
412.919	675.94
413.142	613.94
413.365	618.94
413.589	605.94
413.812	585.94
414.035	582.94
414.258	587.94
414.482	576.94
414.705	571.94
414.928	581.94
415.151	582.94
415.374	566.94
415.597	569.94
415.821	544.94
416.044	568.94
416.267	577.94
416.49	573.94
416.713	565.94
416.936	571.94
417.159	560.94
417.382	582.94
417.605	577.94
417.828	577.94
418.051	617.94
418.274	597.94
418.497	575.94
418.72	579.94
418.943	565.94
419.166	585.94
419.389	624.94
419.611	636.94
419.834	618.94
420.057	624.94
420.28	606.94
420.503	605.94
420.726	587.94
420.948	602.94
421.171	650.94
421.394	683.94
421.617	608.94
421.839	579.94
422.062	585.94
422.285	639.94
422.507	678.94
422.73	774.94
422.953	717.94
423.175	655.94
423.398	636.94
423.621	628.94
423.843	646.94
424.066	658.94
424.288	639.94
424.511	661.94
424.733	701.94
424.956	789.94
425.178	765.94
425.401	748.94
425.623	768.94
425.846	699.94
426.068	653.94
426.291	623.94
426.513	639.94
426.735	605.94
426.958	669.94
427.18	756.94
427.402	909.94
427.625	995.94
427.847	853.94
428.069	740.94
428.292	680.94
428.514	611.94
428.736	604.94
428.958	601.94
429.181	578.94
429.403	581.94
429.625	564.94
429.847	621.94
430.069	699.94
430.292	701.94
430.514	586.94
430.736	569.94
430.958	582.94
431.18	546.94
431.402	575.94
431.624	554.94
431.846	555.94
432.068	552.94
432.29	561.94
432.512	553.94
432.734	564.94
432.956	564.94
433.178	588.94
433.4	579.94
433.622	556.94
433.844	574.94
434.066	554.94
434.287	548.94
434.509	545.94
434.731	574.94
434.953	577.94
435.175	607.94
435.397	653.94
435.618	633.94
435.84	668.94
436.062	741.94
436.284	862.94
436.505	699.94
436.727	632.94
436.949	603.94
437.17	577.94
437.392	586.94
437.614	585.94
437.835	607.94
438.057	692.94
438.278	810.94
438.5	829.94
438.721	923.94
438.943	892.94
439.165	696.94
439.386	625.94
439.608	658.94
439.829	610.94
440.05	634.94
440.272	691.94
440.493	663.94
440.715	605.94
440.936	593.94
441.158	581.94
441.379	601.94
441.6	618.94
441.822	607.94
442.043	671.94
442.264	773.94
442.486	827.94
442.707	670.94
442.928	655.94
443.149	619.94
443.371	685.94
443.592	719.94
443.813	831.94
444.034	888.94
444.255	758.94
444.476	672.94
444.698	663.94
444.919	657.94
445.14	771.94
445.361	703.94
445.582	668.94
445.803	732.94
446.024	832.94
446.245	817.94
446.466	771.94
446.687	637.94
446.908	592.94
447.129	597.94
447.35	591.94
447.571	584.94
447.792	566.94
448.013	590.94
448.234	594.94
448.455	627.94
448.675	767.94
448.896	861.94
449.117	729.94
449.338	704.94
449.559	805.94
449.779	929.94
450	734.94
450.221	621.94
450.442	559.94
450.662	552.94
450.883	557.94
451.104	563.94
451.324	559.94
451.545	521.94
451.766	542.94
451.986	535.94
452.207	528.94
452.428	517.94
452.648	503.94
452.869	513.94
453.089	515.94
453.31	536.94
453.53	500.94
453.751	476.94
453.971	506.94
454.192	523.94
454.412	498.94
454.633	485.94
454.853	487.94
455.073	502.94
455.294	527.94
455.514	583.94
455.734	595.94
455.955	531.94
456.175	500.94
456.395	486.94
456.616	475.94
456.836	485.94
457.056	462.94
457.276	473.94
457.497	481.94
457.717	485.94
457.937	463.94
458.157	517.94
458.377	509.94
458.598	513.94
458.818	555.94
459.038	643.94
459.258	671.94
459.478	600.94
459.698	540.94
459.918	523.94
460.138	541.94
460.358	565.94
460.578	547.94
460.798	564.94
461.018	576.94
461.238	573.94
461.458	568.94
461.678	580.94
461.898	571.94
462.118	588.94
462.338	583.94
462.558	606.94
462.777	612.94
462.997	628.94
463.217	652.94
463.437	656.94
463.657	653.94
463.876	639.94
464.096	656.94
464.316	614.94
464.536	631.94
464.755	606.94
464.975	623.94
465.195	638.94
465.414	679.94
465.634	615.94
465.854	591.94
466.073	551.94
466.293	544.94
466.512	545.94
466.732	548.94
466.951	547.94
467.171	521.94
467.391	541.94
467.61	559.94
467.829	534.94
468.049	533.94
468.268	521.94
468.488	513.94
468.707	526.94
468.927	513.94
469.146	504.94
469.365	526.94
469.585	523.94
469.804	518.94
470.023	532.94
470.243	561.94
470.462	536.94
470.681	571.94
470.901	553.94
471.12	515.94
471.339	548.94
471.558	546.94
471.777	536.94
471.997	556.94
472.216	544.94
472.435	577.94
472.654	572.94
472.873	547.94
473.092	525.94
473.311	563.94
473.53	524.94
473.749	525.94
473.968	581.94
474.187	668.94
474.406	696.94
474.625	592.94
474.844	533.94
475.063	521.94
475.282	506.94
475.501	544.94
475.72	552.94
475.939	533.94
476.158	529.94
476.377	567.94
476.596	558.94
476.814	557.94
477.033	573.94
477.252	576.94
477.471	577.94
477.69	575.94
477.908	569.94
478.127	597.94
478.346	607.94
478.564	575.94
478.783	611.94
479.002	623.94
479.22	620.94
479.439	645.94
479.658	636.94
479.876	625.94
480.095	657.94
480.313	695.94
480.532	672.94
480.751	673.94
480.969	656.94
481.188	714.94
481.406	746.94
481.624	680.94
481.843	644.94
482.061	645.94
482.28	654.94
482.498	608.94
482.717	658.94
482.935	637.94
483.153	629.94
483.372	614.94
483.59	630.94
483.808	617.94
484.027	614.94
484.245	623.94
484.463	628.94
484.681	645.94
484.9	631.94
485.118	653.94
485.336	633.94
485.554	636.94
485.772	643.94
485.99	640.94
486.209	672.94
486.427	649.94
486.645	683.94
486.863	656.94
487.081	685.94
487.299	680.94
487.517	641.94
487.735	655.94
487.953	664.94
488.171	672.94
488.389	680.94
488.607	679.94
488.825	671.94
489.043	653.94
489.261	676.94
489.479	694.94
489.696	675.94
489.914	672.94
490.132	700.94
490.35	709.94
490.568	703.94
490.786	715.94
491.003	722.94
491.221	745.94
491.439	749.94
491.657	781.94
491.874	785.94
492.092	747.94
492.31	766.94
492.527	775.94
492.745	779.94
492.963	777.94
493.18	802.94
493.398	774.94
493.615	795.94
493.833	807.94
494.05	803.94
494.268	794.94
494.485	798.94
494.703	784.94
494.92	800.94
495.138	811.94
495.355	784.94
495.573	789.94
495.79	786.94
496.008	820.94
496.225	793.94
496.442	783.94
496.66	834.94
496.877	791.94
497.094	849.94
497.312	826.94
497.529	849.94
497.746	848.94
497.963	848.94
498.181	900.94
498.398	923.94
498.615	911.94
498.832	920.94
499.049	959.94
499.267	979.94
499.484	1006.94
499.701	1079.94
499.918	1102.94
500.135	1175.94
500.352	1214.94
500.569	1283.94
500.786	1296.94
501.003	1269.94
501.22	1203.94
501.437	1122.94
501.654	1129.94
