Data from 1975.PennyLincolnUp.Lamp.En5.5.200Scan.071719.P1.Changed Mount._HRD10591_15-58-29-859.txt Node
Date: Thu Jul 18 15:58:29 EDT 2019
User: cochatt
Spectrometer: HR+D1059
Trigger mode: 1
Integration Time (sec): 1.000000E-1
Scans to average: 1
Electric dark correction enabled: true
Nonlinearity correction enabled: false
Boxcar width: 0
XAxis mode: Wavelengths
Number of Pixels in Spectrum: 2048
>>>>>Begin Spectral Data<<<<<
223.165	-26.75
223.4	-26.75
223.635	-26.75
223.869	-2.75
224.104	-17.75
224.338	-8.75
224.573	-5.75
224.808	-14.75
225.042	4.25
225.277	-7.75
225.511	-17.75
225.746	2.25
225.98	5.25
226.215	5.25
226.449	17.25
226.683	27.25
226.918	24.25
227.152	16.25
227.387	34.25
227.621	33.25
227.856	51.25
228.09	41.25
228.324	37.25
228.559	46.25
228.793	69.25
229.027	100.25
229.262	84.25
229.496	111.25
229.73	104.25
229.964	143.25
230.199	119.25
230.433	133.25
230.667	105.25
230.901	118.25
231.136	106.25
231.37	101.25
231.604	109.25
231.838	118.25
232.072	116.25
232.306	120.25
232.541	115.25
232.775	103.25
233.009	101.25
233.243	106.25
233.477	101.25
233.711	115.25
233.945	113.25
234.179	120.25
234.413	118.25
234.647	104.25
234.881	119.25
235.115	121.25
235.349	116.25
235.583	123.25
235.817	115.25
236.051	119.25
236.285	124.25
236.519	121.25
236.753	130.25
236.987	139.25
237.221	168.25
237.455	242.25
237.689	175.25
237.922	138.25
238.156	128.25
238.39	119.25
238.624	133.25
238.858	121.25
239.091	131.25
239.325	135.25
239.559	114.25
239.793	125.25
240.027	137.25
240.26	149.25
240.494	141.25
240.728	148.25
240.961	143.25
241.195	142.25
241.429	148.25
241.662	136.25
241.896	141.25
242.13	125.25
242.363	126.25
242.597	125.25
242.83	123.25
243.064	141.25
243.298	133.25
243.531	151.25
243.765	135.25
243.998	148.25
244.232	146.25
244.465	155.25
244.699	146.25
244.932	148.25
245.166	142.25
245.399	146.25
245.633	156.25
245.866	133.25
246.099	149.25
246.333	160.25
246.566	167.25
246.8	171.25
247.033	160.25
247.266	159.25
247.5	167.25
247.733	158.25
247.966	175.25
248.2	181.25
248.433	174.25
248.666	165.25
248.899	179.25
249.133	177.25
249.366	200.25
249.599	213.25
249.832	184.25
250.066	178.25
250.299	189.25
250.532	192.25
250.765	192.25
250.998	209.25
251.231	221.25
251.465	221.25
251.698	200.25
251.931	199.25
252.164	187.25
252.397	193.25
252.63	210.25
252.863	204.25
253.096	229.25
253.329	223.25
253.562	223.25
253.795	218.25
254.028	230.25
254.261	216.25
254.494	241.25
254.727	246.25
254.96	273.25
255.193	286.25
255.426	242.25
255.659	238.25
255.892	218.25
256.124	237.25
256.357	230.25
256.59	225.25
256.823	217.25
257.056	208.25
257.289	204.25
257.521	198.25
257.754	198.25
257.987	200.25
258.22	208.25
258.452	204.25
258.685	223.25
258.918	194.25
259.151	206.25
259.383	216.25
259.616	200.25
259.849	222.25
260.081	221.25
260.314	239.25
260.547	249.25
260.779	238.25
261.012	249.25
261.244	242.25
261.477	238.25
261.71	214.25
261.942	221.25
262.175	225.25
262.407	225.25
262.64	211.25
262.872	213.25
263.105	218.25
263.337	225.25
263.57	208.25
263.802	208.25
264.035	219.25
264.267	201.25
264.499	202.25
264.732	209.25
264.964	213.25
265.197	212.25
265.429	225.25
265.661	205.25
265.894	223.25
266.126	226.25
266.358	216.25
266.591	240.25
266.823	219.25
267.055	232.25
267.287	219.25
267.52	232.25
267.752	232.25
267.984	246.25
268.216	232.25
268.448	242.25
268.681	245.25
268.913	254.25
269.145	257.25
269.377	282.25
269.609	273.25
269.841	257.25
270.073	279.25
270.306	307.25
270.538	311.25
270.77	329.25
271.002	302.25
271.234	291.25
271.466	301.25
271.698	313.25
271.93	333.25
272.162	332.25
272.394	328.25
272.626	292.25
272.858	286.25
273.09	277.25
273.322	286.25
273.553	285.25
273.785	270.25
274.017	253.25
274.249	259.25
274.481	255.25
274.713	267.25
274.945	276.25
275.176	274.25
275.408	264.25
275.64	262.25
275.872	264.25
276.104	274.25
276.335	276.25
276.567	273.25
276.799	293.25
277.031	305.25
277.262	342.25
277.494	315.25
277.726	298.25
277.957	283.25
278.189	290.25
278.421	273.25
278.652	285.25
278.884	261.25
279.115	266.25
279.347	281.25
279.579	289.25
279.81	285.25
280.042	273.25
280.273	275.25
280.505	268.25
280.736	271.25
280.968	266.25
281.199	269.25
281.431	282.25
281.662	284.25
281.894	274.25
282.125	270.25
282.356	294.25
282.588	321.25
282.819	294.25
283.051	283.25
283.282	283.25
283.513	294.25
283.745	299.25
283.976	298.25
284.207	281.25
284.439	287.25
284.67	281.25
284.901	299.25
285.132	288.25
285.364	280.25
285.595	283.25
285.826	286.25
286.057	291.25
286.288	284.25
286.52	279.25
286.751	289.25
286.982	303.25
287.213	298.25
287.444	295.25
287.675	292.25
287.906	297.25
288.138	307.25
288.369	309.25
288.6	311.25
288.831	310.25
289.062	308.25
289.293	321.25
289.524	295.25
289.755	298.25
289.986	309.25
290.217	301.25
290.448	307.25
290.679	298.25
290.91	291.25
291.141	287.25
291.371	319.25
291.602	314.25
291.833	312.25
292.064	309.25
292.295	295.25
292.526	304.25
292.757	319.25
292.987	298.25
293.218	271.25
293.449	294.25
293.68	293.25
293.91	316.25
294.141	285.25
294.372	297.25
294.603	298.25
294.833	298.25
295.064	317.25
295.295	305.25
295.525	305.25
295.756	305.25
295.987	308.25
296.217	344.25
296.448	343.25
296.679	316.25
296.909	311.25
297.14	314.25
297.37	315.25
297.601	317.25
297.831	309.25
298.062	324.25
298.292	312.25
298.523	321.25
298.753	312.25
298.984	326.25
299.214	327.25
299.445	325.25
299.675	327.25
299.905	342.25
300.136	333.25
300.366	338.25
300.597	323.25
300.827	314.25
301.057	339.25
301.288	337.25
301.518	306.25
301.748	338.25
301.979	331.25
302.209	337.25
302.439	335.25
302.669	328.25
302.9	355.25
303.13	337.25
303.36	349.25
303.59	351.25
303.82	337.25
304.051	340.25
304.281	339.25
304.511	321.25
304.741	335.25
304.971	344.25
305.201	344.25
305.431	314.25
305.661	342.25
305.891	327.25
306.121	351.25
306.352	347.25
306.582	353.25
306.812	335.25
307.042	330.25
307.272	348.25
307.502	320.25
307.731	346.25
307.961	328.25
308.191	349.25
308.421	365.25
308.651	340.25
308.881	338.25
309.111	330.25
309.341	337.25
309.571	351.25
309.8	358.25
310.03	373.25
310.26	379.25
310.49	378.25
310.72	377.25
310.949	363.25
311.179	389.25
311.409	387.25
311.639	377.25
311.868	370.25
312.098	382.25
312.328	390.25
312.557	396.25
312.787	402.25
313.017	404.25
313.246	410.25
313.476	394.25
313.706	384.25
313.935	391.25
314.165	407.25
314.394	410.25
314.624	395.25
314.853	383.25
315.083	400.25
315.312	381.25
315.542	381.25
315.771	388.25
316.001	374.25
316.23	371.25
316.46	379.25
316.689	399.25
316.919	386.25
317.148	394.25
317.377	409.25
317.607	382.25
317.836	387.25
318.065	366.25
318.295	392.25
318.524	381.25
318.753	376.25
318.983	387.25
319.212	394.25
319.441	419.25
319.67	387.25
319.9	376.25
320.129	393.25
320.358	383.25
320.587	388.25
320.816	398.25
321.046	401.25
321.275	393.25
321.504	400.25
321.733	387.25
321.962	418.25
322.191	419.25
322.42	416.25
322.649	421.25
322.878	430.25
323.108	440.25
323.337	444.25
323.566	458.25
323.795	517.25
324.024	547.25
324.253	597.25
324.482	836.25
324.71	1265.25
324.939	1945.25
325.168	1687.25
325.397	864.25
325.626	599.25
325.855	533.25
326.084	478.25
326.313	473.25
326.542	474.25
326.77	520.25
326.999	617.25
327.228	769.25
327.457	1176.25
327.686	1450.25
327.914	985.25
328.143	650.25
328.372	561.25
328.6	553.25
328.829	526.25
329.058	518.25
329.287	550.25
329.515	501.25
329.744	507.25
329.972	485.25
330.201	518.25
330.43	529.25
330.658	552.25
330.887	555.25
331.115	548.25
331.344	513.25
331.572	493.25
331.801	491.25
332.03	462.25
332.258	470.25
332.486	469.25
332.715	456.25
332.943	459.25
333.172	493.25
333.4	487.25
333.629	513.25
333.857	479.25
334.085	512.25
334.314	525.25
334.542	534.25
334.771	567.25
334.999	541.25
335.227	486.25
335.455	505.25
335.684	485.25
335.912	467.25
336.14	466.25
336.369	462.25
336.597	475.25
336.825	456.25
337.053	461.25
337.281	475.25
337.51	478.25
337.738	459.25
337.966	459.25
338.194	466.25
338.422	443.25
338.65	465.25
338.878	466.25
339.106	434.25
339.334	462.25
339.562	428.25
339.79	427.25
340.018	417.25
340.246	453.25
340.474	449.25
340.702	444.25
340.93	432.25
341.158	427.25
341.386	423.25
341.614	435.25
341.842	431.25
342.07	443.25
342.298	438.25
342.526	422.25
342.754	443.25
342.981	437.25
343.209	427.25
343.437	436.25
343.665	421.25
343.893	461.25
344.12	453.25
344.348	450.25
344.576	466.25
344.804	466.25
345.031	466.25
345.259	478.25
345.487	450.25
345.714	449.25
345.942	440.25
346.17	434.25
346.397	437.25
346.625	439.25
346.853	411.25
347.08	420.25
347.308	395.25
347.535	426.25
347.763	434.25
347.99	429.25
348.218	433.25
348.445	425.25
348.673	437.25
348.9	440.25
349.128	431.25
349.355	416.25
349.583	408.25
349.81	419.25
350.037	403.25
350.265	417.25
350.492	409.25
350.72	406.25
350.947	433.25
351.174	421.25
351.402	411.25
351.629	441.25
351.856	441.25
352.083	430.25
352.311	443.25
352.538	443.25
352.765	445.25
352.992	429.25
353.22	423.25
353.447	415.25
353.674	423.25
353.901	407.25
354.128	405.25
354.355	383.25
354.583	412.25
354.81	406.25
355.037	410.25
355.264	418.25
355.491	400.25
355.718	394.25
355.945	389.25
356.172	401.25
356.399	401.25
356.626	371.25
356.853	375.25
357.08	395.25
357.307	381.25
357.534	404.25
357.761	399.25
357.988	405.25
358.215	396.25
358.441	402.25
358.668	396.25
358.895	417.25
359.122	406.25
359.349	437.25
359.576	434.25
359.802	424.25
360.029	462.25
360.256	472.25
360.483	449.25
360.709	422.25
360.936	440.25
361.163	435.25
361.39	415.25
361.616	438.25
361.843	421.25
362.07	415.25
362.296	420.25
362.523	401.25
362.749	407.25
362.976	409.25
363.203	433.25
363.429	403.25
363.656	405.25
363.882	418.25
364.109	390.25
364.335	407.25
364.562	407.25
364.788	415.25
365.015	399.25
365.241	392.25
365.468	411.25
365.694	403.25
365.92	416.25
366.147	416.25
366.373	396.25
366.599	418.25
366.826	401.25
367.052	419.25
367.278	410.25
367.505	423.25
367.731	436.25
367.957	411.25
368.184	408.25
368.41	410.25
368.636	421.25
368.862	433.25
369.089	420.25
369.315	402.25
369.541	409.25
369.767	426.25
369.993	408.25
370.219	422.25
370.445	407.25
370.672	439.25
370.898	430.25
371.124	427.25
371.35	411.25
371.576	410.25
371.802	443.25
372.028	424.25
372.254	421.25
372.48	424.25
372.706	415.25
372.932	435.25
373.158	432.25
373.384	435.25
373.61	398.25
373.835	431.25
374.061	413.25
374.287	419.25
374.513	430.25
374.739	441.25
374.965	420.25
375.191	433.25
375.416	436.25
375.642	431.25
375.868	428.25
376.094	430.25
376.319	413.25
376.545	427.25
376.771	426.25
376.997	435.25
377.222	431.25
377.448	411.25
377.674	415.25
377.899	402.25
378.125	417.25
378.35	417.25
378.576	398.25
378.802	394.25
379.027	408.25
379.253	395.25
379.478	423.25
379.704	402.25
379.929	435.25
380.155	434.25
380.38	433.25
380.606	405.25
380.831	415.25
381.057	430.25
381.282	438.25
381.507	432.25
381.733	441.25
381.958	432.25
382.184	425.25
382.409	421.25
382.634	459.25
382.86	451.25
383.085	451.25
383.31	440.25
383.535	442.25
383.761	430.25
383.986	425.25
384.211	450.25
384.436	446.25
384.662	446.25
384.887	457.25
385.112	468.25
385.337	437.25
385.562	463.25
385.787	452.25
386.013	465.25
386.238	476.25
386.463	460.25
386.688	464.25
386.913	494.25
387.138	477.25
387.363	462.25
387.588	463.25
387.813	461.25
388.038	455.25
388.263	473.25
388.488	459.25
388.713	473.25
388.938	475.25
389.163	487.25
389.387	484.25
389.612	459.25
389.837	455.25
390.062	461.25
390.287	449.25
390.512	478.25
390.736	481.25
390.961	472.25
391.186	473.25
391.411	482.25
391.636	475.25
391.86	513.25
392.085	482.25
392.31	488.25
392.534	495.25
392.759	488.25
392.984	475.25
393.208	482.25
393.433	475.25
393.658	466.25
393.882	484.25
394.107	480.25
394.331	493.25
394.556	478.25
394.78	488.25
395.005	493.25
395.229	454.25
395.454	489.25
395.678	488.25
395.903	495.25
396.127	518.25
396.352	548.25
396.576	496.25
396.801	500.25
397.025	493.25
397.249	493.25
397.474	500.25
397.698	509.25
397.922	527.25
398.147	549.25
398.371	540.25
398.595	539.25
398.82	514.25
399.044	557.25
399.268	597.25
399.492	631.25
399.717	695.25
399.941	711.25
400.165	721.25
400.389	709.25
400.613	618.25
400.837	589.25
401.062	600.25
401.286	547.25
401.51	550.25
401.734	542.25
401.958	552.25
402.182	579.25
402.406	545.25
402.63	566.25
402.854	565.25
403.078	566.25
403.302	562.25
403.526	577.25
403.75	588.25
403.974	561.25
404.198	571.25
404.422	586.25
404.645	602.25
404.869	578.25
405.093	612.25
405.317	660.25
405.541	710.25
405.765	641.25
405.988	602.25
406.212	619.25
406.436	623.25
406.66	655.25
406.883	619.25
407.107	639.25
407.331	668.25
407.555	754.25
407.778	753.25
408.002	680.25
408.226	648.25
408.449	616.25
408.673	627.25
408.896	653.25
409.12	688.25
409.344	671.25
409.567	613.25
409.791	580.25
410.014	591.25
410.238	579.25
410.461	567.25
410.685	549.25
410.908	582.25
411.132	614.25
411.355	674.25
411.578	613.25
411.802	592.25
412.025	561.25
412.249	611.25
412.472	602.25
412.695	638.25
412.919	629.25
413.142	597.25
413.365	580.25
413.589	557.25
413.812	552.25
414.035	569.25
414.258	547.25
414.482	547.25
414.705	535.25
414.928	551.25
415.151	543.25
415.374	544.25
415.597	546.25
415.821	536.25
416.044	548.25
416.267	533.25
416.49	536.25
416.713	522.25
416.936	531.25
417.159	537.25
417.382	541.25
417.605	543.25
417.828	543.25
418.051	577.25
418.274	572.25
418.497	543.25
418.72	577.25
418.943	548.25
419.166	599.25
419.389	602.25
419.611	581.25
419.834	576.25
420.057	592.25
420.28	584.25
420.503	570.25
420.726	563.25
420.948	577.25
421.171	623.25
421.394	651.25
421.617	598.25
421.839	554.25
422.062	545.25
422.285	558.25
422.507	642.25
422.73	720.25
422.953	701.25
423.175	591.25
423.398	599.25
423.621	579.25
423.843	587.25
424.066	619.25
424.288	618.25
424.511	601.25
424.733	681.25
424.956	752.25
425.178	711.25
425.401	738.25
425.623	743.25
425.846	646.25
426.068	609.25
426.291	568.25
426.513	559.25
426.735	586.25
426.958	643.25
427.18	727.25
427.402	854.25
427.625	912.25
427.847	815.25
428.069	717.25
428.292	633.25
428.514	599.25
428.736	559.25
428.958	577.25
429.181	548.25
429.403	537.25
429.625	564.25
429.847	590.25
430.069	640.25
430.292	637.25
430.514	540.25
430.736	561.25
430.958	527.25
431.18	545.25
431.402	538.25
431.624	536.25
431.846	512.25
432.068	513.25
432.29	559.25
432.512	511.25
432.734	544.25
432.956	546.25
433.178	524.25
433.4	535.25
433.622	546.25
433.844	516.25
434.066	510.25
434.287	548.25
434.509	543.25
434.731	564.25
434.953	543.25
435.175	532.25
435.397	606.25
435.618	603.25
435.84	635.25
436.062	725.25
436.284	815.25
436.505	662.25
436.727	617.25
436.949	577.25
437.17	542.25
437.392	562.25
437.614	564.25
437.835	574.25
438.057	666.25
438.278	783.25
438.5	800.25
438.721	872.25
438.943	843.25
439.165	659.25
439.386	601.25
439.608	608.25
439.829	581.25
440.05	605.25
440.272	641.25
440.493	617.25
440.715	599.25
440.936	570.25
441.158	529.25
441.379	538.25
441.6	571.25
441.822	615.25
442.043	609.25
442.264	700.25
442.486	751.25
442.707	643.25
442.928	626.25
443.149	610.25
443.371	629.25
443.592	657.25
443.813	800.25
444.034	822.25
444.255	703.25
444.476	633.25
444.698	618.25
444.919	623.25
445.14	758.25
445.361	692.25
445.582	630.25
445.803	699.25
446.024	814.25
446.245	801.25
446.466	726.25
446.687	645.25
446.908	596.25
447.129	575.25
447.35	541.25
447.571	541.25
447.792	510.25
448.013	542.25
448.234	563.25
448.455	598.25
448.675	737.25
448.896	840.25
449.117	697.25
449.338	662.25
449.559	763.25
449.779	901.25
450	694.25
450.221	610.25
450.442	545.25
450.662	538.25
450.883	541.25
451.104	542.25
451.324	539.25
451.545	505.25
451.766	508.25
451.986	497.25
452.207	485.25
452.428	511.25
452.648	473.25
452.869	463.25
453.089	509.25
453.31	524.25
453.53	501.25
453.751	494.25
453.971	480.25
454.192	503.25
454.412	466.25
454.633	463.25
454.853	465.25
455.073	459.25
455.294	519.25
455.514	566.25
455.734	577.25
455.955	482.25
456.175	482.25
456.395	477.25
456.616	468.25
456.836	447.25
457.056	461.25
457.276	431.25
457.497	463.25
457.717	471.25
457.937	496.25
458.157	485.25
458.377	466.25
458.598	510.25
458.818	545.25
459.038	601.25
459.258	639.25
459.478	545.25
459.698	527.25
459.918	500.25
460.138	535.25
460.358	538.25
460.578	548.25
460.798	559.25
461.018	541.25
461.238	543.25
461.458	538.25
461.678	528.25
461.898	561.25
462.118	570.25
462.338	577.25
462.558	573.25
462.777	566.25
462.997	613.25
463.217	634.25
463.437	626.25
463.657	596.25
463.876	584.25
464.096	617.25
464.316	600.25
464.536	577.25
464.755	575.25
464.975	602.25
465.195	590.25
465.414	640.25
465.634	586.25
465.854	552.25
466.073	522.25
466.293	522.25
466.512	507.25
466.732	518.25
466.951	511.25
467.171	490.25
467.391	515.25
467.61	534.25
467.829	517.25
468.049	520.25
468.268	511.25
468.488	483.25
468.707	503.25
468.927	463.25
469.146	490.25
469.365	480.25
469.585	487.25
469.804	502.25
470.023	512.25
470.243	511.25
470.462	522.25
470.681	531.25
470.901	522.25
471.12	509.25
471.339	527.25
471.558	514.25
471.777	518.25
471.997	511.25
472.216	517.25
472.435	522.25
472.654	541.25
472.873	511.25
473.092	512.25
473.311	489.25
473.53	509.25
473.749	522.25
473.968	542.25
474.187	666.25
474.406	672.25
474.625	558.25
474.844	503.25
475.063	527.25
475.282	521.25
475.501	526.25
475.72	509.25
475.939	505.25
476.158	521.25
476.377	495.25
476.596	527.25
476.814	502.25
477.033	524.25
477.252	548.25
477.471	523.25
477.69	543.25
477.908	559.25
478.127	561.25
478.346	567.25
478.564	567.25
478.783	586.25
479.002	576.25
479.22	593.25
479.439	599.25
479.658	607.25
479.876	610.25
480.095	639.25
480.313	653.25
480.532	629.25
480.751	630.25
480.969	681.25
481.188	679.25
481.406	716.25
481.624	632.25
481.843	635.25
482.061	622.25
482.28	601.25
482.498	587.25
482.717	593.25
482.935	592.25
483.153	620.25
483.372	613.25
483.59	577.25
483.808	594.25
484.027	597.25
484.245	608.25
484.463	591.25
484.681	624.25
484.9	599.25
485.118	613.25
485.336	630.25
485.554	604.25
485.772	613.25
485.99	624.25
486.209	627.25
486.427	618.25
486.645	628.25
486.863	633.25
487.081	621.25
487.299	618.25
487.517	618.25
487.735	654.25
487.953	657.25
488.171	663.25
488.389	622.25
488.607	645.25
488.825	653.25
489.043	645.25
489.261	640.25
489.479	665.25
489.696	660.25
489.914	639.25
490.132	664.25
490.35	699.25
490.568	667.25
490.786	675.25
491.003	681.25
491.221	678.25
491.439	728.25
491.657	726.25
491.874	742.25
492.092	734.25
492.31	758.25
492.527	749.25
492.745	745.25
492.963	737.25
493.18	768.25
493.398	733.25
493.615	751.25
493.833	758.25
494.05	750.25
494.268	771.25
494.485	757.25
494.703	738.25
494.92	738.25
495.138	778.25
495.355	787.25
495.573	743.25
495.79	770.25
496.008	776.25
496.225	753.25
496.442	767.25
496.66	776.25
496.877	767.25
497.094	752.25
497.312	776.25
497.529	802.25
497.746	814.25
497.963	814.25
498.181	832.25
498.398	842.25
498.615	866.25
498.832	903.25
499.049	905.25
499.267	917.25
499.484	989.25
499.701	1021.25
499.918	1058.25
500.135	1155.25
500.352	1194.25
500.569	1207.25
500.786	1211.25
501.003	1210.25
501.22	1121.25
501.437	1119.25
501.654	1091.25
