Data from 1975.PennyLincolnUp.Lamp.En5.5.200Scan.071719.P1.Changed Mount._HRD10591_15-55-59-858.txt Node
Date: Thu Jul 18 15:55:59 EDT 2019
User: cochatt
Spectrometer: HR+D1059
Trigger mode: 1
Integration Time (sec): 1.000000E-1
Scans to average: 1
Electric dark correction enabled: true
Nonlinearity correction enabled: false
Boxcar width: 0
XAxis mode: Wavelengths
Number of Pixels in Spectrum: 2048
>>>>>Begin Spectral Data<<<<<
223.165	-2.56
223.4	-2.56
223.635	-2.56
223.869	-14.56
224.104	-21.56
224.338	-25.56
224.573	-16.56
224.808	-15.56
225.042	-12.56
225.277	9.44
225.511	-5.56
225.746	-3.56
225.98	13.44
226.215	18.44
226.449	20.44
226.683	8.44
226.918	17.44
227.152	30.44
227.387	31.44
227.621	45.44
227.856	50.44
228.09	44.44
228.324	57.44
228.559	53.44
228.793	64.44
229.027	90.44
229.262	111.44
229.496	119.44
229.73	116.44
229.964	138.44
230.199	135.44
230.433	126.44
230.667	119.44
230.901	112.44
231.136	125.44
231.37	117.44
231.604	104.44
231.838	110.44
232.072	113.44
232.306	119.44
232.541	130.44
232.775	123.44
233.009	112.44
233.243	115.44
233.477	119.44
233.711	111.44
233.945	109.44
234.179	128.44
234.413	106.44
234.647	112.44
234.881	118.44
235.115	139.44
235.349	118.44
235.583	112.44
235.817	113.44
236.051	131.44
236.285	121.44
236.519	123.44
236.753	123.44
236.987	141.44
237.221	163.44
237.455	204.44
237.689	173.44
237.922	136.44
238.156	135.44
238.39	127.44
238.624	127.44
238.858	112.44
239.091	118.44
239.325	111.44
239.559	128.44
239.793	121.44
240.027	129.44
240.26	130.44
240.494	149.44
240.728	140.44
240.961	137.44
241.195	131.44
241.429	149.44
241.662	142.44
241.896	137.44
242.13	131.44
242.363	130.44
242.597	123.44
242.83	136.44
243.064	142.44
243.298	133.44
243.531	134.44
243.765	143.44
243.998	146.44
244.232	139.44
244.465	139.44
244.699	152.44
244.932	132.44
245.166	152.44
245.399	146.44
245.633	146.44
245.866	147.44
246.099	149.44
246.333	137.44
246.566	146.44
246.8	140.44
247.033	166.44
247.266	172.44
247.5	148.44
247.733	171.44
247.966	163.44
248.2	164.44
248.433	169.44
248.666	182.44
248.899	183.44
249.133	190.44
249.366	195.44
249.599	194.44
249.832	180.44
250.066	183.44
250.299	174.44
250.532	173.44
250.765	203.44
250.998	222.44
251.231	217.44
251.465	205.44
251.698	221.44
251.931	215.44
252.164	191.44
252.397	208.44
252.63	192.44
252.863	204.44
253.096	193.44
253.329	208.44
253.562	201.44
253.795	223.44
254.028	190.44
254.261	218.44
254.494	210.44
254.727	248.44
254.96	259.44
255.193	258.44
255.426	226.44
255.659	227.44
255.892	216.44
256.124	238.44
256.357	226.44
256.59	234.44
256.823	213.44
257.056	206.44
257.289	215.44
257.521	203.44
257.754	206.44
257.987	231.44
258.22	194.44
258.452	217.44
258.685	191.44
258.918	211.44
259.151	205.44
259.383	214.44
259.616	199.44
259.849	204.44
260.081	222.44
260.314	236.44
260.547	250.44
260.779	228.44
261.012	229.44
261.244	218.44
261.477	212.44
261.71	213.44
261.942	219.44
262.175	215.44
262.407	231.44
262.64	221.44
262.872	208.44
263.105	200.44
263.337	200.44
263.57	202.44
263.802	205.44
264.035	220.44
264.267	216.44
264.499	204.44
264.732	216.44
264.964	216.44
265.197	226.44
265.429	223.44
265.661	226.44
265.894	218.44
266.126	216.44
266.358	226.44
266.591	200.44
266.823	213.44
267.055	232.44
267.287	222.44
267.52	221.44
267.752	239.44
267.984	235.44
268.216	215.44
268.448	222.44
268.681	234.44
268.913	238.44
269.145	245.44
269.377	270.44
269.609	265.44
269.841	242.44
270.073	259.44
270.306	279.44
270.538	289.44
270.77	287.44
271.002	276.44
271.234	283.44
271.466	291.44
271.698	295.44
271.93	295.44
272.162	283.44
272.394	302.44
272.626	283.44
272.858	287.44
273.09	251.44
273.322	251.44
273.553	265.44
273.785	258.44
274.017	254.44
274.249	259.44
274.481	261.44
274.713	251.44
274.945	257.44
275.176	265.44
275.408	254.44
275.64	262.44
275.872	261.44
276.104	262.44
276.335	275.44
276.567	282.44
276.799	280.44
277.031	285.44
277.262	306.44
277.494	311.44
277.726	305.44
277.957	278.44
278.189	253.44
278.421	254.44
278.652	263.44
278.884	270.44
279.115	250.44
279.347	263.44
279.579	251.44
279.81	263.44
280.042	261.44
280.273	274.44
280.505	261.44
280.736	273.44
280.968	270.44
281.199	274.44
281.431	290.44
281.662	269.44
281.894	272.44
282.125	258.44
282.356	265.44
282.588	285.44
282.819	297.44
283.051	272.44
283.282	276.44
283.513	276.44
283.745	270.44
283.976	270.44
284.207	284.44
284.439	284.44
284.67	275.44
284.901	277.44
285.132	271.44
285.364	284.44
285.595	283.44
285.826	285.44
286.057	267.44
286.288	279.44
286.52	285.44
286.751	268.44
286.982	273.44
287.213	291.44
287.444	292.44
287.675	304.44
287.906	309.44
288.138	291.44
288.369	298.44
288.6	294.44
288.831	293.44
289.062	293.44
289.293	290.44
289.524	291.44
289.755	285.44
289.986	302.44
290.217	293.44
290.448	281.44
290.679	291.44
290.91	297.44
291.141	303.44
291.371	293.44
291.602	288.44
291.833	298.44
292.064	298.44
292.295	277.44
292.526	289.44
292.757	285.44
292.987	298.44
293.218	283.44
293.449	290.44
293.68	297.44
293.91	281.44
294.141	281.44
294.372	281.44
294.603	294.44
294.833	289.44
295.064	283.44
295.295	295.44
295.525	318.44
295.756	311.44
295.987	287.44
296.217	322.44
296.448	323.44
296.679	303.44
296.909	314.44
297.14	301.44
297.37	301.44
297.601	298.44
297.831	305.44
298.062	300.44
298.292	292.44
298.523	297.44
298.753	329.44
298.984	291.44
299.214	290.44
299.445	313.44
299.675	326.44
299.905	315.44
300.136	312.44
300.366	310.44
300.597	313.44
300.827	321.44
301.057	315.44
301.288	330.44
301.518	322.44
301.748	319.44
301.979	346.44
302.209	321.44
302.439	341.44
302.669	339.44
302.9	343.44
303.13	317.44
303.36	339.44
303.59	325.44
303.82	347.44
304.051	311.44
304.281	362.44
304.511	327.44
304.741	336.44
304.971	332.44
305.201	309.44
305.431	328.44
305.661	328.44
305.891	331.44
306.121	322.44
306.352	326.44
306.582	325.44
306.812	331.44
307.042	326.44
307.272	315.44
307.502	326.44
307.731	355.44
307.961	338.44
308.191	323.44
308.421	330.44
308.651	329.44
308.881	338.44
309.111	323.44
309.341	325.44
309.571	336.44
309.8	330.44
310.03	344.44
310.26	346.44
310.49	355.44
310.72	342.44
310.949	373.44
311.179	395.44
311.409	355.44
311.639	358.44
311.868	368.44
312.098	383.44
312.328	351.44
312.557	371.44
312.787	370.44
313.017	373.44
313.246	353.44
313.476	365.44
313.706	362.44
313.935	359.44
314.165	367.44
314.394	390.44
314.624	380.44
314.853	361.44
315.083	377.44
315.312	377.44
315.542	375.44
315.771	343.44
316.001	347.44
316.23	362.44
316.46	366.44
316.689	356.44
316.919	376.44
317.148	367.44
317.377	393.44
317.607	377.44
317.836	367.44
318.065	358.44
318.295	368.44
318.524	388.44
318.753	360.44
318.983	371.44
319.212	363.44
319.441	358.44
319.67	384.44
319.9	369.44
320.129	373.44
320.358	380.44
320.587	358.44
320.816	365.44
321.046	385.44
321.275	383.44
321.504	363.44
321.733	365.44
321.962	369.44
322.191	383.44
322.42	407.44
322.649	398.44
322.878	412.44
323.108	413.44
323.337	396.44
323.566	453.44
323.795	458.44
324.024	474.44
324.253	567.44
324.482	726.44
324.71	1087.44
324.939	1646.44
325.168	1437.44
325.397	716.44
325.626	529.44
325.855	482.44
326.084	435.44
326.313	447.44
326.542	443.44
326.77	458.44
326.999	543.44
327.228	666.44
327.457	1034.44
327.686	1281.44
327.914	866.44
328.143	580.44
328.372	506.44
328.6	494.44
328.829	457.44
329.058	511.44
329.287	494.44
329.515	469.44
329.744	446.44
329.972	467.44
330.201	441.44
330.43	511.44
330.658	498.44
330.887	532.44
331.115	496.44
331.344	483.44
331.572	459.44
331.801	453.44
332.03	457.44
332.258	447.44
332.486	449.44
332.715	415.44
332.943	427.44
333.172	446.44
333.4	465.44
333.629	460.44
333.857	476.44
334.085	480.44
334.314	487.44
334.542	531.44
334.771	519.44
334.999	496.44
335.227	479.44
335.455	444.44
335.684	439.44
335.912	458.44
336.14	456.44
336.369	454.44
336.597	449.44
336.825	439.44
337.053	426.44
337.281	422.44
337.51	429.44
337.738	448.44
337.966	434.44
338.194	417.44
338.422	423.44
338.65	416.44
338.878	423.44
339.106	426.44
339.334	427.44
339.562	410.44
339.79	408.44
340.018	433.44
340.246	431.44
340.474	431.44
340.702	403.44
340.93	419.44
341.158	398.44
341.386	424.44
341.614	427.44
341.842	429.44
342.07	416.44
342.298	424.44
342.526	407.44
342.754	410.44
342.981	425.44
343.209	414.44
343.437	414.44
343.665	443.44
343.893	439.44
344.12	445.44
344.348	437.44
344.576	421.44
344.804	418.44
345.031	441.44
345.259	435.44
345.487	444.44
345.714	411.44
345.942	400.44
346.17	436.44
346.397	419.44
346.625	429.44
346.853	381.44
347.08	395.44
347.308	400.44
347.535	396.44
347.763	387.44
347.99	407.44
348.218	411.44
348.445	400.44
348.673	410.44
348.9	403.44
349.128	419.44
349.355	403.44
349.583	416.44
349.81	409.44
350.037	414.44
350.265	392.44
350.492	404.44
350.72	385.44
350.947	385.44
351.174	397.44
351.402	412.44
351.629	413.44
351.856	399.44
352.083	411.44
352.311	430.44
352.538	411.44
352.765	408.44
352.992	421.44
353.22	396.44
353.447	399.44
353.674	393.44
353.901	369.44
354.128	409.44
354.355	392.44
354.583	378.44
354.81	379.44
355.037	401.44
355.264	402.44
355.491	382.44
355.718	377.44
355.945	382.44
356.172	393.44
356.399	397.44
356.626	385.44
356.853	389.44
357.08	402.44
357.307	378.44
357.534	378.44
357.761	375.44
357.988	394.44
358.215	380.44
358.441	373.44
358.668	402.44
358.895	389.44
359.122	411.44
359.349	421.44
359.576	413.44
359.802	405.44
360.029	414.44
360.256	441.44
360.483	436.44
360.709	417.44
360.936	402.44
361.163	426.44
361.39	418.44
361.616	396.44
361.843	409.44
362.07	394.44
362.296	411.44
362.523	411.44
362.749	402.44
362.976	417.44
363.203	397.44
363.429	402.44
363.656	402.44
363.882	411.44
364.109	401.44
364.335	379.44
364.562	390.44
364.788	385.44
365.015	405.44
365.241	379.44
365.468	399.44
365.694	399.44
365.92	412.44
366.147	408.44
366.373	401.44
366.599	397.44
366.826	376.44
367.052	389.44
367.278	405.44
367.505	407.44
367.731	402.44
367.957	394.44
368.184	401.44
368.41	414.44
368.636	419.44
368.862	424.44
369.089	409.44
369.315	397.44
369.541	402.44
369.767	416.44
369.993	406.44
370.219	417.44
370.445	402.44
370.672	403.44
370.898	414.44
371.124	395.44
371.35	408.44
371.576	402.44
371.802	419.44
372.028	401.44
372.254	401.44
372.48	425.44
372.706	395.44
372.932	424.44
373.158	411.44
373.384	401.44
373.61	415.44
373.835	423.44
374.061	419.44
374.287	428.44
374.513	421.44
374.739	419.44
374.965	449.44
375.191	428.44
375.416	424.44
375.642	435.44
375.868	420.44
376.094	407.44
376.319	429.44
376.545	393.44
376.771	406.44
376.997	407.44
377.222	421.44
377.448	396.44
377.674	417.44
377.899	421.44
378.125	426.44
378.35	413.44
378.576	414.44
378.802	400.44
379.027	413.44
379.253	415.44
379.478	431.44
379.704	419.44
379.929	401.44
380.155	414.44
380.38	405.44
380.606	415.44
380.831	418.44
381.057	418.44
381.282	406.44
381.507	414.44
381.733	415.44
381.958	422.44
382.184	422.44
382.409	427.44
382.634	433.44
382.86	427.44
383.085	424.44
383.31	443.44
383.535	456.44
383.761	433.44
383.986	435.44
384.211	441.44
384.436	445.44
384.662	449.44
384.887	451.44
385.112	460.44
385.337	458.44
385.562	465.44
385.787	441.44
386.013	465.44
386.238	447.44
386.463	458.44
386.688	466.44
386.913	460.44
387.138	474.44
387.363	456.44
387.588	473.44
387.813	469.44
388.038	471.44
388.263	482.44
388.488	459.44
388.713	477.44
388.938	457.44
389.163	467.44
389.387	462.44
389.612	452.44
389.837	472.44
390.062	437.44
390.287	449.44
390.512	473.44
390.736	451.44
390.961	470.44
391.186	469.44
391.411	473.44
391.636	476.44
391.86	470.44
392.085	462.44
392.31	482.44
392.534	481.44
392.759	473.44
392.984	485.44
393.208	474.44
393.433	473.44
393.658	455.44
393.882	450.44
394.107	455.44
394.331	468.44
394.556	484.44
394.78	452.44
395.005	479.44
395.229	480.44
395.454	460.44
395.678	462.44
395.903	489.44
396.127	518.44
396.352	485.44
396.576	491.44
396.801	482.44
397.025	472.44
397.249	490.44
397.474	502.44
397.698	503.44
397.922	510.44
398.147	534.44
398.371	522.44
398.595	530.44
398.82	515.44
399.044	531.44
399.268	567.44
399.492	617.44
399.717	642.44
399.941	659.44
400.165	673.44
400.389	669.44
400.613	602.44
400.837	577.44
401.062	541.44
401.286	550.44
401.51	531.44
401.734	520.44
401.958	535.44
402.182	529.44
402.406	540.44
402.63	529.44
402.854	522.44
403.078	547.44
403.302	567.44
403.526	564.44
403.75	553.44
403.974	578.44
404.198	555.44
404.422	566.44
404.645	583.44
404.869	590.44
405.093	598.44
405.317	628.44
405.541	657.44
405.765	627.44
405.988	606.44
406.212	586.44
406.436	585.44
406.66	602.44
406.883	589.44
407.107	616.44
407.331	667.44
407.555	735.44
407.778	730.44
408.002	649.44
408.226	615.44
408.449	613.44
408.673	621.44
408.896	621.44
409.12	677.44
409.344	663.44
409.567	585.44
409.791	563.44
410.014	554.44
410.238	561.44
410.461	543.44
410.685	563.44
410.908	581.44
411.132	610.44
411.355	643.44
411.578	613.44
411.802	559.44
412.025	536.44
412.249	563.44
412.472	562.44
412.695	611.44
412.919	617.44
413.142	580.44
413.365	562.44
413.589	552.44
413.812	535.44
414.035	524.44
414.258	519.44
414.482	527.44
414.705	541.44
414.928	531.44
415.151	537.44
415.374	527.44
415.597	521.44
415.821	530.44
416.044	498.44
416.267	505.44
416.49	548.44
416.713	521.44
416.936	509.44
417.159	507.44
417.382	513.44
417.605	538.44
417.828	547.44
418.051	561.44
418.274	529.44
418.497	520.44
418.72	538.44
418.943	537.44
419.166	554.44
419.389	575.44
419.611	563.44
419.834	553.44
420.057	578.44
420.28	571.44
420.503	575.44
420.726	550.44
420.948	584.44
421.171	611.44
421.394	615.44
421.617	568.44
421.839	555.44
422.062	555.44
422.285	557.44
422.507	601.44
422.73	699.44
422.953	659.44
423.175	579.44
423.398	565.44
423.621	558.44
423.843	581.44
424.066	575.44
424.288	600.44
424.511	589.44
424.733	626.44
424.956	723.44
425.178	712.44
425.401	665.44
425.623	699.44
425.846	624.44
426.068	558.44
426.291	576.44
426.513	559.44
426.735	590.44
426.958	617.44
427.18	711.44
427.402	783.44
427.625	879.44
427.847	765.44
428.069	657.44
428.292	611.44
428.514	570.44
428.736	525.44
428.958	545.44
429.181	532.44
429.403	533.44
429.625	535.44
429.847	580.44
430.069	631.44
430.292	625.44
430.514	552.44
430.736	526.44
430.958	529.44
431.18	533.44
431.402	509.44
431.624	491.44
431.846	517.44
432.068	499.44
432.29	509.44
432.512	509.44
432.734	522.44
432.956	550.44
433.178	543.44
433.4	523.44
433.622	504.44
433.844	509.44
434.066	503.44
434.287	519.44
434.509	531.44
434.731	524.44
434.953	520.44
435.175	551.44
435.397	579.44
435.618	579.44
435.84	632.44
436.062	693.44
436.284	777.44
436.505	647.44
436.727	592.44
436.949	559.44
437.17	517.44
437.392	510.44
437.614	509.44
437.835	561.44
438.057	647.44
438.278	744.44
438.5	745.44
438.721	809.44
438.943	788.44
439.165	619.44
439.386	600.44
439.608	571.44
439.829	560.44
440.05	589.44
440.272	641.44
440.493	594.44
440.715	567.44
440.936	557.44
441.158	531.44
441.379	529.44
441.6	538.44
441.822	585.44
442.043	616.44
442.264	670.44
442.486	715.44
442.707	601.44
442.928	592.44
443.149	595.44
443.371	591.44
443.592	651.44
443.813	729.44
444.034	802.44
444.255	664.44
444.476	622.44
444.698	607.44
444.919	606.44
445.14	673.44
445.361	671.44
445.582	630.44
445.803	657.44
446.024	763.44
446.245	795.44
446.466	712.44
446.687	608.44
446.908	562.44
447.129	538.44
447.35	517.44
447.571	516.44
447.792	519.44
448.013	540.44
448.234	525.44
448.455	592.44
448.675	691.44
448.896	819.44
449.117	694.44
449.338	630.44
449.559	746.44
449.779	836.44
450	658.44
450.221	551.44
450.442	544.44
450.662	509.44
450.883	517.44
451.104	504.44
451.324	517.44
451.545	517.44
451.766	485.44
451.986	487.44
452.207	471.44
452.428	454.44
452.648	485.44
452.869	454.44
453.089	471.44
453.31	487.44
453.53	497.44
453.751	459.44
453.971	468.44
454.192	471.44
454.412	454.44
454.633	453.44
454.853	451.44
455.073	432.44
455.294	488.44
455.514	550.44
455.734	542.44
455.955	455.44
456.175	452.44
456.395	450.44
456.616	429.44
456.836	439.44
457.056	429.44
457.276	434.44
457.497	437.44
457.717	446.44
457.937	461.44
458.157	473.44
458.377	471.44
458.598	481.44
458.818	538.44
459.038	578.44
459.258	603.44
459.478	539.44
459.698	492.44
459.918	520.44
460.138	490.44
460.358	521.44
460.578	537.44
460.798	562.44
461.018	545.44
461.238	528.44
461.458	555.44
461.678	505.44
461.898	537.44
462.118	532.44
462.338	553.44
462.558	543.44
462.777	547.44
462.997	584.44
463.217	595.44
463.437	613.44
463.657	596.44
463.876	585.44
464.096	602.44
464.316	569.44
464.536	569.44
464.755	576.44
464.975	550.44
465.195	573.44
465.414	605.44
465.634	550.44
465.854	518.44
466.073	498.44
466.293	507.44
466.512	495.44
466.732	494.44
466.951	499.44
467.171	478.44
467.391	488.44
467.61	495.44
467.829	498.44
468.049	492.44
468.268	485.44
468.488	487.44
468.707	475.44
468.927	467.44
469.146	463.44
469.365	485.44
469.585	488.44
469.804	479.44
470.023	505.44
470.243	489.44
470.462	474.44
470.681	501.44
470.901	479.44
471.12	506.44
471.339	480.44
471.558	489.44
471.777	490.44
471.997	471.44
472.216	471.44
472.435	527.44
472.654	529.44
472.873	473.44
473.092	473.44
473.311	474.44
473.53	493.44
473.749	483.44
473.968	528.44
474.187	617.44
474.406	643.44
474.625	527.44
474.844	517.44
475.063	477.44
475.282	504.44
475.501	489.44
475.72	505.44
475.939	508.44
476.158	501.44
476.377	525.44
476.596	498.44
476.814	531.44
477.033	509.44
477.252	513.44
477.471	502.44
477.69	537.44
477.908	536.44
478.127	540.44
478.346	537.44
478.564	573.44
478.783	558.44
479.002	565.44
479.22	559.44
479.439	587.44
479.658	578.44
479.876	578.44
480.095	602.44
480.313	623.44
480.532	631.44
480.751	618.44
480.969	605.44
481.188	663.44
481.406	685.44
481.624	622.44
481.843	588.44
482.061	602.44
482.28	583.44
482.498	584.44
482.717	567.44
482.935	573.44
483.153	589.44
483.372	565.44
483.59	566.44
483.808	578.44
484.027	568.44
484.245	556.44
484.463	566.44
484.681	589.44
484.9	585.44
485.118	588.44
485.336	612.44
485.554	601.44
485.772	615.44
485.99	600.44
486.209	585.44
486.427	616.44
486.645	601.44
486.863	604.44
487.081	597.44
487.299	603.44
487.517	600.44
487.735	617.44
487.953	633.44
488.171	635.44
488.389	646.44
488.607	605.44
488.825	605.44
489.043	622.44
489.261	620.44
489.479	618.44
489.696	618.44
489.914	633.44
490.132	626.44
490.35	624.44
490.568	658.44
490.786	649.44
491.003	670.44
491.221	701.44
491.439	661.44
491.657	693.44
491.874	713.44
492.092	714.44
492.31	716.44
492.527	722.44
492.745	702.44
492.963	704.44
493.18	714.44
493.398	725.44
493.615	734.44
493.833	707.44
494.05	735.44
494.268	736.44
494.485	715.44
494.703	723.44
494.92	737.44
495.138	717.44
495.355	704.44
495.573	710.44
495.79	732.44
496.008	736.44
496.225	726.44
496.442	732.44
496.66	733.44
496.877	741.44
497.094	750.44
497.312	744.44
497.529	750.44
497.746	742.44
497.963	768.44
498.181	783.44
498.398	828.44
498.615	851.44
498.832	859.44
499.049	887.44
499.267	899.44
499.484	938.44
499.701	961.44
499.918	994.44
500.135	1102.44
500.352	1155.44
500.569	1172.44
500.786	1165.44
501.003	1154.44
501.22	1108.44
501.437	1034.44
501.654	999.44
