Data from 1975.PennyLincolnUp.Lamp.En5.5.200Scan.071719.P1.Changed Mount._HRD10591_15-58-14-859.txt Node
Date: Thu Jul 18 15:58:14 EDT 2019
User: cochatt
Spectrometer: HR+D1059
Trigger mode: 1
Integration Time (sec): 1.000000E-1
Scans to average: 1
Electric dark correction enabled: true
Nonlinearity correction enabled: false
Boxcar width: 0
XAxis mode: Wavelengths
Number of Pixels in Spectrum: 2048
>>>>>Begin Spectral Data<<<<<
223.165	-23.25
223.4	-23.25
223.635	-23.25
223.869	-29.25
224.104	-20.25
224.338	-12.25
224.573	-16.25
224.808	-12.25
225.042	0.75
225.277	-4.25
225.511	4.75
225.746	11.75
225.98	-2.25
226.215	7.75
226.449	9.75
226.683	22.75
226.918	31.75
227.152	30.75
227.387	29.75
227.621	18.75
227.856	30.75
228.09	28.75
228.324	53.75
228.559	52.75
228.793	64.75
229.027	84.75
229.262	107.75
229.496	126.75
229.73	113.75
229.964	151.75
230.199	121.75
230.433	115.75
230.667	101.75
230.901	113.75
231.136	103.75
231.37	103.75
231.604	114.75
231.838	118.75
232.072	120.75
232.306	120.75
232.541	120.75
232.775	120.75
233.009	109.75
233.243	111.75
233.477	122.75
233.711	115.75
233.945	122.75
234.179	122.75
234.413	121.75
234.647	119.75
234.881	121.75
235.115	116.75
235.349	109.75
235.583	116.75
235.817	129.75
236.051	125.75
236.285	133.75
236.519	125.75
236.753	137.75
236.987	150.75
237.221	177.75
237.455	228.75
237.689	185.75
237.922	131.75
238.156	146.75
238.39	127.75
238.624	121.75
238.858	125.75
239.091	113.75
239.325	130.75
239.559	127.75
239.793	121.75
240.027	146.75
240.26	148.75
240.494	151.75
240.728	149.75
240.961	139.75
241.195	136.75
241.429	137.75
241.662	122.75
241.896	149.75
242.13	131.75
242.363	148.75
242.597	136.75
242.83	131.75
243.064	147.75
243.298	142.75
243.531	147.75
243.765	157.75
243.998	146.75
244.232	139.75
244.465	139.75
244.699	140.75
244.932	141.75
245.166	149.75
245.399	151.75
245.633	165.75
245.866	146.75
246.099	162.75
246.333	158.75
246.566	168.75
246.8	160.75
247.033	165.75
247.266	157.75
247.5	162.75
247.733	165.75
247.966	166.75
248.2	177.75
248.433	179.75
248.666	186.75
248.899	192.75
249.133	201.75
249.366	199.75
249.599	216.75
249.832	201.75
250.066	184.75
250.299	183.75
250.532	200.75
250.765	203.75
250.998	210.75
251.231	244.75
251.465	230.75
251.698	233.75
251.931	210.75
252.164	193.75
252.397	206.75
252.63	208.75
252.863	198.75
253.096	225.75
253.329	225.75
253.562	228.75
253.795	232.75
254.028	217.75
254.261	231.75
254.494	215.75
254.727	262.75
254.96	282.75
255.193	270.75
255.426	249.75
255.659	225.75
255.892	239.75
256.124	251.75
256.357	251.75
256.59	232.75
256.823	219.75
257.056	233.75
257.289	212.75
257.521	208.75
257.754	216.75
257.987	220.75
258.22	204.75
258.452	212.75
258.685	199.75
258.918	230.75
259.151	218.75
259.383	219.75
259.616	226.75
259.849	218.75
260.081	240.75
260.314	263.75
260.547	267.75
260.779	265.75
261.012	242.75
261.244	227.75
261.477	236.75
261.71	232.75
261.942	232.75
262.175	231.75
262.407	215.75
262.64	224.75
262.872	221.75
263.105	216.75
263.337	216.75
263.57	219.75
263.802	213.75
264.035	231.75
264.267	223.75
264.499	217.75
264.732	229.75
264.964	221.75
265.197	229.75
265.429	241.75
265.661	203.75
265.894	215.75
266.126	225.75
266.358	227.75
266.591	226.75
266.823	243.75
267.055	232.75
267.287	234.75
267.52	226.75
267.752	229.75
267.984	245.75
268.216	234.75
268.448	246.75
268.681	259.75
268.913	256.75
269.145	269.75
269.377	288.75
269.609	275.75
269.841	274.75
270.073	287.75
270.306	283.75
270.538	316.75
270.77	336.75
271.002	321.75
271.234	300.75
271.466	315.75
271.698	321.75
271.93	325.75
272.162	336.75
272.394	322.75
272.626	311.75
272.858	307.75
273.09	281.75
273.322	276.75
273.553	281.75
273.785	287.75
274.017	284.75
274.249	270.75
274.481	288.75
274.713	285.75
274.945	285.75
275.176	281.75
275.408	272.75
275.64	259.75
275.872	262.75
276.104	276.75
276.335	280.75
276.567	256.75
276.799	270.75
277.031	306.75
277.262	327.75
277.494	327.75
277.726	314.75
277.957	292.75
278.189	292.75
278.421	298.75
278.652	293.75
278.884	296.75
279.115	279.75
279.347	301.75
279.579	281.75
279.81	272.75
280.042	285.75
280.273	280.75
280.505	276.75
280.736	265.75
280.968	298.75
281.199	287.75
281.431	273.75
281.662	286.75
281.894	291.75
282.125	292.75
282.356	301.75
282.588	317.75
282.819	318.75
283.051	265.75
283.282	270.75
283.513	309.75
283.745	305.75
283.976	278.75
284.207	303.75
284.439	312.75
284.67	304.75
284.901	285.75
285.132	296.75
285.364	307.75
285.595	289.75
285.826	288.75
286.057	305.75
286.288	293.75
286.52	296.75
286.751	315.75
286.982	303.75
287.213	295.75
287.444	303.75
287.675	296.75
287.906	320.75
288.138	299.75
288.369	346.75
288.6	333.75
288.831	314.75
289.062	316.75
289.293	300.75
289.524	291.75
289.755	307.75
289.986	319.75
290.217	321.75
290.448	317.75
290.679	302.75
290.91	327.75
291.141	311.75
291.371	312.75
291.602	316.75
291.833	315.75
292.064	312.75
292.295	306.75
292.526	322.75
292.757	317.75
292.987	306.75
293.218	310.75
293.449	315.75
293.68	312.75
293.91	319.75
294.141	305.75
294.372	304.75
294.603	327.75
294.833	319.75
295.064	313.75
295.295	304.75
295.525	318.75
295.756	308.75
295.987	325.75
296.217	337.75
296.448	332.75
296.679	309.75
296.909	300.75
297.14	348.75
297.37	318.75
297.601	316.75
297.831	334.75
298.062	338.75
298.292	329.75
298.523	321.75
298.753	341.75
298.984	342.75
299.214	336.75
299.445	329.75
299.675	326.75
299.905	343.75
300.136	308.75
300.366	347.75
300.597	318.75
300.827	341.75
301.057	337.75
301.288	358.75
301.518	332.75
301.748	341.75
301.979	340.75
302.209	348.75
302.439	349.75
302.669	340.75
302.9	356.75
303.13	339.75
303.36	345.75
303.59	335.75
303.82	371.75
304.051	386.75
304.281	353.75
304.511	343.75
304.741	344.75
304.971	354.75
305.201	359.75
305.431	354.75
305.661	353.75
305.891	336.75
306.121	344.75
306.352	367.75
306.582	339.75
306.812	346.75
307.042	357.75
307.272	335.75
307.502	353.75
307.731	343.75
307.961	346.75
308.191	344.75
308.421	341.75
308.651	358.75
308.881	367.75
309.111	356.75
309.341	360.75
309.571	348.75
309.8	367.75
310.03	369.75
310.26	371.75
310.49	370.75
310.72	386.75
310.949	420.75
311.179	399.75
311.409	389.75
311.639	387.75
311.868	363.75
312.098	393.75
312.328	384.75
312.557	404.75
312.787	409.75
313.017	401.75
313.246	403.75
313.476	414.75
313.706	389.75
313.935	411.75
314.165	390.75
314.394	391.75
314.624	400.75
314.853	406.75
315.083	407.75
315.312	396.75
315.542	392.75
315.771	396.75
316.001	403.75
316.23	387.75
316.46	374.75
316.689	387.75
316.919	404.75
317.148	397.75
317.377	406.75
317.607	392.75
317.836	386.75
318.065	400.75
318.295	377.75
318.524	382.75
318.753	392.75
318.983	391.75
319.212	402.75
319.441	396.75
319.67	392.75
319.9	401.75
320.129	394.75
320.358	383.75
320.587	392.75
320.816	382.75
321.046	420.75
321.275	405.75
321.504	404.75
321.733	413.75
321.962	421.75
322.191	424.75
322.42	410.75
322.649	429.75
322.878	445.75
323.108	462.75
323.337	479.75
323.566	497.75
323.795	512.75
324.024	547.75
324.253	635.75
324.482	864.75
324.71	1293.75
324.939	1945.75
325.168	1724.75
325.397	875.75
325.626	612.75
325.855	531.75
326.084	492.75
326.313	472.75
326.542	481.75
326.77	536.75
326.999	603.75
327.228	767.75
327.457	1199.75
327.686	1487.75
327.914	1002.75
328.143	646.75
328.372	588.75
328.6	555.75
328.829	547.75
329.058	555.75
329.287	557.75
329.515	513.75
329.744	485.75
329.972	519.75
330.201	521.75
330.43	562.75
330.658	561.75
330.887	587.75
331.115	582.75
331.344	514.75
331.572	497.75
331.801	495.75
332.03	510.75
332.258	476.75
332.486	460.75
332.715	480.75
332.943	473.75
333.172	503.75
333.4	508.75
333.629	505.75
333.857	535.75
334.085	532.75
334.314	543.75
334.542	579.75
334.771	587.75
334.999	551.75
335.227	513.75
335.455	492.75
335.684	495.75
335.912	480.75
336.14	467.75
336.369	465.75
336.597	464.75
336.825	471.75
337.053	469.75
337.281	474.75
337.51	482.75
337.738	479.75
337.966	477.75
338.194	477.75
338.422	474.75
338.65	441.75
338.878	458.75
339.106	457.75
339.334	470.75
339.562	465.75
339.79	443.75
340.018	449.75
340.246	447.75
340.474	459.75
340.702	474.75
340.93	458.75
341.158	457.75
341.386	452.75
341.614	442.75
341.842	475.75
342.07	441.75
342.298	441.75
342.526	417.75
342.754	430.75
342.981	439.75
343.209	441.75
343.437	453.75
343.665	455.75
343.893	447.75
344.12	511.75
344.348	475.75
344.576	464.75
344.804	461.75
345.031	475.75
345.259	487.75
345.487	485.75
345.714	464.75
345.942	460.75
346.17	463.75
346.397	446.75
346.625	446.75
346.853	439.75
347.08	441.75
347.308	421.75
347.535	424.75
347.763	435.75
347.99	442.75
348.218	453.75
348.445	453.75
348.673	460.75
348.9	442.75
349.128	436.75
349.355	424.75
349.583	412.75
349.81	426.75
350.037	438.75
350.265	432.75
350.492	421.75
350.72	425.75
350.947	424.75
351.174	432.75
351.402	442.75
351.629	418.75
351.856	426.75
352.083	446.75
352.311	431.75
352.538	453.75
352.765	434.75
352.992	426.75
353.22	432.75
353.447	424.75
353.674	424.75
353.901	443.75
354.128	409.75
354.355	403.75
354.583	402.75
354.81	396.75
355.037	419.75
355.264	414.75
355.491	411.75
355.718	424.75
355.945	434.75
356.172	415.75
356.399	411.75
356.626	421.75
356.853	421.75
357.08	412.75
357.307	415.75
357.534	421.75
357.761	412.75
357.988	427.75
358.215	415.75
358.441	419.75
358.668	417.75
358.895	432.75
359.122	435.75
359.349	442.75
359.576	432.75
359.802	454.75
360.029	475.75
360.256	481.75
360.483	467.75
360.709	432.75
360.936	436.75
361.163	425.75
361.39	441.75
361.616	441.75
361.843	450.75
362.07	447.75
362.296	447.75
362.523	427.75
362.749	433.75
362.976	433.75
363.203	434.75
363.429	421.75
363.656	439.75
363.882	422.75
364.109	415.75
364.335	424.75
364.562	457.75
364.788	420.75
365.015	413.75
365.241	428.75
365.468	434.75
365.694	418.75
365.92	433.75
366.147	425.75
366.373	415.75
366.599	415.75
366.826	428.75
367.052	424.75
367.278	420.75
367.505	426.75
367.731	420.75
367.957	443.75
368.184	435.75
368.41	444.75
368.636	450.75
368.862	438.75
369.089	422.75
369.315	434.75
369.541	425.75
369.767	421.75
369.993	393.75
370.219	420.75
370.445	435.75
370.672	419.75
370.898	427.75
371.124	450.75
371.35	413.75
371.576	411.75
371.802	420.75
372.028	455.75
372.254	423.75
372.48	438.75
372.706	433.75
372.932	460.75
373.158	441.75
373.384	434.75
373.61	434.75
373.835	437.75
374.061	440.75
374.287	443.75
374.513	427.75
374.739	460.75
374.965	478.75
375.191	464.75
375.416	447.75
375.642	451.75
375.868	428.75
376.094	418.75
376.319	451.75
376.545	424.75
376.771	438.75
376.997	420.75
377.222	421.75
377.448	442.75
377.674	442.75
377.899	429.75
378.125	444.75
378.35	427.75
378.576	439.75
378.802	426.75
379.027	420.75
379.253	449.75
379.478	443.75
379.704	419.75
379.929	461.75
380.155	441.75
380.38	442.75
380.606	416.75
380.831	435.75
381.057	425.75
381.282	431.75
381.507	433.75
381.733	425.75
381.958	429.75
382.184	445.75
382.409	448.75
382.634	458.75
382.86	441.75
383.085	454.75
383.31	470.75
383.535	446.75
383.761	450.75
383.986	470.75
384.211	485.75
384.436	466.75
384.662	488.75
384.887	476.75
385.112	465.75
385.337	483.75
385.562	465.75
385.787	488.75
386.013	492.75
386.238	485.75
386.463	485.75
386.688	505.75
386.913	491.75
387.138	485.75
387.363	498.75
387.588	487.75
387.813	479.75
388.038	453.75
388.263	467.75
388.488	480.75
388.713	479.75
388.938	480.75
389.163	491.75
389.387	525.75
389.612	503.75
389.837	495.75
390.062	487.75
390.287	490.75
390.512	480.75
390.736	480.75
390.961	485.75
391.186	493.75
391.411	499.75
391.636	507.75
391.86	520.75
392.085	519.75
392.31	515.75
392.534	498.75
392.759	497.75
392.984	498.75
393.208	490.75
393.433	475.75
393.658	526.75
393.882	489.75
394.107	503.75
394.331	469.75
394.556	498.75
394.78	495.75
395.005	500.75
395.229	492.75
395.454	495.75
395.678	511.75
395.903	537.75
396.127	524.75
396.352	550.75
396.576	520.75
396.801	510.75
397.025	516.75
397.249	497.75
397.474	542.75
397.698	509.75
397.922	525.75
398.147	576.75
398.371	554.75
398.595	565.75
398.82	568.75
399.044	585.75
399.268	615.75
399.492	657.75
399.717	691.75
399.941	757.75
400.165	733.75
400.389	713.75
400.613	667.75
400.837	606.75
401.062	568.75
401.286	594.75
401.51	584.75
401.734	563.75
401.958	579.75
402.182	596.75
402.406	585.75
402.63	590.75
402.854	608.75
403.078	577.75
403.302	588.75
403.526	602.75
403.75	601.75
403.974	605.75
404.198	605.75
404.422	607.75
404.645	632.75
404.869	600.75
405.093	644.75
405.317	687.75
405.541	700.75
405.765	641.75
405.988	636.75
406.212	649.75
406.436	659.75
406.66	639.75
406.883	642.75
407.107	674.75
407.331	699.75
407.555	788.75
407.778	767.75
408.002	724.75
408.226	664.75
408.449	672.75
408.673	664.75
408.896	700.75
409.12	702.75
409.344	692.75
409.567	632.75
409.791	614.75
410.014	597.75
410.238	583.75
410.461	607.75
410.685	602.75
410.908	599.75
411.132	668.75
411.355	658.75
411.578	644.75
411.802	615.75
412.025	610.75
412.249	599.75
412.472	620.75
412.695	678.75
412.919	657.75
413.142	609.75
413.365	589.75
413.589	578.75
413.812	574.75
414.035	578.75
414.258	593.75
414.482	561.75
414.705	545.75
414.928	568.75
415.151	567.75
415.374	554.75
415.597	580.75
415.821	585.75
416.044	581.75
416.267	553.75
416.49	543.75
416.713	573.75
416.936	550.75
417.159	545.75
417.382	567.75
417.605	575.75
417.828	571.75
418.051	596.75
418.274	596.75
418.497	566.75
418.72	562.75
418.943	564.75
419.166	555.75
419.389	619.75
419.611	618.75
419.834	596.75
420.057	605.75
420.28	596.75
420.503	611.75
420.726	586.75
420.948	609.75
421.171	640.75
421.394	669.75
421.617	609.75
421.839	575.75
422.062	594.75
422.285	596.75
422.507	664.75
422.73	743.75
422.953	719.75
423.175	603.75
423.398	619.75
423.621	618.75
423.843	633.75
424.066	614.75
424.288	636.75
424.511	643.75
424.733	703.75
424.956	779.75
425.178	748.75
425.401	740.75
425.623	746.75
425.846	644.75
426.068	624.75
426.291	601.75
426.513	601.75
426.735	607.75
426.958	665.75
427.18	736.75
427.402	886.75
427.625	977.75
427.847	796.75
428.069	703.75
428.292	634.75
428.514	612.75
428.736	597.75
428.958	571.75
429.181	564.75
429.403	565.75
429.625	584.75
429.847	621.75
430.069	672.75
430.292	665.75
430.514	586.75
430.736	565.75
430.958	551.75
431.18	536.75
431.402	537.75
431.624	513.75
431.846	536.75
432.068	521.75
432.29	535.75
432.512	562.75
432.734	560.75
432.956	531.75
433.178	571.75
433.4	569.75
433.622	565.75
433.844	552.75
434.066	533.75
434.287	539.75
434.509	568.75
434.731	576.75
434.953	585.75
435.175	592.75
435.397	623.75
435.618	612.75
435.84	655.75
436.062	752.75
436.284	816.75
436.505	701.75
436.727	606.75
436.949	579.75
437.17	574.75
437.392	584.75
437.614	589.75
437.835	580.75
438.057	692.75
438.278	814.75
438.5	804.75
438.721	874.75
438.943	843.75
439.165	659.75
439.386	633.75
439.608	617.75
439.829	615.75
440.05	639.75
440.272	680.75
440.493	645.75
440.715	604.75
440.936	597.75
441.158	579.75
441.379	582.75
441.6	589.75
441.822	626.75
442.043	654.75
442.264	739.75
442.486	804.75
442.707	663.75
442.928	626.75
443.149	632.75
443.371	661.75
443.592	703.75
443.813	785.75
444.034	875.75
444.255	718.75
444.476	663.75
444.698	644.75
444.919	643.75
445.14	783.75
445.361	691.75
445.582	637.75
445.803	726.75
446.024	842.75
446.245	861.75
446.466	763.75
446.687	665.75
446.908	614.75
447.129	596.75
447.35	540.75
447.571	584.75
447.792	550.75
448.013	584.75
448.234	564.75
448.455	645.75
448.675	737.75
448.896	848.75
449.117	735.75
449.338	661.75
449.559	785.75
449.779	941.75
450	712.75
450.221	609.75
450.442	587.75
450.662	552.75
450.883	540.75
451.104	557.75
451.324	547.75
451.545	545.75
451.766	518.75
451.986	517.75
452.207	492.75
452.428	496.75
452.648	511.75
452.869	513.75
453.089	524.75
453.31	531.75
453.53	508.75
453.751	499.75
453.971	487.75
454.192	515.75
454.412	488.75
454.633	482.75
454.853	490.75
455.073	502.75
455.294	521.75
455.514	593.75
455.734	565.75
455.955	487.75
456.175	484.75
456.395	477.75
456.616	457.75
456.836	479.75
457.056	488.75
457.276	459.75
457.497	474.75
457.717	496.75
457.937	481.75
458.157	471.75
458.377	490.75
458.598	496.75
458.818	554.75
459.038	639.75
459.258	674.75
459.478	575.75
459.698	530.75
459.918	571.75
460.138	556.75
460.358	544.75
460.578	556.75
460.798	563.75
461.018	576.75
461.238	578.75
461.458	560.75
461.678	561.75
461.898	586.75
462.118	564.75
462.338	587.75
462.558	597.75
462.777	601.75
462.997	636.75
463.217	635.75
463.437	645.75
463.657	634.75
463.876	595.75
464.096	639.75
464.316	619.75
464.536	623.75
464.755	613.75
464.975	595.75
465.195	632.75
465.414	658.75
465.634	612.75
465.854	570.75
466.073	533.75
466.293	555.75
466.512	535.75
466.732	530.75
466.951	532.75
467.171	509.75
467.391	491.75
467.61	521.75
467.829	526.75
468.049	553.75
468.268	523.75
468.488	511.75
468.707	511.75
468.927	523.75
469.146	508.75
469.365	523.75
469.585	493.75
469.804	523.75
470.023	508.75
470.243	514.75
470.462	548.75
470.681	554.75
470.901	546.75
471.12	522.75
471.339	537.75
471.558	539.75
471.777	540.75
471.997	505.75
472.216	531.75
472.435	541.75
472.654	548.75
472.873	535.75
473.092	538.75
473.311	515.75
473.53	523.75
473.749	527.75
473.968	559.75
474.187	660.75
474.406	711.75
474.625	599.75
474.844	535.75
475.063	522.75
475.282	526.75
475.501	509.75
475.72	521.75
475.939	552.75
476.158	534.75
476.377	545.75
476.596	535.75
476.814	564.75
477.033	561.75
477.252	552.75
477.471	552.75
477.69	543.75
477.908	590.75
478.127	590.75
478.346	585.75
478.564	609.75
478.783	618.75
479.002	615.75
479.22	603.75
479.439	610.75
479.658	613.75
479.876	621.75
480.095	633.75
480.313	680.75
480.532	665.75
480.751	644.75
480.969	659.75
481.188	708.75
481.406	732.75
481.624	689.75
481.843	655.75
482.061	630.75
482.28	629.75
482.498	594.75
482.717	624.75
482.935	627.75
483.153	631.75
483.372	604.75
483.59	603.75
483.808	618.75
484.027	634.75
484.245	610.75
484.463	620.75
484.681	629.75
484.9	632.75
485.118	635.75
485.336	621.75
485.554	629.75
485.772	657.75
485.99	627.75
486.209	620.75
486.427	623.75
486.645	657.75
486.863	666.75
487.081	662.75
487.299	641.75
487.517	671.75
487.735	640.75
487.953	681.75
488.171	661.75
488.389	658.75
488.607	673.75
488.825	682.75
489.043	652.75
489.261	676.75
489.479	671.75
489.696	687.75
489.914	695.75
490.132	667.75
490.35	711.75
490.568	704.75
490.786	712.75
491.003	710.75
491.221	737.75
491.439	722.75
491.657	741.75
491.874	762.75
492.092	754.75
492.31	746.75
492.527	767.75
492.745	761.75
492.963	753.75
493.18	757.75
493.398	784.75
493.615	753.75
493.833	773.75
494.05	787.75
494.268	758.75
494.485	760.75
494.703	761.75
494.92	769.75
495.138	790.75
495.355	788.75
495.573	809.75
495.79	795.75
496.008	803.75
496.225	801.75
496.442	778.75
496.66	803.75
496.877	776.75
497.094	805.75
497.312	797.75
497.529	835.75
497.746	825.75
497.963	845.75
498.181	876.75
498.398	864.75
498.615	876.75
498.832	920.75
499.049	937.75
499.267	963.75
499.484	979.75
499.701	1036.75
499.918	1105.75
500.135	1185.75
500.352	1256.75
500.569	1280.75
500.786	1275.75
501.003	1290.75
501.22	1205.75
501.437	1130.75
501.654	1093.75
