Data from 1975.PennyLincolnUp.Lamp.En5.5.200Scan.071719.P1.Changed Mount._HRD10591_15-57-40-860.txt Node
Date: Thu Jul 18 15:57:40 EDT 2019
User: cochatt
Spectrometer: HR+D1059
Trigger mode: 1
Integration Time (sec): 1.000000E-1
Scans to average: 1
Electric dark correction enabled: true
Nonlinearity correction enabled: false
Boxcar width: 0
XAxis mode: Wavelengths
Number of Pixels in Spectrum: 2048
>>>>>Begin Spectral Data<<<<<
223.165	-26.69
223.4	-26.69
223.635	-26.69
223.869	-9.69
224.104	-18.69
224.338	-12.69
224.573	-10.69
224.808	-10.69
225.042	-8.69
225.277	-20.69
225.511	7.31
225.746	1.31
225.98	14.31
226.215	22.31
226.449	15.31
226.683	28.31
226.918	13.31
227.152	16.31
227.387	23.31
227.621	24.31
227.856	43.31
228.09	54.31
228.324	53.31
228.559	56.31
228.793	64.31
229.027	113.31
229.262	119.31
229.496	116.31
229.73	130.31
229.964	140.31
230.199	123.31
230.433	120.31
230.667	103.31
230.901	113.31
231.136	104.31
231.37	113.31
231.604	121.31
231.838	109.31
232.072	129.31
232.306	106.31
232.541	110.31
232.775	129.31
233.009	131.31
233.243	114.31
233.477	107.31
233.711	122.31
233.945	111.31
234.179	121.31
234.413	110.31
234.647	128.31
234.881	123.31
235.115	108.31
235.349	118.31
235.583	124.31
235.817	120.31
236.051	120.31
236.285	124.31
236.519	131.31
236.753	133.31
236.987	134.31
237.221	193.31
237.455	231.31
237.689	195.31
237.922	145.31
238.156	149.31
238.39	130.31
238.624	123.31
238.858	124.31
239.091	126.31
239.325	131.31
239.559	123.31
239.793	129.31
240.027	125.31
240.26	149.31
240.494	171.31
240.728	167.31
240.961	161.31
241.195	161.31
241.429	141.31
241.662	141.31
241.896	141.31
242.13	136.31
242.363	144.31
242.597	147.31
242.83	139.31
243.064	151.31
243.298	151.31
243.531	156.31
243.765	145.31
243.998	150.31
244.232	157.31
244.465	143.31
244.699	155.31
244.932	153.31
245.166	144.31
245.399	146.31
245.633	146.31
245.866	146.31
246.099	160.31
246.333	161.31
246.566	164.31
246.8	177.31
247.033	167.31
247.266	155.31
247.5	161.31
247.733	175.31
247.966	164.31
248.2	166.31
248.433	173.31
248.666	166.31
248.899	178.31
249.133	193.31
249.366	199.31
249.599	196.31
249.832	194.31
250.066	179.31
250.299	189.31
250.532	193.31
250.765	206.31
250.998	239.31
251.231	227.31
251.465	229.31
251.698	230.31
251.931	223.31
252.164	211.31
252.397	210.31
252.63	215.31
252.863	200.31
253.096	213.31
253.329	241.31
253.562	236.31
253.795	227.31
254.028	222.31
254.261	228.31
254.494	204.31
254.727	253.31
254.96	295.31
255.193	277.31
255.426	267.31
255.659	233.31
255.892	234.31
256.124	242.31
256.357	234.31
256.59	228.31
256.823	223.31
257.056	212.31
257.289	230.31
257.521	218.31
257.754	222.31
257.987	208.31
258.22	207.31
258.452	223.31
258.685	204.31
258.918	222.31
259.151	222.31
259.383	230.31
259.616	214.31
259.849	225.31
260.081	238.31
260.314	255.31
260.547	279.31
260.779	243.31
261.012	203.31
261.244	236.31
261.477	219.31
261.71	236.31
261.942	223.31
262.175	231.31
262.407	241.31
262.64	231.31
262.872	238.31
263.105	207.31
263.337	218.31
263.57	209.31
263.802	228.31
264.035	229.31
264.267	226.31
264.499	219.31
264.732	235.31
264.964	211.31
265.197	241.31
265.429	228.31
265.661	231.31
265.894	224.31
266.126	235.31
266.358	222.31
266.591	227.31
266.823	249.31
267.055	250.31
267.287	239.31
267.52	233.31
267.752	216.31
267.984	251.31
268.216	251.31
268.448	233.31
268.681	269.31
268.913	243.31
269.145	264.31
269.377	278.31
269.609	273.31
269.841	278.31
270.073	286.31
270.306	296.31
270.538	335.31
270.77	334.31
271.002	331.31
271.234	307.31
271.466	292.31
271.698	328.31
271.93	318.31
272.162	330.31
272.394	311.31
272.626	308.31
272.858	284.31
273.09	291.31
273.322	295.31
273.553	263.31
273.785	270.31
274.017	292.31
274.249	278.31
274.481	271.31
274.713	265.31
274.945	284.31
275.176	288.31
275.408	276.31
275.64	287.31
275.872	266.31
276.104	274.31
276.335	281.31
276.567	274.31
276.799	296.31
277.031	319.31
277.262	302.31
277.494	325.31
277.726	326.31
277.957	297.31
278.189	284.31
278.421	291.31
278.652	290.31
278.884	280.31
279.115	284.31
279.347	278.31
279.579	282.31
279.81	293.31
280.042	281.31
280.273	280.31
280.505	272.31
280.736	277.31
280.968	281.31
281.199	283.31
281.431	293.31
281.662	283.31
281.894	285.31
282.125	281.31
282.356	291.31
282.588	299.31
282.819	314.31
283.051	293.31
283.282	285.31
283.513	298.31
283.745	293.31
283.976	304.31
284.207	311.31
284.439	302.31
284.67	299.31
284.901	321.31
285.132	316.31
285.364	282.31
285.595	305.31
285.826	315.31
286.057	293.31
286.288	302.31
286.52	314.31
286.751	295.31
286.982	307.31
287.213	307.31
287.444	324.31
287.675	318.31
287.906	302.31
288.138	315.31
288.369	319.31
288.6	342.31
288.831	311.31
289.062	318.31
289.293	306.31
289.524	301.31
289.755	300.31
289.986	284.31
290.217	302.31
290.448	321.31
290.679	317.31
290.91	320.31
291.141	298.31
291.371	313.31
291.602	321.31
291.833	293.31
292.064	309.31
292.295	319.31
292.526	305.31
292.757	308.31
292.987	318.31
293.218	290.31
293.449	299.31
293.68	318.31
293.91	321.31
294.141	331.31
294.372	317.31
294.603	302.31
294.833	321.31
295.064	333.31
295.295	318.31
295.525	302.31
295.756	324.31
295.987	296.31
296.217	347.31
296.448	337.31
296.679	333.31
296.909	326.31
297.14	335.31
297.37	309.31
297.601	319.31
297.831	316.31
298.062	340.31
298.292	323.31
298.523	319.31
298.753	321.31
298.984	326.31
299.214	318.31
299.445	325.31
299.675	356.31
299.905	333.31
300.136	345.31
300.366	349.31
300.597	338.31
300.827	344.31
301.057	359.31
301.288	357.31
301.518	347.31
301.748	344.31
301.979	340.31
302.209	362.31
302.439	337.31
302.669	357.31
302.9	349.31
303.13	373.31
303.36	346.31
303.59	346.31
303.82	338.31
304.051	374.31
304.281	366.31
304.511	367.31
304.741	362.31
304.971	349.31
305.201	339.31
305.431	339.31
305.661	346.31
305.891	344.31
306.121	349.31
306.352	362.31
306.582	364.31
306.812	342.31
307.042	357.31
307.272	340.31
307.502	344.31
307.731	390.31
307.961	337.31
308.191	332.31
308.421	361.31
308.651	354.31
308.881	361.31
309.111	380.31
309.341	377.31
309.571	360.31
309.8	354.31
310.03	378.31
310.26	381.31
310.49	386.31
310.72	379.31
310.949	399.31
311.179	402.31
311.409	387.31
311.639	377.31
311.868	418.31
312.098	405.31
312.328	405.31
312.557	403.31
312.787	407.31
313.017	424.31
313.246	407.31
313.476	379.31
313.706	382.31
313.935	399.31
314.165	393.31
314.394	400.31
314.624	415.31
314.853	416.31
315.083	385.31
315.312	393.31
315.542	393.31
315.771	370.31
316.001	379.31
316.23	386.31
316.46	410.31
316.689	401.31
316.919	407.31
317.148	404.31
317.377	394.31
317.607	417.31
317.836	398.31
318.065	379.31
318.295	397.31
318.524	401.31
318.753	386.31
318.983	388.31
319.212	409.31
319.441	405.31
319.67	407.31
319.9	404.31
320.129	404.31
320.358	388.31
320.587	414.31
320.816	395.31
321.046	404.31
321.275	409.31
321.504	409.31
321.733	422.31
321.962	417.31
322.191	422.31
322.42	428.31
322.649	438.31
322.878	451.31
323.108	475.31
323.337	462.31
323.566	490.31
323.795	504.31
324.024	539.31
324.253	618.31
324.482	848.31
324.71	1274.31
324.939	1906.31
325.168	1720.31
325.397	869.31
325.626	597.31
325.855	530.31
326.084	500.31
326.313	469.31
326.542	504.31
326.77	525.31
326.999	615.31
327.228	801.31
327.457	1172.31
327.686	1485.31
327.914	982.31
328.143	656.31
328.372	579.31
328.6	574.31
328.829	552.31
329.058	542.31
329.287	552.31
329.515	510.31
329.744	489.31
329.972	502.31
330.201	538.31
330.43	551.31
330.658	568.31
330.887	556.31
331.115	589.31
331.344	524.31
331.572	506.31
331.801	485.31
332.03	497.31
332.258	483.31
332.486	488.31
332.715	482.31
332.943	467.31
333.172	463.31
333.4	503.31
333.629	490.31
333.857	533.31
334.085	531.31
334.314	559.31
334.542	549.31
334.771	566.31
334.999	540.31
335.227	514.31
335.455	500.31
335.684	506.31
335.912	476.31
336.14	457.31
336.369	486.31
336.597	471.31
336.825	499.31
337.053	481.31
337.281	456.31
337.51	483.31
337.738	458.31
337.966	473.31
338.194	472.31
338.422	454.31
338.65	486.31
338.878	468.31
339.106	471.31
339.334	457.31
339.562	453.31
339.79	446.31
340.018	435.31
340.246	445.31
340.474	469.31
340.702	452.31
340.93	453.31
341.158	441.31
341.386	452.31
341.614	453.31
341.842	466.31
342.07	450.31
342.298	453.31
342.526	455.31
342.754	446.31
342.981	451.31
343.209	442.31
343.437	471.31
343.665	458.31
343.893	497.31
344.12	501.31
344.348	487.31
344.576	465.31
344.804	460.31
345.031	474.31
345.259	458.31
345.487	464.31
345.714	461.31
345.942	444.31
346.17	437.31
346.397	451.31
346.625	434.31
346.853	423.31
347.08	439.31
347.308	458.31
347.535	436.31
347.763	438.31
347.99	442.31
348.218	456.31
348.445	469.31
348.673	452.31
348.9	436.31
349.128	428.31
349.355	421.31
349.583	438.31
349.81	436.31
350.037	423.31
350.265	403.31
350.492	403.31
350.72	437.31
350.947	439.31
351.174	428.31
351.402	442.31
351.629	436.31
351.856	447.31
352.083	460.31
352.311	441.31
352.538	449.31
352.765	442.31
352.992	430.31
353.22	460.31
353.447	442.31
353.674	438.31
353.901	410.31
354.128	429.31
354.355	440.31
354.583	429.31
354.81	414.31
355.037	394.31
355.264	424.31
355.491	397.31
355.718	400.31
355.945	422.31
356.172	414.31
356.399	422.31
356.626	411.31
356.853	420.31
357.08	401.31
357.307	411.31
357.534	400.31
357.761	415.31
357.988	428.31
358.215	433.31
358.441	415.31
358.668	425.31
358.895	431.31
359.122	437.31
359.349	422.31
359.576	429.31
359.802	454.31
360.029	470.31
360.256	482.31
360.483	458.31
360.709	434.31
360.936	457.31
361.163	430.31
361.39	451.31
361.616	424.31
361.843	444.31
362.07	424.31
362.296	450.31
362.523	451.31
362.749	444.31
362.976	425.31
363.203	439.31
363.429	413.31
363.656	414.31
363.882	428.31
364.109	411.31
364.335	427.31
364.562	426.31
364.788	426.31
365.015	437.31
365.241	450.31
365.468	437.31
365.694	430.31
365.92	419.31
366.147	431.31
366.373	429.31
366.599	405.31
366.826	424.31
367.052	439.31
367.278	407.31
367.505	419.31
367.731	454.31
367.957	420.31
368.184	446.31
368.41	432.31
368.636	420.31
368.862	430.31
369.089	449.31
369.315	421.31
369.541	422.31
369.767	429.31
369.993	422.31
370.219	421.31
370.445	450.31
370.672	415.31
370.898	412.31
371.124	434.31
371.35	431.31
371.576	434.31
371.802	427.31
372.028	433.31
372.254	427.31
372.48	451.31
372.706	438.31
372.932	433.31
373.158	432.31
373.384	435.31
373.61	433.31
373.835	430.31
374.061	431.31
374.287	442.31
374.513	438.31
374.739	441.31
374.965	475.31
375.191	456.31
375.416	457.31
375.642	435.31
375.868	447.31
376.094	419.31
376.319	430.31
376.545	436.31
376.771	425.31
376.997	440.31
377.222	441.31
377.448	439.31
377.674	420.31
377.899	421.31
378.125	426.31
378.35	425.31
378.576	418.31
378.802	434.31
379.027	436.31
379.253	447.31
379.478	416.31
379.704	432.31
379.929	422.31
380.155	423.31
380.38	418.31
380.606	434.31
380.831	430.31
381.057	433.31
381.282	430.31
381.507	444.31
381.733	430.31
381.958	463.31
382.184	436.31
382.409	429.31
382.634	449.31
382.86	449.31
383.085	455.31
383.31	443.31
383.535	444.31
383.761	468.31
383.986	470.31
384.211	460.31
384.436	475.31
384.662	482.31
384.887	475.31
385.112	492.31
385.337	462.31
385.562	474.31
385.787	466.31
386.013	497.31
386.238	479.31
386.463	478.31
386.688	477.31
386.913	489.31
387.138	487.31
387.363	477.31
387.588	485.31
387.813	481.31
388.038	467.31
388.263	479.31
388.488	497.31
388.713	486.31
388.938	485.31
389.163	493.31
389.387	502.31
389.612	480.31
389.837	483.31
390.062	474.31
390.287	490.31
390.512	485.31
390.736	490.31
390.961	485.31
391.186	490.31
391.411	488.31
391.636	499.31
391.86	505.31
392.085	504.31
392.31	496.31
392.534	511.31
392.759	506.31
392.984	494.31
393.208	513.31
393.433	486.31
393.658	499.31
393.882	491.31
394.107	505.31
394.331	490.31
394.556	504.31
394.78	492.31
395.005	507.31
395.229	507.31
395.454	505.31
395.678	533.31
395.903	526.31
396.127	517.31
396.352	541.31
396.576	541.31
396.801	508.31
397.025	504.31
397.249	500.31
397.474	525.31
397.698	542.31
397.922	541.31
398.147	549.31
398.371	557.31
398.595	559.31
398.82	567.31
399.044	584.31
399.268	593.31
399.492	659.31
399.717	679.31
399.941	699.31
400.165	715.31
400.389	716.31
400.613	641.31
400.837	617.31
401.062	597.31
401.286	603.31
401.51	592.31
401.734	577.31
401.958	571.31
402.182	566.31
402.406	583.31
402.63	589.31
402.854	570.31
403.078	602.31
403.302	595.31
403.526	635.31
403.75	601.31
403.974	585.31
404.198	583.31
404.422	605.31
404.645	614.31
404.869	616.31
405.093	636.31
405.317	703.31
405.541	719.31
405.765	661.31
405.988	597.31
406.212	613.31
406.436	634.31
406.66	651.31
406.883	638.31
407.107	688.31
407.331	714.31
407.555	777.31
407.778	761.31
408.002	720.31
408.226	651.31
408.449	639.31
408.673	634.31
408.896	670.31
409.12	730.31
409.344	678.31
409.567	647.31
409.791	614.31
410.014	599.31
410.238	606.31
410.461	605.31
410.685	591.31
410.908	594.31
411.132	636.31
411.355	670.31
411.578	642.31
411.802	567.31
412.025	587.31
412.249	601.31
412.472	621.31
412.695	681.31
412.919	660.31
413.142	628.31
413.365	582.31
413.589	567.31
413.812	563.31
414.035	578.31
414.258	550.31
414.482	585.31
414.705	547.31
414.928	565.31
415.151	581.31
415.374	558.31
415.597	587.31
415.821	547.31
416.044	585.31
416.267	561.31
416.49	572.31
416.713	554.31
416.936	556.31
417.159	558.31
417.382	561.31
417.605	553.31
417.828	571.31
418.051	592.31
418.274	571.31
418.497	589.31
418.72	554.31
418.943	549.31
419.166	585.31
419.389	621.31
419.611	593.31
419.834	612.31
420.057	608.31
420.28	605.31
420.503	579.31
420.726	575.31
420.948	592.31
421.171	636.31
421.394	685.31
421.617	629.31
421.839	592.31
422.062	596.31
422.285	626.31
422.507	644.31
422.73	709.31
422.953	687.31
423.175	638.31
423.398	602.31
423.621	601.31
423.843	630.31
424.066	641.31
424.288	640.31
424.511	646.31
424.733	685.31
424.956	767.31
425.178	748.31
425.401	750.31
425.623	778.31
425.846	679.31
426.068	622.31
426.291	615.31
426.513	627.31
426.735	605.31
426.958	665.31
427.18	707.31
427.402	850.31
427.625	936.31
427.847	808.31
428.069	725.31
428.292	662.31
428.514	570.31
428.736	579.31
428.958	591.31
429.181	565.31
429.403	575.31
429.625	580.31
429.847	617.31
430.069	648.31
430.292	667.31
430.514	603.31
430.736	572.31
430.958	571.31
431.18	573.31
431.402	570.31
431.624	532.31
431.846	534.31
432.068	538.31
432.29	541.31
432.512	534.31
432.734	559.31
432.956	547.31
433.178	543.31
433.4	573.31
433.622	536.31
433.844	543.31
434.066	547.31
434.287	554.31
434.509	541.31
434.731	541.31
434.953	578.31
435.175	595.31
435.397	609.31
435.618	589.31
435.84	650.31
436.062	750.31
436.284	820.31
436.505	714.31
436.727	628.31
436.949	593.31
437.17	566.31
437.392	575.31
437.614	596.31
437.835	601.31
438.057	694.31
438.278	814.31
438.5	833.31
438.721	888.31
438.943	875.31
439.165	683.31
439.386	644.31
439.608	631.31
439.829	629.31
440.05	628.31
440.272	656.31
440.493	645.31
440.715	596.31
440.936	596.31
441.158	558.31
441.379	572.31
441.6	590.31
441.822	619.31
442.043	679.31
442.264	744.31
442.486	799.31
442.707	691.31
442.928	661.31
443.149	638.31
443.371	662.31
443.592	676.31
443.813	814.31
444.034	878.31
444.255	726.31
444.476	626.31
444.698	656.31
444.919	649.31
445.14	754.31
445.361	667.31
445.582	659.31
445.803	723.31
446.024	827.31
446.245	831.31
446.466	767.31
446.687	648.31
446.908	611.31
447.129	547.31
447.35	550.31
447.571	578.31
447.792	575.31
448.013	551.31
448.234	587.31
448.455	642.31
448.675	749.31
448.896	875.31
449.117	735.31
449.338	695.31
449.559	821.31
449.779	906.31
450	723.31
450.221	609.31
450.442	558.31
450.662	489.31
450.883	557.31
451.104	569.31
451.324	539.31
451.545	503.31
451.766	524.31
451.986	503.31
452.207	486.31
452.428	517.31
452.648	480.31
452.869	492.31
453.089	519.31
453.31	515.31
453.53	513.31
453.751	518.31
453.971	489.31
454.192	515.31
454.412	498.31
454.633	481.31
454.853	484.31
455.073	486.31
455.294	518.31
455.514	583.31
455.734	599.31
455.955	522.31
456.175	492.31
456.395	477.31
456.616	487.31
456.836	466.31
457.056	475.31
457.276	458.31
457.497	486.31
457.717	486.31
457.937	472.31
458.157	510.31
458.377	476.31
458.598	497.31
458.818	566.31
459.038	638.31
459.258	656.31
459.478	586.31
459.698	555.31
459.918	534.31
460.138	522.31
460.358	574.31
460.578	572.31
460.798	579.31
461.018	575.31
461.238	590.31
461.458	592.31
461.678	573.31
461.898	606.31
462.118	570.31
462.338	573.31
462.558	604.31
462.777	575.31
462.997	611.31
463.217	625.31
463.437	662.31
463.657	631.31
463.876	610.31
464.096	627.31
464.316	605.31
464.536	606.31
464.755	596.31
464.975	606.31
465.195	606.31
465.414	674.31
465.634	599.31
465.854	581.31
466.073	538.31
466.293	533.31
466.512	546.31
466.732	521.31
466.951	520.31
467.171	524.31
467.391	525.31
467.61	524.31
467.829	524.31
468.049	528.31
468.268	519.31
468.488	488.31
468.707	487.31
468.927	503.31
469.146	496.31
469.365	490.31
469.585	502.31
469.804	524.31
470.023	532.31
470.243	525.31
470.462	561.31
470.681	521.31
470.901	550.31
471.12	531.31
471.339	533.31
471.558	525.31
471.777	544.31
471.997	527.31
472.216	543.31
472.435	566.31
472.654	553.31
472.873	537.31
473.092	522.31
473.311	535.31
473.53	517.31
473.749	510.31
473.968	558.31
474.187	661.31
474.406	675.31
474.625	595.31
474.844	553.31
475.063	498.31
475.282	515.31
475.501	525.31
475.72	551.31
475.939	521.31
476.158	529.31
476.377	558.31
476.596	547.31
476.814	542.31
477.033	535.31
477.252	532.31
477.471	558.31
477.69	555.31
477.908	570.31
478.127	574.31
478.346	588.31
478.564	594.31
478.783	609.31
479.002	621.31
479.22	612.31
479.439	614.31
479.658	612.31
479.876	633.31
480.095	629.31
480.313	676.31
480.532	659.31
480.751	651.31
480.969	676.31
481.188	701.31
481.406	747.31
481.624	695.31
481.843	636.31
482.061	611.31
482.28	611.31
482.498	625.31
482.717	610.31
482.935	602.31
483.153	610.31
483.372	634.31
483.59	628.31
483.808	617.31
484.027	610.31
484.245	620.31
484.463	609.31
484.681	620.31
484.9	615.31
485.118	642.31
485.336	642.31
485.554	651.31
485.772	651.31
485.99	635.31
486.209	658.31
486.427	641.31
486.645	645.31
486.863	693.31
487.081	648.31
487.299	650.31
487.517	646.31
487.735	665.31
487.953	654.31
488.171	659.31
488.389	651.31
488.607	653.31
488.825	673.31
489.043	652.31
489.261	651.31
489.479	675.31
489.696	674.31
489.914	651.31
490.132	667.31
490.35	666.31
490.568	674.31
490.786	691.31
491.003	713.31
491.221	718.31
491.439	774.31
491.657	760.31
491.874	756.31
492.092	776.31
492.31	747.31
492.527	786.31
492.745	753.31
492.963	781.31
493.18	761.31
493.398	782.31
493.615	789.31
493.833	789.31
494.05	790.31
494.268	769.31
494.485	789.31
494.703	787.31
494.92	785.31
495.138	781.31
495.355	796.31
495.573	810.31
495.79	780.31
496.008	789.31
496.225	773.31
496.442	787.31
496.66	818.31
496.877	785.31
497.094	804.31
497.312	818.31
497.529	817.31
497.746	818.31
497.963	830.31
498.181	876.31
498.398	861.31
498.615	900.31
498.832	917.31
499.049	942.31
499.267	963.31
499.484	1032.31
499.701	1065.31
499.918	1141.31
500.135	1153.31
500.352	1257.31
500.569	1256.31
500.786	1254.31
501.003	1235.31
501.22	1203.31
501.437	1142.31
501.654	1090.31
