Data from 1975.PennyLincolnUp.Lamp.En5.5.200Scan.071719.P1.Changed Mount._HRD10591_15-58-25-859.txt Node
Date: Thu Jul 18 15:58:25 EDT 2019
User: cochatt
Spectrometer: HR+D1059
Trigger mode: 1
Integration Time (sec): 1.000000E-1
Scans to average: 1
Electric dark correction enabled: true
Nonlinearity correction enabled: false
Boxcar width: 0
XAxis mode: Wavelengths
Number of Pixels in Spectrum: 2048
>>>>>Begin Spectral Data<<<<<
223.165	-5.69
223.4	-5.69
223.635	-5.69
223.869	-21.69
224.104	-11.69
224.338	-4.69
224.573	-26.69
224.808	-3.69
225.042	-3.69
225.277	-20.69
225.511	-11.69
225.746	5.31
225.98	9.31
226.215	2.31
226.449	25.31
226.683	24.31
226.918	15.31
227.152	28.31
227.387	33.31
227.621	29.31
227.856	53.31
228.09	34.31
228.324	53.31
228.559	58.31
228.793	68.31
229.027	98.31
229.262	101.31
229.496	115.31
229.73	133.31
229.964	164.31
230.199	119.31
230.433	123.31
230.667	127.31
230.901	113.31
231.136	111.31
231.37	115.31
231.604	124.31
231.838	124.31
232.072	114.31
232.306	119.31
232.541	112.31
232.775	120.31
233.009	110.31
233.243	134.31
233.477	126.31
233.711	119.31
233.945	116.31
234.179	118.31
234.413	120.31
234.647	121.31
234.881	119.31
235.115	119.31
235.349	139.31
235.583	111.31
235.817	129.31
236.051	125.31
236.285	128.31
236.519	112.31
236.753	124.31
236.987	140.31
237.221	174.31
237.455	255.31
237.689	181.31
237.922	154.31
238.156	131.31
238.39	132.31
238.624	119.31
238.858	132.31
239.091	112.31
239.325	112.31
239.559	128.31
239.793	150.31
240.027	148.31
240.26	146.31
240.494	156.31
240.728	140.31
240.961	152.31
241.195	148.31
241.429	150.31
241.662	129.31
241.896	148.31
242.13	133.31
242.363	134.31
242.597	149.31
242.83	142.31
243.064	146.31
243.298	148.31
243.531	167.31
243.765	154.31
243.998	141.31
244.232	151.31
244.465	136.31
244.699	139.31
244.932	155.31
245.166	152.31
245.399	143.31
245.633	142.31
245.866	159.31
246.099	158.31
246.333	144.31
246.566	163.31
246.8	159.31
247.033	153.31
247.266	156.31
247.5	181.31
247.733	182.31
247.966	182.31
248.2	179.31
248.433	168.31
248.666	165.31
248.899	190.31
249.133	199.31
249.366	216.31
249.599	224.31
249.832	190.31
250.066	192.31
250.299	171.31
250.532	196.31
250.765	209.31
250.998	227.31
251.231	233.31
251.465	226.31
251.698	221.31
251.931	216.31
252.164	216.31
252.397	205.31
252.63	214.31
252.863	217.31
253.096	219.31
253.329	251.31
253.562	238.31
253.795	224.31
254.028	213.31
254.261	235.31
254.494	235.31
254.727	271.31
254.96	277.31
255.193	288.31
255.426	252.31
255.659	244.31
255.892	246.31
256.124	251.31
256.357	246.31
256.59	212.31
256.823	224.31
257.056	225.31
257.289	219.31
257.521	230.31
257.754	215.31
257.987	223.31
258.22	230.31
258.452	215.31
258.685	216.31
258.918	229.31
259.151	215.31
259.383	248.31
259.616	245.31
259.849	227.31
260.081	243.31
260.314	260.31
260.547	259.31
260.779	245.31
261.012	245.31
261.244	234.31
261.477	211.31
261.71	231.31
261.942	226.31
262.175	250.31
262.407	235.31
262.64	247.31
262.872	225.31
263.105	228.31
263.337	223.31
263.57	226.31
263.802	221.31
264.035	217.31
264.267	233.31
264.499	210.31
264.732	210.31
264.964	220.31
265.197	228.31
265.429	242.31
265.661	231.31
265.894	218.31
266.126	214.31
266.358	231.31
266.591	216.31
266.823	255.31
267.055	213.31
267.287	246.31
267.52	231.31
267.752	226.31
267.984	254.31
268.216	242.31
268.448	251.31
268.681	258.31
268.913	257.31
269.145	247.31
269.377	277.31
269.609	290.31
269.841	280.31
270.073	291.31
270.306	304.31
270.538	329.31
270.77	350.31
271.002	302.31
271.234	300.31
271.466	323.31
271.698	330.31
271.93	335.31
272.162	327.31
272.394	309.31
272.626	303.31
272.858	303.31
273.09	304.31
273.322	284.31
273.553	282.31
273.785	265.31
274.017	272.31
274.249	282.31
274.481	292.31
274.713	265.31
274.945	275.31
275.176	290.31
275.408	308.31
275.64	277.31
275.872	302.31
276.104	276.31
276.335	287.31
276.567	285.31
276.799	304.31
277.031	341.31
277.262	326.31
277.494	334.31
277.726	322.31
277.957	306.31
278.189	300.31
278.421	301.31
278.652	286.31
278.884	286.31
279.115	278.31
279.347	306.31
279.579	287.31
279.81	277.31
280.042	276.31
280.273	287.31
280.505	293.31
280.736	297.31
280.968	283.31
281.199	289.31
281.431	289.31
281.662	284.31
281.894	293.31
282.125	283.31
282.356	311.31
282.588	304.31
282.819	329.31
283.051	288.31
283.282	309.31
283.513	282.31
283.745	304.31
283.976	294.31
284.207	304.31
284.439	300.31
284.67	312.31
284.901	305.31
285.132	307.31
285.364	295.31
285.595	300.31
285.826	295.31
286.057	306.31
286.288	312.31
286.52	318.31
286.751	318.31
286.982	297.31
287.213	310.31
287.444	290.31
287.675	307.31
287.906	331.31
288.138	331.31
288.369	332.31
288.6	333.31
288.831	329.31
289.062	307.31
289.293	319.31
289.524	308.31
289.755	315.31
289.986	322.31
290.217	318.31
290.448	329.31
290.679	318.31
290.91	323.31
291.141	312.31
291.371	316.31
291.602	318.31
291.833	317.31
292.064	299.31
292.295	303.31
292.526	295.31
292.757	304.31
292.987	313.31
293.218	320.31
293.449	321.31
293.68	306.31
293.91	310.31
294.141	321.31
294.372	326.31
294.603	324.31
294.833	322.31
295.064	322.31
295.295	306.31
295.525	316.31
295.756	328.31
295.987	328.31
296.217	336.31
296.448	347.31
296.679	336.31
296.909	311.31
297.14	319.31
297.37	323.31
297.601	314.31
297.831	322.31
298.062	340.31
298.292	325.31
298.523	316.31
298.753	331.31
298.984	328.31
299.214	342.31
299.445	323.31
299.675	336.31
299.905	352.31
300.136	339.31
300.366	339.31
300.597	340.31
300.827	343.31
301.057	350.31
301.288	351.31
301.518	353.31
301.748	348.31
301.979	359.31
302.209	364.31
302.439	359.31
302.669	335.31
302.9	339.31
303.13	369.31
303.36	346.31
303.59	342.31
303.82	349.31
304.051	344.31
304.281	371.31
304.511	359.31
304.741	335.31
304.971	370.31
305.201	370.31
305.431	349.31
305.661	367.31
305.891	347.31
306.121	364.31
306.352	366.31
306.582	351.31
306.812	345.31
307.042	359.31
307.272	347.31
307.502	344.31
307.731	367.31
307.961	371.31
308.191	354.31
308.421	361.31
308.651	360.31
308.881	371.31
309.111	370.31
309.341	362.31
309.571	375.31
309.8	357.31
310.03	371.31
310.26	379.31
310.49	392.31
310.72	396.31
310.949	413.31
311.179	408.31
311.409	397.31
311.639	396.31
311.868	413.31
312.098	389.31
312.328	377.31
312.557	425.31
312.787	398.31
313.017	397.31
313.246	415.31
313.476	398.31
313.706	392.31
313.935	388.31
314.165	414.31
314.394	428.31
314.624	427.31
314.853	408.31
315.083	414.31
315.312	399.31
315.542	390.31
315.771	394.31
316.001	389.31
316.23	389.31
316.46	403.31
316.689	412.31
316.919	406.31
317.148	415.31
317.377	398.31
317.607	415.31
317.836	398.31
318.065	409.31
318.295	404.31
318.524	402.31
318.753	404.31
318.983	384.31
319.212	398.31
319.441	430.31
319.67	404.31
319.9	395.31
320.129	399.31
320.358	386.31
320.587	396.31
320.816	399.31
321.046	414.31
321.275	420.31
321.504	412.31
321.733	413.31
321.962	426.31
322.191	431.31
322.42	428.31
322.649	436.31
322.878	459.31
323.108	465.31
323.337	480.31
323.566	503.31
323.795	516.31
324.024	525.31
324.253	646.31
324.482	873.31
324.71	1307.31
324.939	1973.31
325.168	1767.31
325.397	883.31
325.626	603.31
325.855	515.31
326.084	495.31
326.313	483.31
326.542	507.31
326.77	518.31
326.999	612.31
327.228	808.31
327.457	1194.31
327.686	1520.31
327.914	1022.31
328.143	675.31
328.372	584.31
328.6	565.31
328.829	555.31
329.058	575.31
329.287	554.31
329.515	546.31
329.744	526.31
329.972	509.31
330.201	517.31
330.43	554.31
330.658	574.31
330.887	567.31
331.115	575.31
331.344	490.31
331.572	500.31
331.801	503.31
332.03	508.31
332.258	490.31
332.486	488.31
332.715	485.31
332.943	461.31
333.172	484.31
333.4	498.31
333.629	494.31
333.857	511.31
334.085	538.31
334.314	536.31
334.542	556.31
334.771	572.31
334.999	537.31
335.227	521.31
335.455	507.31
335.684	504.31
335.912	482.31
336.14	484.31
336.369	470.31
336.597	473.31
336.825	486.31
337.053	467.31
337.281	458.31
337.51	474.31
337.738	475.31
337.966	483.31
338.194	479.31
338.422	471.31
338.65	468.31
338.878	476.31
339.106	461.31
339.334	449.31
339.562	455.31
339.79	464.31
340.018	474.31
340.246	476.31
340.474	468.31
340.702	462.31
340.93	454.31
341.158	469.31
341.386	458.31
341.614	458.31
341.842	465.31
342.07	453.31
342.298	442.31
342.526	455.31
342.754	463.31
342.981	428.31
343.209	432.31
343.437	444.31
343.665	468.31
343.893	491.31
344.12	490.31
344.348	492.31
344.576	475.31
344.804	492.31
345.031	450.31
345.259	471.31
345.487	461.31
345.714	454.31
345.942	452.31
346.17	424.31
346.397	436.31
346.625	434.31
346.853	455.31
347.08	442.31
347.308	439.31
347.535	430.31
347.763	441.31
347.99	459.31
348.218	449.31
348.445	463.31
348.673	455.31
348.9	453.31
349.128	421.31
349.355	426.31
349.583	426.31
349.81	429.31
350.037	415.31
350.265	416.31
350.492	459.31
350.72	440.31
350.947	436.31
351.174	452.31
351.402	457.31
351.629	443.31
351.856	437.31
352.083	450.31
352.311	458.31
352.538	449.31
352.765	445.31
352.992	469.31
353.22	464.31
353.447	446.31
353.674	452.31
353.901	424.31
354.128	407.31
354.355	421.31
354.583	430.31
354.81	435.31
355.037	426.31
355.264	412.31
355.491	421.31
355.718	418.31
355.945	411.31
356.172	423.31
356.399	429.31
356.626	421.31
356.853	422.31
357.08	436.31
357.307	420.31
357.534	410.31
357.761	418.31
357.988	433.31
358.215	419.31
358.441	432.31
358.668	436.31
358.895	438.31
359.122	423.31
359.349	419.31
359.576	458.31
359.802	457.31
360.029	469.31
360.256	481.31
360.483	467.31
360.709	430.31
360.936	444.31
361.163	464.31
361.39	449.31
361.616	452.31
361.843	453.31
362.07	439.31
362.296	447.31
362.523	432.31
362.749	447.31
362.976	446.31
363.203	452.31
363.429	406.31
363.656	412.31
363.882	434.31
364.109	426.31
364.335	426.31
364.562	429.31
364.788	416.31
365.015	425.31
365.241	424.31
365.468	430.31
365.694	440.31
365.92	446.31
366.147	418.31
366.373	423.31
366.599	442.31
366.826	418.31
367.052	441.31
367.278	419.31
367.505	426.31
367.731	431.31
367.957	422.31
368.184	415.31
368.41	445.31
368.636	438.31
368.862	437.31
369.089	421.31
369.315	420.31
369.541	436.31
369.767	440.31
369.993	434.31
370.219	437.31
370.445	436.31
370.672	437.31
370.898	436.31
371.124	424.31
371.35	436.31
371.576	446.31
371.802	433.31
372.028	431.31
372.254	438.31
372.48	451.31
372.706	435.31
372.932	434.31
373.158	423.31
373.384	441.31
373.61	459.31
373.835	454.31
374.061	432.31
374.287	453.31
374.513	446.31
374.739	450.31
374.965	451.31
375.191	453.31
375.416	460.31
375.642	440.31
375.868	445.31
376.094	435.31
376.319	445.31
376.545	435.31
376.771	431.31
376.997	440.31
377.222	453.31
377.448	434.31
377.674	434.31
377.899	458.31
378.125	440.31
378.35	428.31
378.576	427.31
378.802	425.31
379.027	429.31
379.253	428.31
379.478	438.31
379.704	436.31
379.929	413.31
380.155	421.31
380.38	439.31
380.606	439.31
380.831	440.31
381.057	449.31
381.282	432.31
381.507	435.31
381.733	463.31
381.958	443.31
382.184	430.31
382.409	450.31
382.634	458.31
382.86	442.31
383.085	436.31
383.31	455.31
383.535	450.31
383.761	482.31
383.986	454.31
384.211	486.31
384.436	473.31
384.662	442.31
384.887	462.31
385.112	472.31
385.337	493.31
385.562	482.31
385.787	479.31
386.013	501.31
386.238	488.31
386.463	487.31
386.688	483.31
386.913	468.31
387.138	466.31
387.363	476.31
387.588	491.31
387.813	497.31
388.038	498.31
388.263	486.31
388.488	488.31
388.713	494.31
388.938	485.31
389.163	472.31
389.387	513.31
389.612	495.31
389.837	504.31
390.062	478.31
390.287	480.31
390.512	493.31
390.736	471.31
390.961	479.31
391.186	481.31
391.411	477.31
391.636	489.31
391.86	534.31
392.085	528.31
392.31	516.31
392.534	495.31
392.759	503.31
392.984	479.31
393.208	483.31
393.433	515.31
393.658	487.31
393.882	506.31
394.107	500.31
394.331	482.31
394.556	512.31
394.78	488.31
395.005	475.31
395.229	512.31
395.454	516.31
395.678	526.31
395.903	517.31
396.127	564.31
396.352	570.31
396.576	511.31
396.801	502.31
397.025	490.31
397.249	524.31
397.474	540.31
397.698	531.31
397.922	542.31
398.147	529.31
398.371	559.31
398.595	557.31
398.82	559.31
399.044	604.31
399.268	591.31
399.492	649.31
399.717	685.31
399.941	718.31
400.165	750.31
400.389	718.31
400.613	666.31
400.837	619.31
401.062	582.31
401.286	571.31
401.51	570.31
401.734	551.31
401.958	579.31
402.182	564.31
402.406	576.31
402.63	588.31
402.854	583.31
403.078	583.31
403.302	582.31
403.526	614.31
403.75	607.31
403.974	599.31
404.198	592.31
404.422	604.31
404.645	617.31
404.869	621.31
405.093	652.31
405.317	695.31
405.541	719.31
405.765	669.31
405.988	645.31
406.212	634.31
406.436	628.31
406.66	655.31
406.883	634.31
407.107	654.31
407.331	722.31
407.555	760.31
407.778	792.31
408.002	714.31
408.226	656.31
408.449	669.31
408.673	664.31
408.896	685.31
409.12	717.31
409.344	682.31
409.567	635.31
409.791	630.31
410.014	629.31
410.238	588.31
410.461	617.31
410.685	582.31
410.908	604.31
411.132	655.31
411.355	678.31
411.578	643.31
411.802	619.31
412.025	608.31
412.249	586.31
412.472	636.31
412.695	684.31
412.919	664.31
413.142	610.31
413.365	610.31
413.589	583.31
413.812	578.31
414.035	554.31
414.258	551.31
414.482	570.31
414.705	586.31
414.928	589.31
415.151	565.31
415.374	568.31
415.597	571.31
415.821	568.31
416.044	551.31
416.267	559.31
416.49	571.31
416.713	561.31
416.936	571.31
417.159	563.31
417.382	559.31
417.605	573.31
417.828	586.31
418.051	616.31
418.274	555.31
418.497	583.31
418.72	584.31
418.943	554.31
419.166	610.31
419.389	623.31
419.611	613.31
419.834	608.31
420.057	598.31
420.28	592.31
420.503	588.31
420.726	580.31
420.948	608.31
421.171	650.31
421.394	689.31
421.617	603.31
421.839	595.31
422.062	602.31
422.285	578.31
422.507	640.31
422.73	723.31
422.953	732.31
423.175	646.31
423.398	617.31
423.621	607.31
423.843	648.31
424.066	632.31
424.288	634.31
424.511	649.31
424.733	702.31
424.956	775.31
425.178	749.31
425.401	756.31
425.623	768.31
425.846	658.31
426.068	646.31
426.291	615.31
426.513	587.31
426.735	630.31
426.958	666.31
427.18	741.31
427.402	896.31
427.625	946.31
427.847	845.31
428.069	740.31
428.292	645.31
428.514	617.31
428.736	608.31
428.958	584.31
429.181	566.31
429.403	574.31
429.625	572.31
429.847	595.31
430.069	682.31
430.292	660.31
430.514	591.31
430.736	581.31
430.958	567.31
431.18	553.31
431.402	559.31
431.624	542.31
431.846	538.31
432.068	552.31
432.29	545.31
432.512	537.31
432.734	568.31
432.956	540.31
433.178	557.31
433.4	567.31
433.622	555.31
433.844	558.31
434.066	554.31
434.287	575.31
434.509	541.31
434.731	579.31
434.953	571.31
435.175	584.31
435.397	616.31
435.618	633.31
435.84	642.31
436.062	746.31
436.284	814.31
436.505	679.31
436.727	641.31
436.949	596.31
437.17	579.31
437.392	547.31
437.614	557.31
437.835	598.31
438.057	705.31
438.278	837.31
438.5	834.31
438.721	899.31
438.943	851.31
439.165	672.31
439.386	634.31
439.608	609.31
439.829	610.31
440.05	634.31
440.272	656.31
440.493	660.31
440.715	598.31
440.936	592.31
441.158	572.31
441.379	588.31
441.6	601.31
441.822	588.31
442.043	648.31
442.264	747.31
442.486	787.31
442.707	692.31
442.928	634.31
443.149	657.31
443.371	682.31
443.592	704.31
443.813	841.31
444.034	888.31
444.255	720.31
444.476	671.31
444.698	659.31
444.919	636.31
445.14	766.31
445.361	711.31
445.582	664.31
445.803	742.31
446.024	848.31
446.245	820.31
446.466	767.31
446.687	668.31
446.908	621.31
447.129	586.31
447.35	558.31
447.571	577.31
447.792	544.31
448.013	566.31
448.234	566.31
448.455	633.31
448.675	772.31
448.896	868.31
449.117	736.31
449.338	697.31
449.559	787.31
449.779	922.31
450	742.31
450.221	613.31
450.442	568.31
450.662	538.31
450.883	560.31
451.104	542.31
451.324	544.31
451.545	526.31
451.766	518.31
451.986	519.31
452.207	508.31
452.428	504.31
452.648	494.31
452.869	508.31
453.089	504.31
453.31	519.31
453.53	510.31
453.751	509.31
453.971	522.31
454.192	502.31
454.412	495.31
454.633	496.31
454.853	500.31
455.073	519.31
455.294	495.31
455.514	584.31
455.734	591.31
455.955	495.31
456.175	483.31
456.395	492.31
456.616	483.31
456.836	487.31
457.056	475.31
457.276	454.31
457.497	479.31
457.717	481.31
457.937	489.31
458.157	493.31
458.377	496.31
458.598	503.31
458.818	576.31
459.038	638.31
459.258	658.31
459.478	591.31
459.698	564.31
459.918	528.31
460.138	527.31
460.358	573.31
460.578	554.31
460.798	572.31
461.018	562.31
461.238	568.31
461.458	550.31
461.678	558.31
461.898	561.31
462.118	574.31
462.338	588.31
462.558	578.31
462.777	615.31
462.997	628.31
463.217	644.31
463.437	656.31
463.657	634.31
463.876	613.31
464.096	616.31
464.316	622.31
464.536	630.31
464.755	612.31
464.975	635.31
465.195	634.31
465.414	676.31
465.634	598.31
465.854	572.31
466.073	571.31
466.293	541.31
466.512	540.31
466.732	531.31
466.951	505.31
467.171	556.31
467.391	531.31
467.61	539.31
467.829	523.31
468.049	549.31
468.268	520.31
468.488	529.31
468.707	490.31
468.927	492.31
469.146	511.31
469.365	514.31
469.585	534.31
469.804	526.31
470.023	524.31
470.243	539.31
470.462	536.31
470.681	544.31
470.901	536.31
471.12	544.31
471.339	546.31
471.558	521.31
471.777	547.31
471.997	495.31
472.216	516.31
472.435	547.31
472.654	567.31
472.873	532.31
473.092	522.31
473.311	525.31
473.53	530.31
473.749	538.31
473.968	585.31
474.187	689.31
474.406	710.31
474.625	610.31
474.844	516.31
475.063	545.31
475.282	508.31
475.501	549.31
475.72	532.31
475.939	529.31
476.158	526.31
476.377	553.31
476.596	525.31
476.814	555.31
477.033	543.31
477.252	559.31
477.471	550.31
477.69	569.31
477.908	570.31
478.127	575.31
478.346	586.31
478.564	606.31
478.783	600.31
479.002	605.31
479.22	605.31
479.439	620.31
479.658	634.31
479.876	642.31
480.095	640.31
480.313	687.31
480.532	663.31
480.751	681.31
480.969	678.31
481.188	703.31
481.406	766.31
481.624	665.31
481.843	644.31
482.061	624.31
482.28	637.31
482.498	626.31
482.717	612.31
482.935	616.31
483.153	614.31
483.372	617.31
483.59	613.31
483.808	617.31
484.027	599.31
484.245	595.31
484.463	635.31
484.681	629.31
484.9	605.31
485.118	636.31
485.336	601.31
485.554	635.31
485.772	634.31
485.99	639.31
486.209	646.31
486.427	646.31
486.645	646.31
486.863	652.31
487.081	650.31
487.299	651.31
487.517	638.31
487.735	636.31
487.953	661.31
488.171	685.31
488.389	644.31
488.607	671.31
488.825	651.31
489.043	678.31
489.261	663.31
489.479	668.31
489.696	679.31
489.914	650.31
490.132	691.31
490.35	709.31
490.568	701.31
490.786	716.31
491.003	730.31
491.221	739.31
491.439	746.31
491.657	761.31
491.874	776.31
492.092	745.31
492.31	764.31
492.527	772.31
492.745	750.31
492.963	770.31
493.18	758.31
493.398	791.31
493.615	782.31
493.833	793.31
494.05	802.31
494.268	802.31
494.485	770.31
494.703	790.31
494.92	744.31
495.138	799.31
495.355	775.31
495.573	765.31
495.79	795.31
496.008	779.31
496.225	755.31
496.442	774.31
496.66	812.31
496.877	792.31
497.094	816.31
497.312	816.31
497.529	781.31
497.746	832.31
497.963	847.31
498.181	879.31
498.398	855.31
498.615	899.31
498.832	932.31
499.049	963.31
499.267	967.31
499.484	1013.31
499.701	1063.31
499.918	1103.31
500.135	1186.31
500.352	1223.31
500.569	1257.31
500.786	1247.31
501.003	1231.31
501.22	1168.31
501.437	1111.31
501.654	1064.31
