Data from 1975.PennyLincolnUp.Lamp.En5.5.200Scan.071719.P1.Changed Mount._HRD10591_15-55-51-858.txt Node
Date: Thu Jul 18 15:55:51 EDT 2019
User: cochatt
Spectrometer: HR+D1059
Trigger mode: 1
Integration Time (sec): 1.000000E-1
Scans to average: 1
Electric dark correction enabled: true
Nonlinearity correction enabled: false
Boxcar width: 0
XAxis mode: Wavelengths
Number of Pixels in Spectrum: 2048
>>>>>Begin Spectral Data<<<<<
223.165	-8.5
223.4	-8.5
223.635	-8.5
223.869	-13.5
224.104	-24.5
224.338	-19.5
224.573	-15.5
224.808	-19.5
225.042	-0.5
225.277	-2.5
225.511	0.5
225.746	9.5
225.98	0.5
226.215	5.5
226.449	9.5
226.683	17.5
226.918	30.5
227.152	30.5
227.387	35.5
227.621	29.5
227.856	51.5
228.09	41.5
228.324	51.5
228.559	64.5
228.793	73.5
229.027	84.5
229.262	82.5
229.496	103.5
229.73	119.5
229.964	120.5
230.199	109.5
230.433	96.5
230.667	98.5
230.901	108.5
231.136	108.5
231.37	109.5
231.604	111.5
231.838	111.5
232.072	117.5
232.306	103.5
232.541	111.5
232.775	98.5
233.009	105.5
233.243	103.5
233.477	123.5
233.711	113.5
233.945	113.5
234.179	105.5
234.413	100.5
234.647	96.5
234.881	125.5
235.115	113.5
235.349	99.5
235.583	115.5
235.817	116.5
236.051	119.5
236.285	123.5
236.519	122.5
236.753	115.5
236.987	135.5
237.221	155.5
237.455	197.5
237.689	169.5
237.922	121.5
238.156	119.5
238.39	121.5
238.624	104.5
238.858	108.5
239.091	121.5
239.325	122.5
239.559	124.5
239.793	122.5
240.027	120.5
240.26	133.5
240.494	120.5
240.728	137.5
240.961	122.5
241.195	147.5
241.429	127.5
241.662	124.5
241.896	123.5
242.13	123.5
242.363	122.5
242.597	128.5
242.83	135.5
243.064	127.5
243.298	130.5
243.531	120.5
243.765	133.5
243.998	139.5
244.232	133.5
244.465	131.5
244.699	148.5
244.932	143.5
245.166	139.5
245.399	135.5
245.633	142.5
245.866	138.5
246.099	140.5
246.333	147.5
246.566	145.5
246.8	136.5
247.033	144.5
247.266	149.5
247.5	150.5
247.733	155.5
247.966	173.5
248.2	165.5
248.433	160.5
248.666	165.5
248.899	171.5
249.133	179.5
249.366	205.5
249.599	175.5
249.832	154.5
250.066	155.5
250.299	163.5
250.532	181.5
250.765	194.5
250.998	205.5
251.231	192.5
251.465	197.5
251.698	188.5
251.931	191.5
252.164	179.5
252.397	191.5
252.63	173.5
252.863	188.5
253.096	191.5
253.329	203.5
253.562	204.5
253.795	192.5
254.028	204.5
254.261	200.5
254.494	208.5
254.727	218.5
254.96	240.5
255.193	230.5
255.426	239.5
255.659	220.5
255.892	215.5
256.124	209.5
256.357	227.5
256.59	188.5
256.823	180.5
257.056	199.5
257.289	210.5
257.521	198.5
257.754	193.5
257.987	203.5
258.22	214.5
258.452	194.5
258.685	188.5
258.918	192.5
259.151	203.5
259.383	205.5
259.616	201.5
259.849	209.5
260.081	230.5
260.314	247.5
260.547	233.5
260.779	217.5
261.012	210.5
261.244	204.5
261.477	202.5
261.71	206.5
261.942	196.5
262.175	212.5
262.407	198.5
262.64	208.5
262.872	186.5
263.105	186.5
263.337	198.5
263.57	199.5
263.802	203.5
264.035	199.5
264.267	183.5
264.499	193.5
264.732	203.5
264.964	205.5
265.197	195.5
265.429	203.5
265.661	210.5
265.894	189.5
266.126	212.5
266.358	211.5
266.591	204.5
266.823	214.5
267.055	199.5
267.287	220.5
267.52	203.5
267.752	208.5
267.984	224.5
268.216	216.5
268.448	227.5
268.681	218.5
268.913	232.5
269.145	231.5
269.377	242.5
269.609	245.5
269.841	247.5
270.073	237.5
270.306	260.5
270.538	281.5
270.77	278.5
271.002	280.5
271.234	274.5
271.466	272.5
271.698	288.5
271.93	280.5
272.162	277.5
272.394	273.5
272.626	264.5
272.858	240.5
273.09	242.5
273.322	257.5
273.553	257.5
273.785	245.5
274.017	253.5
274.249	247.5
274.481	240.5
274.713	243.5
274.945	268.5
275.176	271.5
275.408	241.5
275.64	245.5
275.872	251.5
276.104	256.5
276.335	255.5
276.567	245.5
276.799	265.5
277.031	290.5
277.262	292.5
277.494	283.5
277.726	267.5
277.957	268.5
278.189	270.5
278.421	261.5
278.652	244.5
278.884	259.5
279.115	265.5
279.347	248.5
279.579	261.5
279.81	235.5
280.042	255.5
280.273	252.5
280.505	250.5
280.736	256.5
280.968	235.5
281.199	233.5
281.431	243.5
281.662	272.5
281.894	248.5
282.125	257.5
282.356	266.5
282.588	289.5
282.819	281.5
283.051	271.5
283.282	277.5
283.513	254.5
283.745	258.5
283.976	259.5
284.207	272.5
284.439	284.5
284.67	260.5
284.901	269.5
285.132	261.5
285.364	279.5
285.595	268.5
285.826	253.5
286.057	260.5
286.288	255.5
286.52	248.5
286.751	283.5
286.982	273.5
287.213	295.5
287.444	297.5
287.675	303.5
287.906	279.5
288.138	293.5
288.369	276.5
288.6	278.5
288.831	288.5
289.062	273.5
289.293	281.5
289.524	278.5
289.755	261.5
289.986	280.5
290.217	269.5
290.448	275.5
290.679	271.5
290.91	284.5
291.141	273.5
291.371	283.5
291.602	281.5
291.833	291.5
292.064	288.5
292.295	279.5
292.526	279.5
292.757	273.5
292.987	279.5
293.218	275.5
293.449	296.5
293.68	290.5
293.91	293.5
294.141	274.5
294.372	278.5
294.603	274.5
294.833	296.5
295.064	288.5
295.295	287.5
295.525	269.5
295.756	286.5
295.987	294.5
296.217	305.5
296.448	300.5
296.679	287.5
296.909	296.5
297.14	275.5
297.37	295.5
297.601	289.5
297.831	285.5
298.062	270.5
298.292	301.5
298.523	299.5
298.753	292.5
298.984	292.5
299.214	295.5
299.445	305.5
299.675	288.5
299.905	300.5
300.136	297.5
300.366	291.5
300.597	295.5
300.827	309.5
301.057	309.5
301.288	313.5
301.518	307.5
301.748	303.5
301.979	300.5
302.209	297.5
302.439	311.5
302.669	326.5
302.9	320.5
303.13	315.5
303.36	325.5
303.59	299.5
303.82	291.5
304.051	322.5
304.281	314.5
304.511	303.5
304.741	292.5
304.971	316.5
305.201	311.5
305.431	309.5
305.661	311.5
305.891	321.5
306.121	322.5
306.352	318.5
306.582	318.5
306.812	311.5
307.042	308.5
307.272	317.5
307.502	328.5
307.731	336.5
307.961	300.5
308.191	310.5
308.421	326.5
308.651	304.5
308.881	314.5
309.111	323.5
309.341	324.5
309.571	343.5
309.8	346.5
310.03	318.5
310.26	323.5
310.49	341.5
310.72	365.5
310.949	363.5
311.179	336.5
311.409	341.5
311.639	331.5
311.868	325.5
312.098	346.5
312.328	341.5
312.557	337.5
312.787	366.5
313.017	347.5
313.246	339.5
313.476	355.5
313.706	333.5
313.935	345.5
314.165	367.5
314.394	358.5
314.624	360.5
314.853	349.5
315.083	352.5
315.312	356.5
315.542	340.5
315.771	345.5
316.001	362.5
316.23	341.5
316.46	357.5
316.689	352.5
316.919	328.5
317.148	332.5
317.377	359.5
317.607	361.5
317.836	330.5
318.065	345.5
318.295	337.5
318.524	348.5
318.753	338.5
318.983	354.5
319.212	365.5
319.441	337.5
319.67	342.5
319.9	353.5
320.129	347.5
320.358	358.5
320.587	355.5
320.816	361.5
321.046	353.5
321.275	355.5
321.504	353.5
321.733	361.5
321.962	379.5
322.191	375.5
322.42	363.5
322.649	381.5
322.878	371.5
323.108	405.5
323.337	398.5
323.566	426.5
323.795	419.5
324.024	451.5
324.253	511.5
324.482	659.5
324.71	1008.5
324.939	1553.5
325.168	1370.5
325.397	687.5
325.626	500.5
325.855	424.5
326.084	433.5
326.313	403.5
326.542	413.5
326.77	456.5
326.999	511.5
327.228	659.5
327.457	958.5
327.686	1188.5
327.914	791.5
328.143	516.5
328.372	487.5
328.6	455.5
328.829	459.5
329.058	468.5
329.287	471.5
329.515	452.5
329.744	428.5
329.972	421.5
330.201	450.5
330.43	458.5
330.658	493.5
330.887	501.5
331.115	513.5
331.344	457.5
331.572	427.5
331.801	419.5
332.03	436.5
332.258	415.5
332.486	412.5
332.715	425.5
332.943	422.5
333.172	428.5
333.4	399.5
333.629	429.5
333.857	441.5
334.085	427.5
334.314	460.5
334.542	485.5
334.771	482.5
334.999	462.5
335.227	445.5
335.455	439.5
335.684	421.5
335.912	394.5
336.14	417.5
336.369	424.5
336.597	423.5
336.825	423.5
337.053	425.5
337.281	428.5
337.51	419.5
337.738	404.5
337.966	425.5
338.194	415.5
338.422	404.5
338.65	412.5
338.878	391.5
339.106	389.5
339.334	401.5
339.562	417.5
339.79	398.5
340.018	403.5
340.246	386.5
340.474	408.5
340.702	395.5
340.93	421.5
341.158	387.5
341.386	401.5
341.614	385.5
341.842	400.5
342.07	379.5
342.298	389.5
342.526	397.5
342.754	394.5
342.981	380.5
343.209	407.5
343.437	391.5
343.665	391.5
343.893	411.5
344.12	413.5
344.348	436.5
344.576	428.5
344.804	431.5
345.031	405.5
345.259	415.5
345.487	426.5
345.714	388.5
345.942	410.5
346.17	393.5
346.397	383.5
346.625	380.5
346.853	397.5
347.08	393.5
347.308	392.5
347.535	403.5
347.763	377.5
347.99	371.5
348.218	380.5
348.445	391.5
348.673	387.5
348.9	387.5
349.128	398.5
349.355	374.5
349.583	371.5
349.81	383.5
350.037	362.5
350.265	363.5
350.492	373.5
350.72	363.5
350.947	368.5
351.174	383.5
351.402	387.5
351.629	372.5
351.856	383.5
352.083	372.5
352.311	391.5
352.538	391.5
352.765	375.5
352.992	371.5
353.22	392.5
353.447	362.5
353.674	387.5
353.901	397.5
354.128	383.5
354.355	363.5
354.583	372.5
354.81	377.5
355.037	372.5
355.264	379.5
355.491	366.5
355.718	369.5
355.945	348.5
356.172	387.5
356.399	367.5
356.626	383.5
356.853	354.5
357.08	376.5
357.307	376.5
357.534	380.5
357.761	372.5
357.988	380.5
358.215	379.5
358.441	375.5
358.668	383.5
358.895	375.5
359.122	375.5
359.349	369.5
359.576	405.5
359.802	398.5
360.029	421.5
360.256	404.5
360.483	394.5
360.709	383.5
360.936	382.5
361.163	385.5
361.39	390.5
361.616	384.5
361.843	369.5
362.07	395.5
362.296	389.5
362.523	396.5
362.749	393.5
362.976	406.5
363.203	378.5
363.429	362.5
363.656	395.5
363.882	363.5
364.109	383.5
364.335	387.5
364.562	374.5
364.788	370.5
365.015	376.5
365.241	360.5
365.468	377.5
365.694	371.5
365.92	385.5
366.147	377.5
366.373	375.5
366.599	374.5
366.826	367.5
367.052	369.5
367.278	371.5
367.505	385.5
367.731	372.5
367.957	364.5
368.184	376.5
368.41	382.5
368.636	390.5
368.862	402.5
369.089	401.5
369.315	379.5
369.541	394.5
369.767	380.5
369.993	378.5
370.219	369.5
370.445	401.5
370.672	387.5
370.898	387.5
371.124	393.5
371.35	379.5
371.576	383.5
371.802	373.5
372.028	391.5
372.254	367.5
372.48	379.5
372.706	387.5
372.932	395.5
373.158	400.5
373.384	384.5
373.61	409.5
373.835	408.5
374.061	405.5
374.287	403.5
374.513	405.5
374.739	406.5
374.965	413.5
375.191	410.5
375.416	421.5
375.642	412.5
375.868	422.5
376.094	393.5
376.319	405.5
376.545	392.5
376.771	403.5
376.997	379.5
377.222	396.5
377.448	387.5
377.674	385.5
377.899	398.5
378.125	375.5
378.35	374.5
378.576	387.5
378.802	384.5
379.027	394.5
379.253	381.5
379.478	395.5
379.704	385.5
379.929	388.5
380.155	397.5
380.38	383.5
380.606	395.5
380.831	397.5
381.057	411.5
381.282	393.5
381.507	389.5
381.733	406.5
381.958	387.5
382.184	399.5
382.409	409.5
382.634	401.5
382.86	389.5
383.085	401.5
383.31	403.5
383.535	391.5
383.761	418.5
383.986	411.5
384.211	408.5
384.436	435.5
384.662	428.5
384.887	418.5
385.112	432.5
385.337	412.5
385.562	431.5
385.787	438.5
386.013	453.5
386.238	444.5
386.463	460.5
386.688	453.5
386.913	421.5
387.138	451.5
387.363	426.5
387.588	438.5
387.813	427.5
388.038	453.5
388.263	438.5
388.488	438.5
388.713	435.5
388.938	438.5
389.163	427.5
389.387	465.5
389.612	435.5
389.837	454.5
390.062	426.5
390.287	436.5
390.512	423.5
390.736	435.5
390.961	433.5
391.186	427.5
391.411	465.5
391.636	433.5
391.86	457.5
392.085	472.5
392.31	451.5
392.534	431.5
392.759	457.5
392.984	434.5
393.208	429.5
393.433	437.5
393.658	440.5
393.882	424.5
394.107	453.5
394.331	452.5
394.556	431.5
394.78	450.5
395.005	449.5
395.229	458.5
395.454	446.5
395.678	455.5
395.903	461.5
396.127	485.5
396.352	502.5
396.576	471.5
396.801	451.5
397.025	457.5
397.249	453.5
397.474	487.5
397.698	466.5
397.922	491.5
398.147	514.5
398.371	500.5
398.595	492.5
398.82	527.5
399.044	546.5
399.268	559.5
399.492	593.5
399.717	614.5
399.941	623.5
400.165	661.5
400.389	647.5
400.613	580.5
400.837	545.5
401.062	524.5
401.286	515.5
401.51	500.5
401.734	517.5
401.958	532.5
402.182	491.5
402.406	515.5
402.63	508.5
402.854	533.5
403.078	532.5
403.302	517.5
403.526	540.5
403.75	545.5
403.974	515.5
404.198	529.5
404.422	540.5
404.645	549.5
404.869	538.5
405.093	580.5
405.317	628.5
405.541	637.5
405.765	593.5
405.988	529.5
406.212	561.5
406.436	572.5
406.66	586.5
406.883	584.5
407.107	593.5
407.331	625.5
407.555	687.5
407.778	696.5
408.002	657.5
408.226	600.5
408.449	586.5
408.673	583.5
408.896	627.5
409.12	667.5
409.344	596.5
409.567	551.5
409.791	555.5
410.014	551.5
410.238	541.5
410.461	534.5
410.685	537.5
410.908	551.5
411.132	579.5
411.355	595.5
411.578	616.5
411.802	563.5
412.025	542.5
412.249	533.5
412.472	564.5
412.695	601.5
412.919	592.5
413.142	568.5
413.365	534.5
413.589	523.5
413.812	507.5
414.035	519.5
414.258	518.5
414.482	498.5
414.705	482.5
414.928	510.5
415.151	510.5
415.374	502.5
415.597	497.5
415.821	504.5
416.044	505.5
416.267	490.5
416.49	504.5
416.713	496.5
416.936	495.5
417.159	507.5
417.382	529.5
417.605	518.5
417.828	520.5
418.051	523.5
418.274	523.5
418.497	515.5
418.72	499.5
418.943	504.5
419.166	531.5
419.389	550.5
419.611	547.5
419.834	534.5
420.057	537.5
420.28	559.5
420.503	537.5
420.726	516.5
420.948	557.5
421.171	554.5
421.394	592.5
421.617	545.5
421.839	548.5
422.062	521.5
422.285	523.5
422.507	574.5
422.73	661.5
422.953	613.5
423.175	559.5
423.398	536.5
423.621	543.5
423.843	557.5
424.066	563.5
424.288	559.5
424.511	575.5
424.733	609.5
424.956	700.5
425.178	660.5
425.401	667.5
425.623	690.5
425.846	597.5
426.068	552.5
426.291	536.5
426.513	537.5
426.735	537.5
426.958	588.5
427.18	654.5
427.402	782.5
427.625	842.5
427.847	740.5
428.069	630.5
428.292	574.5
428.514	513.5
428.736	530.5
428.958	503.5
429.181	511.5
429.403	493.5
429.625	491.5
429.847	540.5
430.069	587.5
430.292	587.5
430.514	522.5
430.736	483.5
430.958	503.5
431.18	513.5
431.402	477.5
431.624	482.5
431.846	487.5
432.068	473.5
432.29	494.5
432.512	486.5
432.734	501.5
432.956	486.5
433.178	482.5
433.4	481.5
433.622	503.5
433.844	501.5
434.066	480.5
434.287	487.5
434.509	517.5
434.731	497.5
434.953	504.5
435.175	531.5
435.397	552.5
435.618	534.5
435.84	605.5
436.062	656.5
436.284	717.5
436.505	627.5
436.727	540.5
436.949	533.5
437.17	520.5
437.392	507.5
437.614	515.5
437.835	525.5
438.057	608.5
438.278	718.5
438.5	698.5
438.721	785.5
438.943	777.5
439.165	614.5
439.386	577.5
439.608	540.5
439.829	547.5
440.05	553.5
440.272	583.5
440.493	559.5
440.715	541.5
440.936	521.5
441.158	500.5
441.379	501.5
441.6	525.5
441.822	548.5
442.043	588.5
442.264	678.5
442.486	689.5
442.707	607.5
442.928	558.5
443.149	576.5
443.371	577.5
443.592	629.5
443.813	705.5
444.034	757.5
444.255	633.5
444.476	572.5
444.698	579.5
444.919	571.5
445.14	650.5
445.361	606.5
445.582	588.5
445.803	634.5
446.024	716.5
446.245	722.5
446.466	680.5
446.687	569.5
446.908	537.5
447.129	517.5
447.35	509.5
447.571	492.5
447.792	507.5
448.013	497.5
448.234	493.5
448.455	529.5
448.675	669.5
448.896	783.5
449.117	648.5
449.338	611.5
449.559	689.5
449.779	810.5
450	646.5
450.221	504.5
450.442	490.5
450.662	467.5
450.883	520.5
451.104	483.5
451.324	492.5
451.545	478.5
451.766	451.5
451.986	449.5
452.207	444.5
452.428	448.5
452.648	466.5
452.869	442.5
453.089	467.5
453.31	435.5
453.53	432.5
453.751	471.5
453.971	451.5
454.192	457.5
454.412	422.5
454.633	431.5
454.853	433.5
455.073	468.5
455.294	441.5
455.514	517.5
455.734	504.5
455.955	453.5
456.175	446.5
456.395	431.5
456.616	439.5
456.836	416.5
457.056	421.5
457.276	412.5
457.497	433.5
457.717	417.5
457.937	422.5
458.157	454.5
458.377	459.5
458.598	461.5
458.818	499.5
459.038	565.5
459.258	582.5
459.478	487.5
459.698	486.5
459.918	474.5
460.138	476.5
460.358	490.5
460.578	500.5
460.798	528.5
461.018	515.5
461.238	505.5
461.458	525.5
461.678	520.5
461.898	505.5
462.118	493.5
462.338	539.5
462.558	541.5
462.777	556.5
462.997	573.5
463.217	588.5
463.437	596.5
463.657	575.5
463.876	557.5
464.096	552.5
464.316	561.5
464.536	551.5
464.755	563.5
464.975	556.5
465.195	547.5
465.414	588.5
465.634	536.5
465.854	489.5
466.073	459.5
466.293	459.5
466.512	480.5
466.732	478.5
466.951	469.5
467.171	467.5
467.391	476.5
467.61	470.5
467.829	448.5
468.049	475.5
468.268	478.5
468.488	463.5
468.707	462.5
468.927	448.5
469.146	462.5
469.365	433.5
469.585	473.5
469.804	480.5
470.023	458.5
470.243	472.5
470.462	472.5
470.681	475.5
470.901	474.5
471.12	483.5
471.339	477.5
471.558	467.5
471.777	469.5
471.997	459.5
472.216	471.5
472.435	504.5
472.654	477.5
472.873	475.5
473.092	482.5
473.311	462.5
473.53	476.5
473.749	473.5
473.968	500.5
474.187	607.5
474.406	632.5
474.625	542.5
474.844	489.5
475.063	476.5
475.282	485.5
475.501	482.5
475.72	484.5
475.939	451.5
476.158	478.5
476.377	486.5
476.596	484.5
476.814	485.5
477.033	482.5
477.252	487.5
477.471	501.5
477.69	505.5
477.908	514.5
478.127	519.5
478.346	530.5
478.564	543.5
478.783	543.5
479.002	525.5
479.22	545.5
479.439	528.5
479.658	546.5
479.876	528.5
480.095	579.5
480.313	597.5
480.532	597.5
480.751	576.5
480.969	601.5
481.188	639.5
481.406	652.5
481.624	600.5
481.843	578.5
482.061	551.5
482.28	554.5
482.498	577.5
482.717	544.5
482.935	547.5
483.153	563.5
483.372	538.5
483.59	582.5
483.808	566.5
484.027	547.5
484.245	555.5
484.463	547.5
484.681	557.5
484.9	565.5
485.118	583.5
485.336	575.5
485.554	556.5
485.772	572.5
485.99	582.5
486.209	549.5
486.427	576.5
486.645	584.5
486.863	599.5
487.081	586.5
487.299	567.5
487.517	589.5
487.735	607.5
487.953	590.5
488.171	597.5
488.389	596.5
488.607	571.5
488.825	588.5
489.043	612.5
489.261	593.5
489.479	605.5
489.696	597.5
489.914	611.5
490.132	610.5
490.35	582.5
490.568	627.5
490.786	619.5
491.003	626.5
491.221	651.5
491.439	676.5
491.657	653.5
491.874	671.5
492.092	684.5
492.31	665.5
492.527	666.5
492.745	680.5
492.963	714.5
493.18	691.5
493.398	707.5
493.615	677.5
493.833	696.5
494.05	685.5
494.268	683.5
494.485	687.5
494.703	657.5
494.92	697.5
495.138	673.5
495.355	690.5
495.573	717.5
495.79	712.5
496.008	722.5
496.225	686.5
496.442	705.5
496.66	708.5
496.877	686.5
497.094	705.5
497.312	712.5
497.529	708.5
497.746	725.5
497.963	730.5
498.181	775.5
498.398	786.5
498.615	803.5
498.832	822.5
499.049	831.5
499.267	851.5
499.484	872.5
499.701	938.5
499.918	961.5
500.135	1041.5
500.352	1106.5
500.569	1129.5
500.786	1151.5
501.003	1101.5
501.22	1059.5
501.437	1015.5
501.654	951.5
501.871	947.5
502.088	892.5
502.305	862.5
502.522	827.5
502.739	813.5
502.956	770.5
503.172	742.5
503.389	740.5
503.606	695.5
503.823	689.5
504.04	704.5
504.256	730.5
504.473	715.5
504.69	718.5
504.907	728.5
505.123	702.5
505.34	697.5
505.557	680.5
505.773	655.5
505.99	665.5
506.207	657.5
506.423	667.5
506.64	671.5
506.856	645.5
507.073	641.5
507.289	644.5
507.506	666.5
507.722	635.5
507.939	649.5
508.155	616.5
508.372	604.5
508.588	597.5
508.805	620.5
509.021	610.5
509.238	615.5
509.454	600.5
509.67	612.5
509.887	612.5
510.103	592.5
510.319	613.5
510.536	646.5
510.752	893.5
510.968	769.5
511.184	594.5
511.401	592.5
511.617	575.5
511.833	582.5
512.049	572.5
512.265	585.5
512.481	597.5
512.698	561.5
512.914	577.5
513.13	588.5
513.346	557.5
513.562	589.5
513.778	550.5
513.994	571.5
514.21	577.5
514.426	574.5
514.642	605.5
514.858	613.5
515.074	639.5
515.29	692.5
515.506	892.5
515.721	791.5
515.937	643.5
516.153	614.5
516.369	597.5
516.585	616.5
516.801	595.5
517.016	599.5
517.232	608.5
517.448	622.5
517.664	626.5
517.879	636.5
518.095	644.5
518.311	608.5
518.527	599.5
518.742	615.5
518.958	616.5
519.173	587.5
519.389	583.5
519.605	574.5
519.82	565.5
