Data from 1975.PennyLincolnUp.Lamp.En5.5.200Scan.071719.P1.Changed Mount._HRD10591_15-58-40-860.txt Node
Date: Thu Jul 18 15:58:40 EDT 2019
User: cochatt
Spectrometer: HR+D1059
Trigger mode: 1
Integration Time (sec): 1.000000E-1
Scans to average: 1
Electric dark correction enabled: true
Nonlinearity correction enabled: false
Boxcar width: 0
XAxis mode: Wavelengths
Number of Pixels in Spectrum: 2048
>>>>>Begin Spectral Data<<<<<
223.165	-17.75
223.4	-17.75
223.635	-17.75
223.869	-10.75
224.104	-5.75
224.338	-20.75
224.573	-11.75
224.808	-10.75
225.042	-4.75
225.277	-12.75
225.511	2.25
225.746	-2.75
225.98	0.25
226.215	6.25
226.449	19.25
226.683	28.25
226.918	20.25
227.152	21.25
227.387	31.25
227.621	31.25
227.856	40.25
228.09	33.25
228.324	47.25
228.559	63.25
228.793	74.25
229.027	89.25
229.262	86.25
229.496	107.25
229.73	122.25
229.964	148.25
230.199	127.25
230.433	118.25
230.667	123.25
230.901	118.25
231.136	122.25
231.37	105.25
231.604	119.25
231.838	104.25
232.072	104.25
232.306	113.25
232.541	121.25
232.775	107.25
233.009	117.25
233.243	113.25
233.477	106.25
233.711	128.25
233.945	120.25
234.179	125.25
234.413	111.25
234.647	125.25
234.881	120.25
235.115	115.25
235.349	116.25
235.583	133.25
235.817	126.25
236.051	122.25
236.285	121.25
236.519	114.25
236.753	130.25
236.987	141.25
237.221	186.25
237.455	219.25
237.689	189.25
237.922	138.25
238.156	140.25
238.39	138.25
238.624	131.25
238.858	125.25
239.091	145.25
239.325	138.25
239.559	140.25
239.793	136.25
240.027	125.25
240.26	134.25
240.494	168.25
240.728	149.25
240.961	154.25
241.195	148.25
241.429	141.25
241.662	139.25
241.896	135.25
242.13	131.25
242.363	132.25
242.597	137.25
242.83	145.25
243.064	146.25
243.298	129.25
243.531	134.25
243.765	154.25
243.998	146.25
244.232	144.25
244.465	155.25
244.699	148.25
244.932	147.25
245.166	154.25
245.399	141.25
245.633	158.25
245.866	143.25
246.099	144.25
246.333	152.25
246.566	159.25
246.8	155.25
247.033	158.25
247.266	155.25
247.5	168.25
247.733	180.25
247.966	182.25
248.2	171.25
248.433	184.25
248.666	164.25
248.899	192.25
249.133	199.25
249.366	199.25
249.599	191.25
249.832	202.25
250.066	180.25
250.299	200.25
250.532	194.25
250.765	210.25
250.998	233.25
251.231	250.25
251.465	202.25
251.698	185.25
251.931	200.25
252.164	191.25
252.397	193.25
252.63	201.25
252.863	208.25
253.096	204.25
253.329	232.25
253.562	230.25
253.795	222.25
254.028	212.25
254.261	209.25
254.494	237.25
254.727	245.25
254.96	298.25
255.193	264.25
255.426	248.25
255.659	243.25
255.892	240.25
256.124	235.25
256.357	254.25
256.59	224.25
256.823	242.25
257.056	209.25
257.289	203.25
257.521	208.25
257.754	219.25
257.987	212.25
258.22	212.25
258.452	230.25
258.685	214.25
258.918	211.25
259.151	230.25
259.383	226.25
259.616	243.25
259.849	212.25
260.081	229.25
260.314	260.25
260.547	270.25
260.779	260.25
261.012	237.25
261.244	228.25
261.477	217.25
261.71	222.25
261.942	220.25
262.175	238.25
262.407	238.25
262.64	207.25
262.872	220.25
263.105	214.25
263.337	206.25
263.57	194.25
263.802	225.25
264.035	211.25
264.267	205.25
264.499	222.25
264.732	215.25
264.964	227.25
265.197	227.25
265.429	224.25
265.661	234.25
265.894	223.25
266.126	223.25
266.358	217.25
266.591	223.25
266.823	250.25
267.055	238.25
267.287	245.25
267.52	248.25
267.752	228.25
267.984	228.25
268.216	235.25
268.448	239.25
268.681	234.25
268.913	258.25
269.145	267.25
269.377	284.25
269.609	276.25
269.841	275.25
270.073	287.25
270.306	293.25
270.538	327.25
270.77	308.25
271.002	311.25
271.234	296.25
271.466	300.25
271.698	314.25
271.93	321.25
272.162	308.25
272.394	315.25
272.626	312.25
272.858	299.25
273.09	296.25
273.322	266.25
273.553	272.25
273.785	272.25
274.017	266.25
274.249	269.25
274.481	272.25
274.713	284.25
274.945	284.25
275.176	269.25
275.408	277.25
275.64	279.25
275.872	289.25
276.104	263.25
276.335	272.25
276.567	303.25
276.799	299.25
277.031	302.25
277.262	315.25
277.494	325.25
277.726	312.25
277.957	295.25
278.189	294.25
278.421	283.25
278.652	279.25
278.884	262.25
279.115	287.25
279.347	283.25
279.579	280.25
279.81	273.25
280.042	284.25
280.273	281.25
280.505	266.25
280.736	282.25
280.968	289.25
281.199	268.25
281.431	291.25
281.662	289.25
281.894	295.25
282.125	288.25
282.356	304.25
282.588	292.25
282.819	318.25
283.051	307.25
283.282	300.25
283.513	304.25
283.745	295.25
283.976	296.25
284.207	278.25
284.439	319.25
284.67	298.25
284.901	290.25
285.132	292.25
285.364	295.25
285.595	288.25
285.826	298.25
286.057	278.25
286.288	304.25
286.52	291.25
286.751	287.25
286.982	306.25
287.213	300.25
287.444	305.25
287.675	293.25
287.906	312.25
288.138	319.25
288.369	310.25
288.6	314.25
288.831	323.25
289.062	310.25
289.293	302.25
289.524	299.25
289.755	313.25
289.986	312.25
290.217	312.25
290.448	311.25
290.679	306.25
290.91	315.25
291.141	309.25
291.371	303.25
291.602	329.25
291.833	317.25
292.064	314.25
292.295	303.25
292.526	290.25
292.757	317.25
292.987	327.25
293.218	324.25
293.449	306.25
293.68	316.25
293.91	316.25
294.141	326.25
294.372	325.25
294.603	320.25
294.833	308.25
295.064	306.25
295.295	320.25
295.525	304.25
295.756	316.25
295.987	314.25
296.217	315.25
296.448	324.25
296.679	327.25
296.909	320.25
297.14	326.25
297.37	303.25
297.601	327.25
297.831	339.25
298.062	324.25
298.292	339.25
298.523	321.25
298.753	321.25
298.984	326.25
299.214	330.25
299.445	327.25
299.675	352.25
299.905	331.25
300.136	329.25
300.366	355.25
300.597	323.25
300.827	346.25
301.057	348.25
301.288	335.25
301.518	339.25
301.748	359.25
301.979	342.25
302.209	351.25
302.439	349.25
302.669	347.25
302.9	341.25
303.13	323.25
303.36	364.25
303.59	351.25
303.82	340.25
304.051	354.25
304.281	350.25
304.511	355.25
304.741	345.25
304.971	350.25
305.201	338.25
305.431	344.25
305.661	345.25
305.891	329.25
306.121	352.25
306.352	337.25
306.582	347.25
306.812	339.25
307.042	339.25
307.272	338.25
307.502	344.25
307.731	324.25
307.961	350.25
308.191	358.25
308.421	336.25
308.651	338.25
308.881	348.25
309.111	376.25
309.341	368.25
309.571	370.25
309.8	369.25
310.03	388.25
310.26	391.25
310.49	389.25
310.72	387.25
310.949	407.25
311.179	420.25
311.409	379.25
311.639	395.25
311.868	379.25
312.098	382.25
312.328	380.25
312.557	391.25
312.787	400.25
313.017	412.25
313.246	394.25
313.476	387.25
313.706	390.25
313.935	391.25
314.165	414.25
314.394	392.25
314.624	417.25
314.853	380.25
315.083	404.25
315.312	395.25
315.542	382.25
315.771	390.25
316.001	384.25
316.23	386.25
316.46	395.25
316.689	400.25
316.919	403.25
317.148	398.25
317.377	404.25
317.607	393.25
317.836	384.25
318.065	397.25
318.295	397.25
318.524	389.25
318.753	406.25
318.983	375.25
319.212	393.25
319.441	382.25
319.67	394.25
319.9	414.25
320.129	380.25
320.358	390.25
320.587	396.25
320.816	415.25
321.046	396.25
321.275	401.25
321.504	399.25
321.733	408.25
321.962	417.25
322.191	410.25
322.42	416.25
322.649	432.25
322.878	446.25
323.108	458.25
323.337	455.25
323.566	480.25
323.795	500.25
324.024	562.25
324.253	597.25
324.482	870.25
324.71	1286.25
324.939	1962.25
325.168	1742.25
325.397	875.25
325.626	601.25
325.855	528.25
326.084	498.25
326.313	500.25
326.542	485.25
326.77	526.25
326.999	617.25
327.228	820.25
327.457	1166.25
327.686	1532.25
327.914	973.25
328.143	656.25
328.372	582.25
328.6	544.25
328.829	566.25
329.058	556.25
329.287	554.25
329.515	530.25
329.744	507.25
329.972	487.25
330.201	499.25
330.43	537.25
330.658	553.25
330.887	593.25
331.115	576.25
331.344	516.25
331.572	460.25
331.801	491.25
332.03	489.25
332.258	496.25
332.486	474.25
332.715	474.25
332.943	476.25
333.172	501.25
333.4	477.25
333.629	487.25
333.857	488.25
334.085	524.25
334.314	534.25
334.542	555.25
334.771	567.25
334.999	532.25
335.227	502.25
335.455	496.25
335.684	489.25
335.912	452.25
336.14	478.25
336.369	478.25
336.597	485.25
336.825	470.25
337.053	469.25
337.281	470.25
337.51	463.25
337.738	450.25
337.966	470.25
338.194	458.25
338.422	492.25
338.65	459.25
338.878	453.25
339.106	446.25
339.334	450.25
339.562	471.25
339.79	441.25
340.018	476.25
340.246	460.25
340.474	448.25
340.702	455.25
340.93	448.25
341.158	438.25
341.386	439.25
341.614	465.25
341.842	440.25
342.07	454.25
342.298	448.25
342.526	445.25
342.754	431.25
342.981	442.25
343.209	443.25
343.437	446.25
343.665	454.25
343.893	464.25
344.12	478.25
344.348	458.25
344.576	450.25
344.804	475.25
345.031	464.25
345.259	470.25
345.487	440.25
345.714	458.25
345.942	447.25
346.17	435.25
346.397	445.25
346.625	433.25
346.853	443.25
347.08	423.25
347.308	426.25
347.535	432.25
347.763	444.25
347.99	424.25
348.218	459.25
348.445	424.25
348.673	440.25
348.9	437.25
349.128	432.25
349.355	404.25
349.583	420.25
349.81	425.25
350.037	397.25
350.265	418.25
350.492	428.25
350.72	428.25
350.947	445.25
351.174	429.25
351.402	433.25
351.629	452.25
351.856	437.25
352.083	435.25
352.311	430.25
352.538	436.25
352.765	439.25
352.992	434.25
353.22	429.25
353.447	424.25
353.674	431.25
353.901	430.25
354.128	409.25
354.355	402.25
354.583	411.25
354.81	418.25
355.037	440.25
355.264	418.25
355.491	409.25
355.718	406.25
355.945	392.25
356.172	403.25
356.399	390.25
356.626	445.25
356.853	417.25
357.08	412.25
357.307	408.25
357.534	418.25
357.761	399.25
357.988	405.25
358.215	416.25
358.441	418.25
358.668	434.25
358.895	413.25
359.122	424.25
359.349	447.25
359.576	436.25
359.802	440.25
360.029	475.25
360.256	463.25
360.483	451.25
360.709	436.25
360.936	441.25
361.163	457.25
361.39	452.25
361.616	442.25
361.843	445.25
362.07	455.25
362.296	454.25
362.523	434.25
362.749	440.25
362.976	427.25
363.203	437.25
363.429	431.25
363.656	415.25
363.882	442.25
364.109	408.25
364.335	416.25
364.562	432.25
364.788	422.25
365.015	412.25
365.241	422.25
365.468	424.25
365.694	424.25
365.92	421.25
366.147	420.25
366.373	438.25
366.599	417.25
366.826	385.25
367.052	415.25
367.278	420.25
367.505	422.25
367.731	423.25
367.957	411.25
368.184	404.25
368.41	419.25
368.636	449.25
368.862	457.25
369.089	433.25
369.315	409.25
369.541	435.25
369.767	438.25
369.993	421.25
370.219	419.25
370.445	403.25
370.672	397.25
370.898	408.25
371.124	421.25
371.35	439.25
371.576	425.25
371.802	442.25
372.028	420.25
372.254	419.25
372.48	432.25
372.706	411.25
372.932	415.25
373.158	437.25
373.384	430.25
373.61	420.25
373.835	452.25
374.061	423.25
374.287	443.25
374.513	432.25
374.739	423.25
374.965	439.25
375.191	429.25
375.416	450.25
375.642	441.25
375.868	433.25
376.094	426.25
376.319	448.25
376.545	435.25
376.771	440.25
376.997	446.25
377.222	444.25
377.448	423.25
377.674	444.25
377.899	428.25
378.125	455.25
378.35	423.25
378.576	431.25
378.802	418.25
379.027	436.25
379.253	432.25
379.478	429.25
379.704	438.25
379.929	437.25
380.155	427.25
380.38	407.25
380.606	439.25
380.831	431.25
381.057	431.25
381.282	422.25
381.507	422.25
381.733	431.25
381.958	432.25
382.184	435.25
382.409	434.25
382.634	443.25
382.86	427.25
383.085	462.25
383.31	456.25
383.535	450.25
383.761	469.25
383.986	454.25
384.211	450.25
384.436	470.25
384.662	456.25
384.887	474.25
385.112	474.25
385.337	470.25
385.562	475.25
385.787	456.25
386.013	481.25
386.238	475.25
386.463	481.25
386.688	503.25
386.913	504.25
387.138	486.25
387.363	488.25
387.588	488.25
387.813	467.25
388.038	504.25
388.263	484.25
388.488	502.25
388.713	477.25
388.938	479.25
389.163	478.25
389.387	480.25
389.612	476.25
389.837	468.25
390.062	488.25
390.287	471.25
390.512	499.25
390.736	496.25
390.961	482.25
391.186	485.25
391.411	494.25
391.636	511.25
391.86	511.25
392.085	511.25
392.31	496.25
392.534	502.25
392.759	516.25
392.984	506.25
393.208	492.25
393.433	504.25
393.658	506.25
393.882	504.25
394.107	483.25
394.331	509.25
394.556	474.25
394.78	485.25
395.005	507.25
395.229	516.25
395.454	501.25
395.678	525.25
395.903	514.25
396.127	536.25
396.352	539.25
396.576	502.25
396.801	495.25
397.025	497.25
397.249	522.25
397.474	538.25
397.698	526.25
397.922	551.25
398.147	538.25
398.371	568.25
398.595	534.25
398.82	556.25
399.044	563.25
399.268	604.25
399.492	630.25
399.717	686.25
399.941	721.25
400.165	694.25
400.389	700.25
400.613	639.25
400.837	569.25
401.062	576.25
401.286	564.25
401.51	579.25
401.734	567.25
401.958	565.25
402.182	585.25
402.406	571.25
402.63	564.25
402.854	578.25
403.078	578.25
403.302	572.25
403.526	596.25
403.75	601.25
403.974	595.25
404.198	585.25
404.422	595.25
404.645	609.25
404.869	607.25
405.093	644.25
405.317	691.25
405.541	696.25
405.765	660.25
405.988	606.25
406.212	627.25
406.436	655.25
406.66	659.25
406.883	614.25
407.107	670.25
407.331	712.25
407.555	774.25
407.778	762.25
408.002	711.25
408.226	667.25
408.449	645.25
408.673	650.25
408.896	677.25
409.12	732.25
409.344	656.25
409.567	624.25
409.791	602.25
410.014	628.25
410.238	602.25
410.461	581.25
410.685	602.25
410.908	607.25
411.132	631.25
411.355	691.25
411.578	650.25
411.802	610.25
412.025	592.25
412.249	599.25
412.472	626.25
412.695	660.25
412.919	645.25
413.142	583.25
413.365	568.25
413.589	591.25
413.812	566.25
414.035	548.25
414.258	576.25
414.482	547.25
414.705	566.25
414.928	556.25
415.151	561.25
415.374	558.25
415.597	553.25
415.821	539.25
416.044	570.25
416.267	552.25
416.49	543.25
416.713	542.25
416.936	562.25
417.159	564.25
417.382	563.25
417.605	577.25
417.828	543.25
418.051	568.25
418.274	580.25
418.497	561.25
418.72	562.25
418.943	565.25
419.166	574.25
419.389	612.25
419.611	588.25
419.834	602.25
420.057	594.25
420.28	603.25
420.503	581.25
420.726	596.25
420.948	596.25
421.171	611.25
421.394	673.25
421.617	583.25
421.839	583.25
422.062	616.25
422.285	595.25
422.507	638.25
422.73	753.25
422.953	703.25
423.175	599.25
423.398	606.25
423.621	600.25
423.843	656.25
424.066	625.25
424.288	607.25
424.511	645.25
424.733	716.25
424.956	791.25
425.178	761.25
425.401	735.25
425.623	784.25
425.846	664.25
426.068	603.25
426.291	610.25
426.513	611.25
426.735	612.25
426.958	656.25
427.18	736.25
427.402	878.25
427.625	975.25
427.847	812.25
428.069	742.25
428.292	652.25
428.514	583.25
428.736	568.25
428.958	575.25
429.181	554.25
429.403	580.25
429.625	562.25
429.847	594.25
430.069	654.25
430.292	686.25
430.514	579.25
430.736	566.25
430.958	536.25
431.18	536.25
431.402	538.25
431.624	543.25
431.846	543.25
432.068	532.25
432.29	533.25
432.512	536.25
432.734	555.25
432.956	518.25
433.178	548.25
433.4	562.25
433.622	555.25
433.844	538.25
434.066	522.25
434.287	535.25
434.509	553.25
434.731	566.25
434.953	562.25
435.175	576.25
435.397	604.25
435.618	626.25
435.84	640.25
436.062	744.25
436.284	824.25
436.505	699.25
436.727	610.25
436.949	592.25
437.17	579.25
437.392	560.25
437.614	584.25
437.835	583.25
438.057	693.25
438.278	774.25
438.5	814.25
438.721	900.25
438.943	846.25
439.165	686.25
439.386	633.25
439.608	618.25
439.829	609.25
440.05	615.25
440.272	664.25
440.493	651.25
440.715	606.25
440.936	581.25
441.158	546.25
441.379	582.25
441.6	610.25
441.822	611.25
442.043	650.25
442.264	734.25
442.486	784.25
442.707	688.25
442.928	630.25
443.149	641.25
443.371	651.25
443.592	705.25
443.813	778.25
444.034	879.25
444.255	721.25
444.476	673.25
444.698	668.25
444.919	625.25
445.14	755.25
445.361	694.25
445.582	678.25
445.803	697.25
446.024	826.25
446.245	849.25
446.466	763.25
446.687	656.25
446.908	624.25
447.129	573.25
447.35	560.25
447.571	560.25
447.792	550.25
448.013	555.25
448.234	584.25
448.455	641.25
448.675	730.25
448.896	898.25
449.117	736.25
449.338	673.25
449.559	793.25
449.779	904.25
450	706.25
450.221	587.25
450.442	561.25
450.662	553.25
450.883	538.25
451.104	530.25
451.324	538.25
451.545	555.25
451.766	530.25
451.986	511.25
452.207	489.25
452.428	480.25
452.648	480.25
452.869	512.25
453.089	522.25
453.31	531.25
453.53	495.25
453.751	519.25
453.971	511.25
454.192	502.25
454.412	511.25
454.633	489.25
454.853	482.25
455.073	496.25
455.294	522.25
455.514	580.25
455.734	593.25
455.955	519.25
456.175	481.25
456.395	486.25
456.616	468.25
456.836	481.25
457.056	464.25
457.276	464.25
457.497	473.25
457.717	476.25
457.937	468.25
458.157	475.25
458.377	495.25
458.598	501.25
458.818	542.25
459.038	620.25
459.258	658.25
459.478	585.25
459.698	563.25
459.918	551.25
460.138	542.25
460.358	559.25
460.578	545.25
460.798	560.25
461.018	571.25
461.238	564.25
461.458	570.25
461.678	542.25
461.898	573.25
462.118	586.25
462.338	581.25
462.558	586.25
462.777	576.25
462.997	618.25
463.217	650.25
463.437	647.25
463.657	618.25
463.876	614.25
464.096	611.25
464.316	609.25
464.536	616.25
464.755	590.25
464.975	610.25
465.195	622.25
465.414	656.25
465.634	603.25
465.854	572.25
466.073	552.25
466.293	540.25
466.512	519.25
466.732	491.25
466.951	515.25
467.171	519.25
467.391	534.25
467.61	531.25
467.829	522.25
468.049	531.25
468.268	523.25
468.488	511.25
468.707	503.25
468.927	517.25
469.146	476.25
469.365	506.25
469.585	514.25
469.804	524.25
470.023	518.25
470.243	516.25
470.462	532.25
470.681	535.25
470.901	531.25
471.12	523.25
471.339	529.25
471.558	530.25
471.777	520.25
471.997	541.25
472.216	549.25
472.435	543.25
472.654	544.25
472.873	514.25
473.092	519.25
473.311	514.25
473.53	507.25
473.749	537.25
473.968	571.25
474.187	656.25
474.406	673.25
474.625	585.25
474.844	540.25
475.063	544.25
475.282	528.25
475.501	549.25
475.72	534.25
475.939	542.25
476.158	521.25
476.377	532.25
476.596	515.25
476.814	544.25
477.033	555.25
477.252	541.25
477.471	564.25
477.69	552.25
477.908	576.25
478.127	574.25
478.346	568.25
478.564	596.25
478.783	570.25
479.002	610.25
479.22	612.25
479.439	607.25
479.658	626.25
479.876	638.25
480.095	638.25
480.313	687.25
480.532	644.25
480.751	639.25
480.969	643.25
481.188	694.25
481.406	722.25
481.624	679.25
481.843	650.25
482.061	598.25
482.28	636.25
482.498	620.25
482.717	599.25
482.935	612.25
483.153	607.25
483.372	625.25
483.59	609.25
483.808	606.25
484.027	607.25
484.245	612.25
484.463	612.25
484.681	619.25
484.9	618.25
485.118	618.25
485.336	645.25
485.554	632.25
485.772	635.25
485.99	633.25
486.209	634.25
486.427	644.25
486.645	663.25
486.863	641.25
487.081	645.25
487.299	651.25
487.517	625.25
487.735	646.25
487.953	651.25
488.171	658.25
488.389	662.25
488.607	645.25
488.825	672.25
489.043	650.25
489.261	655.25
489.479	674.25
489.696	646.25
489.914	684.25
490.132	692.25
490.35	706.25
490.568	673.25
490.786	683.25
491.003	716.25
491.221	730.25
491.439	737.25
491.657	748.25
491.874	757.25
492.092	778.25
492.31	777.25
492.527	758.25
492.745	752.25
492.963	801.25
493.18	774.25
493.398	767.25
493.615	779.25
493.833	792.25
494.05	793.25
494.268	767.25
494.485	798.25
494.703	763.25
494.92	802.25
495.138	788.25
495.355	798.25
495.573	811.25
495.79	772.25
496.008	774.25
496.225	784.25
496.442	775.25
496.66	788.25
496.877	786.25
497.094	792.25
497.312	785.25
497.529	794.25
497.746	833.25
497.963	818.25
498.181	853.25
498.398	874.25
498.615	861.25
498.832	907.25
499.049	961.25
499.267	951.25
499.484	990.25
499.701	1011.25
499.918	1074.25
500.135	1162.25
500.352	1243.25
500.569	1262.25
500.786	1247.25
501.003	1258.25
501.22	1183.25
501.437	1115.25
501.654	1065.25
