Data from 1975.PennyLincolnUp.Lamp.En5.5.200Scan.071719.P1.Changed Mount._HRD10591_15-56-08-859.txt Node
Date: Thu Jul 18 15:56:08 EDT 2019
User: cochatt
Spectrometer: HR+D1059
Trigger mode: 1
Integration Time (sec): 1.000000E-1
Scans to average: 1
Electric dark correction enabled: true
Nonlinearity correction enabled: false
Boxcar width: 0
XAxis mode: Wavelengths
Number of Pixels in Spectrum: 2048
>>>>>Begin Spectral Data<<<<<
223.165	-11.44
223.4	-11.44
223.635	-11.44
223.869	-25.44
224.104	-19.44
224.338	-12.44
224.573	-22.44
224.808	-2.44
225.042	-7.44
225.277	-7.44
225.511	4.56
225.746	4.56
225.98	2.56
226.215	18.56
226.449	9.56
226.683	17.56
226.918	26.56
227.152	24.56
227.387	29.56
227.621	43.56
227.856	45.56
228.09	23.56
228.324	44.56
228.559	53.56
228.793	57.56
229.027	99.56
229.262	95.56
229.496	107.56
229.73	118.56
229.964	111.56
230.199	109.56
230.433	117.56
230.667	106.56
230.901	125.56
231.136	121.56
231.37	121.56
231.604	106.56
231.838	110.56
232.072	116.56
232.306	109.56
232.541	95.56
232.775	105.56
233.009	120.56
233.243	114.56
233.477	108.56
233.711	125.56
233.945	110.56
234.179	117.56
234.413	115.56
234.647	117.56
234.881	101.56
235.115	124.56
235.349	119.56
235.583	126.56
235.817	119.56
236.051	110.56
236.285	126.56
236.519	118.56
236.753	137.56
236.987	129.56
237.221	167.56
237.455	207.56
237.689	180.56
237.922	143.56
238.156	138.56
238.39	123.56
238.624	129.56
238.858	125.56
239.091	123.56
239.325	125.56
239.559	117.56
239.793	115.56
240.027	116.56
240.26	129.56
240.494	159.56
240.728	151.56
240.961	153.56
241.195	147.56
241.429	127.56
241.662	120.56
241.896	125.56
242.13	127.56
242.363	121.56
242.597	137.56
242.83	127.56
243.064	137.56
243.298	134.56
243.531	134.56
243.765	144.56
243.998	144.56
244.232	146.56
244.465	143.56
244.699	143.56
244.932	143.56
245.166	140.56
245.399	151.56
245.633	136.56
245.866	158.56
246.099	135.56
246.333	145.56
246.566	154.56
246.8	150.56
247.033	150.56
247.266	151.56
247.5	156.56
247.733	167.56
247.966	162.56
248.2	174.56
248.433	162.56
248.666	165.56
248.899	165.56
249.133	189.56
249.366	206.56
249.599	216.56
249.832	187.56
250.066	169.56
250.299	172.56
250.532	211.56
250.765	198.56
250.998	213.56
251.231	235.56
251.465	197.56
251.698	188.56
251.931	200.56
252.164	167.56
252.397	177.56
252.63	206.56
252.863	189.56
253.096	205.56
253.329	228.56
253.562	226.56
253.795	207.56
254.028	209.56
254.261	206.56
254.494	213.56
254.727	225.56
254.96	243.56
255.193	258.56
255.426	233.56
255.659	218.56
255.892	218.56
256.124	228.56
256.357	215.56
256.59	219.56
256.823	226.56
257.056	202.56
257.289	208.56
257.521	206.56
257.754	209.56
257.987	206.56
258.22	201.56
258.452	200.56
258.685	211.56
258.918	197.56
259.151	197.56
259.383	207.56
259.616	210.56
259.849	218.56
260.081	234.56
260.314	260.56
260.547	245.56
260.779	239.56
261.012	219.56
261.244	222.56
261.477	218.56
261.71	222.56
261.942	205.56
262.175	239.56
262.407	221.56
262.64	206.56
262.872	208.56
263.105	215.56
263.337	190.56
263.57	207.56
263.802	213.56
264.035	211.56
264.267	206.56
264.499	219.56
264.732	220.56
264.964	224.56
265.197	196.56
265.429	220.56
265.661	216.56
265.894	207.56
266.126	214.56
266.358	217.56
266.591	224.56
266.823	218.56
267.055	222.56
267.287	219.56
267.52	207.56
267.752	221.56
267.984	236.56
268.216	248.56
268.448	232.56
268.681	224.56
268.913	249.56
269.145	246.56
269.377	264.56
269.609	241.56
269.841	258.56
270.073	254.56
270.306	275.56
270.538	295.56
270.77	293.56
271.002	274.56
271.234	275.56
271.466	291.56
271.698	305.56
271.93	298.56
272.162	308.56
272.394	311.56
272.626	294.56
272.858	259.56
273.09	276.56
273.322	262.56
273.553	260.56
273.785	271.56
274.017	247.56
274.249	229.56
274.481	245.56
274.713	270.56
274.945	264.56
275.176	252.56
275.408	257.56
275.64	246.56
275.872	276.56
276.104	271.56
276.335	257.56
276.567	260.56
276.799	254.56
277.031	288.56
277.262	297.56
277.494	311.56
277.726	284.56
277.957	295.56
278.189	277.56
278.421	279.56
278.652	251.56
278.884	268.56
279.115	264.56
279.347	283.56
279.579	265.56
279.81	264.56
280.042	274.56
280.273	281.56
280.505	263.56
280.736	266.56
280.968	246.56
281.199	275.56
281.431	259.56
281.662	267.56
281.894	274.56
282.125	271.56
282.356	269.56
282.588	282.56
282.819	281.56
283.051	285.56
283.282	275.56
283.513	276.56
283.745	279.56
283.976	268.56
284.207	295.56
284.439	270.56
284.67	292.56
284.901	284.56
285.132	294.56
285.364	279.56
285.595	269.56
285.826	262.56
286.057	270.56
286.288	295.56
286.52	293.56
286.751	294.56
286.982	275.56
287.213	294.56
287.444	279.56
287.675	296.56
287.906	313.56
288.138	309.56
288.369	300.56
288.6	302.56
288.831	301.56
289.062	292.56
289.293	293.56
289.524	283.56
289.755	301.56
289.986	300.56
290.217	309.56
290.448	274.56
290.679	287.56
290.91	289.56
291.141	295.56
291.371	279.56
291.602	275.56
291.833	286.56
292.064	296.56
292.295	301.56
292.526	290.56
292.757	285.56
292.987	289.56
293.218	294.56
293.449	291.56
293.68	288.56
293.91	296.56
294.141	293.56
294.372	309.56
294.603	309.56
294.833	305.56
295.064	285.56
295.295	291.56
295.525	311.56
295.756	318.56
295.987	305.56
296.217	336.56
296.448	315.56
296.679	289.56
296.909	297.56
297.14	309.56
297.37	295.56
297.601	294.56
297.831	306.56
298.062	303.56
298.292	305.56
298.523	299.56
298.753	310.56
298.984	297.56
299.214	312.56
299.445	323.56
299.675	314.56
299.905	305.56
300.136	321.56
300.366	310.56
300.597	318.56
300.827	317.56
301.057	317.56
301.288	346.56
301.518	317.56
301.748	330.56
301.979	320.56
302.209	334.56
302.439	317.56
302.669	334.56
302.9	312.56
303.13	332.56
303.36	347.56
303.59	333.56
303.82	314.56
304.051	347.56
304.281	336.56
304.511	328.56
304.741	307.56
304.971	345.56
305.201	340.56
305.431	327.56
305.661	319.56
305.891	323.56
306.121	330.56
306.352	326.56
306.582	319.56
306.812	310.56
307.042	329.56
307.272	323.56
307.502	329.56
307.731	324.56
307.961	321.56
308.191	324.56
308.421	335.56
308.651	340.56
308.881	328.56
309.111	325.56
309.341	318.56
309.571	343.56
309.8	354.56
310.03	352.56
310.26	358.56
310.49	359.56
310.72	346.56
310.949	370.56
311.179	382.56
311.409	372.56
311.639	366.56
311.868	357.56
312.098	371.56
312.328	381.56
312.557	370.56
312.787	398.56
313.017	387.56
313.246	361.56
313.476	345.56
313.706	365.56
313.935	359.56
314.165	379.56
314.394	360.56
314.624	365.56
314.853	380.56
315.083	371.56
315.312	342.56
315.542	369.56
315.771	343.56
316.001	347.56
316.23	357.56
316.46	350.56
316.689	355.56
316.919	374.56
317.148	358.56
317.377	371.56
317.607	363.56
317.836	366.56
318.065	362.56
318.295	370.56
318.524	365.56
318.753	359.56
318.983	371.56
319.212	374.56
319.441	390.56
319.67	371.56
319.9	364.56
320.129	365.56
320.358	377.56
320.587	371.56
320.816	375.56
321.046	377.56
321.275	387.56
321.504	393.56
321.733	386.56
321.962	369.56
322.191	378.56
322.42	375.56
322.649	402.56
322.878	422.56
323.108	415.56
323.337	423.56
323.566	457.56
323.795	443.56
324.024	471.56
324.253	548.56
324.482	755.56
324.71	1108.56
324.939	1642.56
325.168	1445.56
325.397	730.56
325.626	521.56
325.855	463.56
326.084	441.56
326.313	443.56
326.542	427.56
326.77	476.56
326.999	531.56
327.228	693.56
327.457	1018.56
327.686	1275.56
327.914	857.56
328.143	568.56
328.372	516.56
328.6	519.56
328.829	493.56
329.058	488.56
329.287	523.56
329.515	475.56
329.744	458.56
329.972	467.56
330.201	496.56
330.43	500.56
330.658	522.56
330.887	501.56
331.115	517.56
331.344	471.56
331.572	441.56
331.801	448.56
332.03	452.56
332.258	457.56
332.486	433.56
332.715	451.56
332.943	446.56
333.172	452.56
333.4	475.56
333.629	442.56
333.857	489.56
334.085	487.56
334.314	511.56
334.542	497.56
334.771	535.56
334.999	504.56
335.227	467.56
335.455	462.56
335.684	442.56
335.912	469.56
336.14	454.56
336.369	427.56
336.597	444.56
336.825	463.56
337.053	449.56
337.281	445.56
337.51	429.56
337.738	434.56
337.966	427.56
338.194	412.56
338.422	437.56
338.65	418.56
338.878	429.56
339.106	425.56
339.334	433.56
339.562	411.56
339.79	418.56
340.018	430.56
340.246	422.56
340.474	429.56
340.702	429.56
340.93	427.56
341.158	430.56
341.386	409.56
341.614	418.56
341.842	422.56
342.07	412.56
342.298	407.56
342.526	413.56
342.754	409.56
342.981	410.56
343.209	402.56
343.437	436.56
343.665	411.56
343.893	439.56
344.12	447.56
344.348	452.56
344.576	452.56
344.804	452.56
345.031	445.56
345.259	464.56
345.487	425.56
345.714	417.56
345.942	426.56
346.17	424.56
346.397	423.56
346.625	410.56
346.853	410.56
347.08	404.56
347.308	406.56
347.535	418.56
347.763	403.56
347.99	418.56
348.218	404.56
348.445	422.56
348.673	415.56
348.9	403.56
349.128	397.56
349.355	388.56
349.583	407.56
349.81	415.56
350.037	385.56
350.265	399.56
350.492	423.56
350.72	403.56
350.947	402.56
351.174	385.56
351.402	402.56
351.629	411.56
351.856	396.56
352.083	413.56
352.311	396.56
352.538	420.56
352.765	407.56
352.992	414.56
353.22	400.56
353.447	437.56
353.674	419.56
353.901	389.56
354.128	387.56
354.355	409.56
354.583	378.56
354.81	384.56
355.037	371.56
355.264	386.56
355.491	389.56
355.718	369.56
355.945	378.56
356.172	378.56
356.399	378.56
356.626	389.56
356.853	407.56
357.08	379.56
357.307	385.56
357.534	385.56
357.761	397.56
357.988	404.56
358.215	383.56
358.441	397.56
358.668	394.56
358.895	369.56
359.122	383.56
359.349	388.56
359.576	406.56
359.802	418.56
360.029	435.56
360.256	438.56
360.483	418.56
360.709	397.56
360.936	410.56
361.163	411.56
361.39	416.56
361.616	403.56
361.843	412.56
362.07	420.56
362.296	403.56
362.523	400.56
362.749	393.56
362.976	403.56
363.203	396.56
363.429	397.56
363.656	414.56
363.882	391.56
364.109	378.56
364.335	394.56
364.562	402.56
364.788	383.56
365.015	408.56
365.241	394.56
365.468	396.56
365.694	418.56
365.92	407.56
366.147	387.56
366.373	395.56
366.599	400.56
366.826	407.56
367.052	385.56
367.278	388.56
367.505	387.56
367.731	422.56
367.957	409.56
368.184	433.56
368.41	422.56
368.636	430.56
368.862	401.56
369.089	408.56
369.315	425.56
369.541	386.56
369.767	421.56
369.993	398.56
370.219	400.56
370.445	411.56
370.672	393.56
370.898	405.56
371.124	399.56
371.35	417.56
371.576	391.56
371.802	409.56
372.028	405.56
372.254	382.56
372.48	403.56
372.706	410.56
372.932	415.56
373.158	428.56
373.384	404.56
373.61	415.56
373.835	418.56
374.061	390.56
374.287	429.56
374.513	413.56
374.739	436.56
374.965	437.56
375.191	413.56
375.416	426.56
375.642	413.56
375.868	426.56
376.094	425.56
376.319	409.56
376.545	422.56
376.771	408.56
376.997	413.56
377.222	400.56
377.448	414.56
377.674	409.56
377.899	412.56
378.125	412.56
378.35	404.56
378.576	420.56
378.802	397.56
379.027	406.56
379.253	409.56
379.478	400.56
379.704	414.56
379.929	421.56
380.155	434.56
380.38	405.56
380.606	412.56
380.831	423.56
381.057	421.56
381.282	411.56
381.507	428.56
381.733	429.56
381.958	416.56
382.184	415.56
382.409	435.56
382.634	429.56
382.86	419.56
383.085	409.56
383.31	426.56
383.535	438.56
383.761	441.56
383.986	447.56
384.211	462.56
384.436	421.56
384.662	461.56
384.887	436.56
385.112	450.56
385.337	445.56
385.562	458.56
385.787	457.56
386.013	482.56
386.238	465.56
386.463	438.56
386.688	476.56
386.913	467.56
387.138	447.56
387.363	487.56
387.588	477.56
387.813	468.56
388.038	449.56
388.263	493.56
388.488	472.56
388.713	463.56
388.938	468.56
389.163	468.56
389.387	481.56
389.612	458.56
389.837	453.56
390.062	437.56
390.287	443.56
390.512	475.56
390.736	453.56
390.961	472.56
391.186	462.56
391.411	457.56
391.636	478.56
391.86	487.56
392.085	471.56
392.31	478.56
392.534	483.56
392.759	476.56
392.984	485.56
393.208	464.56
393.433	470.56
393.658	471.56
393.882	459.56
394.107	461.56
394.331	461.56
394.556	458.56
394.78	483.56
395.005	462.56
395.229	475.56
395.454	500.56
395.678	490.56
395.903	499.56
396.127	511.56
396.352	507.56
396.576	502.56
396.801	497.56
397.025	482.56
397.249	488.56
397.474	497.56
397.698	509.56
397.922	499.56
398.147	522.56
398.371	538.56
398.595	516.56
398.82	528.56
399.044	535.56
399.268	567.56
399.492	622.56
399.717	651.56
399.941	680.56
400.165	684.56
400.389	663.56
400.613	625.56
400.837	568.56
401.062	573.56
401.286	550.56
401.51	533.56
401.734	548.56
401.958	552.56
402.182	526.56
402.406	525.56
402.63	540.56
402.854	553.56
403.078	538.56
403.302	553.56
403.526	574.56
403.75	571.56
403.974	543.56
404.198	580.56
404.422	565.56
404.645	575.56
404.869	589.56
405.093	602.56
405.317	647.56
405.541	657.56
405.765	598.56
405.988	589.56
406.212	572.56
406.436	588.56
406.66	615.56
406.883	599.56
407.107	614.56
407.331	658.56
407.555	719.56
407.778	738.56
408.002	677.56
408.226	635.56
408.449	610.56
408.673	616.56
408.896	632.56
409.12	673.56
409.344	649.56
409.567	577.56
409.791	591.56
410.014	547.56
410.238	543.56
410.461	534.56
410.685	566.56
410.908	563.56
411.132	598.56
411.355	621.56
411.578	608.56
411.802	554.56
412.025	561.56
412.249	582.56
412.472	602.56
412.695	629.56
412.919	617.56
413.142	573.56
413.365	556.56
413.589	551.56
413.812	543.56
414.035	529.56
414.258	530.56
414.482	533.56
414.705	531.56
414.928	534.56
415.151	529.56
415.374	528.56
415.597	535.56
415.821	507.56
416.044	527.56
416.267	534.56
416.49	525.56
416.713	527.56
416.936	541.56
417.159	523.56
417.382	546.56
417.605	543.56
417.828	527.56
418.051	554.56
418.274	528.56
418.497	539.56
418.72	528.56
418.943	521.56
419.166	530.56
419.389	583.56
419.611	584.56
419.834	566.56
420.057	572.56
420.28	581.56
420.503	551.56
420.726	535.56
420.948	558.56
421.171	610.56
421.394	610.56
421.617	569.56
421.839	559.56
422.062	561.56
422.285	550.56
422.507	614.56
422.73	684.56
422.953	664.56
423.175	575.56
423.398	568.56
423.621	582.56
423.843	609.56
424.066	608.56
424.288	593.56
424.511	609.56
424.733	619.56
424.956	708.56
425.178	659.56
425.401	684.56
425.623	715.56
425.846	603.56
426.068	587.56
426.291	562.56
426.513	581.56
426.735	574.56
426.958	601.56
427.18	672.56
427.402	791.56
427.625	902.56
427.847	769.56
428.069	646.56
428.292	620.56
428.514	561.56
428.736	523.56
428.958	553.56
429.181	546.56
429.403	539.56
429.625	541.56
429.847	547.56
430.069	615.56
430.292	639.56
430.514	540.56
430.736	536.56
430.958	522.56
431.18	513.56
431.402	531.56
431.624	484.56
431.846	477.56
432.068	501.56
432.29	517.56
432.512	501.56
432.734	503.56
432.956	499.56
433.178	503.56
433.4	520.56
433.622	526.56
433.844	517.56
434.066	499.56
434.287	523.56
434.509	523.56
434.731	537.56
434.953	528.56
435.175	554.56
435.397	598.56
435.618	584.56
435.84	593.56
436.062	691.56
436.284	799.56
436.505	663.56
436.727	568.56
436.949	548.56
437.17	553.56
437.392	538.56
437.614	527.56
437.835	558.56
438.057	636.56
438.278	736.56
438.5	730.56
438.721	799.56
438.943	800.56
439.165	633.56
439.386	576.56
439.608	569.56
439.829	582.56
440.05	593.56
440.272	612.56
440.493	595.56
440.715	546.56
440.936	516.56
441.158	558.56
441.379	529.56
441.6	545.56
441.822	557.56
442.043	639.56
442.264	681.56
442.486	718.56
442.707	621.56
442.928	572.56
443.149	628.56
443.371	591.56
443.592	668.56
443.813	730.56
444.034	796.56
444.255	670.56
444.476	604.56
444.698	579.56
444.919	605.56
445.14	681.56
445.361	637.56
445.582	615.56
445.803	642.56
446.024	741.56
446.245	769.56
446.466	678.56
446.687	610.56
446.908	590.56
447.129	557.56
447.35	533.56
447.571	513.56
447.792	500.56
448.013	525.56
448.234	535.56
448.455	582.56
448.675	683.56
448.896	801.56
449.117	691.56
449.338	611.56
449.559	719.56
449.779	873.56
450	663.56
450.221	571.56
450.442	537.56
450.662	527.56
450.883	521.56
451.104	513.56
451.324	508.56
451.545	491.56
451.766	497.56
451.986	479.56
452.207	479.56
452.428	466.56
452.648	463.56
452.869	463.56
453.089	475.56
453.31	484.56
453.53	470.56
453.751	460.56
453.971	446.56
454.192	477.56
454.412	491.56
454.633	460.56
454.853	455.56
455.073	463.56
455.294	460.56
455.514	557.56
455.734	555.56
455.955	467.56
456.175	453.56
456.395	461.56
456.616	430.56
456.836	453.56
457.056	435.56
457.276	427.56
457.497	444.56
457.717	439.56
457.937	441.56
458.157	465.56
458.377	456.56
458.598	481.56
458.818	514.56
459.038	574.56
459.258	594.56
459.478	528.56
459.698	502.56
459.918	537.56
460.138	505.56
460.358	505.56
460.578	527.56
460.798	549.56
461.018	541.56
461.238	522.56
461.458	533.56
461.678	525.56
461.898	537.56
462.118	537.56
462.338	551.56
462.558	547.56
462.777	569.56
462.997	589.56
463.217	620.56
463.437	602.56
463.657	597.56
463.876	581.56
464.096	556.56
464.316	589.56
464.536	585.56
464.755	556.56
464.975	556.56
465.195	587.56
465.414	587.56
465.634	552.56
465.854	555.56
466.073	524.56
466.293	513.56
466.512	506.56
466.732	494.56
466.951	493.56
467.171	495.56
467.391	500.56
467.61	485.56
467.829	487.56
468.049	495.56
468.268	489.56
468.488	479.56
468.707	474.56
468.927	476.56
469.146	483.56
469.365	482.56
469.585	476.56
469.804	518.56
470.023	503.56
470.243	517.56
470.462	513.56
470.681	528.56
470.901	491.56
471.12	511.56
471.339	491.56
471.558	488.56
471.777	489.56
471.997	471.56
472.216	506.56
472.435	531.56
472.654	523.56
472.873	481.56
473.092	475.56
473.311	498.56
473.53	491.56
473.749	504.56
473.968	531.56
474.187	602.56
474.406	639.56
474.625	540.56
474.844	506.56
475.063	490.56
475.282	491.56
475.501	489.56
475.72	505.56
475.939	509.56
476.158	517.56
476.377	494.56
476.596	524.56
476.814	501.56
477.033	514.56
477.252	534.56
477.471	522.56
477.69	532.56
477.908	535.56
478.127	541.56
478.346	559.56
478.564	541.56
478.783	552.56
479.002	571.56
479.22	583.56
479.439	573.56
479.658	591.56
479.876	586.56
480.095	590.56
480.313	621.56
480.532	616.56
480.751	611.56
480.969	592.56
481.188	643.56
481.406	676.56
481.624	647.56
481.843	591.56
482.061	577.56
482.28	596.56
482.498	552.56
482.717	558.56
482.935	569.56
483.153	554.56
483.372	582.56
483.59	574.56
483.808	560.56
484.027	572.56
484.245	594.56
484.463	594.56
484.681	596.56
484.9	592.56
485.118	611.56
485.336	590.56
485.554	600.56
485.772	592.56
485.99	591.56
486.209	602.56
486.427	629.56
486.645	611.56
486.863	617.56
487.081	614.56
487.299	635.56
487.517	615.56
487.735	606.56
487.953	606.56
488.171	631.56
488.389	611.56
488.607	610.56
488.825	613.56
489.043	599.56
489.261	624.56
489.479	613.56
489.696	649.56
489.914	641.56
490.132	640.56
490.35	640.56
490.568	629.56
490.786	659.56
491.003	673.56
491.221	702.56
491.439	699.56
491.657	689.56
491.874	693.56
492.092	707.56
492.31	701.56
492.527	708.56
492.745	719.56
492.963	718.56
493.18	712.56
493.398	753.56
493.615	729.56
493.833	750.56
494.05	737.56
494.268	705.56
494.485	706.56
494.703	712.56
494.92	713.56
495.138	737.56
495.355	743.56
495.573	736.56
495.79	729.56
496.008	757.56
496.225	750.56
496.442	739.56
496.66	740.56
496.877	718.56
497.094	734.56
497.312	738.56
497.529	746.56
497.746	766.56
497.963	761.56
498.181	811.56
498.398	835.56
498.615	821.56
498.832	858.56
499.049	845.56
499.267	921.56
499.484	950.56
499.701	998.56
499.918	1016.56
500.135	1107.56
500.352	1148.56
500.569	1145.56
500.786	1198.56
501.003	1130.56
501.22	1118.56
501.437	1051.56
501.654	992.56
