Data from 1975.PennyLincolnUp.Lamp.En5.5.200Scan.071719.P1.Changed Mount._HRD10591_15-56-37-858.txt Node
Date: Thu Jul 18 15:56:37 EDT 2019
User: cochatt
Spectrometer: HR+D1059
Trigger mode: 1
Integration Time (sec): 1.000000E-1
Scans to average: 1
Electric dark correction enabled: true
Nonlinearity correction enabled: false
Boxcar width: 0
XAxis mode: Wavelengths
Number of Pixels in Spectrum: 2048
>>>>>Begin Spectral Data<<<<<
223.165	-23.5
223.4	-23.5
223.635	-23.5
223.869	-18.5
224.104	-23.5
224.338	-9.5
224.573	-37.5
224.808	-11.5
225.042	-3.5
225.277	-20.5
225.511	0.5
225.746	8.5
225.98	5.5
226.215	27.5
226.449	22.5
226.683	19.5
226.918	25.5
227.152	38.5
227.387	29.5
227.621	37.5
227.856	36.5
228.09	42.5
228.324	53.5
228.559	66.5
228.793	56.5
229.027	104.5
229.262	105.5
229.496	100.5
229.73	138.5
229.964	132.5
230.199	121.5
230.433	112.5
230.667	97.5
230.901	107.5
231.136	92.5
231.37	115.5
231.604	114.5
231.838	103.5
232.072	116.5
232.306	111.5
232.541	109.5
232.775	119.5
233.009	107.5
233.243	113.5
233.477	104.5
233.711	116.5
233.945	113.5
234.179	121.5
234.413	130.5
234.647	112.5
234.881	105.5
235.115	124.5
235.349	120.5
235.583	109.5
235.817	119.5
236.051	123.5
236.285	122.5
236.519	132.5
236.753	135.5
236.987	162.5
237.221	168.5
237.455	213.5
237.689	188.5
237.922	152.5
238.156	130.5
238.39	123.5
238.624	113.5
238.858	123.5
239.091	118.5
239.325	108.5
239.559	107.5
239.793	134.5
240.027	142.5
240.26	154.5
240.494	151.5
240.728	136.5
240.961	140.5
241.195	137.5
241.429	125.5
241.662	140.5
241.896	125.5
242.13	116.5
242.363	147.5
242.597	136.5
242.83	137.5
243.064	141.5
243.298	137.5
243.531	152.5
243.765	140.5
243.998	143.5
244.232	146.5
244.465	152.5
244.699	157.5
244.932	159.5
245.166	154.5
245.399	132.5
245.633	154.5
245.866	144.5
246.099	149.5
246.333	144.5
246.566	148.5
246.8	149.5
247.033	160.5
247.266	170.5
247.5	171.5
247.733	156.5
247.966	179.5
248.2	181.5
248.433	186.5
248.666	161.5
248.899	188.5
249.133	179.5
249.366	201.5
249.599	190.5
249.832	181.5
250.066	187.5
250.299	190.5
250.532	189.5
250.765	208.5
250.998	216.5
251.231	234.5
251.465	219.5
251.698	209.5
251.931	200.5
252.164	219.5
252.397	191.5
252.63	206.5
252.863	215.5
253.096	219.5
253.329	223.5
253.562	231.5
253.795	209.5
254.028	227.5
254.261	204.5
254.494	196.5
254.727	235.5
254.96	258.5
255.193	264.5
255.426	234.5
255.659	227.5
255.892	224.5
256.124	218.5
256.357	213.5
256.59	232.5
256.823	200.5
257.056	222.5
257.289	213.5
257.521	216.5
257.754	228.5
257.987	224.5
258.22	197.5
258.452	202.5
258.685	208.5
258.918	194.5
259.151	208.5
259.383	228.5
259.616	216.5
259.849	217.5
260.081	235.5
260.314	244.5
260.547	244.5
260.779	234.5
261.012	223.5
261.244	238.5
261.477	229.5
261.71	223.5
261.942	233.5
262.175	217.5
262.407	223.5
262.64	221.5
262.872	215.5
263.105	228.5
263.337	187.5
263.57	205.5
263.802	210.5
264.035	210.5
264.267	225.5
264.499	207.5
264.732	221.5
264.964	208.5
265.197	230.5
265.429	222.5
265.661	192.5
265.894	215.5
266.126	236.5
266.358	218.5
266.591	212.5
266.823	206.5
267.055	244.5
267.287	242.5
267.52	241.5
267.752	228.5
267.984	241.5
268.216	232.5
268.448	242.5
268.681	232.5
268.913	244.5
269.145	256.5
269.377	280.5
269.609	295.5
269.841	262.5
270.073	278.5
270.306	291.5
270.538	311.5
270.77	331.5
271.002	322.5
271.234	292.5
271.466	277.5
271.698	306.5
271.93	318.5
272.162	318.5
272.394	310.5
272.626	301.5
272.858	296.5
273.09	286.5
273.322	276.5
273.553	250.5
273.785	270.5
274.017	261.5
274.249	285.5
274.481	265.5
274.713	264.5
274.945	264.5
275.176	270.5
275.408	270.5
275.64	266.5
275.872	268.5
276.104	271.5
276.335	266.5
276.567	277.5
276.799	274.5
277.031	315.5
277.262	302.5
277.494	309.5
277.726	292.5
277.957	316.5
278.189	282.5
278.421	279.5
278.652	269.5
278.884	278.5
279.115	261.5
279.347	280.5
279.579	276.5
279.81	285.5
280.042	265.5
280.273	268.5
280.505	272.5
280.736	277.5
280.968	264.5
281.199	276.5
281.431	269.5
281.662	271.5
281.894	268.5
282.125	285.5
282.356	292.5
282.588	291.5
282.819	316.5
283.051	284.5
283.282	278.5
283.513	283.5
283.745	284.5
283.976	289.5
284.207	282.5
284.439	295.5
284.67	296.5
284.901	278.5
285.132	289.5
285.364	274.5
285.595	288.5
285.826	276.5
286.057	296.5
286.288	303.5
286.52	279.5
286.751	268.5
286.982	293.5
287.213	269.5
287.444	309.5
287.675	318.5
287.906	317.5
288.138	310.5
288.369	308.5
288.6	316.5
288.831	316.5
289.062	293.5
289.293	284.5
289.524	305.5
289.755	305.5
289.986	283.5
290.217	308.5
290.448	278.5
290.679	302.5
290.91	304.5
291.141	313.5
291.371	284.5
291.602	312.5
291.833	316.5
292.064	296.5
292.295	295.5
292.526	296.5
292.757	309.5
292.987	293.5
293.218	281.5
293.449	312.5
293.68	323.5
293.91	290.5
294.141	293.5
294.372	305.5
294.603	299.5
294.833	294.5
295.064	311.5
295.295	304.5
295.525	307.5
295.756	314.5
295.987	303.5
296.217	325.5
296.448	332.5
296.679	316.5
296.909	294.5
297.14	302.5
297.37	309.5
297.601	322.5
297.831	310.5
298.062	300.5
298.292	309.5
298.523	328.5
298.753	307.5
298.984	306.5
299.214	336.5
299.445	305.5
299.675	317.5
299.905	311.5
300.136	310.5
300.366	314.5
300.597	314.5
300.827	321.5
301.057	345.5
301.288	335.5
301.518	320.5
301.748	342.5
301.979	340.5
302.209	343.5
302.439	352.5
302.669	357.5
302.9	345.5
303.13	317.5
303.36	337.5
303.59	328.5
303.82	334.5
304.051	351.5
304.281	333.5
304.511	351.5
304.741	329.5
304.971	336.5
305.201	340.5
305.431	340.5
305.661	341.5
305.891	328.5
306.121	351.5
306.352	344.5
306.582	331.5
306.812	323.5
307.042	359.5
307.272	342.5
307.502	334.5
307.731	347.5
307.961	360.5
308.191	345.5
308.421	335.5
308.651	334.5
308.881	345.5
309.111	349.5
309.341	352.5
309.571	346.5
309.8	362.5
310.03	359.5
310.26	357.5
310.49	375.5
310.72	370.5
310.949	394.5
311.179	390.5
311.409	370.5
311.639	378.5
311.868	381.5
312.098	376.5
312.328	371.5
312.557	377.5
312.787	408.5
313.017	394.5
313.246	384.5
313.476	393.5
313.706	396.5
313.935	385.5
314.165	377.5
314.394	378.5
314.624	392.5
314.853	386.5
315.083	375.5
315.312	375.5
315.542	364.5
315.771	355.5
316.001	353.5
316.23	382.5
316.46	366.5
316.689	384.5
316.919	376.5
317.148	365.5
317.377	390.5
317.607	374.5
317.836	378.5
318.065	372.5
318.295	366.5
318.524	375.5
318.753	366.5
318.983	392.5
319.212	372.5
319.441	382.5
319.67	406.5
319.9	383.5
320.129	380.5
320.358	363.5
320.587	371.5
320.816	399.5
321.046	385.5
321.275	371.5
321.504	395.5
321.733	393.5
321.962	410.5
322.191	380.5
322.42	420.5
322.649	427.5
322.878	441.5
323.108	416.5
323.337	448.5
323.566	457.5
323.795	451.5
324.024	502.5
324.253	566.5
324.482	772.5
324.71	1165.5
324.939	1783.5
325.168	1547.5
325.397	784.5
325.626	548.5
325.855	476.5
326.084	468.5
326.313	451.5
326.542	454.5
326.77	512.5
326.999	566.5
327.228	744.5
327.457	1084.5
327.686	1328.5
327.914	922.5
328.143	619.5
328.372	550.5
328.6	509.5
328.829	508.5
329.058	518.5
329.287	501.5
329.515	479.5
329.744	489.5
329.972	475.5
330.201	491.5
330.43	522.5
330.658	536.5
330.887	564.5
331.115	546.5
331.344	486.5
331.572	484.5
331.801	488.5
332.03	475.5
332.258	461.5
332.486	438.5
332.715	439.5
332.943	453.5
333.172	462.5
333.4	481.5
333.629	468.5
333.857	464.5
334.085	528.5
334.314	517.5
334.542	525.5
334.771	542.5
334.999	481.5
335.227	482.5
335.455	460.5
335.684	469.5
335.912	457.5
336.14	446.5
336.369	432.5
336.597	474.5
336.825	468.5
337.053	446.5
337.281	460.5
337.51	453.5
337.738	444.5
337.966	425.5
338.194	451.5
338.422	435.5
338.65	450.5
338.878	428.5
339.106	430.5
339.334	432.5
339.562	443.5
339.79	453.5
340.018	425.5
340.246	429.5
340.474	462.5
340.702	442.5
340.93	421.5
341.158	426.5
341.386	429.5
341.614	437.5
341.842	424.5
342.07	420.5
342.298	441.5
342.526	415.5
342.754	423.5
342.981	418.5
343.209	424.5
343.437	433.5
343.665	451.5
343.893	466.5
344.12	475.5
344.348	453.5
344.576	479.5
344.804	465.5
345.031	444.5
345.259	467.5
345.487	436.5
345.714	443.5
345.942	407.5
346.17	427.5
346.397	411.5
346.625	422.5
346.853	414.5
347.08	425.5
347.308	425.5
347.535	412.5
347.763	414.5
347.99	435.5
348.218	422.5
348.445	448.5
348.673	416.5
348.9	429.5
349.128	421.5
349.355	396.5
349.583	402.5
349.81	423.5
350.037	412.5
350.265	412.5
350.492	404.5
350.72	418.5
350.947	416.5
351.174	420.5
351.402	452.5
351.629	428.5
351.856	414.5
352.083	414.5
352.311	425.5
352.538	433.5
352.765	441.5
352.992	427.5
353.22	415.5
353.447	411.5
353.674	415.5
353.901	402.5
354.128	402.5
354.355	389.5
354.583	407.5
354.81	403.5
355.037	407.5
355.264	404.5
355.491	397.5
355.718	373.5
355.945	401.5
356.172	396.5
356.399	396.5
356.626	390.5
356.853	378.5
357.08	416.5
357.307	400.5
357.534	381.5
357.761	379.5
357.988	389.5
358.215	391.5
358.441	393.5
358.668	406.5
358.895	399.5
359.122	390.5
359.349	413.5
359.576	424.5
359.802	442.5
360.029	445.5
360.256	455.5
360.483	450.5
360.709	426.5
360.936	438.5
361.163	420.5
361.39	424.5
361.616	425.5
361.843	423.5
362.07	413.5
362.296	421.5
362.523	424.5
362.749	434.5
362.976	434.5
363.203	426.5
363.429	435.5
363.656	409.5
363.882	436.5
364.109	425.5
364.335	372.5
364.562	397.5
364.788	408.5
365.015	402.5
365.241	430.5
365.468	416.5
365.694	422.5
365.92	413.5
366.147	432.5
366.373	411.5
366.599	417.5
366.826	419.5
367.052	406.5
367.278	396.5
367.505	406.5
367.731	419.5
367.957	424.5
368.184	410.5
368.41	401.5
368.636	429.5
368.862	418.5
369.089	418.5
369.315	411.5
369.541	410.5
369.767	417.5
369.993	424.5
370.219	394.5
370.445	406.5
370.672	399.5
370.898	397.5
371.124	436.5
371.35	412.5
371.576	430.5
371.802	430.5
372.028	415.5
372.254	421.5
372.48	426.5
372.706	436.5
372.932	437.5
373.158	427.5
373.384	434.5
373.61	429.5
373.835	429.5
374.061	421.5
374.287	407.5
374.513	442.5
374.739	438.5
374.965	446.5
375.191	426.5
375.416	449.5
375.642	426.5
375.868	431.5
376.094	413.5
376.319	415.5
376.545	412.5
376.771	411.5
376.997	425.5
377.222	414.5
377.448	392.5
377.674	420.5
377.899	408.5
378.125	413.5
378.35	428.5
378.576	429.5
378.802	413.5
379.027	441.5
379.253	430.5
379.478	402.5
379.704	437.5
379.929	423.5
380.155	416.5
380.38	411.5
380.606	432.5
380.831	426.5
381.057	437.5
381.282	434.5
381.507	421.5
381.733	422.5
381.958	424.5
382.184	434.5
382.409	424.5
382.634	418.5
382.86	436.5
383.085	435.5
383.31	434.5
383.535	450.5
383.761	451.5
383.986	460.5
384.211	429.5
384.436	463.5
384.662	458.5
384.887	448.5
385.112	438.5
385.337	460.5
385.562	462.5
385.787	470.5
386.013	490.5
386.238	486.5
386.463	478.5
386.688	498.5
386.913	452.5
387.138	478.5
387.363	471.5
387.588	456.5
387.813	470.5
388.038	466.5
388.263	468.5
388.488	488.5
388.713	477.5
388.938	476.5
389.163	439.5
389.387	452.5
389.612	478.5
389.837	490.5
390.062	454.5
390.287	452.5
390.512	465.5
390.736	477.5
390.961	457.5
391.186	474.5
391.411	486.5
391.636	494.5
391.86	482.5
392.085	522.5
392.31	488.5
392.534	498.5
392.759	482.5
392.984	497.5
393.208	477.5
393.433	490.5
393.658	469.5
393.882	488.5
394.107	508.5
394.331	485.5
394.556	488.5
394.78	443.5
395.005	497.5
395.229	478.5
395.454	496.5
395.678	496.5
395.903	497.5
396.127	516.5
396.352	508.5
396.576	489.5
396.801	504.5
397.025	489.5
397.249	496.5
397.474	501.5
397.698	516.5
397.922	544.5
398.147	521.5
398.371	567.5
398.595	522.5
398.82	552.5
399.044	564.5
399.268	568.5
399.492	632.5
399.717	646.5
399.941	705.5
400.165	696.5
400.389	710.5
400.613	620.5
400.837	593.5
401.062	572.5
401.286	580.5
401.51	569.5
401.734	528.5
401.958	564.5
402.182	559.5
402.406	562.5
402.63	554.5
402.854	577.5
403.078	571.5
403.302	573.5
403.526	583.5
403.75	588.5
403.974	594.5
404.198	566.5
404.422	581.5
404.645	576.5
404.869	579.5
405.093	624.5
405.317	652.5
405.541	674.5
405.765	644.5
405.988	603.5
406.212	590.5
406.436	621.5
406.66	636.5
406.883	632.5
407.107	659.5
407.331	680.5
407.555	764.5
407.778	753.5
408.002	680.5
408.226	648.5
408.449	664.5
408.673	619.5
408.896	672.5
409.12	696.5
409.344	670.5
409.567	595.5
409.791	599.5
410.014	600.5
410.238	576.5
410.461	581.5
410.685	586.5
410.908	606.5
411.132	627.5
411.355	652.5
411.578	639.5
411.802	594.5
412.025	585.5
412.249	576.5
412.472	631.5
412.695	668.5
412.919	645.5
413.142	581.5
413.365	568.5
413.589	568.5
413.812	561.5
414.035	566.5
414.258	554.5
414.482	539.5
414.705	551.5
414.928	536.5
415.151	545.5
415.374	537.5
415.597	514.5
415.821	544.5
416.044	532.5
416.267	567.5
416.49	536.5
416.713	517.5
416.936	551.5
417.159	541.5
417.382	533.5
417.605	558.5
417.828	530.5
418.051	554.5
418.274	568.5
418.497	519.5
418.72	561.5
418.943	525.5
419.166	567.5
419.389	605.5
419.611	589.5
419.834	555.5
420.057	585.5
420.28	583.5
420.503	570.5
420.726	551.5
420.948	570.5
421.171	628.5
421.394	646.5
421.617	576.5
421.839	551.5
422.062	552.5
422.285	567.5
422.507	624.5
422.73	708.5
422.953	679.5
423.175	624.5
423.398	588.5
423.621	618.5
423.843	584.5
424.066	590.5
424.288	620.5
424.511	626.5
424.733	676.5
424.956	741.5
425.178	714.5
425.401	747.5
425.623	730.5
425.846	610.5
426.068	621.5
426.291	581.5
426.513	586.5
426.735	604.5
426.958	626.5
427.18	714.5
427.402	879.5
427.625	927.5
427.847	772.5
428.069	691.5
428.292	628.5
428.514	570.5
428.736	570.5
428.958	555.5
429.181	542.5
429.403	524.5
429.625	554.5
429.847	564.5
430.069	655.5
430.292	647.5
430.514	568.5
430.736	566.5
430.958	533.5
431.18	524.5
431.402	526.5
431.624	524.5
431.846	526.5
432.068	539.5
432.29	535.5
432.512	517.5
432.734	549.5
432.956	516.5
433.178	541.5
433.4	545.5
433.622	514.5
433.844	540.5
434.066	518.5
434.287	531.5
434.509	540.5
434.731	542.5
434.953	557.5
435.175	553.5
435.397	592.5
435.618	590.5
435.84	646.5
436.062	713.5
436.284	771.5
436.505	660.5
436.727	577.5
436.949	568.5
437.17	554.5
437.392	550.5
437.614	565.5
437.835	578.5
438.057	677.5
438.278	758.5
438.5	758.5
438.721	865.5
438.943	826.5
439.165	648.5
439.386	602.5
439.608	590.5
439.829	582.5
440.05	629.5
440.272	634.5
440.493	613.5
440.715	594.5
440.936	556.5
441.158	548.5
441.379	568.5
441.6	586.5
441.822	576.5
442.043	634.5
442.264	715.5
442.486	764.5
442.707	648.5
442.928	619.5
443.149	593.5
443.371	640.5
443.592	673.5
443.813	749.5
444.034	868.5
444.255	702.5
444.476	635.5
444.698	601.5
444.919	606.5
445.14	752.5
445.361	669.5
445.582	645.5
445.803	702.5
446.024	786.5
446.245	806.5
446.466	719.5
446.687	619.5
446.908	598.5
447.129	544.5
447.35	537.5
447.571	548.5
447.792	521.5
448.013	561.5
448.234	555.5
448.455	608.5
448.675	700.5
448.896	842.5
449.117	710.5
449.338	625.5
449.559	772.5
449.779	878.5
450	704.5
450.221	590.5
450.442	555.5
450.662	536.5
450.883	523.5
451.104	541.5
451.324	531.5
451.545	512.5
451.766	514.5
451.986	485.5
452.207	485.5
452.428	462.5
452.648	511.5
452.869	480.5
453.089	483.5
453.31	510.5
453.53	478.5
453.751	464.5
453.971	477.5
454.192	489.5
454.412	492.5
454.633	491.5
454.853	448.5
455.073	486.5
455.294	506.5
455.514	579.5
455.734	540.5
455.955	486.5
456.175	465.5
456.395	456.5
456.616	455.5
456.836	441.5
457.056	468.5
457.276	453.5
457.497	455.5
457.717	479.5
457.937	465.5
458.157	458.5
458.377	478.5
458.598	490.5
458.818	538.5
459.038	603.5
459.258	647.5
459.478	557.5
459.698	541.5
459.918	533.5
460.138	512.5
460.358	551.5
460.578	562.5
460.798	554.5
461.018	560.5
461.238	539.5
461.458	538.5
461.678	550.5
461.898	550.5
462.118	547.5
462.338	579.5
462.558	557.5
462.777	573.5
462.997	614.5
463.217	609.5
463.437	620.5
463.657	616.5
463.876	583.5
464.096	577.5
464.316	581.5
464.536	600.5
464.755	600.5
464.975	594.5
465.195	578.5
465.414	636.5
465.634	589.5
465.854	547.5
466.073	530.5
466.293	524.5
466.512	485.5
466.732	516.5
466.951	491.5
467.171	514.5
467.391	494.5
467.61	516.5
467.829	512.5
468.049	512.5
468.268	513.5
468.488	496.5
468.707	487.5
468.927	500.5
469.146	504.5
469.365	489.5
469.585	496.5
469.804	492.5
470.023	506.5
470.243	509.5
470.462	491.5
470.681	487.5
470.901	530.5
471.12	527.5
471.339	518.5
471.558	522.5
471.777	514.5
471.997	493.5
472.216	508.5
472.435	522.5
472.654	539.5
472.873	496.5
473.092	498.5
473.311	489.5
473.53	510.5
473.749	528.5
473.968	550.5
474.187	648.5
474.406	660.5
474.625	568.5
474.844	520.5
475.063	505.5
475.282	534.5
475.501	515.5
475.72	498.5
475.939	522.5
476.158	512.5
476.377	529.5
476.596	512.5
476.814	552.5
477.033	530.5
477.252	537.5
477.471	534.5
477.69	535.5
477.908	538.5
478.127	545.5
478.346	565.5
478.564	546.5
478.783	577.5
479.002	564.5
479.22	590.5
479.439	580.5
479.658	606.5
479.876	617.5
480.095	605.5
480.313	641.5
480.532	661.5
480.751	630.5
480.969	654.5
481.188	684.5
481.406	708.5
481.624	640.5
481.843	611.5
482.061	575.5
482.28	600.5
482.498	576.5
482.717	590.5
482.935	600.5
483.153	582.5
483.372	584.5
483.59	596.5
483.808	586.5
484.027	608.5
484.245	594.5
484.463	596.5
484.681	619.5
484.9	596.5
485.118	609.5
485.336	604.5
485.554	619.5
485.772	632.5
485.99	592.5
486.209	644.5
486.427	611.5
486.645	636.5
486.863	628.5
487.081	642.5
487.299	629.5
487.517	641.5
487.735	665.5
487.953	657.5
488.171	619.5
488.389	625.5
488.607	621.5
488.825	662.5
489.043	630.5
489.261	640.5
489.479	646.5
489.696	653.5
489.914	648.5
490.132	660.5
490.35	660.5
490.568	670.5
490.786	671.5
491.003	682.5
491.221	725.5
491.439	710.5
491.657	733.5
491.874	716.5
492.092	746.5
492.31	750.5
492.527	734.5
492.745	769.5
492.963	759.5
493.18	747.5
493.398	747.5
493.615	738.5
493.833	764.5
494.05	754.5
494.268	730.5
494.485	748.5
494.703	758.5
494.92	734.5
495.138	748.5
495.355	724.5
495.573	735.5
495.79	757.5
496.008	753.5
496.225	740.5
496.442	786.5
496.66	758.5
496.877	761.5
497.094	797.5
497.312	756.5
497.529	798.5
497.746	804.5
497.963	803.5
498.181	820.5
498.398	805.5
498.615	860.5
498.832	897.5
499.049	896.5
499.267	939.5
499.484	960.5
499.701	992.5
499.918	1100.5
500.135	1119.5
500.352	1200.5
500.569	1204.5
500.786	1213.5
501.003	1209.5
501.22	1173.5
501.437	1056.5
501.654	1031.5
501.871	1014.5
502.088	986.5
502.305	916.5
502.522	883.5
502.739	874.5
502.956	834.5
503.172	827.5
503.389	808.5
503.606	805.5
503.823	774.5
504.04	776.5
504.256	766.5
504.473	804.5
504.69	784.5
504.907	762.5
505.123	756.5
505.34	756.5
505.557	709.5
505.773	733.5
505.99	727.5
506.207	715.5
506.423	702.5
506.64	690.5
506.856	712.5
507.073	695.5
507.289	683.5
507.506	691.5
507.722	690.5
507.939	708.5
508.155	701.5
508.372	706.5
508.588	687.5
508.805	683.5
509.021	656.5
509.238	672.5
509.454	661.5
509.67	668.5
509.887	654.5
510.103	653.5
510.319	661.5
510.536	709.5
510.752	1010.5
510.968	888.5
511.184	648.5
511.401	636.5
511.617	643.5
511.833	598.5
512.049	613.5
512.265	626.5
512.481	599.5
512.698	615.5
512.914	611.5
513.13	624.5
513.346	630.5
513.562	606.5
513.778	628.5
513.994	644.5
514.21	637.5
514.426	653.5
514.642	671.5
514.858	680.5
515.074	731.5
515.29	772.5
515.506	1048.5
515.721	890.5
515.937	707.5
516.153	664.5
516.369	656.5
516.585	666.5
516.801	649.5
517.016	690.5
517.232	682.5
517.448	685.5
517.664	674.5
517.879	689.5
518.095	676.5
518.311	678.5
518.527	645.5
518.742	667.5
518.958	662.5
519.173	636.5
519.389	628.5
519.605	618.5
