Data from 1975.PennyLincolnUp.Lamp.En5.5.200Scan.071719.P1.Changed Mount._HRD10591_15-57-01-859.txt Node
Date: Thu Jul 18 15:57:01 EDT 2019
User: cochatt
Spectrometer: HR+D1059
Trigger mode: 1
Integration Time (sec): 1.000000E-1
Scans to average: 1
Electric dark correction enabled: true
Nonlinearity correction enabled: false
Boxcar width: 0
XAxis mode: Wavelengths
Number of Pixels in Spectrum: 2048
>>>>>Begin Spectral Data<<<<<
223.165	-19.12
223.4	-19.12
223.635	-19.12
223.869	-8.12
224.104	-23.12
224.338	-26.12
224.573	-7.12
224.808	-22.12
225.042	0.88
225.277	-1.12
225.511	-1.12
225.746	-0.12
225.98	9.88
226.215	11.88
226.449	17.88
226.683	20.88
226.918	17.88
227.152	28.88
227.387	29.88
227.621	40.88
227.856	34.88
228.09	51.88
228.324	53.88
228.559	46.88
228.793	62.88
229.027	86.88
229.262	114.88
229.496	104.88
229.73	120.88
229.964	150.88
230.199	135.88
230.433	94.88
230.667	102.88
230.901	124.88
231.136	116.88
231.37	101.88
231.604	110.88
231.838	109.88
232.072	118.88
232.306	93.88
232.541	103.88
232.775	121.88
233.009	103.88
233.243	103.88
233.477	114.88
233.711	121.88
233.945	126.88
234.179	108.88
234.413	106.88
234.647	117.88
234.881	128.88
235.115	123.88
235.349	120.88
235.583	129.88
235.817	121.88
236.051	136.88
236.285	138.88
236.519	123.88
236.753	139.88
236.987	152.88
237.221	168.88
237.455	209.88
237.689	190.88
237.922	144.88
238.156	128.88
238.39	123.88
238.624	137.88
238.858	132.88
239.091	118.88
239.325	116.88
239.559	113.88
239.793	121.88
240.027	131.88
240.26	133.88
240.494	153.88
240.728	147.88
240.961	143.88
241.195	143.88
241.429	131.88
241.662	146.88
241.896	126.88
242.13	123.88
242.363	118.88
242.597	123.88
242.83	130.88
243.064	144.88
243.298	140.88
243.531	148.88
243.765	128.88
243.998	139.88
244.232	132.88
244.465	138.88
244.699	138.88
244.932	135.88
245.166	152.88
245.399	146.88
245.633	146.88
245.866	158.88
246.099	136.88
246.333	164.88
246.566	159.88
246.8	157.88
247.033	168.88
247.266	142.88
247.5	154.88
247.733	187.88
247.966	161.88
248.2	162.88
248.433	169.88
248.666	156.88
248.899	175.88
249.133	190.88
249.366	202.88
249.599	196.88
249.832	193.88
250.066	161.88
250.299	170.88
250.532	199.88
250.765	204.88
250.998	227.88
251.231	227.88
251.465	213.88
251.698	216.88
251.931	192.88
252.164	192.88
252.397	194.88
252.63	170.88
252.863	212.88
253.096	208.88
253.329	233.88
253.562	224.88
253.795	206.88
254.028	222.88
254.261	219.88
254.494	226.88
254.727	246.88
254.96	262.88
255.193	268.88
255.426	223.88
255.659	224.88
255.892	235.88
256.124	245.88
256.357	237.88
256.59	228.88
256.823	209.88
257.056	206.88
257.289	199.88
257.521	218.88
257.754	219.88
257.987	194.88
258.22	221.88
258.452	208.88
258.685	210.88
258.918	219.88
259.151	214.88
259.383	210.88
259.616	215.88
259.849	251.88
260.081	238.88
260.314	260.88
260.547	259.88
260.779	249.88
261.012	245.88
261.244	234.88
261.477	220.88
261.71	216.88
261.942	201.88
262.175	210.88
262.407	233.88
262.64	214.88
262.872	213.88
263.105	214.88
263.337	198.88
263.57	199.88
263.802	216.88
264.035	218.88
264.267	208.88
264.499	209.88
264.732	219.88
264.964	210.88
265.197	213.88
265.429	218.88
265.661	228.88
265.894	242.88
266.126	203.88
266.358	231.88
266.591	223.88
266.823	203.88
267.055	241.88
267.287	230.88
267.52	238.88
267.752	225.88
267.984	236.88
268.216	218.88
268.448	249.88
268.681	232.88
268.913	255.88
269.145	279.88
269.377	279.88
269.609	278.88
269.841	266.88
270.073	276.88
270.306	284.88
270.538	304.88
270.77	322.88
271.002	294.88
271.234	264.88
271.466	293.88
271.698	322.88
271.93	326.88
272.162	330.88
272.394	318.88
272.626	302.88
272.858	277.88
273.09	277.88
273.322	269.88
273.553	262.88
273.785	283.88
274.017	264.88
274.249	275.88
274.481	260.88
274.713	260.88
274.945	270.88
275.176	266.88
275.408	285.88
275.64	261.88
275.872	262.88
276.104	258.88
276.335	282.88
276.567	277.88
276.799	299.88
277.031	305.88
277.262	311.88
277.494	339.88
277.726	311.88
277.957	289.88
278.189	274.88
278.421	286.88
278.652	269.88
278.884	270.88
279.115	254.88
279.347	279.88
279.579	272.88
279.81	271.88
280.042	276.88
280.273	273.88
280.505	285.88
280.736	280.88
280.968	257.88
281.199	267.88
281.431	264.88
281.662	271.88
281.894	274.88
282.125	283.88
282.356	280.88
282.588	305.88
282.819	281.88
283.051	271.88
283.282	281.88
283.513	284.88
283.745	288.88
283.976	291.88
284.207	298.88
284.439	297.88
284.67	296.88
284.901	271.88
285.132	282.88
285.364	285.88
285.595	275.88
285.826	306.88
286.057	293.88
286.288	299.88
286.52	307.88
286.751	292.88
286.982	288.88
287.213	288.88
287.444	295.88
287.675	310.88
287.906	344.88
288.138	311.88
288.369	322.88
288.6	310.88
288.831	306.88
289.062	308.88
289.293	314.88
289.524	296.88
289.755	305.88
289.986	304.88
290.217	291.88
290.448	308.88
290.679	295.88
290.91	297.88
291.141	306.88
291.371	305.88
291.602	305.88
291.833	302.88
292.064	299.88
292.295	298.88
292.526	314.88
292.757	301.88
292.987	293.88
293.218	284.88
293.449	316.88
293.68	309.88
293.91	297.88
294.141	299.88
294.372	280.88
294.603	293.88
294.833	303.88
295.064	309.88
295.295	321.88
295.525	308.88
295.756	306.88
295.987	314.88
296.217	330.88
296.448	343.88
296.679	302.88
296.909	305.88
297.14	305.88
297.37	318.88
297.601	325.88
297.831	303.88
298.062	316.88
298.292	319.88
298.523	291.88
298.753	321.88
298.984	310.88
299.214	314.88
299.445	323.88
299.675	329.88
299.905	315.88
300.136	310.88
300.366	321.88
300.597	329.88
300.827	333.88
301.057	332.88
301.288	330.88
301.518	333.88
301.748	338.88
301.979	351.88
302.209	327.88
302.439	339.88
302.669	337.88
302.9	321.88
303.13	328.88
303.36	327.88
303.59	319.88
303.82	343.88
304.051	333.88
304.281	330.88
304.511	334.88
304.741	313.88
304.971	330.88
305.201	322.88
305.431	347.88
305.661	333.88
305.891	339.88
306.121	340.88
306.352	338.88
306.582	338.88
306.812	351.88
307.042	325.88
307.272	347.88
307.502	326.88
307.731	328.88
307.961	337.88
308.191	344.88
308.421	349.88
308.651	340.88
308.881	366.88
309.111	370.88
309.341	353.88
309.571	363.88
309.8	353.88
310.03	374.88
310.26	380.88
310.49	351.88
310.72	376.88
310.949	372.88
311.179	378.88
311.409	365.88
311.639	379.88
311.868	375.88
312.098	382.88
312.328	376.88
312.557	370.88
312.787	401.88
313.017	385.88
313.246	391.88
313.476	356.88
313.706	356.88
313.935	363.88
314.165	396.88
314.394	395.88
314.624	375.88
314.853	386.88
315.083	400.88
315.312	379.88
315.542	387.88
315.771	359.88
316.001	380.88
316.23	398.88
316.46	372.88
316.689	390.88
316.919	374.88
317.148	373.88
317.377	384.88
317.607	362.88
317.836	372.88
318.065	390.88
318.295	374.88
318.524	375.88
318.753	380.88
318.983	378.88
319.212	370.88
319.441	384.88
319.67	363.88
319.9	386.88
320.129	394.88
320.358	393.88
320.587	379.88
320.816	403.88
321.046	394.88
321.275	411.88
321.504	407.88
321.733	399.88
321.962	386.88
322.191	407.88
322.42	410.88
322.649	399.88
322.878	421.88
323.108	432.88
323.337	438.88
323.566	459.88
323.795	459.88
324.024	501.88
324.253	606.88
324.482	809.88
324.71	1240.88
324.939	1848.88
325.168	1633.88
325.397	834.88
325.626	599.88
325.855	517.88
326.084	479.88
326.313	456.88
326.542	452.88
326.77	497.88
326.999	572.88
327.228	744.88
327.457	1140.88
327.686	1415.88
327.914	960.88
328.143	633.88
328.372	579.88
328.6	525.88
328.829	523.88
329.058	522.88
329.287	516.88
329.515	515.88
329.744	482.88
329.972	480.88
330.201	503.88
330.43	530.88
330.658	542.88
330.887	548.88
331.115	555.88
331.344	494.88
331.572	482.88
331.801	471.88
332.03	483.88
332.258	462.88
332.486	462.88
332.715	472.88
332.943	470.88
333.172	470.88
333.4	491.88
333.629	498.88
333.857	496.88
334.085	491.88
334.314	500.88
334.542	544.88
334.771	584.88
334.999	507.88
335.227	490.88
335.455	494.88
335.684	481.88
335.912	451.88
336.14	446.88
336.369	462.88
336.597	482.88
336.825	463.88
337.053	440.88
337.281	457.88
337.51	446.88
337.738	445.88
337.966	457.88
338.194	441.88
338.422	444.88
338.65	435.88
338.878	434.88
339.106	456.88
339.334	437.88
339.562	432.88
339.79	435.88
340.018	430.88
340.246	437.88
340.474	432.88
340.702	450.88
340.93	419.88
341.158	422.88
341.386	434.88
341.614	451.88
341.842	434.88
342.07	434.88
342.298	411.88
342.526	423.88
342.754	424.88
342.981	399.88
343.209	416.88
343.437	425.88
343.665	425.88
343.893	439.88
344.12	429.88
344.348	481.88
344.576	459.88
344.804	446.88
345.031	433.88
345.259	443.88
345.487	439.88
345.714	435.88
345.942	434.88
346.17	429.88
346.397	437.88
346.625	420.88
346.853	422.88
347.08	443.88
347.308	428.88
347.535	436.88
347.763	447.88
347.99	426.88
348.218	434.88
348.445	421.88
348.673	436.88
348.9	413.88
349.128	400.88
349.355	378.88
349.583	400.88
349.81	418.88
350.037	410.88
350.265	408.88
350.492	411.88
350.72	402.88
350.947	397.88
351.174	421.88
351.402	435.88
351.629	434.88
351.856	409.88
352.083	420.88
352.311	442.88
352.538	428.88
352.765	445.88
352.992	431.88
353.22	411.88
353.447	417.88
353.674	433.88
353.901	400.88
354.128	406.88
354.355	402.88
354.583	397.88
354.81	399.88
355.037	390.88
355.264	415.88
355.491	402.88
355.718	390.88
355.945	393.88
356.172	395.88
356.399	396.88
356.626	410.88
356.853	400.88
357.08	394.88
357.307	393.88
357.534	414.88
357.761	401.88
357.988	410.88
358.215	394.88
358.441	403.88
358.668	397.88
358.895	395.88
359.122	392.88
359.349	413.88
359.576	408.88
359.802	437.88
360.029	459.88
360.256	453.88
360.483	443.88
360.709	446.88
360.936	424.88
361.163	403.88
361.39	413.88
361.616	422.88
361.843	436.88
362.07	439.88
362.296	390.88
362.523	429.88
362.749	422.88
362.976	427.88
363.203	412.88
363.429	431.88
363.656	438.88
363.882	423.88
364.109	428.88
364.335	420.88
364.562	408.88
364.788	413.88
365.015	416.88
365.241	421.88
365.468	406.88
365.694	414.88
365.92	419.88
366.147	402.88
366.373	404.88
366.599	409.88
366.826	392.88
367.052	394.88
367.278	400.88
367.505	399.88
367.731	414.88
367.957	432.88
368.184	422.88
368.41	424.88
368.636	410.88
368.862	436.88
369.089	420.88
369.315	414.88
369.541	422.88
369.767	414.88
369.993	439.88
370.219	404.88
370.445	426.88
370.672	415.88
370.898	394.88
371.124	416.88
371.35	410.88
371.576	414.88
371.802	414.88
372.028	425.88
372.254	411.88
372.48	423.88
372.706	430.88
372.932	436.88
373.158	430.88
373.384	416.88
373.61	422.88
373.835	435.88
374.061	414.88
374.287	425.88
374.513	422.88
374.739	447.88
374.965	437.88
375.191	433.88
375.416	419.88
375.642	435.88
375.868	428.88
376.094	418.88
376.319	415.88
376.545	405.88
376.771	402.88
376.997	411.88
377.222	420.88
377.448	405.88
377.674	414.88
377.899	389.88
378.125	433.88
378.35	418.88
378.576	427.88
378.802	424.88
379.027	410.88
379.253	425.88
379.478	412.88
379.704	419.88
379.929	431.88
380.155	426.88
380.38	405.88
380.606	446.88
380.831	408.88
381.057	413.88
381.282	415.88
381.507	431.88
381.733	411.88
381.958	426.88
382.184	435.88
382.409	417.88
382.634	445.88
382.86	436.88
383.085	439.88
383.31	431.88
383.535	441.88
383.761	431.88
383.986	467.88
384.211	438.88
384.436	435.88
384.662	462.88
384.887	472.88
385.112	456.88
385.337	472.88
385.562	468.88
385.787	459.88
386.013	468.88
386.238	475.88
386.463	465.88
386.688	465.88
386.913	471.88
387.138	473.88
387.363	470.88
387.588	472.88
387.813	466.88
388.038	468.88
388.263	474.88
388.488	463.88
388.713	462.88
388.938	490.88
389.163	485.88
389.387	452.88
389.612	454.88
389.837	473.88
390.062	459.88
390.287	466.88
390.512	455.88
390.736	468.88
390.961	476.88
391.186	460.88
391.411	480.88
391.636	496.88
391.86	489.88
392.085	503.88
392.31	499.88
392.534	504.88
392.759	479.88
392.984	501.88
393.208	486.88
393.433	483.88
393.658	484.88
393.882	490.88
394.107	483.88
394.331	494.88
394.556	489.88
394.78	478.88
395.005	466.88
395.229	482.88
395.454	494.88
395.678	490.88
395.903	494.88
396.127	516.88
396.352	532.88
396.576	504.88
396.801	496.88
397.025	487.88
397.249	498.88
397.474	488.88
397.698	496.88
397.922	497.88
398.147	512.88
398.371	549.88
398.595	532.88
398.82	538.88
399.044	569.88
399.268	586.88
399.492	627.88
399.717	675.88
399.941	673.88
400.165	707.88
400.389	699.88
400.613	627.88
400.837	601.88
401.062	578.88
401.286	571.88
401.51	553.88
401.734	523.88
401.958	526.88
402.182	570.88
402.406	536.88
402.63	556.88
402.854	558.88
403.078	560.88
403.302	579.88
403.526	592.88
403.75	582.88
403.974	578.88
404.198	570.88
404.422	589.88
404.645	580.88
404.869	600.88
405.093	646.88
405.317	672.88
405.541	693.88
405.765	652.88
405.988	611.88
406.212	598.88
406.436	624.88
406.66	631.88
406.883	625.88
407.107	664.88
407.331	697.88
407.555	752.88
407.778	774.88
408.002	697.88
408.226	634.88
408.449	668.88
408.673	616.88
408.896	651.88
409.12	698.88
409.344	637.88
409.567	624.88
409.791	601.88
410.014	593.88
410.238	551.88
410.461	587.88
410.685	575.88
410.908	586.88
411.132	606.88
411.355	671.88
411.578	633.88
411.802	590.88
412.025	577.88
412.249	575.88
412.472	616.88
412.695	645.88
412.919	607.88
413.142	567.88
413.365	567.88
413.589	540.88
413.812	545.88
414.035	520.88
414.258	538.88
414.482	560.88
414.705	571.88
414.928	556.88
415.151	550.88
415.374	545.88
415.597	536.88
415.821	562.88
416.044	528.88
416.267	551.88
416.49	540.88
416.713	550.88
416.936	532.88
417.159	542.88
417.382	547.88
417.605	568.88
417.828	549.88
418.051	564.88
418.274	536.88
418.497	561.88
418.72	572.88
418.943	537.88
419.166	560.88
419.389	600.88
419.611	587.88
419.834	572.88
420.057	579.88
420.28	581.88
420.503	590.88
420.726	562.88
420.948	599.88
421.171	628.88
421.394	657.88
421.617	587.88
421.839	564.88
422.062	578.88
422.285	578.88
422.507	628.88
422.73	720.88
422.953	686.88
423.175	619.88
423.398	629.88
423.621	592.88
423.843	595.88
424.066	622.88
424.288	589.88
424.511	632.88
424.733	672.88
424.956	746.88
425.178	723.88
425.401	697.88
425.623	734.88
425.846	640.88
426.068	594.88
426.291	604.88
426.513	593.88
426.735	607.88
426.958	629.88
427.18	736.88
427.402	838.88
427.625	922.88
427.847	798.88
428.069	741.88
428.292	631.88
428.514	593.88
428.736	552.88
428.958	546.88
429.181	565.88
429.403	536.88
429.625	558.88
429.847	591.88
430.069	663.88
430.292	658.88
430.514	571.88
430.736	544.88
430.958	573.88
431.18	546.88
431.402	540.88
431.624	513.88
431.846	516.88
432.068	520.88
432.29	547.88
432.512	526.88
432.734	528.88
432.956	531.88
433.178	548.88
433.4	547.88
433.622	548.88
433.844	527.88
434.066	536.88
434.287	511.88
434.509	528.88
434.731	544.88
434.953	567.88
435.175	567.88
435.397	599.88
435.618	601.88
435.84	657.88
436.062	717.88
436.284	808.88
436.505	654.88
436.727	629.88
436.949	572.88
437.17	578.88
437.392	543.88
437.614	540.88
437.835	596.88
438.057	682.88
438.278	786.88
438.5	750.88
438.721	858.88
438.943	826.88
439.165	658.88
439.386	608.88
439.608	592.88
439.829	590.88
440.05	612.88
440.272	662.88
440.493	627.88
440.715	590.88
440.936	548.88
441.158	562.88
441.379	556.88
441.6	610.88
441.822	588.88
442.043	642.88
442.264	723.88
442.486	778.88
442.707	666.88
442.928	609.88
443.149	626.88
443.371	664.88
443.592	660.88
443.813	784.88
444.034	859.88
444.255	681.88
444.476	612.88
444.698	600.88
444.919	634.88
445.14	731.88
445.361	683.88
445.582	658.88
445.803	698.88
446.024	789.88
446.245	810.88
446.466	734.88
446.687	616.88
446.908	580.88
447.129	560.88
447.35	562.88
447.571	529.88
447.792	534.88
448.013	548.88
448.234	563.88
448.455	589.88
448.675	706.88
448.896	863.88
449.117	722.88
449.338	661.88
449.559	792.88
449.779	878.88
450	710.88
450.221	593.88
450.442	514.88
450.662	540.88
450.883	522.88
451.104	549.88
451.324	522.88
451.545	517.88
451.766	508.88
451.986	496.88
452.207	497.88
452.428	486.88
452.648	480.88
452.869	481.88
453.089	499.88
453.31	497.88
453.53	505.88
453.751	486.88
453.971	467.88
454.192	491.88
454.412	473.88
454.633	470.88
454.853	467.88
455.073	472.88
455.294	501.88
455.514	561.88
455.734	562.88
455.955	476.88
456.175	468.88
456.395	478.88
456.616	455.88
456.836	440.88
457.056	449.88
457.276	420.88
457.497	442.88
457.717	471.88
457.937	462.88
458.157	472.88
458.377	496.88
458.598	501.88
458.818	526.88
459.038	616.88
459.258	646.88
459.478	579.88
459.698	508.88
459.918	514.88
460.138	520.88
460.358	529.88
460.578	555.88
460.798	564.88
461.018	545.88
461.238	530.88
461.458	563.88
461.678	548.88
461.898	562.88
462.118	554.88
462.338	551.88
462.558	571.88
462.777	580.88
462.997	617.88
463.217	610.88
463.437	622.88
463.657	593.88
463.876	603.88
464.096	598.88
464.316	588.88
464.536	603.88
464.755	596.88
464.975	601.88
465.195	593.88
465.414	639.88
465.634	582.88
465.854	554.88
466.073	525.88
466.293	541.88
466.512	516.88
466.732	495.88
466.951	500.88
467.171	491.88
467.391	491.88
467.61	489.88
467.829	523.88
468.049	520.88
468.268	508.88
468.488	503.88
468.707	499.88
468.927	509.88
469.146	484.88
469.365	496.88
469.585	473.88
469.804	510.88
470.023	502.88
470.243	504.88
470.462	509.88
470.681	520.88
470.901	518.88
471.12	513.88
471.339	514.88
471.558	534.88
471.777	512.88
471.997	506.88
472.216	514.88
472.435	531.88
472.654	514.88
472.873	512.88
473.092	510.88
473.311	510.88
473.53	504.88
473.749	522.88
473.968	575.88
474.187	640.88
474.406	678.88
474.625	569.88
474.844	519.88
475.063	518.88
475.282	517.88
475.501	512.88
475.72	526.88
475.939	536.88
476.158	504.88
476.377	520.88
476.596	517.88
476.814	544.88
477.033	527.88
477.252	521.88
477.471	530.88
477.69	546.88
477.908	560.88
478.127	571.88
478.346	540.88
478.564	583.88
478.783	587.88
479.002	612.88
479.22	592.88
479.439	593.88
479.658	629.88
479.876	609.88
480.095	619.88
480.313	658.88
480.532	642.88
480.751	620.88
480.969	634.88
481.188	698.88
481.406	719.88
481.624	640.88
481.843	618.88
482.061	606.88
482.28	612.88
482.498	610.88
482.717	608.88
482.935	569.88
483.153	584.88
483.372	616.88
483.59	609.88
483.808	612.88
484.027	598.88
484.245	596.88
484.463	598.88
484.681	636.88
484.9	592.88
485.118	621.88
485.336	629.88
485.554	620.88
485.772	623.88
485.99	609.88
486.209	592.88
486.427	598.88
486.645	638.88
486.863	643.88
487.081	649.88
487.299	644.88
487.517	635.88
487.735	642.88
487.953	626.88
488.171	642.88
488.389	655.88
488.607	634.88
488.825	627.88
489.043	654.88
489.261	634.88
489.479	660.88
489.696	640.88
489.914	652.88
490.132	650.88
490.35	669.88
490.568	683.88
490.786	687.88
491.003	696.88
491.221	716.88
491.439	719.88
491.657	708.88
491.874	741.88
492.092	768.88
492.31	744.88
492.527	763.88
492.745	772.88
492.963	766.88
493.18	735.88
493.398	736.88
493.615	766.88
493.833	754.88
494.05	775.88
494.268	752.88
494.485	764.88
494.703	782.88
494.92	770.88
495.138	766.88
495.355	762.88
495.573	761.88
495.79	756.88
496.008	770.88
496.225	763.88
496.442	755.88
496.66	770.88
496.877	766.88
497.094	772.88
497.312	769.88
497.529	796.88
497.746	802.88
497.963	806.88
498.181	810.88
498.398	838.88
498.615	890.88
498.832	894.88
499.049	900.88
499.267	923.88
499.484	969.88
499.701	1024.88
499.918	1050.88
500.135	1143.88
500.352	1202.88
500.569	1250.88
500.786	1226.88
501.003	1217.88
501.22	1138.88
501.437	1098.88
501.654	1026.88
