Data from 1975.PennyLincolnUp.Lamp.En5.5.200Scan.071719.P1.Changed Mount._HRD10591_15-56-59-860.txt Node
Date: Thu Jul 18 15:56:59 EDT 2019
User: cochatt
Spectrometer: HR+D1059
Trigger mode: 1
Integration Time (sec): 1.000000E-1
Scans to average: 1
Electric dark correction enabled: true
Nonlinearity correction enabled: false
Boxcar width: 0
XAxis mode: Wavelengths
Number of Pixels in Spectrum: 2048
>>>>>Begin Spectral Data<<<<<
223.165	-9.06
223.4	-9.06
223.635	-9.06
223.869	-28.06
224.104	-15.06
224.338	-15.06
224.573	-3.06
224.808	-20.06
225.042	-12.06
225.277	-2.06
225.511	-5.06
225.746	3.94
225.98	5.94
226.215	15.94
226.449	18.94
226.683	17.94
226.918	28.94
227.152	17.94
227.387	44.94
227.621	28.94
227.856	43.94
228.09	51.94
228.324	55.94
228.559	57.94
228.793	71.94
229.027	107.94
229.262	108.94
229.496	114.94
229.73	139.94
229.964	155.94
230.199	122.94
230.433	99.94
230.667	121.94
230.901	125.94
231.136	114.94
231.37	121.94
231.604	107.94
231.838	110.94
232.072	113.94
232.306	120.94
232.541	122.94
232.775	124.94
233.009	127.94
233.243	114.94
233.477	125.94
233.711	116.94
233.945	102.94
234.179	115.94
234.413	114.94
234.647	114.94
234.881	118.94
235.115	123.94
235.349	117.94
235.583	117.94
235.817	125.94
236.051	133.94
236.285	127.94
236.519	117.94
236.753	122.94
236.987	142.94
237.221	173.94
237.455	233.94
237.689	183.94
237.922	155.94
238.156	143.94
238.39	134.94
238.624	117.94
238.858	124.94
239.091	116.94
239.325	121.94
239.559	121.94
239.793	127.94
240.027	134.94
240.26	146.94
240.494	148.94
240.728	150.94
240.961	145.94
241.195	147.94
241.429	147.94
241.662	132.94
241.896	137.94
242.13	136.94
242.363	133.94
242.597	118.94
242.83	156.94
243.064	135.94
243.298	142.94
243.531	154.94
243.765	146.94
243.998	146.94
244.232	133.94
244.465	144.94
244.699	147.94
244.932	153.94
245.166	130.94
245.399	130.94
245.633	157.94
245.866	160.94
246.099	150.94
246.333	158.94
246.566	172.94
246.8	159.94
247.033	167.94
247.266	168.94
247.5	165.94
247.733	166.94
247.966	179.94
248.2	194.94
248.433	163.94
248.666	159.94
248.899	188.94
249.133	202.94
249.366	215.94
249.599	213.94
249.832	181.94
250.066	176.94
250.299	191.94
250.532	203.94
250.765	215.94
250.998	219.94
251.231	225.94
251.465	215.94
251.698	201.94
251.931	213.94
252.164	207.94
252.397	195.94
252.63	186.94
252.863	205.94
253.096	225.94
253.329	202.94
253.562	227.94
253.795	232.94
254.028	219.94
254.261	220.94
254.494	221.94
254.727	234.94
254.96	283.94
255.193	247.94
255.426	250.94
255.659	226.94
255.892	234.94
256.124	238.94
256.357	259.94
256.59	243.94
256.823	235.94
257.056	234.94
257.289	223.94
257.521	208.94
257.754	230.94
257.987	226.94
258.22	211.94
258.452	223.94
258.685	223.94
258.918	216.94
259.151	227.94
259.383	225.94
259.616	224.94
259.849	233.94
260.081	237.94
260.314	245.94
260.547	243.94
260.779	258.94
261.012	240.94
261.244	238.94
261.477	237.94
261.71	241.94
261.942	222.94
262.175	246.94
262.407	249.94
262.64	213.94
262.872	207.94
263.105	215.94
263.337	202.94
263.57	215.94
263.802	219.94
264.035	212.94
264.267	221.94
264.499	216.94
264.732	206.94
264.964	211.94
265.197	216.94
265.429	225.94
265.661	224.94
265.894	229.94
266.126	241.94
266.358	227.94
266.591	219.94
266.823	233.94
267.055	246.94
267.287	227.94
267.52	212.94
267.752	238.94
267.984	237.94
268.216	237.94
268.448	246.94
268.681	226.94
268.913	260.94
269.145	256.94
269.377	286.94
269.609	281.94
269.841	271.94
270.073	277.94
270.306	307.94
270.538	329.94
270.77	308.94
271.002	290.94
271.234	273.94
271.466	299.94
271.698	327.94
271.93	315.94
272.162	317.94
272.394	329.94
272.626	295.94
272.858	299.94
273.09	271.94
273.322	285.94
273.553	267.94
273.785	275.94
274.017	269.94
274.249	274.94
274.481	262.94
274.713	269.94
274.945	273.94
275.176	293.94
275.408	280.94
275.64	262.94
275.872	269.94
276.104	279.94
276.335	283.94
276.567	265.94
276.799	302.94
277.031	307.94
277.262	290.94
277.494	331.94
277.726	312.94
277.957	289.94
278.189	286.94
278.421	281.94
278.652	287.94
278.884	276.94
279.115	277.94
279.347	263.94
279.579	276.94
279.81	284.94
280.042	270.94
280.273	279.94
280.505	278.94
280.736	288.94
280.968	281.94
281.199	272.94
281.431	282.94
281.662	275.94
281.894	277.94
282.125	306.94
282.356	300.94
282.588	318.94
282.819	321.94
283.051	306.94
283.282	287.94
283.513	292.94
283.745	299.94
283.976	300.94
284.207	293.94
284.439	290.94
284.67	282.94
284.901	296.94
285.132	284.94
285.364	292.94
285.595	312.94
285.826	284.94
286.057	290.94
286.288	297.94
286.52	301.94
286.751	310.94
286.982	301.94
287.213	284.94
287.444	300.94
287.675	293.94
287.906	309.94
288.138	317.94
288.369	317.94
288.6	314.94
288.831	321.94
289.062	308.94
289.293	309.94
289.524	313.94
289.755	299.94
289.986	309.94
290.217	305.94
290.448	295.94
290.679	287.94
290.91	309.94
291.141	321.94
291.371	297.94
291.602	299.94
291.833	307.94
292.064	322.94
292.295	294.94
292.526	308.94
292.757	309.94
292.987	313.94
293.218	300.94
293.449	309.94
293.68	314.94
293.91	271.94
294.141	294.94
294.372	307.94
294.603	321.94
294.833	301.94
295.064	316.94
295.295	305.94
295.525	313.94
295.756	313.94
295.987	325.94
296.217	333.94
296.448	325.94
296.679	338.94
296.909	326.94
297.14	298.94
297.37	332.94
297.601	340.94
297.831	326.94
298.062	338.94
298.292	317.94
298.523	343.94
298.753	305.94
298.984	338.94
299.214	339.94
299.445	319.94
299.675	331.94
299.905	338.94
300.136	321.94
300.366	328.94
300.597	331.94
300.827	334.94
301.057	326.94
301.288	365.94
301.518	343.94
301.748	343.94
301.979	352.94
302.209	355.94
302.439	345.94
302.669	342.94
302.9	347.94
303.13	333.94
303.36	325.94
303.59	363.94
303.82	345.94
304.051	363.94
304.281	353.94
304.511	332.94
304.741	333.94
304.971	341.94
305.201	350.94
305.431	346.94
305.661	349.94
305.891	353.94
306.121	333.94
306.352	359.94
306.582	356.94
306.812	344.94
307.042	336.94
307.272	356.94
307.502	345.94
307.731	353.94
307.961	369.94
308.191	356.94
308.421	356.94
308.651	344.94
308.881	340.94
309.111	331.94
309.341	364.94
309.571	359.94
309.8	369.94
310.03	363.94
310.26	371.94
310.49	379.94
310.72	393.94
310.949	398.94
311.179	404.94
311.409	381.94
311.639	384.94
311.868	375.94
312.098	391.94
312.328	389.94
312.557	397.94
312.787	395.94
313.017	410.94
313.246	376.94
313.476	379.94
313.706	388.94
313.935	400.94
314.165	400.94
314.394	409.94
314.624	413.94
314.853	413.94
315.083	400.94
315.312	384.94
315.542	393.94
315.771	373.94
316.001	383.94
316.23	382.94
316.46	385.94
316.689	387.94
316.919	394.94
317.148	390.94
317.377	408.94
317.607	397.94
317.836	387.94
318.065	385.94
318.295	392.94
318.524	370.94
318.753	391.94
318.983	369.94
319.212	363.94
319.441	395.94
319.67	394.94
319.9	404.94
320.129	398.94
320.358	375.94
320.587	400.94
320.816	397.94
321.046	397.94
321.275	413.94
321.504	403.94
321.733	406.94
321.962	413.94
322.191	422.94
322.42	413.94
322.649	428.94
322.878	444.94
323.108	437.94
323.337	460.94
323.566	443.94
323.795	488.94
324.024	524.94
324.253	595.94
324.482	830.94
324.71	1235.94
324.939	1828.94
325.168	1607.94
325.397	819.94
325.626	598.94
325.855	534.94
326.084	466.94
326.313	487.94
326.542	500.94
326.77	511.94
326.999	572.94
327.228	752.94
327.457	1135.94
327.686	1446.94
327.914	955.94
328.143	635.94
328.372	579.94
328.6	547.94
328.829	543.94
329.058	541.94
329.287	538.94
329.515	539.94
329.744	511.94
329.972	495.94
330.201	510.94
330.43	557.94
330.658	547.94
330.887	567.94
331.115	544.94
331.344	471.94
331.572	486.94
331.801	474.94
332.03	491.94
332.258	492.94
332.486	486.94
332.715	478.94
332.943	475.94
333.172	486.94
333.4	503.94
333.629	501.94
333.857	500.94
334.085	496.94
334.314	538.94
334.542	551.94
334.771	541.94
334.999	517.94
335.227	490.94
335.455	494.94
335.684	476.94
335.912	492.94
336.14	481.94
336.369	447.94
336.597	492.94
336.825	469.94
337.053	461.94
337.281	457.94
337.51	461.94
337.738	461.94
337.966	463.94
338.194	453.94
338.422	466.94
338.65	456.94
338.878	453.94
339.106	451.94
339.334	451.94
339.562	439.94
339.79	454.94
340.018	441.94
340.246	445.94
340.474	457.94
340.702	454.94
340.93	438.94
341.158	444.94
341.386	430.94
341.614	454.94
341.842	455.94
342.07	434.94
342.298	455.94
342.526	439.94
342.754	427.94
342.981	443.94
343.209	439.94
343.437	441.94
343.665	455.94
343.893	446.94
344.12	477.94
344.348	474.94
344.576	448.94
344.804	459.94
345.031	458.94
345.259	475.94
345.487	455.94
345.714	469.94
345.942	447.94
346.17	447.94
346.397	429.94
346.625	403.94
346.853	427.94
347.08	417.94
347.308	424.94
347.535	436.94
347.763	452.94
347.99	437.94
348.218	446.94
348.445	452.94
348.673	433.94
348.9	431.94
349.128	433.94
349.355	422.94
349.583	429.94
349.81	425.94
350.037	394.94
350.265	407.94
350.492	422.94
350.72	406.94
350.947	420.94
351.174	449.94
351.402	440.94
351.629	433.94
351.856	418.94
352.083	433.94
352.311	435.94
352.538	435.94
352.765	455.94
352.992	443.94
353.22	439.94
353.447	431.94
353.674	420.94
353.901	409.94
354.128	412.94
354.355	429.94
354.583	420.94
354.81	407.94
355.037	418.94
355.264	410.94
355.491	425.94
355.718	417.94
355.945	408.94
356.172	414.94
356.399	432.94
356.626	404.94
356.853	406.94
357.08	405.94
357.307	405.94
357.534	390.94
357.761	392.94
357.988	430.94
358.215	411.94
358.441	399.94
358.668	397.94
358.895	435.94
359.122	423.94
359.349	430.94
359.576	435.94
359.802	440.94
360.029	464.94
360.256	480.94
360.483	470.94
360.709	448.94
360.936	472.94
361.163	448.94
361.39	425.94
361.616	437.94
361.843	399.94
362.07	422.94
362.296	425.94
362.523	403.94
362.749	429.94
362.976	410.94
363.203	443.94
363.429	429.94
363.656	422.94
363.882	405.94
364.109	425.94
364.335	417.94
364.562	425.94
364.788	416.94
365.015	431.94
365.241	438.94
365.468	413.94
365.694	419.94
365.92	430.94
366.147	414.94
366.373	428.94
366.599	402.94
366.826	403.94
367.052	431.94
367.278	417.94
367.505	441.94
367.731	427.94
367.957	421.94
368.184	411.94
368.41	412.94
368.636	423.94
368.862	433.94
369.089	434.94
369.315	406.94
369.541	416.94
369.767	417.94
369.993	418.94
370.219	434.94
370.445	415.94
370.672	423.94
370.898	417.94
371.124	414.94
371.35	421.94
371.576	434.94
371.802	422.94
372.028	418.94
372.254	418.94
372.48	426.94
372.706	428.94
372.932	428.94
373.158	440.94
373.384	438.94
373.61	439.94
373.835	416.94
374.061	411.94
374.287	438.94
374.513	445.94
374.739	444.94
374.965	441.94
375.191	448.94
375.416	456.94
375.642	439.94
375.868	460.94
376.094	433.94
376.319	433.94
376.545	440.94
376.771	435.94
376.997	451.94
377.222	409.94
377.448	439.94
377.674	433.94
377.899	430.94
378.125	428.94
378.35	424.94
378.576	428.94
378.802	415.94
379.027	433.94
379.253	439.94
379.478	414.94
379.704	418.94
379.929	431.94
380.155	425.94
380.38	408.94
380.606	423.94
380.831	437.94
381.057	436.94
381.282	438.94
381.507	456.94
381.733	428.94
381.958	426.94
382.184	454.94
382.409	447.94
382.634	456.94
382.86	430.94
383.085	463.94
383.31	423.94
383.535	464.94
383.761	458.94
383.986	441.94
384.211	473.94
384.436	469.94
384.662	477.94
384.887	461.94
385.112	464.94
385.337	468.94
385.562	470.94
385.787	472.94
386.013	492.94
386.238	491.94
386.463	493.94
386.688	479.94
386.913	461.94
387.138	484.94
387.363	486.94
387.588	468.94
387.813	489.94
388.038	466.94
388.263	483.94
388.488	484.94
388.713	502.94
388.938	453.94
389.163	478.94
389.387	459.94
389.612	481.94
389.837	481.94
390.062	493.94
390.287	476.94
390.512	475.94
390.736	470.94
390.961	469.94
391.186	492.94
391.411	489.94
391.636	490.94
391.86	479.94
392.085	475.94
392.31	523.94
392.534	497.94
392.759	498.94
392.984	507.94
393.208	468.94
393.433	479.94
393.658	488.94
393.882	513.94
394.107	500.94
394.331	490.94
394.556	483.94
394.78	493.94
395.005	485.94
395.229	490.94
395.454	490.94
395.678	515.94
395.903	520.94
396.127	525.94
396.352	556.94
396.576	514.94
396.801	483.94
397.025	505.94
397.249	508.94
397.474	513.94
397.698	495.94
397.922	531.94
398.147	552.94
398.371	537.94
398.595	565.94
398.82	573.94
399.044	569.94
399.268	604.94
399.492	635.94
399.717	691.94
399.941	709.94
400.165	729.94
400.389	730.94
400.613	652.94
400.837	615.94
401.062	588.94
401.286	565.94
401.51	563.94
401.734	549.94
401.958	572.94
402.182	545.94
402.406	554.94
402.63	567.94
402.854	587.94
403.078	582.94
403.302	585.94
403.526	600.94
403.75	615.94
403.974	599.94
404.198	606.94
404.422	591.94
404.645	606.94
404.869	589.94
405.093	645.94
405.317	663.94
405.541	715.94
405.765	663.94
405.988	613.94
406.212	629.94
406.436	610.94
406.66	665.94
406.883	637.94
407.107	675.94
407.331	706.94
407.555	764.94
407.778	767.94
408.002	700.94
408.226	666.94
408.449	654.94
408.673	641.94
408.896	629.94
409.12	709.94
409.344	678.94
409.567	651.94
409.791	602.94
410.014	583.94
410.238	564.94
410.461	583.94
410.685	585.94
410.908	594.94
411.132	627.94
411.355	682.94
411.578	647.94
411.802	597.94
412.025	577.94
412.249	601.94
412.472	611.94
412.695	669.94
412.919	669.94
413.142	621.94
413.365	570.94
413.589	585.94
413.812	563.94
414.035	570.94
414.258	578.94
414.482	568.94
414.705	545.94
414.928	543.94
415.151	565.94
415.374	588.94
415.597	544.94
415.821	543.94
416.044	558.94
416.267	568.94
416.49	557.94
416.713	536.94
416.936	552.94
417.159	537.94
417.382	571.94
417.605	566.94
417.828	554.94
418.051	589.94
418.274	539.94
418.497	550.94
418.72	581.94
418.943	535.94
419.166	571.94
419.389	616.94
419.611	610.94
419.834	578.94
420.057	604.94
420.28	581.94
420.503	574.94
420.726	561.94
420.948	570.94
421.171	657.94
421.394	681.94
421.617	612.94
421.839	593.94
422.062	592.94
422.285	581.94
422.507	645.94
422.73	721.94
422.953	686.94
423.175	604.94
423.398	615.94
423.621	601.94
423.843	614.94
424.066	622.94
424.288	612.94
424.511	633.94
424.733	684.94
424.956	749.94
425.178	731.94
425.401	713.94
425.623	771.94
425.846	645.94
426.068	619.94
426.291	611.94
426.513	601.94
426.735	611.94
426.958	647.94
427.18	707.94
427.402	861.94
427.625	945.94
427.847	811.94
428.069	710.94
428.292	641.94
428.514	615.94
428.736	571.94
428.958	554.94
429.181	553.94
429.403	573.94
429.625	571.94
429.847	615.94
430.069	661.94
430.292	667.94
430.514	559.94
430.736	558.94
430.958	557.94
431.18	531.94
431.402	542.94
431.624	535.94
431.846	525.94
432.068	534.94
432.29	543.94
432.512	532.94
432.734	547.94
432.956	518.94
433.178	563.94
433.4	549.94
433.622	550.94
433.844	526.94
434.066	528.94
434.287	533.94
434.509	552.94
434.731	561.94
434.953	574.94
435.175	577.94
435.397	603.94
435.618	603.94
435.84	639.94
436.062	732.94
436.284	791.94
436.505	675.94
436.727	622.94
436.949	571.94
437.17	551.94
437.392	576.94
437.614	554.94
437.835	600.94
438.057	694.94
438.278	785.94
438.5	774.94
438.721	880.94
438.943	836.94
439.165	649.94
439.386	638.94
439.608	630.94
439.829	594.94
440.05	614.94
440.272	681.94
440.493	617.94
440.715	577.94
440.936	585.94
441.158	561.94
441.379	570.94
441.6	560.94
441.822	598.94
442.043	662.94
442.264	728.94
442.486	755.94
442.707	669.94
442.928	616.94
443.149	609.94
443.371	641.94
443.592	677.94
443.813	778.94
444.034	850.94
444.255	690.94
444.476	618.94
444.698	643.94
444.919	649.94
445.14	776.94
445.361	680.94
445.582	661.94
445.803	686.94
446.024	803.94
446.245	825.94
446.466	772.94
446.687	652.94
446.908	586.94
447.129	569.94
447.35	556.94
447.571	565.94
447.792	547.94
448.013	559.94
448.234	561.94
448.455	627.94
448.675	728.94
448.896	847.94
449.117	701.94
449.338	693.94
449.559	786.94
449.779	893.94
450	708.94
450.221	633.94
450.442	569.94
450.662	535.94
450.883	525.94
451.104	527.94
451.324	542.94
451.545	532.94
451.766	515.94
451.986	509.94
452.207	503.94
452.428	491.94
452.648	472.94
452.869	496.94
453.089	508.94
453.31	534.94
453.53	503.94
453.751	488.94
453.971	486.94
454.192	496.94
454.412	491.94
454.633	475.94
454.853	474.94
455.073	488.94
455.294	514.94
455.514	601.94
455.734	571.94
455.955	494.94
456.175	484.94
456.395	466.94
456.616	462.94
456.836	463.94
457.056	459.94
457.276	470.94
457.497	467.94
457.717	462.94
457.937	497.94
458.157	509.94
458.377	506.94
458.598	492.94
458.818	546.94
459.038	627.94
459.258	648.94
459.478	582.94
459.698	545.94
459.918	535.94
460.138	556.94
460.358	544.94
460.578	550.94
460.798	570.94
461.018	571.94
461.238	566.94
461.458	547.94
461.678	572.94
461.898	554.94
462.118	567.94
462.338	594.94
462.558	601.94
462.777	580.94
462.997	611.94
463.217	641.94
463.437	645.94
463.657	622.94
463.876	633.94
464.096	612.94
464.316	589.94
464.536	607.94
464.755	605.94
464.975	605.94
465.195	596.94
465.414	631.94
465.634	597.94
465.854	540.94
466.073	553.94
466.293	556.94
466.512	531.94
466.732	523.94
466.951	510.94
467.171	527.94
467.391	513.94
467.61	524.94
467.829	523.94
468.049	506.94
468.268	547.94
468.488	494.94
468.707	497.94
468.927	497.94
469.146	505.94
469.365	519.94
469.585	527.94
469.804	505.94
470.023	536.94
470.243	515.94
470.462	547.94
470.681	546.94
470.901	543.94
471.12	521.94
471.339	507.94
471.558	515.94
471.777	525.94
471.997	499.94
472.216	526.94
472.435	544.94
472.654	534.94
472.873	530.94
473.092	508.94
473.311	527.94
473.53	513.94
473.749	545.94
473.968	544.94
474.187	652.94
474.406	691.94
474.625	580.94
474.844	528.94
475.063	518.94
475.282	533.94
475.501	528.94
475.72	543.94
475.939	525.94
476.158	551.94
476.377	549.94
476.596	502.94
476.814	540.94
477.033	551.94
477.252	540.94
477.471	538.94
477.69	575.94
477.908	542.94
478.127	585.94
478.346	555.94
478.564	607.94
478.783	586.94
479.002	612.94
479.22	613.94
479.439	623.94
479.658	637.94
479.876	625.94
480.095	641.94
480.313	687.94
480.532	641.94
480.751	638.94
480.969	663.94
481.188	671.94
481.406	703.94
481.624	670.94
481.843	640.94
482.061	620.94
482.28	603.94
482.498	582.94
482.717	605.94
482.935	595.94
483.153	603.94
483.372	591.94
483.59	604.94
483.808	633.94
484.027	602.94
484.245	623.94
484.463	628.94
484.681	630.94
484.9	620.94
485.118	598.94
485.336	628.94
485.554	651.94
485.772	637.94
485.99	616.94
486.209	645.94
486.427	641.94
486.645	638.94
486.863	668.94
487.081	643.94
487.299	632.94
487.517	639.94
487.735	660.94
487.953	654.94
488.171	681.94
488.389	656.94
488.607	644.94
488.825	641.94
489.043	644.94
489.261	646.94
489.479	665.94
489.696	643.94
489.914	640.94
490.132	680.94
490.35	663.94
490.568	683.94
490.786	677.94
491.003	692.94
491.221	723.94
491.439	739.94
491.657	729.94
491.874	764.94
492.092	745.94
492.31	743.94
492.527	750.94
492.745	760.94
492.963	757.94
493.18	754.94
493.398	764.94
493.615	765.94
493.833	768.94
494.05	787.94
494.268	783.94
494.485	763.94
494.703	771.94
494.92	783.94
495.138	766.94
495.355	762.94
495.573	782.94
495.79	779.94
496.008	767.94
496.225	772.94
496.442	782.94
496.66	799.94
496.877	757.94
497.094	798.94
497.312	818.94
497.529	801.94
497.746	813.94
497.963	834.94
498.181	823.94
498.398	870.94
498.615	875.94
498.832	884.94
499.049	921.94
499.267	964.94
499.484	989.94
499.701	1036.94
499.918	1102.94
500.135	1173.94
500.352	1228.94
500.569	1251.94
500.786	1274.94
501.003	1196.94
501.22	1148.94
501.437	1113.94
501.654	1066.94
