Data from 1975.PennyLincolnUp.Lamp.En5.5.200Scan.071719.P1.Changed Mount._HRD10591_15-56-03-858.txt Node
Date: Thu Jul 18 15:56:03 EDT 2019
User: cochatt
Spectrometer: HR+D1059
Trigger mode: 1
Integration Time (sec): 1.000000E-1
Scans to average: 1
Electric dark correction enabled: true
Nonlinearity correction enabled: false
Boxcar width: 0
XAxis mode: Wavelengths
Number of Pixels in Spectrum: 2048
>>>>>Begin Spectral Data<<<<<
223.165	-1.81
223.4	-1.81
223.635	-1.81
223.869	-19.81
224.104	-14.81
224.338	-15.81
224.573	-16.81
224.808	-1.81
225.042	3.19
225.277	-12.81
225.511	-10.81
225.746	-10.81
225.98	16.19
226.215	22.19
226.449	4.19
226.683	15.19
226.918	21.19
227.152	23.19
227.387	47.19
227.621	41.19
227.856	58.19
228.09	57.19
228.324	53.19
228.559	54.19
228.793	70.19
229.027	92.19
229.262	108.19
229.496	120.19
229.73	132.19
229.964	127.19
230.199	117.19
230.433	117.19
230.667	123.19
230.901	127.19
231.136	102.19
231.37	122.19
231.604	111.19
231.838	109.19
232.072	119.19
232.306	119.19
232.541	114.19
232.775	124.19
233.009	122.19
233.243	121.19
233.477	118.19
233.711	117.19
233.945	125.19
234.179	104.19
234.413	118.19
234.647	130.19
234.881	106.19
235.115	116.19
235.349	134.19
235.583	119.19
235.817	110.19
236.051	126.19
236.285	120.19
236.519	102.19
236.753	144.19
236.987	152.19
237.221	159.19
237.455	222.19
237.689	163.19
237.922	116.19
238.156	122.19
238.39	146.19
238.624	130.19
238.858	120.19
239.091	114.19
239.325	112.19
239.559	120.19
239.793	122.19
240.027	137.19
240.26	132.19
240.494	133.19
240.728	155.19
240.961	145.19
241.195	138.19
241.429	145.19
241.662	136.19
241.896	132.19
242.13	135.19
242.363	131.19
242.597	132.19
242.83	132.19
243.064	124.19
243.298	140.19
243.531	126.19
243.765	143.19
243.998	148.19
244.232	142.19
244.465	133.19
244.699	132.19
244.932	153.19
245.166	127.19
245.399	157.19
245.633	154.19
245.866	141.19
246.099	159.19
246.333	149.19
246.566	151.19
246.8	138.19
247.033	160.19
247.266	155.19
247.5	172.19
247.733	161.19
247.966	161.19
248.2	166.19
248.433	178.19
248.666	150.19
248.899	195.19
249.133	192.19
249.366	186.19
249.599	198.19
249.832	181.19
250.066	161.19
250.299	173.19
250.532	180.19
250.765	187.19
250.998	220.19
251.231	212.19
251.465	205.19
251.698	187.19
251.931	200.19
252.164	196.19
252.397	193.19
252.63	189.19
252.863	200.19
253.096	206.19
253.329	212.19
253.562	229.19
253.795	214.19
254.028	190.19
254.261	213.19
254.494	207.19
254.727	249.19
254.96	254.19
255.193	250.19
255.426	229.19
255.659	207.19
255.892	218.19
256.124	215.19
256.357	235.19
256.59	224.19
256.823	219.19
257.056	210.19
257.289	212.19
257.521	208.19
257.754	192.19
257.987	222.19
258.22	205.19
258.452	211.19
258.685	207.19
258.918	217.19
259.151	196.19
259.383	202.19
259.616	207.19
259.849	196.19
260.081	216.19
260.314	250.19
260.547	237.19
260.779	244.19
261.012	245.19
261.244	204.19
261.477	221.19
261.71	206.19
261.942	222.19
262.175	208.19
262.407	223.19
262.64	205.19
262.872	215.19
263.105	217.19
263.337	221.19
263.57	215.19
263.802	210.19
264.035	212.19
264.267	215.19
264.499	201.19
264.732	206.19
264.964	213.19
265.197	220.19
265.429	216.19
265.661	202.19
265.894	204.19
266.126	211.19
266.358	212.19
266.591	200.19
266.823	221.19
267.055	241.19
267.287	225.19
267.52	217.19
267.752	218.19
267.984	230.19
268.216	224.19
268.448	236.19
268.681	227.19
268.913	221.19
269.145	226.19
269.377	279.19
269.609	252.19
269.841	261.19
270.073	247.19
270.306	270.19
270.538	296.19
270.77	292.19
271.002	301.19
271.234	268.19
271.466	281.19
271.698	292.19
271.93	292.19
272.162	290.19
272.394	309.19
272.626	268.19
272.858	275.19
273.09	267.19
273.322	265.19
273.553	270.19
273.785	245.19
274.017	256.19
274.249	257.19
274.481	260.19
274.713	244.19
274.945	275.19
275.176	255.19
275.408	270.19
275.64	267.19
275.872	267.19
276.104	246.19
276.335	256.19
276.567	266.19
276.799	273.19
277.031	285.19
277.262	279.19
277.494	289.19
277.726	296.19
277.957	285.19
278.189	282.19
278.421	260.19
278.652	264.19
278.884	264.19
279.115	249.19
279.347	268.19
279.579	261.19
279.81	242.19
280.042	281.19
280.273	267.19
280.505	280.19
280.736	245.19
280.968	250.19
281.199	286.19
281.431	275.19
281.662	272.19
281.894	257.19
282.125	277.19
282.356	313.19
282.588	286.19
282.819	302.19
283.051	273.19
283.282	272.19
283.513	292.19
283.745	282.19
283.976	277.19
284.207	288.19
284.439	276.19
284.67	267.19
284.901	284.19
285.132	286.19
285.364	279.19
285.595	289.19
285.826	262.19
286.057	288.19
286.288	274.19
286.52	271.19
286.751	267.19
286.982	268.19
287.213	284.19
287.444	297.19
287.675	303.19
287.906	292.19
288.138	286.19
288.369	302.19
288.6	303.19
288.831	306.19
289.062	296.19
289.293	289.19
289.524	314.19
289.755	314.19
289.986	300.19
290.217	282.19
290.448	292.19
290.679	299.19
290.91	301.19
291.141	297.19
291.371	292.19
291.602	306.19
291.833	288.19
292.064	296.19
292.295	292.19
292.526	292.19
292.757	282.19
292.987	283.19
293.218	294.19
293.449	295.19
293.68	292.19
293.91	311.19
294.141	288.19
294.372	274.19
294.603	269.19
294.833	311.19
295.064	278.19
295.295	291.19
295.525	288.19
295.756	309.19
295.987	309.19
296.217	311.19
296.448	308.19
296.679	306.19
296.909	299.19
297.14	304.19
297.37	311.19
297.601	312.19
297.831	286.19
298.062	320.19
298.292	327.19
298.523	299.19
298.753	309.19
298.984	331.19
299.214	303.19
299.445	293.19
299.675	307.19
299.905	323.19
300.136	322.19
300.366	316.19
300.597	323.19
300.827	309.19
301.057	317.19
301.288	322.19
301.518	322.19
301.748	319.19
301.979	325.19
302.209	332.19
302.439	342.19
302.669	321.19
302.9	324.19
303.13	320.19
303.36	319.19
303.59	329.19
303.82	332.19
304.051	329.19
304.281	331.19
304.511	341.19
304.741	310.19
304.971	332.19
305.201	324.19
305.431	330.19
305.661	317.19
305.891	328.19
306.121	333.19
306.352	347.19
306.582	313.19
306.812	326.19
307.042	313.19
307.272	327.19
307.502	305.19
307.731	325.19
307.961	340.19
308.191	321.19
308.421	339.19
308.651	315.19
308.881	330.19
309.111	332.19
309.341	340.19
309.571	345.19
309.8	340.19
310.03	344.19
310.26	349.19
310.49	350.19
310.72	363.19
310.949	357.19
311.179	380.19
311.409	361.19
311.639	356.19
311.868	369.19
312.098	385.19
312.328	360.19
312.557	350.19
312.787	370.19
313.017	381.19
313.246	379.19
313.476	361.19
313.706	360.19
313.935	365.19
314.165	357.19
314.394	372.19
314.624	371.19
314.853	394.19
315.083	371.19
315.312	360.19
315.542	355.19
315.771	356.19
316.001	360.19
316.23	353.19
316.46	351.19
316.689	368.19
316.919	356.19
317.148	352.19
317.377	380.19
317.607	367.19
317.836	359.19
318.065	374.19
318.295	373.19
318.524	376.19
318.753	370.19
318.983	355.19
319.212	353.19
319.441	369.19
319.67	374.19
319.9	358.19
320.129	354.19
320.358	363.19
320.587	387.19
320.816	352.19
321.046	378.19
321.275	388.19
321.504	358.19
321.733	365.19
321.962	373.19
322.191	366.19
322.42	380.19
322.649	370.19
322.878	399.19
323.108	405.19
323.337	413.19
323.566	417.19
323.795	453.19
324.024	465.19
324.253	539.19
324.482	726.19
324.71	1105.19
324.939	1606.19
325.168	1426.19
325.397	712.19
325.626	515.19
325.855	459.19
326.084	439.19
326.313	425.19
326.542	431.19
326.77	451.19
326.999	524.19
327.228	670.19
327.457	991.19
327.686	1209.19
327.914	822.19
328.143	568.19
328.372	519.19
328.6	476.19
328.829	477.19
329.058	481.19
329.287	503.19
329.515	472.19
329.744	454.19
329.972	455.19
330.201	462.19
330.43	495.19
330.658	495.19
330.887	516.19
331.115	509.19
331.344	484.19
331.572	456.19
331.801	454.19
332.03	458.19
332.258	434.19
332.486	438.19
332.715	417.19
332.943	430.19
333.172	449.19
333.4	446.19
333.629	438.19
333.857	471.19
334.085	466.19
334.314	477.19
334.542	493.19
334.771	531.19
334.999	483.19
335.227	456.19
335.455	454.19
335.684	465.19
335.912	431.19
336.14	430.19
336.369	433.19
336.597	449.19
336.825	443.19
337.053	443.19
337.281	422.19
337.51	449.19
337.738	441.19
337.966	441.19
338.194	433.19
338.422	452.19
338.65	432.19
338.878	409.19
339.106	423.19
339.334	412.19
339.562	422.19
339.79	414.19
340.018	406.19
340.246	414.19
340.474	390.19
340.702	416.19
340.93	402.19
341.158	396.19
341.386	402.19
341.614	400.19
341.842	420.19
342.07	416.19
342.298	427.19
342.526	403.19
342.754	427.19
342.981	408.19
343.209	410.19
343.437	413.19
343.665	420.19
343.893	436.19
344.12	441.19
344.348	452.19
344.576	447.19
344.804	450.19
345.031	430.19
345.259	432.19
345.487	441.19
345.714	420.19
345.942	407.19
346.17	402.19
346.397	405.19
346.625	398.19
346.853	427.19
347.08	407.19
347.308	411.19
347.535	396.19
347.763	397.19
347.99	409.19
348.218	400.19
348.445	402.19
348.673	416.19
348.9	406.19
349.128	398.19
349.355	396.19
349.583	402.19
349.81	382.19
350.037	391.19
350.265	390.19
350.492	393.19
350.72	393.19
350.947	385.19
351.174	392.19
351.402	403.19
351.629	398.19
351.856	412.19
352.083	402.19
352.311	400.19
352.538	385.19
352.765	410.19
352.992	408.19
353.22	396.19
353.447	397.19
353.674	391.19
353.901	386.19
354.128	394.19
354.355	406.19
354.583	383.19
354.81	395.19
355.037	399.19
355.264	402.19
355.491	392.19
355.718	386.19
355.945	391.19
356.172	390.19
356.399	390.19
356.626	381.19
356.853	382.19
357.08	377.19
357.307	375.19
357.534	390.19
357.761	381.19
357.988	396.19
358.215	384.19
358.441	380.19
358.668	391.19
358.895	408.19
359.122	412.19
359.349	397.19
359.576	427.19
359.802	425.19
360.029	438.19
360.256	450.19
360.483	425.19
360.709	408.19
360.936	407.19
361.163	417.19
361.39	412.19
361.616	415.19
361.843	383.19
362.07	380.19
362.296	407.19
362.523	392.19
362.749	420.19
362.976	409.19
363.203	382.19
363.429	387.19
363.656	378.19
363.882	392.19
364.109	396.19
364.335	400.19
364.562	393.19
364.788	413.19
365.015	372.19
365.241	401.19
365.468	378.19
365.694	405.19
365.92	391.19
366.147	407.19
366.373	398.19
366.599	393.19
366.826	397.19
367.052	404.19
367.278	384.19
367.505	407.19
367.731	379.19
367.957	394.19
368.184	394.19
368.41	394.19
368.636	385.19
368.862	429.19
369.089	425.19
369.315	406.19
369.541	406.19
369.767	400.19
369.993	391.19
370.219	402.19
370.445	385.19
370.672	384.19
370.898	391.19
371.124	399.19
371.35	402.19
371.576	402.19
371.802	402.19
372.028	399.19
372.254	413.19
372.48	415.19
372.706	402.19
372.932	415.19
373.158	410.19
373.384	412.19
373.61	404.19
373.835	419.19
374.061	396.19
374.287	413.19
374.513	414.19
374.739	406.19
374.965	421.19
375.191	407.19
375.416	423.19
375.642	438.19
375.868	409.19
376.094	412.19
376.319	407.19
376.545	402.19
376.771	418.19
376.997	394.19
377.222	413.19
377.448	427.19
377.674	400.19
377.899	403.19
378.125	419.19
378.35	413.19
378.576	401.19
378.802	411.19
379.027	429.19
379.253	416.19
379.478	412.19
379.704	391.19
379.929	403.19
380.155	402.19
380.38	407.19
380.606	425.19
380.831	403.19
381.057	409.19
381.282	426.19
381.507	416.19
381.733	424.19
381.958	408.19
382.184	427.19
382.409	422.19
382.634	410.19
382.86	407.19
383.085	414.19
383.31	418.19
383.535	440.19
383.761	441.19
383.986	448.19
384.211	441.19
384.436	416.19
384.662	449.19
384.887	470.19
385.112	459.19
385.337	448.19
385.562	450.19
385.787	462.19
386.013	472.19
386.238	456.19
386.463	454.19
386.688	448.19
386.913	457.19
387.138	454.19
387.363	459.19
387.588	440.19
387.813	472.19
388.038	438.19
388.263	447.19
388.488	463.19
388.713	473.19
388.938	475.19
389.163	457.19
389.387	461.19
389.612	468.19
389.837	448.19
390.062	456.19
390.287	470.19
390.512	434.19
390.736	446.19
390.961	428.19
391.186	456.19
391.411	463.19
391.636	493.19
391.86	485.19
392.085	487.19
392.31	488.19
392.534	482.19
392.759	474.19
392.984	466.19
393.208	469.19
393.433	453.19
393.658	470.19
393.882	464.19
394.107	466.19
394.331	438.19
394.556	472.19
394.78	450.19
395.005	464.19
395.229	470.19
395.454	476.19
395.678	506.19
395.903	497.19
396.127	503.19
396.352	501.19
396.576	497.19
396.801	458.19
397.025	456.19
397.249	481.19
397.474	477.19
397.698	474.19
397.922	503.19
398.147	512.19
398.371	543.19
398.595	510.19
398.82	519.19
399.044	538.19
399.268	580.19
399.492	604.19
399.717	643.19
399.941	654.19
400.165	679.19
400.389	665.19
400.613	622.19
400.837	568.19
401.062	544.19
401.286	545.19
401.51	535.19
401.734	517.19
401.958	538.19
402.182	533.19
402.406	534.19
402.63	545.19
402.854	539.19
403.078	565.19
403.302	568.19
403.526	573.19
403.75	559.19
403.974	564.19
404.198	565.19
404.422	566.19
404.645	592.19
404.869	571.19
405.093	615.19
405.317	638.19
405.541	657.19
405.765	618.19
405.988	570.19
406.212	585.19
406.436	604.19
406.66	608.19
406.883	595.19
407.107	615.19
407.331	653.19
407.555	725.19
407.778	725.19
408.002	663.19
408.226	617.19
408.449	606.19
408.673	620.19
408.896	655.19
409.12	666.19
409.344	640.19
409.567	592.19
409.791	550.19
410.014	549.19
410.238	536.19
410.461	532.19
410.685	537.19
410.908	595.19
411.132	600.19
411.355	639.19
411.578	619.19
411.802	562.19
412.025	548.19
412.249	565.19
412.472	576.19
412.695	626.19
412.919	621.19
413.142	577.19
413.365	570.19
413.589	516.19
413.812	520.19
414.035	516.19
414.258	502.19
414.482	501.19
414.705	533.19
414.928	523.19
415.151	538.19
415.374	516.19
415.597	511.19
415.821	526.19
416.044	530.19
416.267	533.19
416.49	533.19
416.713	511.19
416.936	525.19
417.159	502.19
417.382	518.19
417.605	516.19
417.828	546.19
418.051	547.19
418.274	546.19
418.497	522.19
418.72	519.19
418.943	520.19
419.166	537.19
419.389	548.19
419.611	583.19
419.834	570.19
420.057	570.19
420.28	548.19
420.503	570.19
420.726	553.19
420.948	578.19
421.171	576.19
421.394	594.19
421.617	574.19
421.839	540.19
422.062	540.19
422.285	544.19
422.507	609.19
422.73	700.19
422.953	656.19
423.175	591.19
423.398	538.19
423.621	571.19
423.843	599.19
424.066	595.19
424.288	584.19
424.511	613.19
424.733	638.19
424.956	709.19
425.178	667.19
425.401	697.19
425.623	723.19
425.846	604.19
426.068	584.19
426.291	571.19
426.513	560.19
426.735	571.19
426.958	592.19
427.18	658.19
427.402	791.19
427.625	870.19
427.847	738.19
428.069	679.19
428.292	584.19
428.514	554.19
428.736	537.19
428.958	552.19
429.181	527.19
429.403	500.19
429.625	528.19
429.847	549.19
430.069	632.19
430.292	605.19
430.514	537.19
430.736	492.19
430.958	532.19
431.18	485.19
431.402	502.19
431.624	493.19
431.846	491.19
432.068	526.19
432.29	506.19
432.512	513.19
432.734	525.19
432.956	509.19
433.178	519.19
433.4	530.19
433.622	528.19
433.844	521.19
434.066	510.19
434.287	524.19
434.509	517.19
434.731	521.19
434.953	544.19
435.175	550.19
435.397	567.19
435.618	573.19
435.84	591.19
436.062	681.19
436.284	781.19
436.505	646.19
436.727	587.19
436.949	531.19
437.17	510.19
437.392	539.19
437.614	541.19
437.835	550.19
438.057	630.19
438.278	731.19
438.5	731.19
438.721	814.19
438.943	796.19
439.165	648.19
439.386	570.19
439.608	572.19
439.829	566.19
440.05	583.19
440.272	633.19
440.493	586.19
440.715	553.19
440.936	556.19
441.158	534.19
441.379	543.19
441.6	553.19
441.822	558.19
442.043	626.19
442.264	689.19
442.486	688.19
442.707	600.19
442.928	577.19
443.149	577.19
443.371	596.19
443.592	641.19
443.813	717.19
444.034	778.19
444.255	655.19
444.476	619.19
444.698	605.19
444.919	605.19
445.14	667.19
445.361	628.19
445.582	603.19
445.803	650.19
446.024	741.19
446.245	735.19
446.466	690.19
446.687	605.19
446.908	564.19
447.129	548.19
447.35	517.19
447.571	529.19
447.792	511.19
448.013	506.19
448.234	534.19
448.455	573.19
448.675	689.19
448.896	801.19
449.117	703.19
449.338	619.19
449.559	717.19
449.779	827.19
450	668.19
450.221	557.19
450.442	508.19
450.662	497.19
450.883	508.19
451.104	500.19
451.324	489.19
451.545	495.19
451.766	481.19
451.986	461.19
452.207	447.19
452.428	461.19
452.648	476.19
452.869	478.19
453.089	485.19
453.31	483.19
453.53	464.19
453.751	469.19
453.971	460.19
454.192	481.19
454.412	464.19
454.633	451.19
454.853	467.19
455.073	462.19
455.294	485.19
455.514	540.19
455.734	530.19
455.955	462.19
456.175	468.19
456.395	470.19
456.616	432.19
456.836	422.19
457.056	443.19
457.276	446.19
457.497	453.19
457.717	452.19
457.937	467.19
458.157	464.19
458.377	464.19
458.598	455.19
458.818	530.19
459.038	592.19
459.258	607.19
459.478	539.19
459.698	491.19
459.918	525.19
460.138	516.19
460.358	529.19
460.578	536.19
460.798	524.19
461.018	525.19
461.238	549.19
461.458	537.19
461.678	509.19
461.898	528.19
462.118	531.19
462.338	559.19
462.558	562.19
462.777	566.19
462.997	580.19
463.217	601.19
463.437	630.19
463.657	578.19
463.876	589.19
464.096	548.19
464.316	560.19
464.536	549.19
464.755	548.19
464.975	578.19
465.195	566.19
465.414	632.19
465.634	558.19
465.854	530.19
466.073	545.19
466.293	502.19
466.512	512.19
466.732	472.19
466.951	480.19
467.171	492.19
467.391	503.19
467.61	496.19
467.829	488.19
468.049	488.19
468.268	494.19
468.488	478.19
468.707	459.19
468.927	478.19
469.146	488.19
469.365	490.19
469.585	457.19
469.804	485.19
470.023	484.19
470.243	512.19
470.462	495.19
470.681	499.19
470.901	514.19
471.12	491.19
471.339	484.19
471.558	487.19
471.777	491.19
471.997	493.19
472.216	497.19
472.435	528.19
472.654	502.19
472.873	480.19
473.092	492.19
473.311	465.19
473.53	508.19
473.749	470.19
473.968	522.19
474.187	601.19
474.406	620.19
474.625	554.19
474.844	502.19
475.063	502.19
475.282	481.19
475.501	511.19
475.72	498.19
475.939	514.19
476.158	504.19
476.377	489.19
476.596	510.19
476.814	507.19
477.033	517.19
477.252	538.19
477.471	526.19
477.69	539.19
477.908	528.19
478.127	545.19
478.346	521.19
478.564	551.19
478.783	558.19
479.002	551.19
479.22	556.19
479.439	589.19
479.658	588.19
479.876	590.19
480.095	589.19
480.313	600.19
480.532	597.19
480.751	596.19
480.969	608.19
481.188	648.19
481.406	654.19
481.624	622.19
481.843	582.19
482.061	583.19
482.28	574.19
482.498	584.19
482.717	576.19
482.935	567.19
483.153	569.19
483.372	586.19
483.59	564.19
483.808	567.19
484.027	575.19
484.245	592.19
484.463	576.19
484.681	578.19
484.9	582.19
485.118	586.19
485.336	609.19
485.554	569.19
485.772	581.19
485.99	578.19
486.209	593.19
486.427	591.19
486.645	613.19
486.863	629.19
487.081	615.19
487.299	616.19
487.517	621.19
487.735	613.19
487.953	635.19
488.171	619.19
488.389	593.19
488.607	615.19
488.825	624.19
489.043	609.19
489.261	615.19
489.479	604.19
489.696	614.19
489.914	642.19
490.132	636.19
490.35	615.19
490.568	644.19
490.786	664.19
491.003	652.19
491.221	666.19
491.439	680.19
491.657	666.19
491.874	697.19
492.092	727.19
492.31	712.19
492.527	708.19
492.745	693.19
492.963	724.19
493.18	696.19
493.398	726.19
493.615	733.19
493.833	732.19
494.05	734.19
494.268	714.19
494.485	702.19
494.703	720.19
494.92	714.19
495.138	732.19
495.355	728.19
495.573	728.19
495.79	736.19
496.008	747.19
496.225	728.19
496.442	721.19
496.66	754.19
496.877	737.19
497.094	735.19
497.312	750.19
497.529	743.19
497.746	744.19
497.963	786.19
498.181	796.19
498.398	800.19
498.615	785.19
498.832	812.19
499.049	862.19
499.267	874.19
499.484	926.19
499.701	986.19
499.918	1045.19
500.135	1051.19
500.352	1121.19
500.569	1165.19
500.786	1155.19
501.003	1133.19
501.22	1105.19
501.437	1043.19
501.654	982.19
