Data from 1975.PennyLincolnUp.Lamp.En5.5.200Scan.071719.P1.Changed Mount._HRD10591_15-56-43-858.txt Node
Date: Thu Jul 18 15:56:43 EDT 2019
User: cochatt
Spectrometer: HR+D1059
Trigger mode: 1
Integration Time (sec): 1.000000E-1
Scans to average: 1
Electric dark correction enabled: true
Nonlinearity correction enabled: false
Boxcar width: 0
XAxis mode: Wavelengths
Number of Pixels in Spectrum: 2048
>>>>>Begin Spectral Data<<<<<
223.165	-28.88
223.4	-28.88
223.635	-28.88
223.869	-2.88
224.104	-19.88
224.338	-8.88
224.573	-8.88
224.808	-6.88
225.042	-6.88
225.277	-19.88
225.511	-6.88
225.746	9.12
225.98	3.12
226.215	17.12
226.449	16.12
226.683	21.12
226.918	12.12
227.152	31.12
227.387	51.12
227.621	41.12
227.856	37.12
228.09	47.12
228.324	41.12
228.559	44.12
228.793	55.12
229.027	105.12
229.262	92.12
229.496	97.12
229.73	108.12
229.964	137.12
230.199	115.12
230.433	124.12
230.667	101.12
230.901	111.12
231.136	113.12
231.37	118.12
231.604	119.12
231.838	98.12
232.072	103.12
232.306	109.12
232.541	106.12
232.775	125.12
233.009	118.12
233.243	119.12
233.477	125.12
233.711	111.12
233.945	125.12
234.179	108.12
234.413	127.12
234.647	108.12
234.881	104.12
235.115	118.12
235.349	113.12
235.583	130.12
235.817	115.12
236.051	121.12
236.285	122.12
236.519	116.12
236.753	117.12
236.987	143.12
237.221	180.12
237.455	223.12
237.689	181.12
237.922	137.12
238.156	125.12
238.39	115.12
238.624	124.12
238.858	123.12
239.091	114.12
239.325	121.12
239.559	116.12
239.793	131.12
240.027	121.12
240.26	134.12
240.494	149.12
240.728	131.12
240.961	156.12
241.195	142.12
241.429	140.12
241.662	133.12
241.896	126.12
242.13	131.12
242.363	133.12
242.597	117.12
242.83	143.12
243.064	138.12
243.298	126.12
243.531	136.12
243.765	134.12
243.998	135.12
244.232	150.12
244.465	143.12
244.699	134.12
244.932	137.12
245.166	135.12
245.399	150.12
245.633	148.12
245.866	147.12
246.099	141.12
246.333	142.12
246.566	145.12
246.8	148.12
247.033	155.12
247.266	149.12
247.5	144.12
247.733	169.12
247.966	161.12
248.2	178.12
248.433	155.12
248.666	175.12
248.899	179.12
249.133	186.12
249.366	195.12
249.599	191.12
249.832	170.12
250.066	187.12
250.299	181.12
250.532	193.12
250.765	199.12
250.998	220.12
251.231	244.12
251.465	218.12
251.698	197.12
251.931	191.12
252.164	187.12
252.397	209.12
252.63	191.12
252.863	207.12
253.096	225.12
253.329	209.12
253.562	223.12
253.795	206.12
254.028	232.12
254.261	204.12
254.494	225.12
254.727	248.12
254.96	275.12
255.193	245.12
255.426	239.12
255.659	235.12
255.892	227.12
256.124	233.12
256.357	222.12
256.59	221.12
256.823	206.12
257.056	203.12
257.289	201.12
257.521	215.12
257.754	217.12
257.987	214.12
258.22	209.12
258.452	200.12
258.685	203.12
258.918	215.12
259.151	190.12
259.383	208.12
259.616	207.12
259.849	228.12
260.081	229.12
260.314	247.12
260.547	244.12
260.779	240.12
261.012	215.12
261.244	218.12
261.477	189.12
261.71	216.12
261.942	218.12
262.175	231.12
262.407	214.12
262.64	222.12
262.872	226.12
263.105	214.12
263.337	193.12
263.57	216.12
263.802	209.12
264.035	207.12
264.267	218.12
264.499	210.12
264.732	219.12
264.964	224.12
265.197	223.12
265.429	218.12
265.661	200.12
265.894	202.12
266.126	202.12
266.358	211.12
266.591	225.12
266.823	216.12
267.055	223.12
267.287	224.12
267.52	219.12
267.752	203.12
267.984	225.12
268.216	210.12
268.448	219.12
268.681	254.12
268.913	234.12
269.145	263.12
269.377	259.12
269.609	251.12
269.841	269.12
270.073	266.12
270.306	294.12
270.538	291.12
270.77	293.12
271.002	282.12
271.234	275.12
271.466	294.12
271.698	306.12
271.93	305.12
272.162	297.12
272.394	302.12
272.626	298.12
272.858	270.12
273.09	269.12
273.322	254.12
273.553	252.12
273.785	276.12
274.017	268.12
274.249	250.12
274.481	268.12
274.713	242.12
274.945	264.12
275.176	254.12
275.408	265.12
275.64	278.12
275.872	269.12
276.104	275.12
276.335	272.12
276.567	274.12
276.799	271.12
277.031	313.12
277.262	291.12
277.494	297.12
277.726	295.12
277.957	279.12
278.189	277.12
278.421	279.12
278.652	264.12
278.884	247.12
279.115	277.12
279.347	253.12
279.579	275.12
279.81	251.12
280.042	255.12
280.273	253.12
280.505	260.12
280.736	283.12
280.968	269.12
281.199	270.12
281.431	267.12
281.662	266.12
281.894	265.12
282.125	292.12
282.356	290.12
282.588	290.12
282.819	302.12
283.051	290.12
283.282	283.12
283.513	272.12
283.745	289.12
283.976	262.12
284.207	290.12
284.439	272.12
284.67	276.12
284.901	290.12
285.132	287.12
285.364	265.12
285.595	293.12
285.826	266.12
286.057	275.12
286.288	278.12
286.52	284.12
286.751	268.12
286.982	290.12
287.213	286.12
287.444	281.12
287.675	297.12
287.906	292.12
288.138	297.12
288.369	293.12
288.6	302.12
288.831	296.12
289.062	292.12
289.293	261.12
289.524	297.12
289.755	283.12
289.986	300.12
290.217	290.12
290.448	292.12
290.679	277.12
290.91	310.12
291.141	303.12
291.371	291.12
291.602	275.12
291.833	286.12
292.064	279.12
292.295	269.12
292.526	295.12
292.757	285.12
292.987	297.12
293.218	293.12
293.449	286.12
293.68	309.12
293.91	284.12
294.141	289.12
294.372	299.12
294.603	312.12
294.833	309.12
295.064	294.12
295.295	291.12
295.525	290.12
295.756	289.12
295.987	294.12
296.217	318.12
296.448	337.12
296.679	305.12
296.909	305.12
297.14	320.12
297.37	316.12
297.601	324.12
297.831	310.12
298.062	308.12
298.292	310.12
298.523	289.12
298.753	294.12
298.984	312.12
299.214	313.12
299.445	330.12
299.675	318.12
299.905	318.12
300.136	305.12
300.366	315.12
300.597	307.12
300.827	309.12
301.057	336.12
301.288	306.12
301.518	318.12
301.748	317.12
301.979	316.12
302.209	310.12
302.439	311.12
302.669	332.12
302.9	325.12
303.13	325.12
303.36	330.12
303.59	321.12
303.82	325.12
304.051	324.12
304.281	322.12
304.511	336.12
304.741	309.12
304.971	323.12
305.201	309.12
305.431	325.12
305.661	338.12
305.891	329.12
306.121	353.12
306.352	334.12
306.582	327.12
306.812	321.12
307.042	343.12
307.272	321.12
307.502	323.12
307.731	313.12
307.961	301.12
308.191	328.12
308.421	329.12
308.651	335.12
308.881	327.12
309.111	323.12
309.341	327.12
309.571	315.12
309.8	324.12
310.03	351.12
310.26	375.12
310.49	355.12
310.72	369.12
310.949	358.12
311.179	373.12
311.409	365.12
311.639	361.12
311.868	342.12
312.098	369.12
312.328	371.12
312.557	378.12
312.787	366.12
313.017	375.12
313.246	388.12
313.476	381.12
313.706	355.12
313.935	365.12
314.165	389.12
314.394	367.12
314.624	366.12
314.853	380.12
315.083	375.12
315.312	352.12
315.542	375.12
315.771	341.12
316.001	365.12
316.23	349.12
316.46	350.12
316.689	377.12
316.919	378.12
317.148	360.12
317.377	398.12
317.607	386.12
317.836	381.12
318.065	358.12
318.295	379.12
318.524	376.12
318.753	383.12
318.983	350.12
319.212	364.12
319.441	369.12
319.67	379.12
319.9	376.12
320.129	375.12
320.358	384.12
320.587	384.12
320.816	377.12
321.046	377.12
321.275	391.12
321.504	395.12
321.733	391.12
321.962	375.12
322.191	395.12
322.42	385.12
322.649	406.12
322.878	421.12
323.108	409.12
323.337	424.12
323.566	446.12
323.795	441.12
324.024	478.12
324.253	573.12
324.482	764.12
324.71	1143.12
324.939	1670.12
325.168	1502.12
325.397	778.12
325.626	523.12
325.855	468.12
326.084	442.12
326.313	449.12
326.542	446.12
326.77	481.12
326.999	561.12
327.228	707.12
327.457	1045.12
327.686	1297.12
327.914	881.12
328.143	600.12
328.372	526.12
328.6	507.12
328.829	491.12
329.058	514.12
329.287	491.12
329.515	499.12
329.744	496.12
329.972	451.12
330.201	478.12
330.43	527.12
330.658	535.12
330.887	542.12
331.115	517.12
331.344	472.12
331.572	469.12
331.801	447.12
332.03	444.12
332.258	442.12
332.486	452.12
332.715	461.12
332.943	438.12
333.172	455.12
333.4	467.12
333.629	456.12
333.857	475.12
334.085	468.12
334.314	489.12
334.542	503.12
334.771	517.12
334.999	483.12
335.227	489.12
335.455	461.12
335.684	458.12
335.912	455.12
336.14	453.12
336.369	441.12
336.597	438.12
336.825	418.12
337.053	441.12
337.281	429.12
337.51	453.12
337.738	412.12
337.966	453.12
338.194	445.12
338.422	438.12
338.65	412.12
338.878	444.12
339.106	429.12
339.334	443.12
339.562	415.12
339.79	421.12
340.018	423.12
340.246	407.12
340.474	420.12
340.702	413.12
340.93	401.12
341.158	415.12
341.386	398.12
341.614	425.12
341.842	417.12
342.07	411.12
342.298	412.12
342.526	419.12
342.754	419.12
342.981	403.12
343.209	401.12
343.437	421.12
343.665	429.12
343.893	437.12
344.12	440.12
344.348	433.12
344.576	444.12
344.804	435.12
345.031	433.12
345.259	435.12
345.487	440.12
345.714	424.12
345.942	397.12
346.17	404.12
346.397	423.12
346.625	391.12
346.853	425.12
347.08	389.12
347.308	412.12
347.535	421.12
347.763	422.12
347.99	427.12
348.218	426.12
348.445	396.12
348.673	417.12
348.9	400.12
349.128	423.12
349.355	426.12
349.583	398.12
349.81	408.12
350.037	399.12
350.265	389.12
350.492	377.12
350.72	406.12
350.947	381.12
351.174	421.12
351.402	410.12
351.629	397.12
351.856	385.12
352.083	402.12
352.311	423.12
352.538	414.12
352.765	417.12
352.992	416.12
353.22	413.12
353.447	416.12
353.674	391.12
353.901	390.12
354.128	408.12
354.355	398.12
354.583	391.12
354.81	387.12
355.037	393.12
355.264	380.12
355.491	379.12
355.718	395.12
355.945	394.12
356.172	383.12
356.399	384.12
356.626	380.12
356.853	376.12
357.08	381.12
357.307	391.12
357.534	390.12
357.761	387.12
357.988	383.12
358.215	387.12
358.441	381.12
358.668	382.12
358.895	391.12
359.122	390.12
359.349	381.12
359.576	393.12
359.802	425.12
360.029	449.12
360.256	456.12
360.483	426.12
360.709	404.12
360.936	419.12
361.163	402.12
361.39	408.12
361.616	403.12
361.843	407.12
362.07	399.12
362.296	395.12
362.523	406.12
362.749	407.12
362.976	397.12
363.203	401.12
363.429	425.12
363.656	411.12
363.882	409.12
364.109	402.12
364.335	390.12
364.562	405.12
364.788	413.12
365.015	397.12
365.241	417.12
365.468	399.12
365.694	393.12
365.92	404.12
366.147	406.12
366.373	395.12
366.599	405.12
366.826	393.12
367.052	394.12
367.278	399.12
367.505	409.12
367.731	409.12
367.957	390.12
368.184	405.12
368.41	403.12
368.636	395.12
368.862	424.12
369.089	405.12
369.315	419.12
369.541	410.12
369.767	421.12
369.993	401.12
370.219	406.12
370.445	396.12
370.672	407.12
370.898	395.12
371.124	407.12
371.35	428.12
371.576	410.12
371.802	409.12
372.028	414.12
372.254	402.12
372.48	377.12
372.706	394.12
372.932	425.12
373.158	433.12
373.384	424.12
373.61	417.12
373.835	415.12
374.061	417.12
374.287	398.12
374.513	414.12
374.739	424.12
374.965	403.12
375.191	420.12
375.416	413.12
375.642	425.12
375.868	429.12
376.094	409.12
376.319	428.12
376.545	411.12
376.771	415.12
376.997	407.12
377.222	420.12
377.448	415.12
377.674	385.12
377.899	407.12
378.125	422.12
378.35	404.12
378.576	404.12
378.802	387.12
379.027	383.12
379.253	411.12
379.478	400.12
379.704	401.12
379.929	403.12
380.155	400.12
380.38	401.12
380.606	413.12
380.831	387.12
381.057	423.12
381.282	396.12
381.507	408.12
381.733	398.12
381.958	440.12
382.184	410.12
382.409	428.12
382.634	421.12
382.86	424.12
383.085	411.12
383.31	427.12
383.535	435.12
383.761	449.12
383.986	458.12
384.211	428.12
384.436	451.12
384.662	434.12
384.887	448.12
385.112	455.12
385.337	446.12
385.562	446.12
385.787	460.12
386.013	444.12
386.238	443.12
386.463	444.12
386.688	439.12
386.913	458.12
387.138	457.12
387.363	452.12
387.588	453.12
387.813	455.12
388.038	460.12
388.263	441.12
388.488	464.12
388.713	450.12
388.938	452.12
389.163	435.12
389.387	453.12
389.612	425.12
389.837	468.12
390.062	444.12
390.287	463.12
390.512	466.12
390.736	469.12
390.961	461.12
391.186	473.12
391.411	458.12
391.636	460.12
391.86	473.12
392.085	478.12
392.31	470.12
392.534	478.12
392.759	476.12
392.984	451.12
393.208	463.12
393.433	481.12
393.658	444.12
393.882	460.12
394.107	463.12
394.331	488.12
394.556	484.12
394.78	445.12
395.005	462.12
395.229	455.12
395.454	484.12
395.678	511.12
395.903	481.12
396.127	515.12
396.352	514.12
396.576	468.12
396.801	488.12
397.025	457.12
397.249	484.12
397.474	490.12
397.698	490.12
397.922	493.12
398.147	512.12
398.371	517.12
398.595	543.12
398.82	533.12
399.044	528.12
399.268	550.12
399.492	616.12
399.717	626.12
399.941	665.12
400.165	687.12
400.389	682.12
400.613	614.12
400.837	577.12
401.062	572.12
401.286	565.12
401.51	542.12
401.734	555.12
401.958	534.12
402.182	525.12
402.406	520.12
402.63	546.12
402.854	575.12
403.078	548.12
403.302	537.12
403.526	547.12
403.75	557.12
403.974	571.12
404.198	550.12
404.422	574.12
404.645	565.12
404.869	578.12
405.093	598.12
405.317	638.12
405.541	675.12
405.765	609.12
405.988	595.12
406.212	586.12
406.436	577.12
406.66	610.12
406.883	581.12
407.107	629.12
407.331	667.12
407.555	746.12
407.778	763.12
408.002	668.12
408.226	623.12
408.449	614.12
408.673	608.12
408.896	643.12
409.12	663.12
409.344	632.12
409.567	565.12
409.791	565.12
410.014	565.12
410.238	554.12
410.461	563.12
410.685	544.12
410.908	572.12
411.132	610.12
411.355	639.12
411.578	604.12
411.802	553.12
412.025	546.12
412.249	561.12
412.472	571.12
412.695	617.12
412.919	621.12
413.142	562.12
413.365	555.12
413.589	553.12
413.812	545.12
414.035	498.12
414.258	513.12
414.482	537.12
414.705	525.12
414.928	517.12
415.151	529.12
415.374	510.12
415.597	507.12
415.821	523.12
416.044	534.12
416.267	536.12
416.49	511.12
416.713	501.12
416.936	538.12
417.159	501.12
417.382	510.12
417.605	533.12
417.828	524.12
418.051	558.12
418.274	531.12
418.497	541.12
418.72	545.12
418.943	534.12
419.166	561.12
419.389	572.12
419.611	572.12
419.834	562.12
420.057	562.12
420.28	562.12
420.503	548.12
420.726	527.12
420.948	544.12
421.171	592.12
421.394	612.12
421.617	567.12
421.839	551.12
422.062	554.12
422.285	565.12
422.507	626.12
422.73	714.12
422.953	662.12
423.175	593.12
423.398	555.12
423.621	577.12
423.843	605.12
424.066	592.12
424.288	569.12
424.511	599.12
424.733	655.12
424.956	729.12
425.178	689.12
425.401	701.12
425.623	690.12
425.846	602.12
426.068	558.12
426.291	556.12
426.513	565.12
426.735	573.12
426.958	640.12
427.18	675.12
427.402	789.12
427.625	904.12
427.847	736.12
428.069	658.12
428.292	599.12
428.514	556.12
428.736	552.12
428.958	517.12
429.181	511.12
429.403	519.12
429.625	533.12
429.847	580.12
430.069	609.12
430.292	622.12
430.514	524.12
430.736	546.12
430.958	520.12
431.18	492.12
431.402	491.12
431.624	475.12
431.846	477.12
432.068	488.12
432.29	510.12
432.512	492.12
432.734	521.12
432.956	518.12
433.178	520.12
433.4	535.12
433.622	525.12
433.844	505.12
434.066	519.12
434.287	500.12
434.509	526.12
434.731	535.12
434.953	527.12
435.175	547.12
435.397	565.12
435.618	579.12
435.84	597.12
436.062	693.12
436.284	753.12
436.505	647.12
436.727	587.12
436.949	522.12
437.17	537.12
437.392	524.12
437.614	531.12
437.835	551.12
438.057	650.12
438.278	738.12
438.5	752.12
438.721	825.12
438.943	791.12
439.165	617.12
439.386	585.12
439.608	579.12
439.829	569.12
440.05	577.12
440.272	623.12
440.493	591.12
440.715	554.12
440.936	542.12
441.158	550.12
441.379	539.12
441.6	533.12
441.822	599.12
442.043	604.12
442.264	682.12
442.486	743.12
442.707	647.12
442.928	588.12
443.149	589.12
443.371	635.12
443.592	645.12
443.813	731.12
444.034	828.12
444.255	670.12
444.476	625.12
444.698	600.12
444.919	594.12
445.14	739.12
445.361	665.12
445.582	625.12
445.803	653.12
446.024	784.12
446.245	751.12
446.466	715.12
446.687	625.12
446.908	589.12
447.129	535.12
447.35	520.12
447.571	533.12
447.792	522.12
448.013	522.12
448.234	512.12
448.455	588.12
448.675	689.12
448.896	814.12
449.117	689.12
449.338	659.12
449.559	734.12
449.779	863.12
450	695.12
450.221	573.12
450.442	501.12
450.662	494.12
450.883	506.12
451.104	513.12
451.324	517.12
451.545	505.12
451.766	469.12
451.986	484.12
452.207	466.12
452.428	476.12
452.648	477.12
452.869	481.12
453.089	479.12
453.31	482.12
453.53	440.12
453.751	467.12
453.971	466.12
454.192	474.12
454.412	482.12
454.633	455.12
454.853	455.12
455.073	460.12
455.294	497.12
455.514	545.12
455.734	540.12
455.955	457.12
456.175	469.12
456.395	459.12
456.616	425.12
456.836	425.12
457.056	455.12
457.276	428.12
457.497	435.12
457.717	464.12
457.937	450.12
458.157	455.12
458.377	447.12
458.598	475.12
458.818	524.12
459.038	573.12
459.258	602.12
459.478	533.12
459.698	522.12
459.918	513.12
460.138	524.12
460.358	502.12
460.578	509.12
460.798	525.12
461.018	533.12
461.238	540.12
461.458	525.12
461.678	502.12
461.898	532.12
462.118	526.12
462.338	569.12
462.558	547.12
462.777	564.12
462.997	569.12
463.217	591.12
463.437	591.12
463.657	593.12
463.876	595.12
464.096	566.12
464.316	564.12
464.536	560.12
464.755	587.12
464.975	552.12
465.195	583.12
465.414	597.12
465.634	561.12
465.854	530.12
466.073	515.12
466.293	518.12
466.512	486.12
466.732	499.12
466.951	492.12
467.171	506.12
467.391	484.12
467.61	504.12
467.829	497.12
468.049	486.12
468.268	492.12
468.488	481.12
468.707	470.12
468.927	474.12
469.146	479.12
469.365	494.12
469.585	500.12
469.804	493.12
470.023	532.12
470.243	476.12
470.462	485.12
470.681	504.12
470.901	505.12
471.12	515.12
471.339	472.12
471.558	493.12
471.777	480.12
471.997	493.12
472.216	497.12
472.435	539.12
472.654	511.12
472.873	487.12
473.092	488.12
473.311	484.12
473.53	478.12
473.749	500.12
473.968	548.12
474.187	593.12
474.406	633.12
474.625	532.12
474.844	512.12
475.063	513.12
475.282	489.12
475.501	485.12
475.72	490.12
475.939	501.12
476.158	531.12
476.377	509.12
476.596	499.12
476.814	501.12
477.033	500.12
477.252	547.12
477.471	530.12
477.69	524.12
477.908	527.12
478.127	540.12
478.346	549.12
478.564	552.12
478.783	554.12
479.002	594.12
479.22	562.12
479.439	581.12
479.658	572.12
479.876	578.12
480.095	572.12
480.313	626.12
480.532	615.12
480.751	610.12
480.969	610.12
481.188	644.12
481.406	673.12
481.624	620.12
481.843	581.12
482.061	573.12
482.28	592.12
482.498	561.12
482.717	584.12
482.935	564.12
483.153	575.12
483.372	565.12
483.59	562.12
483.808	563.12
484.027	554.12
484.245	579.12
484.463	577.12
484.681	563.12
484.9	584.12
485.118	604.12
485.336	604.12
485.554	574.12
485.772	612.12
485.99	595.12
486.209	602.12
486.427	601.12
486.645	600.12
486.863	622.12
487.081	623.12
487.299	602.12
487.517	615.12
487.735	599.12
487.953	597.12
488.171	606.12
488.389	607.12
488.607	601.12
488.825	618.12
489.043	628.12
489.261	616.12
489.479	615.12
489.696	637.12
489.914	626.12
490.132	654.12
490.35	622.12
490.568	659.12
490.786	653.12
491.003	665.12
491.221	680.12
491.439	705.12
491.657	692.12
491.874	741.12
492.092	717.12
492.31	713.12
492.527	702.12
492.745	720.12
492.963	696.12
493.18	719.12
493.398	730.12
493.615	724.12
493.833	733.12
494.05	739.12
494.268	708.12
494.485	734.12
494.703	699.12
494.92	740.12
495.138	707.12
495.355	732.12
495.573	714.12
495.79	719.12
496.008	735.12
496.225	741.12
496.442	750.12
496.66	741.12
496.877	718.12
497.094	731.12
497.312	722.12
497.529	753.12
497.746	757.12
497.963	787.12
498.181	819.12
498.398	847.12
498.615	825.12
498.832	826.12
499.049	877.12
499.267	914.12
499.484	949.12
499.701	992.12
499.918	1003.12
500.135	1082.12
500.352	1128.12
500.569	1151.12
500.786	1167.12
501.003	1147.12
501.22	1067.12
501.437	1043.12
501.654	1006.12
