Data from 1975.PennyLincolnUp.Lamp.En5.5.200Scan.071719.P1.Changed Mount._HRD10591_15-56-12-859.txt Node
Date: Thu Jul 18 15:56:12 EDT 2019
User: cochatt
Spectrometer: HR+D1059
Trigger mode: 1
Integration Time (sec): 1.000000E-1
Scans to average: 1
Electric dark correction enabled: true
Nonlinearity correction enabled: false
Boxcar width: 0
XAxis mode: Wavelengths
Number of Pixels in Spectrum: 2048
>>>>>Begin Spectral Data<<<<<
223.165	-6.56
223.4	-6.56
223.635	-6.56
223.869	-6.56
224.104	-21.56
224.338	-23.56
224.573	-22.56
224.808	-4.56
225.042	-6.56
225.277	-3.56
225.511	-17.56
225.746	-4.56
225.98	5.44
226.215	10.44
226.449	0.44
226.683	33.44
226.918	25.44
227.152	42.44
227.387	23.44
227.621	37.44
227.856	50.44
228.09	34.44
228.324	53.44
228.559	60.44
228.793	49.44
229.027	82.44
229.262	92.44
229.496	114.44
229.73	124.44
229.964	138.44
230.199	132.44
230.433	115.44
230.667	114.44
230.901	104.44
231.136	102.44
231.37	127.44
231.604	103.44
231.838	120.44
232.072	105.44
232.306	107.44
232.541	120.44
232.775	113.44
233.009	121.44
233.243	118.44
233.477	122.44
233.711	97.44
233.945	126.44
234.179	112.44
234.413	111.44
234.647	120.44
234.881	109.44
235.115	121.44
235.349	105.44
235.583	128.44
235.817	114.44
236.051	117.44
236.285	129.44
236.519	119.44
236.753	128.44
236.987	152.44
237.221	178.44
237.455	217.44
237.689	168.44
237.922	128.44
238.156	122.44
238.39	129.44
238.624	121.44
238.858	119.44
239.091	135.44
239.325	127.44
239.559	120.44
239.793	138.44
240.027	136.44
240.26	143.44
240.494	149.44
240.728	132.44
240.961	152.44
241.195	130.44
241.429	131.44
241.662	132.44
241.896	132.44
242.13	134.44
242.363	116.44
242.597	132.44
242.83	145.44
243.064	124.44
243.298	134.44
243.531	136.44
243.765	132.44
243.998	136.44
244.232	131.44
244.465	142.44
244.699	144.44
244.932	147.44
245.166	152.44
245.399	153.44
245.633	137.44
245.866	152.44
246.099	140.44
246.333	150.44
246.566	148.44
246.8	148.44
247.033	143.44
247.266	157.44
247.5	166.44
247.733	169.44
247.966	166.44
248.2	160.44
248.433	168.44
248.666	178.44
248.899	191.44
249.133	193.44
249.366	204.44
249.599	169.44
249.832	186.44
250.066	163.44
250.299	176.44
250.532	183.44
250.765	183.44
250.998	205.44
251.231	235.44
251.465	224.44
251.698	209.44
251.931	193.44
252.164	173.44
252.397	186.44
252.63	189.44
252.863	199.44
253.096	212.44
253.329	222.44
253.562	206.44
253.795	203.44
254.028	216.44
254.261	210.44
254.494	207.44
254.727	225.44
254.96	265.44
255.193	234.44
255.426	233.44
255.659	217.44
255.892	214.44
256.124	228.44
256.357	236.44
256.59	227.44
256.823	200.44
257.056	213.44
257.289	187.44
257.521	204.44
257.754	218.44
257.987	206.44
258.22	196.44
258.452	213.44
258.685	214.44
258.918	208.44
259.151	210.44
259.383	230.44
259.616	225.44
259.849	226.44
260.081	232.44
260.314	234.44
260.547	254.44
260.779	225.44
261.012	231.44
261.244	210.44
261.477	214.44
261.71	210.44
261.942	221.44
262.175	220.44
262.407	217.44
262.64	210.44
262.872	202.44
263.105	207.44
263.337	216.44
263.57	206.44
263.802	220.44
264.035	210.44
264.267	212.44
264.499	195.44
264.732	223.44
264.964	224.44
265.197	205.44
265.429	209.44
265.661	209.44
265.894	204.44
266.126	209.44
266.358	225.44
266.591	210.44
266.823	225.44
267.055	220.44
267.287	235.44
267.52	210.44
267.752	231.44
267.984	221.44
268.216	229.44
268.448	225.44
268.681	234.44
268.913	248.44
269.145	261.44
269.377	260.44
269.609	277.44
269.841	270.44
270.073	262.44
270.306	294.44
270.538	311.44
270.77	305.44
271.002	285.44
271.234	298.44
271.466	285.44
271.698	303.44
271.93	304.44
272.162	298.44
272.394	295.44
272.626	314.44
272.858	286.44
273.09	264.44
273.322	277.44
273.553	254.44
273.785	246.44
274.017	264.44
274.249	272.44
274.481	269.44
274.713	251.44
274.945	242.44
275.176	244.44
275.408	282.44
275.64	266.44
275.872	269.44
276.104	267.44
276.335	269.44
276.567	266.44
276.799	260.44
277.031	306.44
277.262	304.44
277.494	301.44
277.726	293.44
277.957	295.44
278.189	271.44
278.421	253.44
278.652	266.44
278.884	260.44
279.115	260.44
279.347	249.44
279.579	268.44
279.81	262.44
280.042	261.44
280.273	264.44
280.505	264.44
280.736	273.44
280.968	286.44
281.199	270.44
281.431	269.44
281.662	269.44
281.894	281.44
282.125	291.44
282.356	277.44
282.588	288.44
282.819	296.44
283.051	296.44
283.282	280.44
283.513	293.44
283.745	285.44
283.976	270.44
284.207	274.44
284.439	273.44
284.67	282.44
284.901	279.44
285.132	271.44
285.364	282.44
285.595	271.44
285.826	274.44
286.057	302.44
286.288	287.44
286.52	288.44
286.751	278.44
286.982	275.44
287.213	294.44
287.444	283.44
287.675	296.44
287.906	298.44
288.138	278.44
288.369	293.44
288.6	306.44
288.831	301.44
289.062	309.44
289.293	318.44
289.524	282.44
289.755	308.44
289.986	298.44
290.217	302.44
290.448	309.44
290.679	284.44
290.91	290.44
291.141	278.44
291.371	284.44
291.602	302.44
291.833	294.44
292.064	298.44
292.295	289.44
292.526	299.44
292.757	284.44
292.987	284.44
293.218	274.44
293.449	279.44
293.68	300.44
293.91	294.44
294.141	291.44
294.372	316.44
294.603	293.44
294.833	294.44
295.064	305.44
295.295	301.44
295.525	294.44
295.756	328.44
295.987	295.44
296.217	308.44
296.448	344.44
296.679	300.44
296.909	300.44
297.14	299.44
297.37	318.44
297.601	305.44
297.831	297.44
298.062	280.44
298.292	310.44
298.523	304.44
298.753	301.44
298.984	308.44
299.214	300.44
299.445	314.44
299.675	312.44
299.905	334.44
300.136	317.44
300.366	328.44
300.597	304.44
300.827	313.44
301.057	329.44
301.288	344.44
301.518	327.44
301.748	330.44
301.979	332.44
302.209	326.44
302.439	325.44
302.669	332.44
302.9	333.44
303.13	329.44
303.36	302.44
303.59	344.44
303.82	345.44
304.051	352.44
304.281	342.44
304.511	329.44
304.741	331.44
304.971	336.44
305.201	314.44
305.431	326.44
305.661	330.44
305.891	329.44
306.121	327.44
306.352	314.44
306.582	326.44
306.812	316.44
307.042	325.44
307.272	323.44
307.502	341.44
307.731	344.44
307.961	330.44
308.191	328.44
308.421	334.44
308.651	329.44
308.881	327.44
309.111	313.44
309.341	319.44
309.571	351.44
309.8	342.44
310.03	369.44
310.26	360.44
310.49	358.44
310.72	361.44
310.949	376.44
311.179	366.44
311.409	346.44
311.639	346.44
311.868	371.44
312.098	357.44
312.328	351.44
312.557	381.44
312.787	380.44
313.017	398.44
313.246	384.44
313.476	372.44
313.706	363.44
313.935	381.44
314.165	396.44
314.394	396.44
314.624	367.44
314.853	378.44
315.083	377.44
315.312	366.44
315.542	373.44
315.771	379.44
316.001	377.44
316.23	377.44
316.46	392.44
316.689	366.44
316.919	363.44
317.148	380.44
317.377	370.44
317.607	383.44
317.836	381.44
318.065	381.44
318.295	376.44
318.524	363.44
318.753	365.44
318.983	368.44
319.212	390.44
319.441	380.44
319.67	377.44
319.9	370.44
320.129	386.44
320.358	361.44
320.587	384.44
320.816	376.44
321.046	362.44
321.275	376.44
321.504	384.44
321.733	370.44
321.962	383.44
322.191	411.44
322.42	408.44
322.649	417.44
322.878	418.44
323.108	417.44
323.337	421.44
323.566	443.44
323.795	468.44
324.024	493.44
324.253	562.44
324.482	733.44
324.71	1127.44
324.939	1614.44
325.168	1490.44
325.397	750.44
325.626	536.44
325.855	484.44
326.084	452.44
326.313	449.44
326.542	448.44
326.77	483.44
326.999	540.44
327.228	690.44
327.457	1026.44
327.686	1262.44
327.914	856.44
328.143	600.44
328.372	530.44
328.6	516.44
328.829	501.44
329.058	515.44
329.287	517.44
329.515	495.44
329.744	466.44
329.972	448.44
330.201	480.44
330.43	508.44
330.658	528.44
330.887	543.44
331.115	523.44
331.344	482.44
331.572	474.44
331.801	435.44
332.03	476.44
332.258	461.44
332.486	423.44
332.715	452.44
332.943	455.44
333.172	449.44
333.4	474.44
333.629	487.44
333.857	496.44
334.085	493.44
334.314	486.44
334.542	518.44
334.771	538.44
334.999	485.44
335.227	483.44
335.455	475.44
335.684	481.44
335.912	452.44
336.14	441.44
336.369	437.44
336.597	460.44
336.825	453.44
337.053	441.44
337.281	436.44
337.51	450.44
337.738	446.44
337.966	427.44
338.194	448.44
338.422	446.44
338.65	437.44
338.878	421.44
339.106	420.44
339.334	424.44
339.562	430.44
339.79	444.44
340.018	428.44
340.246	434.44
340.474	448.44
340.702	432.44
340.93	425.44
341.158	429.44
341.386	415.44
341.614	426.44
341.842	413.44
342.07	405.44
342.298	405.44
342.526	425.44
342.754	393.44
342.981	420.44
343.209	397.44
343.437	441.44
343.665	427.44
343.893	456.44
344.12	469.44
344.348	451.44
344.576	429.44
344.804	453.44
345.031	440.44
345.259	434.44
345.487	434.44
345.714	426.44
345.942	412.44
346.17	419.44
346.397	409.44
346.625	400.44
346.853	416.44
347.08	419.44
347.308	408.44
347.535	410.44
347.763	406.44
347.99	420.44
348.218	429.44
348.445	421.44
348.673	426.44
348.9	423.44
349.128	388.44
349.355	412.44
349.583	396.44
349.81	378.44
350.037	383.44
350.265	408.44
350.492	398.44
350.72	388.44
350.947	417.44
351.174	404.44
351.402	406.44
351.629	425.44
351.856	427.44
352.083	413.44
352.311	406.44
352.538	413.44
352.765	427.44
352.992	412.44
353.22	405.44
353.447	413.44
353.674	404.44
353.901	398.44
354.128	397.44
354.355	385.44
354.583	390.44
354.81	382.44
355.037	390.44
355.264	400.44
355.491	408.44
355.718	375.44
355.945	380.44
356.172	372.44
356.399	378.44
356.626	388.44
356.853	378.44
357.08	384.44
357.307	399.44
357.534	398.44
357.761	392.44
357.988	398.44
358.215	406.44
358.441	380.44
358.668	388.44
358.895	409.44
359.122	404.44
359.349	411.44
359.576	401.44
359.802	433.44
360.029	432.44
360.256	430.44
360.483	442.44
360.709	424.44
360.936	398.44
361.163	390.44
361.39	422.44
361.616	447.44
361.843	406.44
362.07	418.44
362.296	428.44
362.523	417.44
362.749	406.44
362.976	413.44
363.203	394.44
363.429	410.44
363.656	398.44
363.882	398.44
364.109	396.44
364.335	409.44
364.562	378.44
364.788	405.44
365.015	414.44
365.241	397.44
365.468	402.44
365.694	412.44
365.92	411.44
366.147	389.44
366.373	412.44
366.599	404.44
366.826	389.44
367.052	409.44
367.278	399.44
367.505	386.44
367.731	403.44
367.957	404.44
368.184	405.44
368.41	404.44
368.636	428.44
368.862	412.44
369.089	419.44
369.315	414.44
369.541	415.44
369.767	382.44
369.993	418.44
370.219	397.44
370.445	416.44
370.672	416.44
370.898	416.44
371.124	405.44
371.35	402.44
371.576	396.44
371.802	421.44
372.028	422.44
372.254	420.44
372.48	417.44
372.706	406.44
372.932	422.44
373.158	427.44
373.384	413.44
373.61	400.44
373.835	404.44
374.061	427.44
374.287	411.44
374.513	427.44
374.739	437.44
374.965	437.44
375.191	444.44
375.416	437.44
375.642	429.44
375.868	412.44
376.094	402.44
376.319	402.44
376.545	392.44
376.771	414.44
376.997	404.44
377.222	408.44
377.448	416.44
377.674	425.44
377.899	411.44
378.125	386.44
378.35	406.44
378.576	403.44
378.802	408.44
379.027	407.44
379.253	425.44
379.478	382.44
379.704	391.44
379.929	406.44
380.155	409.44
380.38	425.44
380.606	410.44
380.831	410.44
381.057	442.44
381.282	436.44
381.507	407.44
381.733	428.44
381.958	430.44
382.184	426.44
382.409	435.44
382.634	432.44
382.86	436.44
383.085	420.44
383.31	434.44
383.535	442.44
383.761	426.44
383.986	432.44
384.211	445.44
384.436	448.44
384.662	456.44
384.887	458.44
385.112	473.44
385.337	433.44
385.562	467.44
385.787	474.44
386.013	481.44
386.238	460.44
386.463	488.44
386.688	472.44
386.913	462.44
387.138	468.44
387.363	485.44
387.588	459.44
387.813	476.44
388.038	462.44
388.263	467.44
388.488	460.44
388.713	460.44
388.938	452.44
389.163	465.44
389.387	473.44
389.612	443.44
389.837	452.44
390.062	460.44
390.287	438.44
390.512	468.44
390.736	443.44
390.961	454.44
391.186	497.44
391.411	465.44
391.636	441.44
391.86	475.44
392.085	461.44
392.31	472.44
392.534	484.44
392.759	478.44
392.984	473.44
393.208	466.44
393.433	472.44
393.658	458.44
393.882	475.44
394.107	474.44
394.331	487.44
394.556	467.44
394.78	478.44
395.005	480.44
395.229	463.44
395.454	487.44
395.678	487.44
395.903	493.44
396.127	505.44
396.352	532.44
396.576	514.44
396.801	473.44
397.025	471.44
397.249	487.44
397.474	534.44
397.698	478.44
397.922	519.44
398.147	523.44
398.371	517.44
398.595	520.44
398.82	543.44
399.044	577.44
399.268	585.44
399.492	625.44
399.717	670.44
399.941	660.44
400.165	697.44
400.389	673.44
400.613	612.44
400.837	582.44
401.062	551.44
401.286	538.44
401.51	525.44
401.734	548.44
401.958	557.44
402.182	552.44
402.406	564.44
402.63	568.44
402.854	548.44
403.078	537.44
403.302	558.44
403.526	570.44
403.75	572.44
403.974	576.44
404.198	585.44
404.422	555.44
404.645	601.44
404.869	603.44
405.093	604.44
405.317	649.44
405.541	682.44
405.765	628.44
405.988	580.44
406.212	577.44
406.436	596.44
406.66	619.44
406.883	607.44
407.107	640.44
407.331	666.44
407.555	745.44
407.778	737.44
408.002	679.44
408.226	642.44
408.449	631.44
408.673	622.44
408.896	636.44
409.12	662.44
409.344	621.44
409.567	586.44
409.791	582.44
410.014	565.44
410.238	574.44
410.461	555.44
410.685	580.44
410.908	577.44
411.132	578.44
411.355	658.44
411.578	624.44
411.802	570.44
412.025	577.44
412.249	590.44
412.472	614.44
412.695	631.44
412.919	616.44
413.142	556.44
413.365	539.44
413.589	569.44
413.812	548.44
414.035	543.44
414.258	522.44
414.482	554.44
414.705	514.44
414.928	519.44
415.151	533.44
415.374	535.44
415.597	522.44
415.821	540.44
416.044	541.44
416.267	518.44
416.49	524.44
416.713	533.44
416.936	516.44
417.159	514.44
417.382	533.44
417.605	534.44
417.828	541.44
418.051	551.44
418.274	552.44
418.497	540.44
418.72	531.44
418.943	528.44
419.166	554.44
419.389	598.44
419.611	591.44
419.834	573.44
420.057	578.44
420.28	575.44
420.503	533.44
420.726	573.44
420.948	558.44
421.171	606.44
421.394	634.44
421.617	571.44
421.839	550.44
422.062	560.44
422.285	557.44
422.507	617.44
422.73	689.44
422.953	696.44
423.175	598.44
423.398	576.44
423.621	572.44
423.843	606.44
424.066	612.44
424.288	557.44
424.511	604.44
424.733	662.44
424.956	737.44
425.178	691.44
425.401	690.44
425.623	739.44
425.846	605.44
426.068	574.44
426.291	588.44
426.513	576.44
426.735	577.44
426.958	629.44
427.18	694.44
427.402	831.44
427.625	896.44
427.847	747.44
428.069	660.44
428.292	619.44
428.514	572.44
428.736	547.44
428.958	542.44
429.181	550.44
429.403	536.44
429.625	548.44
429.847	568.44
430.069	640.44
430.292	633.44
430.514	530.44
430.736	551.44
430.958	532.44
431.18	498.44
431.402	514.44
431.624	505.44
431.846	513.44
432.068	504.44
432.29	542.44
432.512	522.44
432.734	503.44
432.956	525.44
433.178	535.44
433.4	542.44
433.622	501.44
433.844	502.44
434.066	517.44
434.287	519.44
434.509	544.44
434.731	550.44
434.953	544.44
435.175	557.44
435.397	577.44
435.618	594.44
435.84	624.44
436.062	688.44
436.284	759.44
436.505	641.44
436.727	578.44
436.949	539.44
437.17	524.44
437.392	547.44
437.614	550.44
437.835	570.44
438.057	632.44
438.278	729.44
438.5	734.44
438.721	846.44
438.943	826.44
439.165	626.44
439.386	611.44
439.608	588.44
439.829	570.44
440.05	598.44
440.272	646.44
440.493	605.44
440.715	550.44
440.936	564.44
441.158	560.44
441.379	547.44
441.6	544.44
441.822	584.44
442.043	625.44
442.264	680.44
442.486	743.44
442.707	617.44
442.928	616.44
443.149	612.44
443.371	594.44
443.592	648.44
443.813	750.44
444.034	820.44
444.255	695.44
444.476	584.44
444.698	608.44
444.919	608.44
445.14	675.44
445.361	645.44
445.582	608.44
445.803	674.44
446.024	769.44
446.245	768.44
446.466	692.44
446.687	610.44
446.908	584.44
447.129	558.44
447.35	547.44
447.571	537.44
447.792	519.44
448.013	554.44
448.234	552.44
448.455	565.44
448.675	694.44
448.896	824.44
449.117	684.44
449.338	661.44
449.559	745.44
449.779	872.44
450	674.44
450.221	576.44
450.442	542.44
450.662	514.44
450.883	517.44
451.104	516.44
451.324	522.44
451.545	489.44
451.766	487.44
451.986	483.44
452.207	468.44
452.428	496.44
452.648	482.44
452.869	467.44
453.089	456.44
453.31	482.44
453.53	489.44
453.751	472.44
453.971	446.44
454.192	465.44
454.412	480.44
454.633	465.44
454.853	440.44
455.073	460.44
455.294	500.44
455.514	539.44
455.734	533.44
455.955	455.44
456.175	438.44
456.395	452.44
456.616	450.44
456.836	454.44
457.056	472.44
457.276	458.44
457.497	450.44
457.717	453.44
457.937	445.44
458.157	447.44
458.377	471.44
458.598	486.44
458.818	523.44
459.038	591.44
459.258	620.44
459.478	547.44
459.698	524.44
459.918	512.44
460.138	514.44
460.358	516.44
460.578	512.44
460.798	554.44
461.018	529.44
461.238	537.44
461.458	531.44
461.678	547.44
461.898	542.44
462.118	560.44
462.338	544.44
462.558	562.44
462.777	564.44
462.997	595.44
463.217	628.44
463.437	619.44
463.657	626.44
463.876	587.44
464.096	570.44
464.316	596.44
464.536	584.44
464.755	589.44
464.975	553.44
465.195	586.44
465.414	616.44
465.634	550.44
465.854	544.44
466.073	521.44
466.293	526.44
466.512	531.44
466.732	497.44
466.951	517.44
467.171	490.44
467.391	481.44
467.61	490.44
467.829	508.44
468.049	526.44
468.268	505.44
468.488	482.44
468.707	499.44
468.927	469.44
469.146	485.44
469.365	465.44
469.585	491.44
469.804	481.44
470.023	499.44
470.243	507.44
470.462	502.44
470.681	538.44
470.901	500.44
471.12	513.44
471.339	500.44
471.558	508.44
471.777	474.44
471.997	502.44
472.216	493.44
472.435	527.44
472.654	523.44
472.873	490.44
473.092	490.44
473.311	482.44
473.53	484.44
473.749	505.44
473.968	534.44
474.187	635.44
474.406	641.44
474.625	550.44
474.844	538.44
475.063	506.44
475.282	500.44
475.501	536.44
475.72	488.44
475.939	499.44
476.158	500.44
476.377	502.44
476.596	496.44
476.814	522.44
477.033	505.44
477.252	549.44
477.471	518.44
477.69	522.44
477.908	541.44
478.127	554.44
478.346	569.44
478.564	574.44
478.783	553.44
479.002	581.44
479.22	575.44
479.439	581.44
479.658	564.44
479.876	598.44
480.095	607.44
480.313	625.44
480.532	634.44
480.751	625.44
480.969	640.44
481.188	680.44
481.406	664.44
481.624	640.44
481.843	630.44
482.061	581.44
482.28	594.44
482.498	592.44
482.717	581.44
482.935	570.44
483.153	578.44
483.372	577.44
483.59	564.44
483.808	581.44
484.027	575.44
484.245	581.44
484.463	573.44
484.681	604.44
484.9	583.44
485.118	590.44
485.336	601.44
485.554	608.44
485.772	599.44
485.99	616.44
486.209	615.44
486.427	604.44
486.645	613.44
486.863	624.44
487.081	636.44
487.299	618.44
487.517	639.44
487.735	618.44
487.953	626.44
488.171	630.44
488.389	620.44
488.607	609.44
488.825	632.44
489.043	642.44
489.261	642.44
489.479	630.44
489.696	625.44
489.914	631.44
490.132	644.44
490.35	668.44
490.568	654.44
490.786	665.44
491.003	697.44
491.221	710.44
491.439	722.44
491.657	727.44
491.874	716.44
492.092	717.44
492.31	702.44
492.527	718.44
492.745	718.44
492.963	713.44
493.18	737.44
493.398	740.44
493.615	732.44
493.833	736.44
494.05	748.44
494.268	718.44
494.485	709.44
494.703	719.44
494.92	711.44
495.138	708.44
495.355	730.44
495.573	737.44
495.79	748.44
496.008	775.44
496.225	729.44
496.442	758.44
496.66	737.44
496.877	772.44
497.094	768.44
497.312	760.44
497.529	759.44
497.746	809.44
497.963	785.44
498.181	817.44
498.398	841.44
498.615	853.44
498.832	875.44
499.049	886.44
499.267	931.44
499.484	981.44
499.701	972.44
499.918	1041.44
500.135	1100.44
500.352	1180.44
500.569	1172.44
500.786	1222.44
501.003	1176.44
501.22	1122.44
501.437	1050.44
501.654	993.44
