Data from 1975.PennyLincolnUp.Lamp.En5.5.200Scan.071719.P1.Changed Mount._HRD10591_15-56-09-858.txt Node
Date: Thu Jul 18 15:56:09 EDT 2019
User: cochatt
Spectrometer: HR+D1059
Trigger mode: 1
Integration Time (sec): 1.000000E-1
Scans to average: 1
Electric dark correction enabled: true
Nonlinearity correction enabled: false
Boxcar width: 0
XAxis mode: Wavelengths
Number of Pixels in Spectrum: 2048
>>>>>Begin Spectral Data<<<<<
223.165	-15.75
223.4	-15.75
223.635	-15.75
223.869	-14.75
224.104	-13.75
224.338	-20.75
224.573	-17.75
224.808	-20.75
225.042	-7.75
225.277	3.25
225.511	-1.75
225.746	-8.75
225.98	20.25
226.215	12.25
226.449	18.25
226.683	9.25
226.918	22.25
227.152	36.25
227.387	25.25
227.621	28.25
227.856	43.25
228.09	38.25
228.324	36.25
228.559	48.25
228.793	70.25
229.027	77.25
229.262	87.25
229.496	101.25
229.73	113.25
229.964	134.25
230.199	118.25
230.433	102.25
230.667	112.25
230.901	113.25
231.136	116.25
231.37	107.25
231.604	91.25
231.838	104.25
232.072	110.25
232.306	120.25
232.541	122.25
232.775	112.25
233.009	105.25
233.243	97.25
233.477	105.25
233.711	111.25
233.945	126.25
234.179	112.25
234.413	124.25
234.647	104.25
234.881	105.25
235.115	107.25
235.349	110.25
235.583	110.25
235.817	124.25
236.051	115.25
236.285	114.25
236.519	123.25
236.753	136.25
236.987	141.25
237.221	177.25
237.455	220.25
237.689	175.25
237.922	130.25
238.156	123.25
238.39	105.25
238.624	126.25
238.858	121.25
239.091	126.25
239.325	120.25
239.559	114.25
239.793	125.25
240.027	117.25
240.26	130.25
240.494	147.25
240.728	146.25
240.961	127.25
241.195	147.25
241.429	138.25
241.662	132.25
241.896	127.25
242.13	129.25
242.363	140.25
242.597	137.25
242.83	127.25
243.064	136.25
243.298	128.25
243.531	137.25
243.765	155.25
243.998	132.25
244.232	123.25
244.465	146.25
244.699	149.25
244.932	141.25
245.166	146.25
245.399	137.25
245.633	163.25
245.866	134.25
246.099	152.25
246.333	162.25
246.566	147.25
246.8	146.25
247.033	156.25
247.266	140.25
247.5	158.25
247.733	154.25
247.966	169.25
248.2	174.25
248.433	180.25
248.666	169.25
248.899	168.25
249.133	189.25
249.366	196.25
249.599	187.25
249.832	174.25
250.066	174.25
250.299	170.25
250.532	178.25
250.765	182.25
250.998	209.25
251.231	214.25
251.465	206.25
251.698	212.25
251.931	183.25
252.164	196.25
252.397	190.25
252.63	193.25
252.863	188.25
253.096	203.25
253.329	236.25
253.562	216.25
253.795	197.25
254.028	206.25
254.261	195.25
254.494	201.25
254.727	230.25
254.96	264.25
255.193	265.25
255.426	214.25
255.659	210.25
255.892	217.25
256.124	216.25
256.357	233.25
256.59	213.25
256.823	216.25
257.056	201.25
257.289	199.25
257.521	213.25
257.754	213.25
257.987	188.25
258.22	181.25
258.452	191.25
258.685	198.25
258.918	208.25
259.151	204.25
259.383	219.25
259.616	225.25
259.849	203.25
260.081	226.25
260.314	234.25
260.547	236.25
260.779	225.25
261.012	219.25
261.244	219.25
261.477	214.25
261.71	210.25
261.942	207.25
262.175	211.25
262.407	212.25
262.64	203.25
262.872	212.25
263.105	196.25
263.337	191.25
263.57	188.25
263.802	185.25
264.035	202.25
264.267	211.25
264.499	200.25
264.732	210.25
264.964	208.25
265.197	202.25
265.429	217.25
265.661	221.25
265.894	193.25
266.126	219.25
266.358	211.25
266.591	208.25
266.823	218.25
267.055	222.25
267.287	206.25
267.52	220.25
267.752	238.25
267.984	211.25
268.216	208.25
268.448	196.25
268.681	230.25
268.913	230.25
269.145	236.25
269.377	262.25
269.609	267.25
269.841	258.25
270.073	259.25
270.306	263.25
270.538	293.25
270.77	306.25
271.002	269.25
271.234	274.25
271.466	285.25
271.698	284.25
271.93	296.25
272.162	292.25
272.394	302.25
272.626	306.25
272.858	277.25
273.09	257.25
273.322	259.25
273.553	262.25
273.785	264.25
274.017	260.25
274.249	239.25
274.481	236.25
274.713	268.25
274.945	250.25
275.176	234.25
275.408	255.25
275.64	236.25
275.872	256.25
276.104	244.25
276.335	239.25
276.567	265.25
276.799	288.25
277.031	268.25
277.262	295.25
277.494	298.25
277.726	294.25
277.957	290.25
278.189	274.25
278.421	254.25
278.652	258.25
278.884	262.25
279.115	265.25
279.347	262.25
279.579	263.25
279.81	261.25
280.042	266.25
280.273	278.25
280.505	235.25
280.736	258.25
280.968	266.25
281.199	267.25
281.431	239.25
281.662	258.25
281.894	281.25
282.125	256.25
282.356	271.25
282.588	296.25
282.819	290.25
283.051	269.25
283.282	255.25
283.513	271.25
283.745	266.25
283.976	259.25
284.207	267.25
284.439	276.25
284.67	282.25
284.901	268.25
285.132	279.25
285.364	278.25
285.595	255.25
285.826	281.25
286.057	280.25
286.288	266.25
286.52	280.25
286.751	296.25
286.982	278.25
287.213	252.25
287.444	294.25
287.675	290.25
287.906	295.25
288.138	288.25
288.369	305.25
288.6	282.25
288.831	282.25
289.062	300.25
289.293	286.25
289.524	282.25
289.755	278.25
289.986	265.25
290.217	273.25
290.448	274.25
290.679	294.25
290.91	279.25
291.141	292.25
291.371	293.25
291.602	284.25
291.833	287.25
292.064	274.25
292.295	275.25
292.526	282.25
292.757	284.25
292.987	292.25
293.218	265.25
293.449	281.25
293.68	295.25
293.91	287.25
294.141	283.25
294.372	307.25
294.603	298.25
294.833	289.25
295.064	301.25
295.295	304.25
295.525	297.25
295.756	313.25
295.987	289.25
296.217	302.25
296.448	302.25
296.679	302.25
296.909	300.25
297.14	294.25
297.37	295.25
297.601	307.25
297.831	303.25
298.062	284.25
298.292	281.25
298.523	307.25
298.753	316.25
298.984	304.25
299.214	306.25
299.445	299.25
299.675	298.25
299.905	310.25
300.136	302.25
300.366	292.25
300.597	311.25
300.827	298.25
301.057	312.25
301.288	307.25
301.518	337.25
301.748	336.25
301.979	327.25
302.209	327.25
302.439	322.25
302.669	317.25
302.9	335.25
303.13	310.25
303.36	325.25
303.59	331.25
303.82	328.25
304.051	319.25
304.281	351.25
304.511	326.25
304.741	326.25
304.971	313.25
305.201	306.25
305.431	328.25
305.661	305.25
305.891	327.25
306.121	322.25
306.352	323.25
306.582	328.25
306.812	335.25
307.042	324.25
307.272	318.25
307.502	318.25
307.731	318.25
307.961	344.25
308.191	308.25
308.421	314.25
308.651	346.25
308.881	321.25
309.111	331.25
309.341	326.25
309.571	334.25
309.8	342.25
310.03	361.25
310.26	368.25
310.49	351.25
310.72	362.25
310.949	355.25
311.179	374.25
311.409	366.25
311.639	371.25
311.868	358.25
312.098	350.25
312.328	370.25
312.557	393.25
312.787	382.25
313.017	373.25
313.246	354.25
313.476	354.25
313.706	354.25
313.935	379.25
314.165	376.25
314.394	352.25
314.624	382.25
314.853	368.25
315.083	363.25
315.312	382.25
315.542	368.25
315.771	358.25
316.001	347.25
316.23	340.25
316.46	344.25
316.689	366.25
316.919	358.25
317.148	357.25
317.377	374.25
317.607	370.25
317.836	363.25
318.065	356.25
318.295	355.25
318.524	361.25
318.753	360.25
318.983	359.25
319.212	361.25
319.441	358.25
319.67	376.25
319.9	374.25
320.129	371.25
320.358	354.25
320.587	385.25
320.816	377.25
321.046	358.25
321.275	374.25
321.504	372.25
321.733	380.25
321.962	381.25
322.191	382.25
322.42	390.25
322.649	400.25
322.878	407.25
323.108	425.25
323.337	419.25
323.566	445.25
323.795	436.25
324.024	492.25
324.253	549.25
324.482	732.25
324.71	1136.25
324.939	1667.25
325.168	1492.25
325.397	735.25
325.626	523.25
325.855	474.25
326.084	424.25
326.313	423.25
326.542	454.25
326.77	480.25
326.999	525.25
327.228	674.25
327.457	1031.25
327.686	1301.25
327.914	871.25
328.143	580.25
328.372	524.25
328.6	484.25
328.829	474.25
329.058	482.25
329.287	489.25
329.515	465.25
329.744	462.25
329.972	446.25
330.201	456.25
330.43	507.25
330.658	498.25
330.887	539.25
331.115	506.25
331.344	477.25
331.572	456.25
331.801	464.25
332.03	449.25
332.258	433.25
332.486	432.25
332.715	426.25
332.943	448.25
333.172	430.25
333.4	441.25
333.629	440.25
333.857	451.25
334.085	485.25
334.314	510.25
334.542	534.25
334.771	533.25
334.999	495.25
335.227	446.25
335.455	434.25
335.684	449.25
335.912	455.25
336.14	464.25
336.369	417.25
336.597	430.25
336.825	434.25
337.053	430.25
337.281	462.25
337.51	430.25
337.738	422.25
337.966	422.25
338.194	432.25
338.422	441.25
338.65	418.25
338.878	418.25
339.106	435.25
339.334	415.25
339.562	417.25
339.79	406.25
340.018	422.25
340.246	422.25
340.474	431.25
340.702	425.25
340.93	414.25
341.158	419.25
341.386	425.25
341.614	415.25
341.842	419.25
342.07	392.25
342.298	422.25
342.526	423.25
342.754	399.25
342.981	395.25
343.209	394.25
343.437	403.25
343.665	422.25
343.893	441.25
344.12	450.25
344.348	451.25
344.576	435.25
344.804	432.25
345.031	426.25
345.259	444.25
345.487	431.25
345.714	417.25
345.942	411.25
346.17	403.25
346.397	396.25
346.625	413.25
346.853	376.25
347.08	416.25
347.308	397.25
347.535	414.25
347.763	409.25
347.99	402.25
348.218	380.25
348.445	412.25
348.673	381.25
348.9	403.25
349.128	394.25
349.355	400.25
349.583	391.25
349.81	389.25
350.037	406.25
350.265	384.25
350.492	383.25
350.72	383.25
350.947	400.25
351.174	387.25
351.402	396.25
351.629	377.25
351.856	404.25
352.083	401.25
352.311	404.25
352.538	400.25
352.765	384.25
352.992	416.25
353.22	421.25
353.447	405.25
353.674	391.25
353.901	388.25
354.128	363.25
354.355	376.25
354.583	386.25
354.81	373.25
355.037	383.25
355.264	381.25
355.491	387.25
355.718	378.25
355.945	378.25
356.172	388.25
356.399	369.25
356.626	374.25
356.853	401.25
357.08	369.25
357.307	378.25
357.534	356.25
357.761	376.25
357.988	394.25
358.215	371.25
358.441	390.25
358.668	391.25
358.895	385.25
359.122	396.25
359.349	397.25
359.576	407.25
359.802	405.25
360.029	451.25
360.256	449.25
360.483	431.25
360.709	414.25
360.936	384.25
361.163	386.25
361.39	389.25
361.616	397.25
361.843	398.25
362.07	417.25
362.296	406.25
362.523	408.25
362.749	392.25
362.976	390.25
363.203	383.25
363.429	383.25
363.656	396.25
363.882	389.25
364.109	394.25
364.335	386.25
364.562	393.25
364.788	394.25
365.015	391.25
365.241	370.25
365.468	401.25
365.694	417.25
365.92	405.25
366.147	384.25
366.373	374.25
366.599	393.25
366.826	383.25
367.052	401.25
367.278	380.25
367.505	377.25
367.731	388.25
367.957	393.25
368.184	386.25
368.41	397.25
368.636	412.25
368.862	420.25
369.089	399.25
369.315	399.25
369.541	403.25
369.767	385.25
369.993	403.25
370.219	386.25
370.445	398.25
370.672	399.25
370.898	403.25
371.124	390.25
371.35	420.25
371.576	402.25
371.802	399.25
372.028	401.25
372.254	419.25
372.48	390.25
372.706	398.25
372.932	396.25
373.158	397.25
373.384	401.25
373.61	412.25
373.835	407.25
374.061	395.25
374.287	389.25
374.513	427.25
374.739	418.25
374.965	414.25
375.191	407.25
375.416	420.25
375.642	415.25
375.868	415.25
376.094	404.25
376.319	412.25
376.545	408.25
376.771	394.25
376.997	399.25
377.222	388.25
377.448	402.25
377.674	403.25
377.899	390.25
378.125	403.25
378.35	377.25
378.576	404.25
378.802	398.25
379.027	388.25
379.253	390.25
379.478	400.25
379.704	403.25
379.929	399.25
380.155	411.25
380.38	401.25
380.606	378.25
380.831	374.25
381.057	419.25
381.282	416.25
381.507	406.25
381.733	413.25
381.958	409.25
382.184	403.25
382.409	411.25
382.634	409.25
382.86	422.25
383.085	416.25
383.31	414.25
383.535	424.25
383.761	406.25
383.986	421.25
384.211	422.25
384.436	428.25
384.662	424.25
384.887	448.25
385.112	434.25
385.337	441.25
385.562	455.25
385.787	446.25
386.013	434.25
386.238	461.25
386.463	476.25
386.688	456.25
386.913	448.25
387.138	433.25
387.363	455.25
387.588	457.25
387.813	458.25
388.038	453.25
388.263	451.25
388.488	454.25
388.713	452.25
388.938	440.25
389.163	439.25
389.387	451.25
389.612	436.25
389.837	481.25
390.062	454.25
390.287	438.25
390.512	432.25
390.736	445.25
390.961	441.25
391.186	448.25
391.411	458.25
391.636	451.25
391.86	459.25
392.085	470.25
392.31	459.25
392.534	449.25
392.759	462.25
392.984	468.25
393.208	444.25
393.433	452.25
393.658	475.25
393.882	436.25
394.107	444.25
394.331	446.25
394.556	434.25
394.78	452.25
395.005	474.25
395.229	455.25
395.454	470.25
395.678	471.25
395.903	449.25
396.127	506.25
396.352	484.25
396.576	471.25
396.801	487.25
397.025	463.25
397.249	462.25
397.474	485.25
397.698	502.25
397.922	527.25
398.147	533.25
398.371	514.25
398.595	500.25
398.82	535.25
399.044	549.25
399.268	566.25
399.492	605.25
399.717	637.25
399.941	666.25
400.165	683.25
400.389	663.25
400.613	605.25
400.837	564.25
401.062	546.25
401.286	542.25
401.51	520.25
401.734	548.25
401.958	498.25
402.182	539.25
402.406	528.25
402.63	532.25
402.854	555.25
403.078	544.25
403.302	551.25
403.526	569.25
403.75	550.25
403.974	557.25
404.198	573.25
404.422	559.25
404.645	529.25
404.869	548.25
405.093	626.25
405.317	619.25
405.541	664.25
405.765	603.25
405.988	568.25
406.212	582.25
406.436	603.25
406.66	592.25
406.883	569.25
407.107	619.25
407.331	666.25
407.555	723.25
407.778	717.25
408.002	664.25
408.226	609.25
408.449	581.25
408.673	613.25
408.896	623.25
409.12	659.25
409.344	654.25
409.567	574.25
409.791	548.25
410.014	554.25
410.238	534.25
410.461	536.25
410.685	549.25
410.908	574.25
411.132	572.25
411.355	617.25
411.578	608.25
411.802	561.25
412.025	531.25
412.249	552.25
412.472	574.25
412.695	602.25
412.919	595.25
413.142	563.25
413.365	570.25
413.589	544.25
413.812	528.25
414.035	539.25
414.258	505.25
414.482	512.25
414.705	485.25
414.928	494.25
415.151	515.25
415.374	518.25
415.597	510.25
415.821	504.25
416.044	530.25
416.267	531.25
416.49	500.25
416.713	513.25
416.936	514.25
417.159	525.25
417.382	499.25
417.605	510.25
417.828	538.25
418.051	542.25
418.274	526.25
418.497	502.25
418.72	533.25
418.943	519.25
419.166	558.25
419.389	589.25
419.611	558.25
419.834	543.25
420.057	553.25
420.28	537.25
420.503	575.25
420.726	549.25
420.948	558.25
421.171	590.25
421.394	594.25
421.617	552.25
421.839	534.25
422.062	560.25
422.285	572.25
422.507	618.25
422.73	699.25
422.953	639.25
423.175	566.25
423.398	573.25
423.621	552.25
423.843	579.25
424.066	563.25
424.288	596.25
424.511	608.25
424.733	626.25
424.956	706.25
425.178	690.25
425.401	665.25
425.623	690.25
425.846	617.25
426.068	575.25
426.291	561.25
426.513	571.25
426.735	560.25
426.958	604.25
427.18	690.25
427.402	846.25
427.625	882.25
427.847	746.25
428.069	652.25
428.292	601.25
428.514	555.25
428.736	532.25
428.958	531.25
429.181	517.25
429.403	519.25
429.625	511.25
429.847	554.25
430.069	634.25
430.292	616.25
430.514	521.25
430.736	497.25
430.958	518.25
431.18	512.25
431.402	520.25
431.624	506.25
431.846	495.25
432.068	466.25
432.29	501.25
432.512	484.25
432.734	530.25
432.956	502.25
433.178	524.25
433.4	508.25
433.622	523.25
433.844	518.25
434.066	496.25
434.287	507.25
434.509	500.25
434.731	525.25
434.953	512.25
435.175	554.25
435.397	591.25
435.618	567.25
435.84	607.25
436.062	666.25
436.284	748.25
436.505	615.25
436.727	554.25
436.949	543.25
437.17	500.25
437.392	500.25
437.614	535.25
437.835	558.25
438.057	646.25
438.278	739.25
438.5	751.25
438.721	810.25
438.943	799.25
439.165	630.25
439.386	578.25
439.608	544.25
439.829	571.25
440.05	582.25
440.272	624.25
440.493	597.25
440.715	542.25
440.936	535.25
441.158	539.25
441.379	528.25
441.6	551.25
441.822	554.25
442.043	577.25
442.264	698.25
442.486	720.25
442.707	625.25
442.928	587.25
443.149	610.25
443.371	603.25
443.592	655.25
443.813	713.25
444.034	785.25
444.255	672.25
444.476	598.25
444.698	608.25
444.919	584.25
445.14	670.25
445.361	603.25
445.582	607.25
445.803	681.25
446.024	760.25
446.245	755.25
446.466	667.25
446.687	601.25
446.908	566.25
447.129	524.25
447.35	527.25
447.571	522.25
447.792	512.25
448.013	525.25
448.234	522.25
448.455	574.25
448.675	672.25
448.896	787.25
449.117	674.25
449.338	629.25
449.559	746.25
449.779	841.25
450	684.25
450.221	578.25
450.442	518.25
450.662	491.25
450.883	514.25
451.104	501.25
451.324	506.25
451.545	479.25
451.766	471.25
451.986	463.25
452.207	461.25
452.428	463.25
452.648	466.25
452.869	491.25
453.089	459.25
453.31	492.25
453.53	464.25
453.751	438.25
453.971	473.25
454.192	460.25
454.412	459.25
454.633	427.25
454.853	467.25
455.073	463.25
455.294	460.25
455.514	530.25
455.734	544.25
455.955	469.25
456.175	427.25
456.395	415.25
456.616	433.25
456.836	449.25
457.056	408.25
457.276	428.25
457.497	427.25
457.717	432.25
457.937	451.25
458.157	458.25
458.377	472.25
458.598	459.25
458.818	518.25
459.038	580.25
459.258	607.25
459.478	542.25
459.698	496.25
459.918	485.25
460.138	508.25
460.358	514.25
460.578	526.25
460.798	496.25
461.018	530.25
461.238	514.25
461.458	523.25
461.678	521.25
461.898	516.25
462.118	538.25
462.338	532.25
462.558	546.25
462.777	551.25
462.997	567.25
463.217	593.25
463.437	610.25
463.657	570.25
463.876	570.25
464.096	572.25
464.316	565.25
464.536	578.25
464.755	574.25
464.975	560.25
465.195	579.25
465.414	617.25
465.634	552.25
465.854	500.25
466.073	502.25
466.293	496.25
466.512	487.25
466.732	488.25
466.951	483.25
467.171	471.25
467.391	474.25
467.61	498.25
467.829	520.25
468.049	476.25
468.268	478.25
468.488	478.25
468.707	458.25
468.927	456.25
469.146	457.25
469.365	455.25
469.585	457.25
469.804	459.25
470.023	506.25
470.243	510.25
470.462	512.25
470.681	490.25
470.901	488.25
471.12	495.25
471.339	485.25
471.558	490.25
471.777	486.25
471.997	480.25
472.216	501.25
472.435	520.25
472.654	489.25
472.873	486.25
473.092	466.25
473.311	473.25
473.53	487.25
473.749	495.25
473.968	520.25
474.187	610.25
474.406	640.25
474.625	522.25
474.844	483.25
475.063	468.25
475.282	472.25
475.501	481.25
475.72	494.25
475.939	521.25
476.158	502.25
476.377	499.25
476.596	475.25
476.814	502.25
477.033	504.25
477.252	494.25
477.471	506.25
477.69	530.25
477.908	539.25
478.127	548.25
478.346	527.25
478.564	542.25
478.783	546.25
479.002	578.25
479.22	547.25
479.439	560.25
479.658	582.25
479.876	580.25
480.095	602.25
480.313	625.25
480.532	615.25
480.751	608.25
480.969	614.25
481.188	623.25
481.406	668.25
481.624	619.25
481.843	607.25
482.061	555.25
482.28	605.25
482.498	589.25
482.717	603.25
482.935	562.25
483.153	580.25
483.372	570.25
483.59	572.25
483.808	552.25
484.027	566.25
484.245	578.25
484.463	560.25
484.681	581.25
484.9	597.25
485.118	565.25
485.336	564.25
485.554	601.25
485.772	588.25
485.99	573.25
486.209	594.25
486.427	578.25
486.645	597.25
486.863	616.25
487.081	625.25
487.299	586.25
487.517	618.25
487.735	576.25
487.953	613.25
488.171	626.25
488.389	614.25
488.607	606.25
488.825	633.25
489.043	596.25
489.261	630.25
489.479	612.25
489.696	622.25
489.914	610.25
490.132	631.25
490.35	615.25
490.568	628.25
490.786	651.25
491.003	642.25
491.221	672.25
491.439	670.25
491.657	689.25
491.874	688.25
492.092	714.25
492.31	676.25
492.527	696.25
492.745	710.25
492.963	717.25
493.18	736.25
493.398	748.25
493.615	723.25
493.833	714.25
494.05	725.25
494.268	731.25
494.485	703.25
494.703	708.25
494.92	694.25
495.138	708.25
495.355	698.25
495.573	718.25
495.79	738.25
496.008	720.25
496.225	718.25
496.442	732.25
496.66	720.25
496.877	721.25
497.094	732.25
497.312	762.25
497.529	744.25
497.746	750.25
497.963	775.25
498.181	814.25
498.398	805.25
498.615	820.25
498.832	846.25
499.049	860.25
499.267	882.25
499.484	913.25
499.701	957.25
499.918	1009.25
500.135	1063.25
500.352	1131.25
500.569	1160.25
500.786	1151.25
501.003	1136.25
501.22	1091.25
501.437	1046.25
501.654	993.25
