Data from 1975.PennyLincolnUp.Lamp.En5.5.200Scan.071719.P1.Changed Mount._HRD10591_15-57-58-861.txt Node
Date: Thu Jul 18 15:57:58 EDT 2019
User: cochatt
Spectrometer: HR+D1059
Trigger mode: 1
Integration Time (sec): 1.000000E-1
Scans to average: 1
Electric dark correction enabled: true
Nonlinearity correction enabled: false
Boxcar width: 0
XAxis mode: Wavelengths
Number of Pixels in Spectrum: 2048
>>>>>Begin Spectral Data<<<<<
223.165	-18.75
223.4	-18.75
223.635	-18.75
223.869	-26.75
224.104	-18.75
224.338	-7.75
224.573	-4.75
224.808	1.25
225.042	-19.75
225.277	-17.75
225.511	1.25
225.746	9.25
225.98	6.25
226.215	6.25
226.449	8.25
226.683	13.25
226.918	33.25
227.152	35.25
227.387	37.25
227.621	42.25
227.856	44.25
228.09	44.25
228.324	47.25
228.559	53.25
228.793	79.25
229.027	102.25
229.262	102.25
229.496	122.25
229.73	141.25
229.964	157.25
230.199	149.25
230.433	104.25
230.667	110.25
230.901	117.25
231.136	113.25
231.37	126.25
231.604	133.25
231.838	117.25
232.072	120.25
232.306	120.25
232.541	109.25
232.775	110.25
233.009	119.25
233.243	106.25
233.477	117.25
233.711	133.25
233.945	112.25
234.179	136.25
234.413	115.25
234.647	129.25
234.881	126.25
235.115	133.25
235.349	122.25
235.583	131.25
235.817	119.25
236.051	145.25
236.285	115.25
236.519	127.25
236.753	143.25
236.987	149.25
237.221	185.25
237.455	243.25
237.689	182.25
237.922	140.25
238.156	146.25
238.39	130.25
238.624	134.25
238.858	124.25
239.091	136.25
239.325	132.25
239.559	124.25
239.793	106.25
240.027	122.25
240.26	133.25
240.494	166.25
240.728	151.25
240.961	149.25
241.195	143.25
241.429	144.25
241.662	147.25
241.896	144.25
242.13	126.25
242.363	133.25
242.597	138.25
242.83	138.25
243.064	146.25
243.298	153.25
243.531	154.25
243.765	128.25
243.998	137.25
244.232	132.25
244.465	156.25
244.699	154.25
244.932	150.25
245.166	150.25
245.399	154.25
245.633	162.25
245.866	158.25
246.099	156.25
246.333	142.25
246.566	158.25
246.8	160.25
247.033	142.25
247.266	147.25
247.5	155.25
247.733	157.25
247.966	182.25
248.2	184.25
248.433	182.25
248.666	191.25
248.899	189.25
249.133	204.25
249.366	213.25
249.599	199.25
249.832	203.25
250.066	185.25
250.299	182.25
250.532	193.25
250.765	215.25
250.998	235.25
251.231	221.25
251.465	226.25
251.698	214.25
251.931	201.25
252.164	203.25
252.397	212.25
252.63	194.25
252.863	200.25
253.096	209.25
253.329	225.25
253.562	233.25
253.795	222.25
254.028	220.25
254.261	214.25
254.494	237.25
254.727	231.25
254.96	293.25
255.193	275.25
255.426	242.25
255.659	246.25
255.892	233.25
256.124	239.25
256.357	238.25
256.59	230.25
256.823	216.25
257.056	215.25
257.289	208.25
257.521	210.25
257.754	195.25
257.987	214.25
258.22	229.25
258.452	205.25
258.685	193.25
258.918	204.25
259.151	200.25
259.383	217.25
259.616	211.25
259.849	213.25
260.081	235.25
260.314	263.25
260.547	287.25
260.779	274.25
261.012	245.25
261.244	224.25
261.477	223.25
261.71	231.25
261.942	241.25
262.175	241.25
262.407	230.25
262.64	205.25
262.872	225.25
263.105	218.25
263.337	213.25
263.57	226.25
263.802	217.25
264.035	226.25
264.267	226.25
264.499	230.25
264.732	219.25
264.964	241.25
265.197	213.25
265.429	223.25
265.661	231.25
265.894	231.25
266.126	242.25
266.358	225.25
266.591	230.25
266.823	217.25
267.055	241.25
267.287	243.25
267.52	268.25
267.752	259.25
267.984	233.25
268.216	226.25
268.448	244.25
268.681	249.25
268.913	251.25
269.145	259.25
269.377	294.25
269.609	292.25
269.841	283.25
270.073	277.25
270.306	306.25
270.538	303.25
270.77	322.25
271.002	303.25
271.234	302.25
271.466	290.25
271.698	310.25
271.93	310.25
272.162	317.25
272.394	335.25
272.626	329.25
272.858	283.25
273.09	285.25
273.322	284.25
273.553	288.25
273.785	271.25
274.017	253.25
274.249	282.25
274.481	273.25
274.713	269.25
274.945	277.25
275.176	283.25
275.408	285.25
275.64	278.25
275.872	254.25
276.104	275.25
276.335	278.25
276.567	279.25
276.799	301.25
277.031	321.25
277.262	330.25
277.494	331.25
277.726	310.25
277.957	309.25
278.189	294.25
278.421	286.25
278.652	277.25
278.884	285.25
279.115	284.25
279.347	284.25
279.579	294.25
279.81	289.25
280.042	293.25
280.273	276.25
280.505	280.25
280.736	284.25
280.968	271.25
281.199	243.25
281.431	290.25
281.662	292.25
281.894	281.25
282.125	278.25
282.356	289.25
282.588	293.25
282.819	315.25
283.051	279.25
283.282	279.25
283.513	294.25
283.745	300.25
283.976	296.25
284.207	281.25
284.439	291.25
284.67	284.25
284.901	289.25
285.132	292.25
285.364	302.25
285.595	299.25
285.826	285.25
286.057	306.25
286.288	297.25
286.52	311.25
286.751	302.25
286.982	287.25
287.213	306.25
287.444	321.25
287.675	315.25
287.906	317.25
288.138	301.25
288.369	312.25
288.6	301.25
288.831	313.25
289.062	316.25
289.293	291.25
289.524	324.25
289.755	303.25
289.986	318.25
290.217	321.25
290.448	305.25
290.679	308.25
290.91	305.25
291.141	302.25
291.371	316.25
291.602	306.25
291.833	295.25
292.064	315.25
292.295	319.25
292.526	318.25
292.757	314.25
292.987	307.25
293.218	328.25
293.449	331.25
293.68	318.25
293.91	307.25
294.141	317.25
294.372	305.25
294.603	298.25
294.833	303.25
295.064	299.25
295.295	302.25
295.525	310.25
295.756	338.25
295.987	307.25
296.217	324.25
296.448	347.25
296.679	312.25
296.909	322.25
297.14	306.25
297.37	339.25
297.601	329.25
297.831	307.25
298.062	315.25
298.292	334.25
298.523	322.25
298.753	307.25
298.984	343.25
299.214	327.25
299.445	315.25
299.675	321.25
299.905	317.25
300.136	331.25
300.366	303.25
300.597	343.25
300.827	344.25
301.057	338.25
301.288	358.25
301.518	367.25
301.748	327.25
301.979	343.25
302.209	351.25
302.439	339.25
302.669	354.25
302.9	349.25
303.13	325.25
303.36	353.25
303.59	359.25
303.82	344.25
304.051	350.25
304.281	352.25
304.511	361.25
304.741	350.25
304.971	329.25
305.201	350.25
305.431	331.25
305.661	342.25
305.891	339.25
306.121	352.25
306.352	335.25
306.582	341.25
306.812	357.25
307.042	350.25
307.272	357.25
307.502	356.25
307.731	353.25
307.961	338.25
308.191	360.25
308.421	355.25
308.651	369.25
308.881	350.25
309.111	355.25
309.341	356.25
309.571	362.25
309.8	367.25
310.03	389.25
310.26	384.25
310.49	397.25
310.72	382.25
310.949	390.25
311.179	394.25
311.409	387.25
311.639	386.25
311.868	405.25
312.098	380.25
312.328	389.25
312.557	397.25
312.787	390.25
313.017	390.25
313.246	412.25
313.476	378.25
313.706	383.25
313.935	399.25
314.165	391.25
314.394	401.25
314.624	400.25
314.853	379.25
315.083	390.25
315.312	396.25
315.542	391.25
315.771	390.25
316.001	362.25
316.23	395.25
316.46	373.25
316.689	385.25
316.919	380.25
317.148	406.25
317.377	427.25
317.607	383.25
317.836	404.25
318.065	399.25
318.295	403.25
318.524	391.25
318.753	376.25
318.983	378.25
319.212	381.25
319.441	383.25
319.67	395.25
319.9	389.25
320.129	400.25
320.358	400.25
320.587	394.25
320.816	394.25
321.046	394.25
321.275	406.25
321.504	406.25
321.733	413.25
321.962	398.25
322.191	409.25
322.42	394.25
322.649	433.25
322.878	435.25
323.108	457.25
323.337	476.25
323.566	483.25
323.795	479.25
324.024	525.25
324.253	614.25
324.482	851.25
324.71	1278.25
324.939	1923.25
325.168	1673.25
325.397	838.25
325.626	575.25
325.855	517.25
326.084	481.25
326.313	476.25
326.542	475.25
326.77	521.25
326.999	576.25
327.228	782.25
327.457	1151.25
327.686	1480.25
327.914	992.25
328.143	652.25
328.372	583.25
328.6	553.25
328.829	525.25
329.058	533.25
329.287	553.25
329.515	535.25
329.744	481.25
329.972	510.25
330.201	509.25
330.43	553.25
330.658	590.25
330.887	571.25
331.115	575.25
331.344	502.25
331.572	477.25
331.801	491.25
332.03	478.25
332.258	476.25
332.486	461.25
332.715	481.25
332.943	476.25
333.172	497.25
333.4	494.25
333.629	469.25
333.857	519.25
334.085	528.25
334.314	529.25
334.542	535.25
334.771	570.25
334.999	513.25
335.227	490.25
335.455	476.25
335.684	479.25
335.912	463.25
336.14	481.25
336.369	484.25
336.597	479.25
336.825	484.25
337.053	468.25
337.281	467.25
337.51	460.25
337.738	478.25
337.966	454.25
338.194	469.25
338.422	442.25
338.65	452.25
338.878	466.25
339.106	442.25
339.334	457.25
339.562	463.25
339.79	444.25
340.018	424.25
340.246	440.25
340.474	428.25
340.702	453.25
340.93	444.25
341.158	445.25
341.386	460.25
341.614	467.25
341.842	443.25
342.07	422.25
342.298	444.25
342.526	450.25
342.754	446.25
342.981	439.25
343.209	442.25
343.437	445.25
343.665	453.25
343.893	469.25
344.12	460.25
344.348	473.25
344.576	455.25
344.804	454.25
345.031	469.25
345.259	474.25
345.487	441.25
345.714	442.25
345.942	455.25
346.17	460.25
346.397	460.25
346.625	440.25
346.853	436.25
347.08	418.25
347.308	441.25
347.535	442.25
347.763	444.25
347.99	440.25
348.218	443.25
348.445	448.25
348.673	449.25
348.9	431.25
349.128	428.25
349.355	409.25
349.583	428.25
349.81	413.25
350.037	423.25
350.265	433.25
350.492	414.25
350.72	438.25
350.947	420.25
351.174	436.25
351.402	431.25
351.629	437.25
351.856	408.25
352.083	455.25
352.311	435.25
352.538	434.25
352.765	427.25
352.992	441.25
353.22	449.25
353.447	426.25
353.674	431.25
353.901	416.25
354.128	416.25
354.355	399.25
354.583	409.25
354.81	405.25
355.037	416.25
355.264	402.25
355.491	394.25
355.718	413.25
355.945	396.25
356.172	403.25
356.399	430.25
356.626	419.25
356.853	415.25
357.08	419.25
357.307	399.25
357.534	410.25
357.761	406.25
357.988	404.25
358.215	404.25
358.441	436.25
358.668	396.25
358.895	426.25
359.122	425.25
359.349	438.25
359.576	443.25
359.802	445.25
360.029	460.25
360.256	481.25
360.483	456.25
360.709	434.25
360.936	435.25
361.163	439.25
361.39	445.25
361.616	446.25
361.843	451.25
362.07	429.25
362.296	441.25
362.523	421.25
362.749	442.25
362.976	407.25
363.203	420.25
363.429	417.25
363.656	445.25
363.882	433.25
364.109	401.25
364.335	437.25
364.562	400.25
364.788	405.25
365.015	434.25
365.241	410.25
365.468	425.25
365.694	447.25
365.92	419.25
366.147	428.25
366.373	421.25
366.599	405.25
366.826	407.25
367.052	399.25
367.278	422.25
367.505	410.25
367.731	403.25
367.957	428.25
368.184	437.25
368.41	420.25
368.636	428.25
368.862	450.25
369.089	418.25
369.315	408.25
369.541	417.25
369.767	428.25
369.993	416.25
370.219	411.25
370.445	417.25
370.672	427.25
370.898	429.25
371.124	423.25
371.35	433.25
371.576	431.25
371.802	427.25
372.028	428.25
372.254	435.25
372.48	431.25
372.706	454.25
372.932	448.25
373.158	452.25
373.384	450.25
373.61	434.25
373.835	428.25
374.061	436.25
374.287	413.25
374.513	433.25
374.739	419.25
374.965	447.25
375.191	448.25
375.416	444.25
375.642	442.25
375.868	442.25
376.094	426.25
376.319	412.25
376.545	418.25
376.771	415.25
376.997	428.25
377.222	409.25
377.448	418.25
377.674	425.25
377.899	428.25
378.125	421.25
378.35	426.25
378.576	421.25
378.802	421.25
379.027	439.25
379.253	444.25
379.478	420.25
379.704	442.25
379.929	431.25
380.155	440.25
380.38	406.25
380.606	427.25
380.831	431.25
381.057	423.25
381.282	428.25
381.507	448.25
381.733	435.25
381.958	429.25
382.184	449.25
382.409	435.25
382.634	451.25
382.86	441.25
383.085	434.25
383.31	447.25
383.535	467.25
383.761	442.25
383.986	451.25
384.211	455.25
384.436	430.25
384.662	473.25
384.887	494.25
385.112	463.25
385.337	469.25
385.562	480.25
385.787	481.25
386.013	487.25
386.238	494.25
386.463	499.25
386.688	497.25
386.913	482.25
387.138	475.25
387.363	471.25
387.588	475.25
387.813	476.25
388.038	479.25
388.263	497.25
388.488	474.25
388.713	461.25
388.938	478.25
389.163	481.25
389.387	480.25
389.612	462.25
389.837	453.25
390.062	481.25
390.287	475.25
390.512	491.25
390.736	479.25
390.961	470.25
391.186	493.25
391.411	484.25
391.636	493.25
391.86	493.25
392.085	531.25
392.31	508.25
392.534	487.25
392.759	499.25
392.984	490.25
393.208	486.25
393.433	490.25
393.658	482.25
393.882	466.25
394.107	476.25
394.331	489.25
394.556	477.25
394.78	485.25
395.005	507.25
395.229	504.25
395.454	511.25
395.678	518.25
395.903	526.25
396.127	548.25
396.352	539.25
396.576	518.25
396.801	493.25
397.025	491.25
397.249	515.25
397.474	493.25
397.698	513.25
397.922	555.25
398.147	537.25
398.371	560.25
398.595	536.25
398.82	554.25
399.044	573.25
399.268	587.25
399.492	634.25
399.717	670.25
399.941	678.25
400.165	677.25
400.389	697.25
400.613	663.25
400.837	591.25
401.062	567.25
401.286	579.25
401.51	562.25
401.734	567.25
401.958	549.25
402.182	546.25
402.406	565.25
402.63	573.25
402.854	589.25
403.078	601.25
403.302	588.25
403.526	576.25
403.75	603.25
403.974	588.25
404.198	592.25
404.422	558.25
404.645	587.25
404.869	591.25
405.093	637.25
405.317	655.25
405.541	684.25
405.765	656.25
405.988	620.25
406.212	639.25
406.436	628.25
406.66	647.25
406.883	625.25
407.107	666.25
407.331	720.25
407.555	761.25
407.778	764.25
408.002	707.25
408.226	665.25
408.449	671.25
408.673	642.25
408.896	682.25
409.12	682.25
409.344	646.25
409.567	626.25
409.791	593.25
410.014	613.25
410.238	559.25
410.461	579.25
410.685	598.25
410.908	613.25
411.132	673.25
411.355	665.25
411.578	629.25
411.802	593.25
412.025	597.25
412.249	609.25
412.472	626.25
412.695	662.25
412.919	649.25
413.142	610.25
413.365	588.25
413.589	596.25
413.812	562.25
414.035	561.25
414.258	567.25
414.482	574.25
414.705	572.25
414.928	555.25
415.151	555.25
415.374	551.25
415.597	564.25
415.821	555.25
416.044	549.25
416.267	571.25
416.49	528.25
416.713	569.25
416.936	556.25
417.159	548.25
417.382	548.25
417.605	548.25
417.828	565.25
418.051	573.25
418.274	565.25
418.497	559.25
418.72	565.25
418.943	550.25
419.166	587.25
419.389	595.25
419.611	581.25
419.834	588.25
420.057	581.25
420.28	563.25
420.503	601.25
420.726	595.25
420.948	613.25
421.171	618.25
421.394	639.25
421.617	618.25
421.839	585.25
422.062	598.25
422.285	591.25
422.507	624.25
422.73	730.25
422.953	694.25
423.175	625.25
423.398	617.25
423.621	604.25
423.843	616.25
424.066	638.25
424.288	599.25
424.511	651.25
424.733	684.25
424.956	765.25
425.178	710.25
425.401	765.25
425.623	773.25
425.846	655.25
426.068	600.25
426.291	612.25
426.513	620.25
426.735	623.25
426.958	668.25
427.18	728.25
427.402	877.25
427.625	938.25
427.847	825.25
428.069	710.25
428.292	648.25
428.514	602.25
428.736	569.25
428.958	569.25
429.181	557.25
429.403	556.25
429.625	580.25
429.847	604.25
430.069	667.25
430.292	647.25
430.514	582.25
430.736	567.25
430.958	534.25
431.18	559.25
431.402	526.25
431.624	532.25
431.846	517.25
432.068	528.25
432.29	523.25
432.512	537.25
432.734	540.25
432.956	545.25
433.178	568.25
433.4	554.25
433.622	557.25
433.844	553.25
434.066	536.25
434.287	550.25
434.509	551.25
434.731	552.25
434.953	553.25
435.175	590.25
435.397	587.25
435.618	601.25
435.84	641.25
436.062	746.25
436.284	810.25
436.505	658.25
436.727	603.25
436.949	579.25
437.17	558.25
437.392	550.25
437.614	555.25
437.835	587.25
438.057	691.25
438.278	798.25
438.5	791.25
438.721	891.25
438.943	831.25
439.165	675.25
439.386	618.25
439.608	629.25
439.829	593.25
440.05	606.25
440.272	684.25
440.493	628.25
440.715	591.25
440.936	581.25
441.158	574.25
441.379	581.25
441.6	591.25
441.822	611.25
442.043	639.25
442.264	715.25
442.486	785.25
442.707	664.25
442.928	639.25
443.149	623.25
443.371	642.25
443.592	682.25
443.813	818.25
444.034	867.25
444.255	719.25
444.476	637.25
444.698	663.25
444.919	630.25
445.14	746.25
445.361	693.25
445.582	678.25
445.803	718.25
446.024	810.25
446.245	845.25
446.466	757.25
446.687	669.25
446.908	615.25
447.129	590.25
447.35	566.25
447.571	563.25
447.792	539.25
448.013	568.25
448.234	551.25
448.455	586.25
448.675	727.25
448.896	875.25
449.117	734.25
449.338	678.25
449.559	803.25
449.779	877.25
450	716.25
450.221	603.25
450.442	571.25
450.662	537.25
450.883	548.25
451.104	562.25
451.324	545.25
451.545	500.25
451.766	524.25
451.986	494.25
452.207	493.25
452.428	475.25
452.648	497.25
452.869	488.25
453.089	516.25
453.31	523.25
453.53	488.25
453.751	501.25
453.971	472.25
454.192	499.25
454.412	489.25
454.633	502.25
454.853	481.25
455.073	487.25
455.294	525.25
455.514	565.25
455.734	591.25
455.955	503.25
456.175	464.25
456.395	456.25
456.616	468.25
456.836	453.25
457.056	461.25
457.276	467.25
457.497	489.25
457.717	459.25
457.937	474.25
458.157	502.25
458.377	472.25
458.598	516.25
458.818	527.25
459.038	606.25
459.258	666.25
459.478	565.25
459.698	556.25
459.918	545.25
460.138	555.25
460.358	528.25
460.578	529.25
460.798	548.25
461.018	553.25
461.238	560.25
461.458	550.25
461.678	548.25
461.898	569.25
462.118	539.25
462.338	572.25
462.558	586.25
462.777	592.25
462.997	597.25
463.217	614.25
463.437	631.25
463.657	622.25
463.876	611.25
464.096	600.25
464.316	599.25
464.536	595.25
464.755	605.25
464.975	585.25
465.195	618.25
465.414	677.25
465.634	609.25
465.854	584.25
466.073	569.25
466.293	518.25
466.512	513.25
466.732	525.25
466.951	519.25
467.171	530.25
467.391	538.25
467.61	529.25
467.829	525.25
468.049	521.25
468.268	517.25
468.488	498.25
468.707	476.25
468.927	490.25
469.146	486.25
469.365	502.25
469.585	498.25
469.804	516.25
470.023	526.25
470.243	533.25
470.462	522.25
470.681	523.25
470.901	538.25
471.12	528.25
471.339	510.25
471.558	500.25
471.777	528.25
471.997	525.25
472.216	525.25
472.435	555.25
472.654	546.25
472.873	530.25
473.092	495.25
473.311	489.25
473.53	511.25
473.749	527.25
473.968	546.25
474.187	647.25
474.406	676.25
474.625	562.25
474.844	521.25
475.063	519.25
475.282	505.25
475.501	540.25
475.72	539.25
475.939	532.25
476.158	539.25
476.377	534.25
476.596	534.25
476.814	543.25
477.033	543.25
477.252	534.25
477.471	554.25
477.69	564.25
477.908	577.25
478.127	552.25
478.346	571.25
478.564	593.25
478.783	574.25
479.002	583.25
479.22	628.25
479.439	621.25
479.658	626.25
479.876	640.25
480.095	632.25
480.313	670.25
480.532	671.25
480.751	664.25
480.969	659.25
481.188	683.25
481.406	729.25
481.624	675.25
481.843	638.25
482.061	613.25
482.28	620.25
482.498	599.25
482.717	610.25
482.935	582.25
483.153	613.25
483.372	593.25
483.59	603.25
483.808	608.25
484.027	585.25
484.245	604.25
484.463	623.25
484.681	611.25
484.9	619.25
485.118	630.25
485.336	607.25
485.554	627.25
485.772	639.25
485.99	616.25
486.209	633.25
486.427	618.25
486.645	637.25
486.863	665.25
487.081	660.25
487.299	647.25
487.517	651.25
487.735	631.25
487.953	642.25
488.171	650.25
488.389	661.25
488.607	657.25
488.825	655.25
489.043	662.25
489.261	655.25
489.479	665.25
489.696	643.25
489.914	640.25
490.132	677.25
490.35	670.25
490.568	681.25
490.786	693.25
491.003	694.25
491.221	699.25
491.439	716.25
491.657	731.25
491.874	754.25
492.092	737.25
492.31	754.25
492.527	745.25
492.745	758.25
492.963	780.25
493.18	747.25
493.398	792.25
493.615	761.25
493.833	771.25
494.05	769.25
494.268	759.25
494.485	754.25
494.703	750.25
494.92	766.25
495.138	773.25
495.355	788.25
495.573	773.25
495.79	783.25
496.008	802.25
496.225	773.25
496.442	767.25
496.66	800.25
496.877	777.25
497.094	802.25
497.312	802.25
497.529	789.25
497.746	803.25
497.963	829.25
498.181	876.25
498.398	860.25
498.615	854.25
498.832	888.25
499.049	906.25
499.267	937.25
499.484	998.25
499.701	1057.25
499.918	1079.25
500.135	1155.25
500.352	1222.25
500.569	1229.25
500.786	1262.25
501.003	1218.25
501.22	1187.25
501.437	1119.25
501.654	1092.25
