Data from 1975.PennyLincolnUp.Lamp.En5.5.200Scan.071719.P1.Changed Mount._HRD10591_15-58-32-860.txt Node
Date: Thu Jul 18 15:58:32 EDT 2019
User: cochatt
Spectrometer: HR+D1059
Trigger mode: 1
Integration Time (sec): 1.000000E-1
Scans to average: 1
Electric dark correction enabled: true
Nonlinearity correction enabled: false
Boxcar width: 0
XAxis mode: Wavelengths
Number of Pixels in Spectrum: 2048
>>>>>Begin Spectral Data<<<<<
223.165	-5.25
223.4	-5.25
223.635	-5.25
223.869	-9.25
224.104	-11.25
224.338	-12.25
224.573	-23.25
224.808	-21.25
225.042	-10.25
225.277	-9.25
225.511	-9.25
225.746	14.75
225.98	13.75
226.215	9.75
226.449	14.75
226.683	17.75
226.918	13.75
227.152	26.75
227.387	30.75
227.621	36.75
227.856	54.75
228.09	51.75
228.324	46.75
228.559	53.75
228.793	68.75
229.027	110.75
229.262	106.75
229.496	115.75
229.73	125.75
229.964	152.75
230.199	125.75
230.433	102.75
230.667	121.75
230.901	110.75
231.136	105.75
231.37	114.75
231.604	102.75
231.838	118.75
232.072	107.75
232.306	109.75
232.541	116.75
232.775	130.75
233.009	109.75
233.243	121.75
233.477	111.75
233.711	122.75
233.945	125.75
234.179	114.75
234.413	98.75
234.647	120.75
234.881	96.75
235.115	115.75
235.349	123.75
235.583	123.75
235.817	117.75
236.051	137.75
236.285	123.75
236.519	127.75
236.753	132.75
236.987	148.75
237.221	178.75
237.455	235.75
237.689	183.75
237.922	144.75
238.156	116.75
238.39	135.75
238.624	133.75
238.858	127.75
239.091	120.75
239.325	126.75
239.559	135.75
239.793	129.75
240.027	133.75
240.26	140.75
240.494	145.75
240.728	147.75
240.961	150.75
241.195	156.75
241.429	132.75
241.662	141.75
241.896	129.75
242.13	139.75
242.363	131.75
242.597	152.75
242.83	131.75
243.064	130.75
243.298	170.75
243.531	141.75
243.765	149.75
243.998	149.75
244.232	157.75
244.465	143.75
244.699	148.75
244.932	135.75
245.166	149.75
245.399	158.75
245.633	150.75
245.866	167.75
246.099	156.75
246.333	161.75
246.566	151.75
246.8	157.75
247.033	163.75
247.266	161.75
247.5	168.75
247.733	177.75
247.966	175.75
248.2	155.75
248.433	187.75
248.666	197.75
248.899	199.75
249.133	201.75
249.366	205.75
249.599	205.75
249.832	210.75
250.066	179.75
250.299	198.75
250.532	208.75
250.765	206.75
250.998	228.75
251.231	219.75
251.465	229.75
251.698	203.75
251.931	223.75
252.164	200.75
252.397	193.75
252.63	204.75
252.863	193.75
253.096	202.75
253.329	223.75
253.562	226.75
253.795	220.75
254.028	226.75
254.261	230.75
254.494	217.75
254.727	260.75
254.96	284.75
255.193	281.75
255.426	249.75
255.659	242.75
255.892	239.75
256.124	241.75
256.357	235.75
256.59	241.75
256.823	218.75
257.056	216.75
257.289	217.75
257.521	226.75
257.754	224.75
257.987	198.75
258.22	213.75
258.452	227.75
258.685	230.75
258.918	230.75
259.151	205.75
259.383	229.75
259.616	242.75
259.849	225.75
260.081	226.75
260.314	257.75
260.547	266.75
260.779	266.75
261.012	244.75
261.244	226.75
261.477	236.75
261.71	245.75
261.942	239.75
262.175	240.75
262.407	215.75
262.64	228.75
262.872	214.75
263.105	217.75
263.337	231.75
263.57	205.75
263.802	220.75
264.035	221.75
264.267	236.75
264.499	219.75
264.732	202.75
264.964	229.75
265.197	210.75
265.429	209.75
265.661	223.75
265.894	226.75
266.126	222.75
266.358	222.75
266.591	240.75
266.823	222.75
267.055	242.75
267.287	234.75
267.52	225.75
267.752	250.75
267.984	244.75
268.216	244.75
268.448	240.75
268.681	259.75
268.913	242.75
269.145	276.75
269.377	277.75
269.609	275.75
269.841	285.75
270.073	267.75
270.306	296.75
270.538	318.75
270.77	319.75
271.002	308.75
271.234	299.75
271.466	296.75
271.698	294.75
271.93	335.75
272.162	317.75
272.394	307.75
272.626	297.75
272.858	292.75
273.09	282.75
273.322	285.75
273.553	285.75
273.785	270.75
274.017	283.75
274.249	263.75
274.481	279.75
274.713	285.75
274.945	276.75
275.176	276.75
275.408	274.75
275.64	280.75
275.872	282.75
276.104	297.75
276.335	272.75
276.567	288.75
276.799	285.75
277.031	311.75
277.262	335.75
277.494	325.75
277.726	312.75
277.957	294.75
278.189	289.75
278.421	284.75
278.652	283.75
278.884	291.75
279.115	273.75
279.347	267.75
279.579	279.75
279.81	271.75
280.042	279.75
280.273	283.75
280.505	286.75
280.736	279.75
280.968	293.75
281.199	292.75
281.431	290.75
281.662	278.75
281.894	280.75
282.125	271.75
282.356	295.75
282.588	298.75
282.819	312.75
283.051	282.75
283.282	273.75
283.513	288.75
283.745	279.75
283.976	301.75
284.207	283.75
284.439	294.75
284.67	291.75
284.901	303.75
285.132	299.75
285.364	313.75
285.595	301.75
285.826	279.75
286.057	299.75
286.288	286.75
286.52	303.75
286.751	298.75
286.982	308.75
287.213	286.75
287.444	319.75
287.675	305.75
287.906	308.75
288.138	318.75
288.369	314.75
288.6	339.75
288.831	335.75
289.062	311.75
289.293	322.75
289.524	306.75
289.755	310.75
289.986	315.75
290.217	310.75
290.448	321.75
290.679	307.75
290.91	319.75
291.141	295.75
291.371	311.75
291.602	303.75
291.833	296.75
292.064	309.75
292.295	290.75
292.526	297.75
292.757	294.75
292.987	331.75
293.218	313.75
293.449	317.75
293.68	315.75
293.91	335.75
294.141	313.75
294.372	308.75
294.603	296.75
294.833	320.75
295.064	315.75
295.295	330.75
295.525	310.75
295.756	314.75
295.987	307.75
296.217	328.75
296.448	328.75
296.679	334.75
296.909	323.75
297.14	339.75
297.37	334.75
297.601	299.75
297.831	299.75
298.062	339.75
298.292	312.75
298.523	328.75
298.753	313.75
298.984	315.75
299.214	326.75
299.445	327.75
299.675	327.75
299.905	318.75
300.136	340.75
300.366	329.75
300.597	331.75
300.827	329.75
301.057	335.75
301.288	352.75
301.518	351.75
301.748	329.75
301.979	339.75
302.209	333.75
302.439	345.75
302.669	355.75
302.9	336.75
303.13	343.75
303.36	355.75
303.59	351.75
303.82	354.75
304.051	365.75
304.281	369.75
304.511	335.75
304.741	332.75
304.971	338.75
305.201	351.75
305.431	360.75
305.661	339.75
305.891	356.75
306.121	343.75
306.352	346.75
306.582	360.75
306.812	352.75
307.042	348.75
307.272	364.75
307.502	334.75
307.731	341.75
307.961	360.75
308.191	355.75
308.421	338.75
308.651	343.75
308.881	357.75
309.111	337.75
309.341	357.75
309.571	370.75
309.8	357.75
310.03	357.75
310.26	362.75
310.49	380.75
310.72	389.75
310.949	398.75
311.179	396.75
311.409	369.75
311.639	387.75
311.868	400.75
312.098	403.75
312.328	389.75
312.557	407.75
312.787	410.75
313.017	430.75
313.246	391.75
313.476	381.75
313.706	409.75
313.935	402.75
314.165	402.75
314.394	410.75
314.624	407.75
314.853	393.75
315.083	410.75
315.312	406.75
315.542	398.75
315.771	394.75
316.001	431.75
316.23	381.75
316.46	396.75
316.689	402.75
316.919	386.75
317.148	404.75
317.377	379.75
317.607	395.75
317.836	396.75
318.065	387.75
318.295	384.75
318.524	390.75
318.753	393.75
318.983	392.75
319.212	395.75
319.441	371.75
319.67	395.75
319.9	402.75
320.129	397.75
320.358	393.75
320.587	404.75
320.816	403.75
321.046	410.75
321.275	394.75
321.504	412.75
321.733	425.75
321.962	420.75
322.191	427.75
322.42	427.75
322.649	456.75
322.878	446.75
323.108	456.75
323.337	459.75
323.566	480.75
323.795	502.75
324.024	545.75
324.253	633.75
324.482	825.75
324.71	1276.75
324.939	1950.75
325.168	1697.75
325.397	865.75
325.626	606.75
325.855	531.75
326.084	502.75
326.313	497.75
326.542	503.75
326.77	533.75
326.999	581.75
327.228	781.75
327.457	1196.75
327.686	1475.75
327.914	982.75
328.143	662.75
328.372	606.75
328.6	546.75
328.829	529.75
329.058	545.75
329.287	574.75
329.515	526.75
329.744	478.75
329.972	490.75
330.201	517.75
330.43	559.75
330.658	570.75
330.887	588.75
331.115	573.75
331.344	520.75
331.572	499.75
331.801	511.75
332.03	499.75
332.258	482.75
332.486	466.75
332.715	475.75
332.943	482.75
333.172	479.75
333.4	494.75
333.629	510.75
333.857	500.75
334.085	506.75
334.314	554.75
334.542	560.75
334.771	579.75
334.999	537.75
335.227	475.75
335.455	490.75
335.684	489.75
335.912	483.75
336.14	488.75
336.369	476.75
336.597	481.75
336.825	481.75
337.053	478.75
337.281	452.75
337.51	463.75
337.738	447.75
337.966	470.75
338.194	457.75
338.422	461.75
338.65	454.75
338.878	438.75
339.106	452.75
339.334	445.75
339.562	436.75
339.79	450.75
340.018	463.75
340.246	440.75
340.474	447.75
340.702	433.75
340.93	459.75
341.158	439.75
341.386	428.75
341.614	444.75
341.842	444.75
342.07	452.75
342.298	443.75
342.526	429.75
342.754	419.75
342.981	438.75
343.209	444.75
343.437	459.75
343.665	457.75
343.893	473.75
344.12	479.75
344.348	481.75
344.576	463.75
344.804	450.75
345.031	460.75
345.259	467.75
345.487	447.75
345.714	466.75
345.942	431.75
346.17	421.75
346.397	460.75
346.625	426.75
346.853	419.75
347.08	421.75
347.308	435.75
347.535	447.75
347.763	434.75
347.99	450.75
348.218	412.75
348.445	452.75
348.673	440.75
348.9	424.75
349.128	445.75
349.355	431.75
349.583	423.75
349.81	419.75
350.037	423.75
350.265	437.75
350.492	430.75
350.72	417.75
350.947	437.75
351.174	447.75
351.402	453.75
351.629	437.75
351.856	458.75
352.083	445.75
352.311	439.75
352.538	455.75
352.765	460.75
352.992	449.75
353.22	462.75
353.447	439.75
353.674	429.75
353.901	411.75
354.128	419.75
354.355	409.75
354.583	413.75
354.81	384.75
355.037	411.75
355.264	390.75
355.491	409.75
355.718	428.75
355.945	407.75
356.172	391.75
356.399	414.75
356.626	413.75
356.853	419.75
357.08	403.75
357.307	403.75
357.534	421.75
357.761	425.75
357.988	406.75
358.215	403.75
358.441	401.75
358.668	405.75
358.895	426.75
359.122	425.75
359.349	444.75
359.576	433.75
359.802	449.75
360.029	450.75
360.256	464.75
360.483	458.75
360.709	431.75
360.936	426.75
361.163	450.75
361.39	444.75
361.616	439.75
361.843	454.75
362.07	436.75
362.296	426.75
362.523	437.75
362.749	433.75
362.976	440.75
363.203	429.75
363.429	433.75
363.656	429.75
363.882	409.75
364.109	436.75
364.335	400.75
364.562	425.75
364.788	444.75
365.015	421.75
365.241	409.75
365.468	419.75
365.694	412.75
365.92	441.75
366.147	417.75
366.373	409.75
366.599	417.75
366.826	427.75
367.052	413.75
367.278	414.75
367.505	431.75
367.731	416.75
367.957	419.75
368.184	423.75
368.41	418.75
368.636	440.75
368.862	438.75
369.089	431.75
369.315	441.75
369.541	431.75
369.767	419.75
369.993	440.75
370.219	435.75
370.445	443.75
370.672	414.75
370.898	400.75
371.124	414.75
371.35	437.75
371.576	427.75
371.802	433.75
372.028	453.75
372.254	441.75
372.48	421.75
372.706	458.75
372.932	425.75
373.158	420.75
373.384	431.75
373.61	433.75
373.835	426.75
374.061	443.75
374.287	439.75
374.513	417.75
374.739	455.75
374.965	421.75
375.191	424.75
375.416	471.75
375.642	439.75
375.868	417.75
376.094	449.75
376.319	424.75
376.545	429.75
376.771	403.75
376.997	421.75
377.222	423.75
377.448	427.75
377.674	418.75
377.899	408.75
378.125	433.75
378.35	430.75
378.576	420.75
378.802	426.75
379.027	446.75
379.253	441.75
379.478	431.75
379.704	414.75
379.929	437.75
380.155	421.75
380.38	418.75
380.606	430.75
380.831	434.75
381.057	442.75
381.282	443.75
381.507	433.75
381.733	452.75
381.958	437.75
382.184	458.75
382.409	441.75
382.634	453.75
382.86	434.75
383.085	444.75
383.31	465.75
383.535	457.75
383.761	459.75
383.986	458.75
384.211	457.75
384.436	464.75
384.662	459.75
384.887	472.75
385.112	475.75
385.337	474.75
385.562	469.75
385.787	454.75
386.013	480.75
386.238	487.75
386.463	480.75
386.688	475.75
386.913	469.75
387.138	476.75
387.363	456.75
387.588	451.75
387.813	466.75
388.038	490.75
388.263	469.75
388.488	486.75
388.713	479.75
388.938	469.75
389.163	489.75
389.387	498.75
389.612	492.75
389.837	460.75
390.062	450.75
390.287	494.75
390.512	488.75
390.736	469.75
390.961	469.75
391.186	482.75
391.411	484.75
391.636	492.75
391.86	501.75
392.085	528.75
392.31	519.75
392.534	482.75
392.759	507.75
392.984	498.75
393.208	491.75
393.433	481.75
393.658	475.75
393.882	491.75
394.107	502.75
394.331	486.75
394.556	454.75
394.78	469.75
395.005	496.75
395.229	486.75
395.454	495.75
395.678	524.75
395.903	530.75
396.127	548.75
396.352	540.75
396.576	518.75
396.801	521.75
397.025	526.75
397.249	515.75
397.474	515.75
397.698	497.75
397.922	508.75
398.147	541.75
398.371	554.75
398.595	546.75
398.82	559.75
399.044	582.75
399.268	582.75
399.492	644.75
399.717	669.75
399.941	709.75
400.165	698.75
400.389	701.75
400.613	638.75
400.837	625.75
401.062	578.75
401.286	568.75
401.51	547.75
401.734	565.75
401.958	556.75
402.182	572.75
402.406	549.75
402.63	577.75
402.854	584.75
403.078	583.75
403.302	605.75
403.526	556.75
403.75	585.75
403.974	583.75
404.198	596.75
404.422	611.75
404.645	593.75
404.869	593.75
405.093	627.75
405.317	657.75
405.541	698.75
405.765	636.75
405.988	629.75
406.212	619.75
406.436	609.75
406.66	632.75
406.883	631.75
407.107	651.75
407.331	708.75
407.555	769.75
407.778	770.75
408.002	693.75
408.226	659.75
408.449	665.75
408.673	637.75
408.896	636.75
409.12	674.75
409.344	653.75
409.567	627.75
409.791	586.75
410.014	584.75
410.238	573.75
410.461	582.75
410.685	577.75
410.908	629.75
411.132	634.75
411.355	658.75
411.578	638.75
411.802	599.75
412.025	600.75
412.249	578.75
412.472	636.75
412.695	645.75
412.919	633.75
413.142	592.75
413.365	579.75
413.589	573.75
413.812	549.75
414.035	570.75
414.258	559.75
414.482	540.75
414.705	563.75
414.928	550.75
415.151	566.75
415.374	561.75
415.597	554.75
415.821	566.75
416.044	557.75
416.267	551.75
416.49	532.75
416.713	555.75
416.936	546.75
417.159	535.75
417.382	583.75
417.605	569.75
417.828	586.75
418.051	574.75
418.274	552.75
418.497	542.75
418.72	566.75
418.943	548.75
419.166	589.75
419.389	597.75
419.611	601.75
419.834	601.75
420.057	572.75
420.28	606.75
420.503	605.75
420.726	580.75
420.948	621.75
421.171	665.75
421.394	651.75
421.617	614.75
421.839	577.75
422.062	591.75
422.285	580.75
422.507	644.75
422.73	734.75
422.953	686.75
423.175	626.75
423.398	624.75
423.621	575.75
423.843	610.75
424.066	634.75
424.288	619.75
424.511	631.75
424.733	724.75
424.956	761.75
425.178	729.75
425.401	742.75
425.623	783.75
425.846	666.75
426.068	607.75
426.291	599.75
426.513	613.75
426.735	615.75
426.958	632.75
427.18	737.75
427.402	902.75
427.625	959.75
427.847	829.75
428.069	713.75
428.292	639.75
428.514	605.75
428.736	585.75
428.958	586.75
429.181	578.75
429.403	575.75
429.625	565.75
429.847	585.75
430.069	681.75
430.292	668.75
430.514	571.75
430.736	551.75
430.958	537.75
431.18	540.75
431.402	541.75
431.624	540.75
431.846	541.75
432.068	519.75
432.29	551.75
432.512	547.75
432.734	532.75
432.956	540.75
433.178	549.75
433.4	550.75
433.622	562.75
433.844	529.75
434.066	535.75
434.287	550.75
434.509	552.75
434.731	561.75
434.953	559.75
435.175	573.75
435.397	597.75
435.618	617.75
435.84	644.75
436.062	737.75
436.284	832.75
436.505	679.75
436.727	608.75
436.949	549.75
437.17	563.75
437.392	550.75
437.614	570.75
437.835	587.75
438.057	701.75
438.278	805.75
438.5	793.75
438.721	859.75
438.943	841.75
439.165	659.75
439.386	609.75
439.608	593.75
439.829	616.75
440.05	633.75
440.272	665.75
440.493	636.75
440.715	573.75
440.936	577.75
441.158	591.75
441.379	571.75
441.6	574.75
441.822	616.75
442.043	627.75
442.264	707.75
442.486	775.75
442.707	684.75
442.928	613.75
443.149	631.75
443.371	626.75
443.592	679.75
443.813	808.75
444.034	874.75
444.255	706.75
444.476	661.75
444.698	626.75
444.919	643.75
445.14	773.75
445.361	709.75
445.582	655.75
445.803	716.75
446.024	822.75
446.245	824.75
446.466	756.75
446.687	657.75
446.908	597.75
447.129	588.75
447.35	566.75
447.571	551.75
447.792	546.75
448.013	549.75
448.234	558.75
448.455	594.75
448.675	739.75
448.896	873.75
449.117	725.75
449.338	689.75
449.559	787.75
449.779	911.75
450	714.75
450.221	587.75
450.442	566.75
450.662	550.75
450.883	531.75
451.104	547.75
451.324	529.75
451.545	540.75
451.766	490.75
451.986	500.75
452.207	491.75
452.428	479.75
452.648	497.75
452.869	493.75
453.089	499.75
453.31	520.75
453.53	503.75
453.751	491.75
453.971	485.75
454.192	499.75
454.412	494.75
454.633	493.75
454.853	473.75
455.073	485.75
455.294	526.75
455.514	551.75
455.734	569.75
455.955	501.75
456.175	487.75
456.395	455.75
456.616	467.75
456.836	462.75
457.056	470.75
457.276	461.75
457.497	468.75
457.717	471.75
457.937	470.75
458.157	481.75
458.377	492.75
458.598	514.75
458.818	544.75
459.038	611.75
459.258	649.75
459.478	579.75
459.698	547.75
459.918	532.75
460.138	530.75
460.358	568.75
460.578	564.75
460.798	567.75
461.018	551.75
461.238	583.75
461.458	538.75
461.678	567.75
461.898	557.75
462.118	559.75
462.338	569.75
462.558	573.75
462.777	587.75
462.997	626.75
463.217	627.75
463.437	654.75
463.657	620.75
463.876	597.75
464.096	595.75
464.316	592.75
464.536	614.75
464.755	595.75
464.975	588.75
465.195	621.75
465.414	658.75
465.634	618.75
465.854	571.75
466.073	524.75
466.293	526.75
466.512	507.75
466.732	513.75
466.951	510.75
467.171	522.75
467.391	531.75
467.61	502.75
467.829	544.75
468.049	531.75
468.268	520.75
468.488	517.75
468.707	494.75
468.927	499.75
469.146	483.75
469.365	507.75
469.585	498.75
469.804	527.75
470.023	523.75
470.243	529.75
470.462	519.75
470.681	551.75
470.901	548.75
471.12	531.75
471.339	552.75
471.558	522.75
471.777	526.75
471.997	519.75
472.216	513.75
472.435	548.75
472.654	538.75
472.873	522.75
473.092	514.75
473.311	520.75
473.53	525.75
473.749	513.75
473.968	569.75
474.187	630.75
474.406	689.75
474.625	589.75
474.844	517.75
475.063	510.75
475.282	514.75
475.501	531.75
475.72	502.75
475.939	525.75
476.158	527.75
476.377	534.75
476.596	531.75
476.814	565.75
477.033	533.75
477.252	555.75
477.471	554.75
477.69	549.75
477.908	567.75
478.127	562.75
478.346	586.75
478.564	565.75
478.783	591.75
479.002	609.75
479.22	609.75
479.439	616.75
479.658	652.75
479.876	649.75
480.095	641.75
480.313	660.75
480.532	635.75
480.751	662.75
480.969	644.75
481.188	680.75
481.406	730.75
481.624	658.75
481.843	639.75
482.061	633.75
482.28	608.75
482.498	617.75
482.717	601.75
482.935	592.75
483.153	597.75
483.372	585.75
483.59	623.75
483.808	627.75
484.027	609.75
484.245	596.75
484.463	598.75
484.681	650.75
484.9	603.75
485.118	621.75
485.336	589.75
485.554	631.75
485.772	635.75
485.99	627.75
486.209	625.75
486.427	615.75
486.645	655.75
486.863	618.75
487.081	653.75
487.299	653.75
487.517	650.75
487.735	644.75
487.953	650.75
488.171	651.75
488.389	634.75
488.607	644.75
488.825	640.75
489.043	668.75
489.261	668.75
489.479	672.75
489.696	669.75
489.914	686.75
490.132	691.75
490.35	689.75
490.568	717.75
490.786	710.75
491.003	689.75
491.221	717.75
491.439	705.75
491.657	738.75
491.874	739.75
492.092	742.75
492.31	777.75
492.527	753.75
492.745	769.75
492.963	756.75
493.18	776.75
493.398	744.75
493.615	756.75
493.833	787.75
494.05	787.75
494.268	773.75
494.485	781.75
494.703	796.75
494.92	798.75
495.138	761.75
495.355	747.75
495.573	773.75
495.79	781.75
496.008	786.75
496.225	771.75
496.442	773.75
496.66	789.75
496.877	787.75
497.094	780.75
497.312	789.75
497.529	820.75
497.746	831.75
497.963	840.75
498.181	847.75
498.398	866.75
498.615	858.75
498.832	924.75
499.049	885.75
499.267	941.75
499.484	981.75
499.701	1038.75
499.918	1091.75
500.135	1151.75
500.352	1221.75
500.569	1268.75
500.786	1269.75
501.003	1220.75
501.22	1156.75
501.437	1108.75
501.654	1073.75
