Data from 1975.PennyLincolnUp.Lamp.En5.5.200Scan.071719.P1.Changed Mount._HRD10591_15-58-35-860.txt Node
Date: Thu Jul 18 15:58:35 EDT 2019
User: cochatt
Spectrometer: HR+D1059
Trigger mode: 1
Integration Time (sec): 1.000000E-1
Scans to average: 1
Electric dark correction enabled: true
Nonlinearity correction enabled: false
Boxcar width: 0
XAxis mode: Wavelengths
Number of Pixels in Spectrum: 2048
>>>>>Begin Spectral Data<<<<<
223.165	4.31
223.4	4.31
223.635	4.31
223.869	-19.69
224.104	-13.69
224.338	-11.69
224.573	-20.69
224.808	-17.69
225.042	4.31
225.277	-2.69
225.511	-4.69
225.746	7.31
225.98	-5.69
226.215	15.31
226.449	19.31
226.683	2.31
226.918	19.31
227.152	24.31
227.387	32.31
227.621	35.31
227.856	51.31
228.09	45.31
228.324	50.31
228.559	45.31
228.793	57.31
229.027	96.31
229.262	116.31
229.496	116.31
229.73	135.31
229.964	144.31
230.199	134.31
230.433	124.31
230.667	138.31
230.901	124.31
231.136	127.31
231.37	116.31
231.604	111.31
231.838	132.31
232.072	114.31
232.306	120.31
232.541	127.31
232.775	117.31
233.009	125.31
233.243	127.31
233.477	124.31
233.711	121.31
233.945	116.31
234.179	139.31
234.413	137.31
234.647	122.31
234.881	116.31
235.115	110.31
235.349	120.31
235.583	122.31
235.817	124.31
236.051	125.31
236.285	134.31
236.519	124.31
236.753	135.31
236.987	164.31
237.221	176.31
237.455	248.31
237.689	196.31
237.922	140.31
238.156	139.31
238.39	142.31
238.624	132.31
238.858	137.31
239.091	125.31
239.325	141.31
239.559	128.31
239.793	145.31
240.027	135.31
240.26	142.31
240.494	159.31
240.728	154.31
240.961	164.31
241.195	147.31
241.429	142.31
241.662	142.31
241.896	149.31
242.13	143.31
242.363	140.31
242.597	162.31
242.83	144.31
243.064	156.31
243.298	156.31
243.531	143.31
243.765	147.31
243.998	130.31
244.232	154.31
244.465	139.31
244.699	139.31
244.932	165.31
245.166	152.31
245.399	154.31
245.633	159.31
245.866	178.31
246.099	146.31
246.333	138.31
246.566	162.31
246.8	157.31
247.033	155.31
247.266	151.31
247.5	163.31
247.733	180.31
247.966	178.31
248.2	175.31
248.433	183.31
248.666	186.31
248.899	190.31
249.133	198.31
249.366	231.31
249.599	219.31
249.832	201.31
250.066	182.31
250.299	208.31
250.532	218.31
250.765	215.31
250.998	242.31
251.231	235.31
251.465	225.31
251.698	208.31
251.931	209.31
252.164	214.31
252.397	222.31
252.63	219.31
252.863	224.31
253.096	226.31
253.329	215.31
253.562	233.31
253.795	215.31
254.028	237.31
254.261	238.31
254.494	234.31
254.727	284.31
254.96	294.31
255.193	279.31
255.426	276.31
255.659	254.31
255.892	243.31
256.124	247.31
256.357	259.31
256.59	242.31
256.823	215.31
257.056	235.31
257.289	220.31
257.521	218.31
257.754	231.31
257.987	232.31
258.22	222.31
258.452	213.31
258.685	222.31
258.918	215.31
259.151	228.31
259.383	230.31
259.616	232.31
259.849	239.31
260.081	242.31
260.314	270.31
260.547	265.31
260.779	262.31
261.012	255.31
261.244	255.31
261.477	235.31
261.71	239.31
261.942	234.31
262.175	258.31
262.407	221.31
262.64	231.31
262.872	212.31
263.105	226.31
263.337	229.31
263.57	243.31
263.802	234.31
264.035	222.31
264.267	219.31
264.499	227.31
264.732	222.31
264.964	235.31
265.197	231.31
265.429	226.31
265.661	236.31
265.894	223.31
266.126	230.31
266.358	234.31
266.591	225.31
266.823	234.31
267.055	234.31
267.287	244.31
267.52	259.31
267.752	235.31
267.984	236.31
268.216	239.31
268.448	249.31
268.681	250.31
268.913	279.31
269.145	284.31
269.377	273.31
269.609	294.31
269.841	292.31
270.073	291.31
270.306	304.31
270.538	329.31
270.77	331.31
271.002	325.31
271.234	311.31
271.466	315.31
271.698	329.31
271.93	349.31
272.162	331.31
272.394	340.31
272.626	328.31
272.858	304.31
273.09	301.31
273.322	294.31
273.553	278.31
273.785	263.31
274.017	285.31
274.249	293.31
274.481	277.31
274.713	272.31
274.945	316.31
275.176	279.31
275.408	284.31
275.64	292.31
275.872	296.31
276.104	267.31
276.335	291.31
276.567	293.31
276.799	307.31
277.031	319.31
277.262	335.31
277.494	339.31
277.726	335.31
277.957	303.31
278.189	284.31
278.421	300.31
278.652	282.31
278.884	292.31
279.115	283.31
279.347	273.31
279.579	272.31
279.81	290.31
280.042	284.31
280.273	302.31
280.505	284.31
280.736	282.31
280.968	278.31
281.199	285.31
281.431	294.31
281.662	296.31
281.894	288.31
282.125	294.31
282.356	300.31
282.588	316.31
282.819	340.31
283.051	316.31
283.282	319.31
283.513	312.31
283.745	303.31
283.976	302.31
284.207	301.31
284.439	311.31
284.67	310.31
284.901	318.31
285.132	314.31
285.364	306.31
285.595	289.31
285.826	308.31
286.057	309.31
286.288	303.31
286.52	306.31
286.751	314.31
286.982	312.31
287.213	307.31
287.444	320.31
287.675	324.31
287.906	294.31
288.138	331.31
288.369	325.31
288.6	335.31
288.831	332.31
289.062	320.31
289.293	324.31
289.524	322.31
289.755	321.31
289.986	324.31
290.217	308.31
290.448	309.31
290.679	327.31
290.91	312.31
291.141	321.31
291.371	312.31
291.602	319.31
291.833	320.31
292.064	320.31
292.295	328.31
292.526	325.31
292.757	310.31
292.987	330.31
293.218	316.31
293.449	324.31
293.68	314.31
293.91	320.31
294.141	329.31
294.372	331.31
294.603	329.31
294.833	317.31
295.064	312.31
295.295	325.31
295.525	326.31
295.756	319.31
295.987	326.31
296.217	366.31
296.448	356.31
296.679	325.31
296.909	335.31
297.14	323.31
297.37	338.31
297.601	337.31
297.831	328.31
298.062	322.31
298.292	343.31
298.523	343.31
298.753	354.31
298.984	359.31
299.214	344.31
299.445	331.31
299.675	332.31
299.905	334.31
300.136	352.31
300.366	350.31
300.597	359.31
300.827	352.31
301.057	352.31
301.288	352.31
301.518	341.31
301.748	374.31
301.979	375.31
302.209	352.31
302.439	354.31
302.669	352.31
302.9	364.31
303.13	362.31
303.36	351.31
303.59	365.31
303.82	371.31
304.051	365.31
304.281	355.31
304.511	334.31
304.741	345.31
304.971	347.31
305.201	363.31
305.431	368.31
305.661	361.31
305.891	331.31
306.121	378.31
306.352	368.31
306.582	375.31
306.812	354.31
307.042	372.31
307.272	372.31
307.502	359.31
307.731	370.31
307.961	366.31
308.191	346.31
308.421	356.31
308.651	364.31
308.881	369.31
309.111	370.31
309.341	357.31
309.571	383.31
309.8	376.31
310.03	373.31
310.26	389.31
310.49	401.31
310.72	397.31
310.949	404.31
311.179	416.31
311.409	416.31
311.639	398.31
311.868	398.31
312.098	388.31
312.328	401.31
312.557	411.31
312.787	418.31
313.017	414.31
313.246	416.31
313.476	398.31
313.706	400.31
313.935	413.31
314.165	392.31
314.394	423.31
314.624	425.31
314.853	393.31
315.083	399.31
315.312	414.31
315.542	396.31
315.771	409.31
316.001	408.31
316.23	420.31
316.46	396.31
316.689	405.31
316.919	417.31
317.148	411.31
317.377	427.31
317.607	404.31
317.836	399.31
318.065	410.31
318.295	412.31
318.524	393.31
318.753	392.31
318.983	400.31
319.212	399.31
319.441	410.31
319.67	402.31
319.9	387.31
320.129	406.31
320.358	407.31
320.587	394.31
320.816	425.31
321.046	414.31
321.275	406.31
321.504	422.31
321.733	436.31
321.962	435.31
322.191	424.31
322.42	420.31
322.649	468.31
322.878	481.31
323.108	480.31
323.337	486.31
323.566	501.31
323.795	531.31
324.024	547.31
324.253	627.31
324.482	886.31
324.71	1352.31
324.939	2014.31
325.168	1804.31
325.397	910.31
325.626	634.31
325.855	532.31
326.084	506.31
326.313	487.31
326.542	487.31
326.77	555.31
326.999	619.31
327.228	814.31
327.457	1248.31
327.686	1558.31
327.914	1028.31
328.143	668.31
328.372	613.31
328.6	585.31
328.829	537.31
329.058	557.31
329.287	544.31
329.515	547.31
329.744	510.31
329.972	508.31
330.201	543.31
330.43	576.31
330.658	576.31
330.887	575.31
331.115	572.31
331.344	556.31
331.572	491.31
331.801	526.31
332.03	498.31
332.258	489.31
332.486	498.31
332.715	481.31
332.943	514.31
333.172	515.31
333.4	510.31
333.629	512.31
333.857	526.31
334.085	508.31
334.314	536.31
334.542	578.31
334.771	597.31
334.999	550.31
335.227	519.31
335.455	500.31
335.684	498.31
335.912	479.31
336.14	478.31
336.369	485.31
336.597	482.31
336.825	482.31
337.053	488.31
337.281	485.31
337.51	461.31
337.738	498.31
337.966	508.31
338.194	470.31
338.422	468.31
338.65	470.31
338.878	485.31
339.106	492.31
339.334	490.31
339.562	459.31
339.79	485.31
340.018	460.31
340.246	459.31
340.474	461.31
340.702	478.31
340.93	468.31
341.158	467.31
341.386	471.31
341.614	471.31
341.842	456.31
342.07	436.31
342.298	440.31
342.526	447.31
342.754	456.31
342.981	442.31
343.209	442.31
343.437	471.31
343.665	468.31
343.893	494.31
344.12	482.31
344.348	506.31
344.576	469.31
344.804	491.31
345.031	483.31
345.259	498.31
345.487	478.31
345.714	465.31
345.942	442.31
346.17	474.31
346.397	454.31
346.625	431.31
346.853	434.31
347.08	456.31
347.308	431.31
347.535	467.31
347.763	463.31
347.99	467.31
348.218	473.31
348.445	479.31
348.673	466.31
348.9	450.31
349.128	453.31
349.355	451.31
349.583	441.31
349.81	418.31
350.037	444.31
350.265	428.31
350.492	431.31
350.72	430.31
350.947	428.31
351.174	442.31
351.402	468.31
351.629	438.31
351.856	432.31
352.083	472.31
352.311	458.31
352.538	456.31
352.765	474.31
352.992	462.31
353.22	445.31
353.447	427.31
353.674	417.31
353.901	440.31
354.128	432.31
354.355	418.31
354.583	447.31
354.81	432.31
355.037	422.31
355.264	421.31
355.491	426.31
355.718	432.31
355.945	411.31
356.172	413.31
356.399	428.31
356.626	430.31
356.853	415.31
357.08	434.31
357.307	422.31
357.534	419.31
357.761	432.31
357.988	444.31
358.215	412.31
358.441	451.31
358.668	424.31
358.895	446.31
359.122	420.31
359.349	452.31
359.576	451.31
359.802	452.31
360.029	478.31
360.256	497.31
360.483	474.31
360.709	463.31
360.936	447.31
361.163	454.31
361.39	446.31
361.616	452.31
361.843	438.31
362.07	432.31
362.296	432.31
362.523	435.31
362.749	438.31
362.976	431.31
363.203	446.31
363.429	438.31
363.656	446.31
363.882	441.31
364.109	445.31
364.335	441.31
364.562	426.31
364.788	427.31
365.015	420.31
365.241	443.31
365.468	431.31
365.694	447.31
365.92	448.31
366.147	439.31
366.373	442.31
366.599	424.31
366.826	420.31
367.052	454.31
367.278	424.31
367.505	459.31
367.731	415.31
367.957	435.31
368.184	434.31
368.41	442.31
368.636	442.31
368.862	457.31
369.089	472.31
369.315	430.31
369.541	432.31
369.767	437.31
369.993	429.31
370.219	418.31
370.445	442.31
370.672	421.31
370.898	427.31
371.124	420.31
371.35	470.31
371.576	445.31
371.802	456.31
372.028	450.31
372.254	436.31
372.48	425.31
372.706	440.31
372.932	436.31
373.158	422.31
373.384	448.31
373.61	446.31
373.835	440.31
374.061	429.31
374.287	459.31
374.513	430.31
374.739	450.31
374.965	450.31
375.191	449.31
375.416	464.31
375.642	431.31
375.868	454.31
376.094	451.31
376.319	446.31
376.545	468.31
376.771	450.31
376.997	468.31
377.222	441.31
377.448	417.31
377.674	436.31
377.899	430.31
378.125	415.31
378.35	446.31
378.576	442.31
378.802	429.31
379.027	436.31
379.253	459.31
379.478	448.31
379.704	429.31
379.929	421.31
380.155	452.31
380.38	446.31
380.606	461.31
380.831	436.31
381.057	427.31
381.282	446.31
381.507	453.31
381.733	470.31
381.958	467.31
382.184	459.31
382.409	447.31
382.634	452.31
382.86	459.31
383.085	471.31
383.31	470.31
383.535	483.31
383.761	474.31
383.986	463.31
384.211	459.31
384.436	484.31
384.662	495.31
384.887	494.31
385.112	492.31
385.337	482.31
385.562	472.31
385.787	481.31
386.013	532.31
386.238	515.31
386.463	520.31
386.688	494.31
386.913	486.31
387.138	499.31
387.363	476.31
387.588	494.31
387.813	498.31
388.038	494.31
388.263	503.31
388.488	472.31
388.713	508.31
388.938	498.31
389.163	475.31
389.387	503.31
389.612	490.31
389.837	483.31
390.062	465.31
390.287	479.31
390.512	480.31
390.736	491.31
390.961	512.31
391.186	508.31
391.411	503.31
391.636	508.31
391.86	495.31
392.085	514.31
392.31	521.31
392.534	509.31
392.759	527.31
392.984	511.31
393.208	514.31
393.433	513.31
393.658	503.31
393.882	473.31
394.107	490.31
394.331	498.31
394.556	494.31
394.78	493.31
395.005	515.31
395.229	504.31
395.454	518.31
395.678	538.31
395.903	525.31
396.127	535.31
396.352	542.31
396.576	552.31
396.801	508.31
397.025	510.31
397.249	522.31
397.474	553.31
397.698	541.31
397.922	564.31
398.147	580.31
398.371	576.31
398.595	589.31
398.82	597.31
399.044	590.31
399.268	636.31
399.492	656.31
399.717	695.31
399.941	696.31
400.165	723.31
400.389	733.31
400.613	660.31
400.837	631.31
401.062	599.31
401.286	574.31
401.51	600.31
401.734	578.31
401.958	590.31
402.182	575.31
402.406	583.31
402.63	600.31
402.854	591.31
403.078	602.31
403.302	615.31
403.526	625.31
403.75	620.31
403.974	614.31
404.198	628.31
404.422	626.31
404.645	645.31
404.869	599.31
405.093	650.31
405.317	702.31
405.541	727.31
405.765	673.31
405.988	634.31
406.212	651.31
406.436	642.31
406.66	686.31
406.883	662.31
407.107	676.31
407.331	725.31
407.555	814.31
407.778	806.31
408.002	709.31
408.226	678.31
408.449	681.31
408.673	660.31
408.896	693.31
409.12	741.31
409.344	694.31
409.567	632.31
409.791	627.31
410.014	626.31
410.238	580.31
410.461	607.31
410.685	602.31
410.908	626.31
411.132	658.31
411.355	674.31
411.578	644.31
411.802	606.31
412.025	613.31
412.249	603.31
412.472	626.31
412.695	678.31
412.919	668.31
413.142	592.31
413.365	606.31
413.589	596.31
413.812	569.31
414.035	583.31
414.258	578.31
414.482	546.31
414.705	580.31
414.928	589.31
415.151	566.31
415.374	577.31
415.597	564.31
415.821	549.31
416.044	566.31
416.267	566.31
416.49	550.31
416.713	566.31
416.936	579.31
417.159	566.31
417.382	572.31
417.605	586.31
417.828	581.31
418.051	618.31
418.274	571.31
418.497	555.31
418.72	582.31
418.943	591.31
419.166	592.31
419.389	622.31
419.611	629.31
419.834	604.31
420.057	615.31
420.28	630.31
420.503	609.31
420.726	594.31
420.948	615.31
421.171	662.31
421.394	667.31
421.617	614.31
421.839	588.31
422.062	610.31
422.285	612.31
422.507	670.31
422.73	725.31
422.953	723.31
423.175	650.31
423.398	616.31
423.621	609.31
423.843	658.31
424.066	663.31
424.288	650.31
424.511	678.31
424.733	682.31
424.956	779.31
425.178	735.31
425.401	766.31
425.623	783.31
425.846	667.31
426.068	633.31
426.291	625.31
426.513	620.31
426.735	631.31
426.958	681.31
427.18	769.31
427.402	900.31
427.625	1013.31
427.847	825.31
428.069	735.31
428.292	668.31
428.514	592.31
428.736	632.31
428.958	592.31
429.181	568.31
429.403	565.31
429.625	604.31
429.847	614.31
430.069	671.31
430.292	696.31
430.514	602.31
430.736	594.31
430.958	579.31
431.18	543.31
431.402	565.31
431.624	524.31
431.846	538.31
432.068	551.31
432.29	559.31
432.512	579.31
432.734	567.31
432.956	557.31
433.178	558.31
433.4	568.31
433.622	546.31
433.844	577.31
434.066	547.31
434.287	555.31
434.509	542.31
434.731	589.31
434.953	586.31
435.175	591.31
435.397	633.31
435.618	635.31
435.84	678.31
436.062	796.31
436.284	838.31
436.505	693.31
436.727	636.31
436.949	574.31
437.17	586.31
437.392	568.31
437.614	592.31
437.835	620.31
438.057	697.31
438.278	831.31
438.5	841.31
438.721	877.31
438.943	888.31
439.165	702.31
439.386	628.31
439.608	657.31
439.829	643.31
440.05	650.31
440.272	692.31
440.493	660.31
440.715	619.31
440.936	593.31
441.158	590.31
441.379	611.31
441.6	602.31
441.822	616.31
442.043	662.31
442.264	768.31
442.486	823.31
442.707	674.31
442.928	636.31
443.149	645.31
443.371	686.31
443.592	720.31
443.813	800.31
444.034	894.31
444.255	762.31
444.476	673.31
444.698	660.31
444.919	646.31
445.14	786.31
445.361	735.31
445.582	707.31
445.803	747.31
446.024	869.31
446.245	865.31
446.466	795.31
446.687	678.31
446.908	642.31
447.129	591.31
447.35	562.31
447.571	566.31
447.792	559.31
448.013	576.31
448.234	591.31
448.455	646.31
448.675	765.31
448.896	898.31
449.117	750.31
449.338	686.31
449.559	819.31
449.779	922.31
450	743.31
450.221	619.31
450.442	580.31
450.662	538.31
450.883	542.31
451.104	587.31
451.324	554.31
451.545	536.31
451.766	524.31
451.986	536.31
452.207	523.31
452.428	510.31
452.648	531.31
452.869	533.31
453.089	538.31
453.31	520.31
453.53	520.31
453.751	517.31
453.971	505.31
454.192	520.31
454.412	510.31
454.633	495.31
454.853	496.31
455.073	500.31
455.294	547.31
455.514	613.31
455.734	598.31
455.955	504.31
456.175	496.31
456.395	487.31
456.616	479.31
456.836	473.31
457.056	495.31
457.276	482.31
457.497	505.31
457.717	497.31
457.937	499.31
458.157	491.31
458.377	495.31
458.598	521.31
458.818	574.31
459.038	638.31
459.258	656.31
459.478	603.31
459.698	555.31
459.918	549.31
460.138	570.31
460.358	567.31
460.578	575.31
460.798	582.31
461.018	599.31
461.238	595.31
461.458	584.31
461.678	575.31
461.898	571.31
462.118	580.31
462.338	599.31
462.558	604.31
462.777	620.31
462.997	616.31
463.217	646.31
463.437	665.31
463.657	642.31
463.876	631.31
464.096	603.31
464.316	609.31
464.536	634.31
464.755	631.31
464.975	635.31
465.195	636.31
465.414	664.31
465.634	633.31
465.854	593.31
466.073	565.31
466.293	533.31
466.512	533.31
466.732	528.31
466.951	523.31
467.171	542.31
467.391	555.31
467.61	553.31
467.829	552.31
468.049	539.31
468.268	517.31
468.488	495.31
468.707	500.31
468.927	504.31
469.146	510.31
469.365	511.31
469.585	514.31
469.804	534.31
470.023	537.31
470.243	523.31
470.462	528.31
470.681	550.31
470.901	564.31
471.12	555.31
471.339	536.31
471.558	538.31
471.777	558.31
471.997	529.31
472.216	544.31
472.435	573.31
472.654	560.31
472.873	535.31
473.092	522.31
473.311	536.31
473.53	544.31
473.749	551.31
473.968	564.31
474.187	705.31
474.406	710.31
474.625	572.31
474.844	538.31
475.063	538.31
475.282	528.31
475.501	533.31
475.72	557.31
475.939	547.31
476.158	543.31
476.377	554.31
476.596	568.31
476.814	572.31
477.033	552.31
477.252	550.31
477.471	573.31
477.69	589.31
477.908	588.31
478.127	602.31
478.346	614.31
478.564	601.31
478.783	622.31
479.002	607.31
479.22	626.31
479.439	641.31
479.658	651.31
479.876	636.31
480.095	651.31
480.313	692.31
480.532	687.31
480.751	648.31
480.969	686.31
481.188	717.31
481.406	750.31
481.624	686.31
481.843	650.31
482.061	640.31
482.28	639.31
482.498	625.31
482.717	619.31
482.935	610.31
483.153	612.31
483.372	583.31
483.59	603.31
483.808	608.31
484.027	606.31
484.245	621.31
484.463	627.31
484.681	646.31
484.9	629.31
485.118	634.31
485.336	628.31
485.554	658.31
485.772	657.31
485.99	653.31
486.209	655.31
486.427	674.31
486.645	670.31
486.863	678.31
487.081	646.31
487.299	676.31
487.517	658.31
487.735	662.31
487.953	674.31
488.171	671.31
488.389	679.31
488.607	674.31
488.825	692.31
489.043	686.31
489.261	700.31
489.479	662.31
489.696	678.31
489.914	681.31
490.132	716.31
490.35	711.31
490.568	712.31
490.786	717.31
491.003	731.31
491.221	749.31
491.439	751.31
491.657	745.31
491.874	772.31
492.092	778.31
492.31	785.31
492.527	790.31
492.745	796.31
492.963	776.31
493.18	805.31
493.398	788.31
493.615	803.31
493.833	805.31
494.05	811.31
494.268	802.31
494.485	799.31
494.703	790.31
494.92	789.31
495.138	788.31
495.355	787.31
495.573	791.31
495.79	794.31
496.008	813.31
496.225	810.31
496.442	780.31
496.66	804.31
496.877	816.31
497.094	808.31
497.312	811.31
497.529	845.31
497.746	854.31
497.963	852.31
498.181	884.31
498.398	896.31
498.615	883.31
498.832	925.31
499.049	918.31
499.267	958.31
499.484	1019.31
499.701	1076.31
499.918	1119.31
500.135	1187.31
500.352	1268.31
500.569	1274.31
500.786	1280.31
501.003	1290.31
501.22	1228.31
501.437	1166.31
501.654	1110.31
