Data from 1975.PennyLincolnUp.Lamp.En5.5.200Scan.071719.P1.Changed Mount._HRD10591_15-58-41-860.txt Node
Date: Thu Jul 18 15:58:41 EDT 2019
User: cochatt
Spectrometer: HR+D1059
Trigger mode: 1
Integration Time (sec): 1.000000E-1
Scans to average: 1
Electric dark correction enabled: true
Nonlinearity correction enabled: false
Boxcar width: 0
XAxis mode: Wavelengths
Number of Pixels in Spectrum: 2048
>>>>>Begin Spectral Data<<<<<
223.165	-19.81
223.4	-19.81
223.635	-19.81
223.869	-8.81
224.104	-9.81
224.338	-23.81
224.573	-4.81
224.808	-15.81
225.042	-11.81
225.277	-5.81
225.511	-15.81
225.746	6.19
225.98	16.19
226.215	10.19
226.449	21.19
226.683	5.19
226.918	32.19
227.152	25.19
227.387	36.19
227.621	33.19
227.856	59.19
228.09	54.19
228.324	48.19
228.559	56.19
228.793	63.19
229.027	94.19
229.262	106.19
229.496	109.19
229.73	141.19
229.964	162.19
230.199	139.19
230.433	120.19
230.667	120.19
230.901	104.19
231.136	126.19
231.37	109.19
231.604	108.19
231.838	113.19
232.072	126.19
232.306	114.19
232.541	115.19
232.775	112.19
233.009	120.19
233.243	121.19
233.477	111.19
233.711	134.19
233.945	123.19
234.179	125.19
234.413	134.19
234.647	136.19
234.881	125.19
235.115	124.19
235.349	121.19
235.583	137.19
235.817	133.19
236.051	134.19
236.285	141.19
236.519	127.19
236.753	130.19
236.987	142.19
237.221	192.19
237.455	232.19
237.689	192.19
237.922	140.19
238.156	141.19
238.39	128.19
238.624	131.19
238.858	113.19
239.091	132.19
239.325	124.19
239.559	130.19
239.793	126.19
240.027	125.19
240.26	145.19
240.494	176.19
240.728	152.19
240.961	150.19
241.195	158.19
241.429	155.19
241.662	136.19
241.896	135.19
242.13	140.19
242.363	138.19
242.597	153.19
242.83	138.19
243.064	146.19
243.298	145.19
243.531	156.19
243.765	150.19
243.998	150.19
244.232	142.19
244.465	165.19
244.699	140.19
244.932	166.19
245.166	164.19
245.399	149.19
245.633	160.19
245.866	153.19
246.099	153.19
246.333	158.19
246.566	176.19
246.8	164.19
247.033	172.19
247.266	169.19
247.5	163.19
247.733	178.19
247.966	186.19
248.2	180.19
248.433	185.19
248.666	181.19
248.899	190.19
249.133	205.19
249.366	200.19
249.599	206.19
249.832	185.19
250.066	197.19
250.299	194.19
250.532	193.19
250.765	216.19
250.998	229.19
251.231	231.19
251.465	213.19
251.698	213.19
251.931	210.19
252.164	196.19
252.397	201.19
252.63	210.19
252.863	211.19
253.096	223.19
253.329	247.19
253.562	247.19
253.795	233.19
254.028	228.19
254.261	217.19
254.494	220.19
254.727	263.19
254.96	272.19
255.193	270.19
255.426	255.19
255.659	271.19
255.892	246.19
256.124	238.19
256.357	252.19
256.59	237.19
256.823	220.19
257.056	219.19
257.289	237.19
257.521	235.19
257.754	224.19
257.987	218.19
258.22	212.19
258.452	209.19
258.685	209.19
258.918	202.19
259.151	220.19
259.383	240.19
259.616	230.19
259.849	238.19
260.081	254.19
260.314	279.19
260.547	248.19
260.779	253.19
261.012	264.19
261.244	222.19
261.477	241.19
261.71	247.19
261.942	242.19
262.175	234.19
262.407	244.19
262.64	232.19
262.872	226.19
263.105	208.19
263.337	244.19
263.57	223.19
263.802	216.19
264.035	210.19
264.267	209.19
264.499	225.19
264.732	232.19
264.964	226.19
265.197	217.19
265.429	210.19
265.661	216.19
265.894	216.19
266.126	227.19
266.358	222.19
266.591	238.19
266.823	253.19
267.055	236.19
267.287	246.19
267.52	234.19
267.752	223.19
267.984	235.19
268.216	238.19
268.448	253.19
268.681	252.19
268.913	270.19
269.145	282.19
269.377	303.19
269.609	268.19
269.841	284.19
270.073	299.19
270.306	300.19
270.538	304.19
270.77	318.19
271.002	299.19
271.234	316.19
271.466	300.19
271.698	311.19
271.93	331.19
272.162	319.19
272.394	317.19
272.626	308.19
272.858	304.19
273.09	295.19
273.322	290.19
273.553	277.19
273.785	265.19
274.017	278.19
274.249	278.19
274.481	281.19
274.713	279.19
274.945	265.19
275.176	295.19
275.408	280.19
275.64	285.19
275.872	282.19
276.104	288.19
276.335	294.19
276.567	291.19
276.799	302.19
277.031	320.19
277.262	301.19
277.494	337.19
277.726	321.19
277.957	304.19
278.189	305.19
278.421	275.19
278.652	303.19
278.884	294.19
279.115	289.19
279.347	292.19
279.579	280.19
279.81	319.19
280.042	298.19
280.273	312.19
280.505	283.19
280.736	297.19
280.968	301.19
281.199	277.19
281.431	272.19
281.662	278.19
281.894	283.19
282.125	288.19
282.356	327.19
282.588	304.19
282.819	312.19
283.051	293.19
283.282	286.19
283.513	292.19
283.745	288.19
283.976	304.19
284.207	280.19
284.439	291.19
284.67	285.19
284.901	302.19
285.132	282.19
285.364	304.19
285.595	296.19
285.826	305.19
286.057	298.19
286.288	312.19
286.52	298.19
286.751	306.19
286.982	295.19
287.213	303.19
287.444	283.19
287.675	313.19
287.906	306.19
288.138	308.19
288.369	314.19
288.6	320.19
288.831	321.19
289.062	317.19
289.293	322.19
289.524	305.19
289.755	328.19
289.986	335.19
290.217	318.19
290.448	309.19
290.679	312.19
290.91	302.19
291.141	297.19
291.371	286.19
291.602	295.19
291.833	293.19
292.064	309.19
292.295	304.19
292.526	315.19
292.757	318.19
292.987	306.19
293.218	313.19
293.449	299.19
293.68	318.19
293.91	328.19
294.141	328.19
294.372	319.19
294.603	313.19
294.833	296.19
295.064	308.19
295.295	334.19
295.525	314.19
295.756	319.19
295.987	316.19
296.217	322.19
296.448	348.19
296.679	348.19
296.909	333.19
297.14	326.19
297.37	330.19
297.601	334.19
297.831	317.19
298.062	333.19
298.292	306.19
298.523	327.19
298.753	340.19
298.984	323.19
299.214	334.19
299.445	337.19
299.675	329.19
299.905	339.19
300.136	335.19
300.366	328.19
300.597	331.19
300.827	338.19
301.057	336.19
301.288	336.19
301.518	344.19
301.748	327.19
301.979	338.19
302.209	372.19
302.439	350.19
302.669	340.19
302.9	354.19
303.13	364.19
303.36	357.19
303.59	348.19
303.82	353.19
304.051	364.19
304.281	365.19
304.511	341.19
304.741	357.19
304.971	355.19
305.201	345.19
305.431	353.19
305.661	350.19
305.891	360.19
306.121	346.19
306.352	370.19
306.582	364.19
306.812	357.19
307.042	350.19
307.272	351.19
307.502	363.19
307.731	356.19
307.961	322.19
308.191	350.19
308.421	360.19
308.651	364.19
308.881	351.19
309.111	356.19
309.341	374.19
309.571	382.19
309.8	375.19
310.03	382.19
310.26	389.19
310.49	371.19
310.72	380.19
310.949	406.19
311.179	411.19
311.409	406.19
311.639	388.19
311.868	379.19
312.098	376.19
312.328	401.19
312.557	416.19
312.787	404.19
313.017	430.19
313.246	414.19
313.476	400.19
313.706	392.19
313.935	369.19
314.165	413.19
314.394	408.19
314.624	408.19
314.853	387.19
315.083	413.19
315.312	397.19
315.542	390.19
315.771	400.19
316.001	388.19
316.23	389.19
316.46	386.19
316.689	398.19
316.919	383.19
317.148	401.19
317.377	421.19
317.607	410.19
317.836	390.19
318.065	385.19
318.295	412.19
318.524	385.19
318.753	384.19
318.983	415.19
319.212	389.19
319.441	413.19
319.67	417.19
319.9	393.19
320.129	406.19
320.358	394.19
320.587	391.19
320.816	392.19
321.046	423.19
321.275	411.19
321.504	428.19
321.733	425.19
321.962	423.19
322.191	420.19
322.42	427.19
322.649	440.19
322.878	454.19
323.108	445.19
323.337	480.19
323.566	482.19
323.795	494.19
324.024	525.19
324.253	626.19
324.482	870.19
324.71	1309.19
324.939	1959.19
325.168	1757.19
325.397	859.19
325.626	615.19
325.855	506.19
326.084	489.19
326.313	476.19
326.542	500.19
326.77	524.19
326.999	628.19
327.228	791.19
327.457	1195.19
327.686	1511.19
327.914	968.19
328.143	653.19
328.372	603.19
328.6	583.19
328.829	540.19
329.058	542.19
329.287	583.19
329.515	529.19
329.744	511.19
329.972	504.19
330.201	529.19
330.43	575.19
330.658	589.19
330.887	582.19
331.115	576.19
331.344	543.19
331.572	482.19
331.801	506.19
332.03	499.19
332.258	488.19
332.486	495.19
332.715	467.19
332.943	490.19
333.172	488.19
333.4	490.19
333.629	495.19
333.857	501.19
334.085	527.19
334.314	544.19
334.542	564.19
334.771	577.19
334.999	534.19
335.227	526.19
335.455	495.19
335.684	490.19
335.912	490.19
336.14	491.19
336.369	481.19
336.597	489.19
336.825	489.19
337.053	485.19
337.281	460.19
337.51	471.19
337.738	471.19
337.966	479.19
338.194	477.19
338.422	468.19
338.65	457.19
338.878	450.19
339.106	477.19
339.334	456.19
339.562	442.19
339.79	457.19
340.018	448.19
340.246	469.19
340.474	458.19
340.702	448.19
340.93	442.19
341.158	431.19
341.386	452.19
341.614	436.19
341.842	457.19
342.07	455.19
342.298	453.19
342.526	465.19
342.754	454.19
342.981	425.19
343.209	437.19
343.437	415.19
343.665	438.19
343.893	449.19
344.12	480.19
344.348	477.19
344.576	479.19
344.804	475.19
345.031	463.19
345.259	479.19
345.487	469.19
345.714	469.19
345.942	461.19
346.17	440.19
346.397	442.19
346.625	433.19
346.853	444.19
347.08	433.19
347.308	429.19
347.535	448.19
347.763	444.19
347.99	431.19
348.218	455.19
348.445	455.19
348.673	445.19
348.9	434.19
349.128	436.19
349.355	433.19
349.583	414.19
349.81	413.19
350.037	437.19
350.265	440.19
350.492	425.19
350.72	436.19
350.947	430.19
351.174	438.19
351.402	452.19
351.629	430.19
351.856	447.19
352.083	435.19
352.311	442.19
352.538	447.19
352.765	450.19
352.992	439.19
353.22	444.19
353.447	430.19
353.674	452.19
353.901	435.19
354.128	414.19
354.355	409.19
354.583	419.19
354.81	414.19
355.037	430.19
355.264	418.19
355.491	415.19
355.718	413.19
355.945	434.19
356.172	415.19
356.399	410.19
356.626	404.19
356.853	421.19
357.08	412.19
357.307	416.19
357.534	411.19
357.761	402.19
357.988	445.19
358.215	432.19
358.441	425.19
358.668	426.19
358.895	416.19
359.122	413.19
359.349	437.19
359.576	439.19
359.802	451.19
360.029	460.19
360.256	504.19
360.483	452.19
360.709	458.19
360.936	450.19
361.163	441.19
361.39	440.19
361.616	435.19
361.843	440.19
362.07	459.19
362.296	454.19
362.523	428.19
362.749	440.19
362.976	445.19
363.203	459.19
363.429	436.19
363.656	443.19
363.882	410.19
364.109	418.19
364.335	416.19
364.562	420.19
364.788	410.19
365.015	420.19
365.241	423.19
365.468	412.19
365.694	420.19
365.92	442.19
366.147	426.19
366.373	418.19
366.599	407.19
366.826	406.19
367.052	429.19
367.278	407.19
367.505	430.19
367.731	432.19
367.957	423.19
368.184	414.19
368.41	428.19
368.636	436.19
368.862	453.19
369.089	441.19
369.315	428.19
369.541	423.19
369.767	449.19
369.993	422.19
370.219	440.19
370.445	436.19
370.672	442.19
370.898	433.19
371.124	431.19
371.35	452.19
371.576	448.19
371.802	468.19
372.028	427.19
372.254	444.19
372.48	436.19
372.706	427.19
372.932	461.19
373.158	416.19
373.384	433.19
373.61	442.19
373.835	446.19
374.061	424.19
374.287	452.19
374.513	445.19
374.739	429.19
374.965	442.19
375.191	447.19
375.416	448.19
375.642	446.19
375.868	436.19
376.094	425.19
376.319	436.19
376.545	428.19
376.771	447.19
376.997	413.19
377.222	428.19
377.448	410.19
377.674	421.19
377.899	438.19
378.125	440.19
378.35	425.19
378.576	448.19
378.802	452.19
379.027	441.19
379.253	428.19
379.478	436.19
379.704	420.19
379.929	419.19
380.155	450.19
380.38	438.19
380.606	431.19
380.831	417.19
381.057	438.19
381.282	422.19
381.507	425.19
381.733	422.19
381.958	424.19
382.184	441.19
382.409	424.19
382.634	438.19
382.86	470.19
383.085	471.19
383.31	457.19
383.535	475.19
383.761	437.19
383.986	461.19
384.211	445.19
384.436	454.19
384.662	464.19
384.887	483.19
385.112	460.19
385.337	479.19
385.562	488.19
385.787	497.19
386.013	493.19
386.238	486.19
386.463	472.19
386.688	475.19
386.913	454.19
387.138	479.19
387.363	468.19
387.588	478.19
387.813	489.19
388.038	481.19
388.263	470.19
388.488	493.19
388.713	485.19
388.938	478.19
389.163	496.19
389.387	495.19
389.612	471.19
389.837	467.19
390.062	475.19
390.287	467.19
390.512	486.19
390.736	466.19
390.961	479.19
391.186	488.19
391.411	492.19
391.636	501.19
391.86	499.19
392.085	529.19
392.31	505.19
392.534	492.19
392.759	493.19
392.984	490.19
393.208	515.19
393.433	482.19
393.658	513.19
393.882	513.19
394.107	488.19
394.331	487.19
394.556	474.19
394.78	484.19
395.005	490.19
395.229	489.19
395.454	504.19
395.678	509.19
395.903	515.19
396.127	570.19
396.352	552.19
396.576	513.19
396.801	524.19
397.025	517.19
397.249	516.19
397.474	530.19
397.698	505.19
397.922	513.19
398.147	535.19
398.371	560.19
398.595	560.19
398.82	553.19
399.044	576.19
399.268	592.19
399.492	615.19
399.717	655.19
399.941	689.19
400.165	709.19
400.389	716.19
400.613	647.19
400.837	586.19
401.062	594.19
401.286	598.19
401.51	558.19
401.734	548.19
401.958	577.19
402.182	584.19
402.406	568.19
402.63	576.19
402.854	592.19
403.078	564.19
403.302	570.19
403.526	587.19
403.75	594.19
403.974	612.19
404.198	599.19
404.422	616.19
404.645	641.19
404.869	632.19
405.093	629.19
405.317	665.19
405.541	709.19
405.765	650.19
405.988	601.19
406.212	609.19
406.436	639.19
406.66	665.19
406.883	651.19
407.107	673.19
407.331	704.19
407.555	781.19
407.778	782.19
408.002	719.19
408.226	690.19
408.449	640.19
408.673	671.19
408.896	676.19
409.12	716.19
409.344	687.19
409.567	630.19
409.791	594.19
410.014	588.19
410.238	599.19
410.461	606.19
410.685	590.19
410.908	598.19
411.132	639.19
411.355	672.19
411.578	647.19
411.802	598.19
412.025	601.19
412.249	588.19
412.472	609.19
412.695	656.19
412.919	650.19
413.142	596.19
413.365	596.19
413.589	593.19
413.812	572.19
414.035	555.19
414.258	566.19
414.482	590.19
414.705	542.19
414.928	568.19
415.151	546.19
415.374	570.19
415.597	556.19
415.821	560.19
416.044	550.19
416.267	552.19
416.49	560.19
416.713	551.19
416.936	546.19
417.159	564.19
417.382	557.19
417.605	566.19
417.828	588.19
418.051	604.19
418.274	576.19
418.497	552.19
418.72	548.19
418.943	579.19
419.166	598.19
419.389	610.19
419.611	576.19
419.834	597.19
420.057	588.19
420.28	606.19
420.503	593.19
420.726	613.19
420.948	601.19
421.171	641.19
421.394	687.19
421.617	607.19
421.839	590.19
422.062	568.19
422.285	575.19
422.507	625.19
422.73	742.19
422.953	710.19
423.175	625.19
423.398	620.19
423.621	591.19
423.843	589.19
424.066	612.19
424.288	623.19
424.511	670.19
424.733	708.19
424.956	777.19
425.178	750.19
425.401	732.19
425.623	762.19
425.846	670.19
426.068	650.19
426.291	633.19
426.513	592.19
426.735	630.19
426.958	674.19
427.18	754.19
427.402	856.19
427.625	979.19
427.847	824.19
428.069	712.19
428.292	667.19
428.514	603.19
428.736	582.19
428.958	607.19
429.181	560.19
429.403	566.19
429.625	558.19
429.847	603.19
430.069	672.19
430.292	667.19
430.514	582.19
430.736	572.19
430.958	567.19
431.18	549.19
431.402	545.19
431.624	500.19
431.846	519.19
432.068	548.19
432.29	557.19
432.512	531.19
432.734	552.19
432.956	545.19
433.178	582.19
433.4	549.19
433.622	530.19
433.844	545.19
434.066	549.19
434.287	529.19
434.509	546.19
434.731	564.19
434.953	578.19
435.175	583.19
435.397	619.19
435.618	637.19
435.84	684.19
436.062	742.19
436.284	839.19
436.505	708.19
436.727	614.19
436.949	600.19
437.17	577.19
437.392	564.19
437.614	568.19
437.835	597.19
438.057	684.19
438.278	780.19
438.5	803.19
438.721	890.19
438.943	860.19
439.165	678.19
439.386	634.19
439.608	621.19
439.829	638.19
440.05	618.19
440.272	682.19
440.493	646.19
440.715	604.19
440.936	574.19
441.158	601.19
441.379	575.19
441.6	590.19
441.822	616.19
442.043	659.19
442.264	739.19
442.486	782.19
442.707	668.19
442.928	628.19
443.149	615.19
443.371	644.19
443.592	699.19
443.813	791.19
444.034	879.19
444.255	729.19
444.476	650.19
444.698	649.19
444.919	641.19
445.14	772.19
445.361	685.19
445.582	677.19
445.803	716.19
446.024	814.19
446.245	822.19
446.466	746.19
446.687	645.19
446.908	635.19
447.129	581.19
447.35	585.19
447.571	577.19
447.792	558.19
448.013	550.19
448.234	570.19
448.455	636.19
448.675	761.19
448.896	833.19
449.117	733.19
449.338	688.19
449.559	814.19
449.779	888.19
450	732.19
450.221	600.19
450.442	568.19
450.662	539.19
450.883	551.19
451.104	542.19
451.324	537.19
451.545	525.19
451.766	508.19
451.986	508.19
452.207	497.19
452.428	511.19
452.648	500.19
452.869	506.19
453.089	511.19
453.31	528.19
453.53	523.19
453.751	504.19
453.971	486.19
454.192	505.19
454.412	484.19
454.633	484.19
454.853	479.19
455.073	501.19
455.294	534.19
455.514	580.19
455.734	576.19
455.955	507.19
456.175	467.19
456.395	470.19
456.616	459.19
456.836	473.19
457.056	470.19
457.276	465.19
457.497	470.19
457.717	461.19
457.937	500.19
458.157	490.19
458.377	480.19
458.598	494.19
458.818	543.19
459.038	627.19
459.258	652.19
459.478	576.19
459.698	558.19
459.918	540.19
460.138	549.19
460.358	539.19
460.578	564.19
460.798	553.19
461.018	560.19
461.238	575.19
461.458	575.19
461.678	557.19
461.898	565.19
462.118	573.19
462.338	586.19
462.558	604.19
462.777	584.19
462.997	639.19
463.217	653.19
463.437	668.19
463.657	618.19
463.876	608.19
464.096	628.19
464.316	604.19
464.536	611.19
464.755	606.19
464.975	576.19
465.195	612.19
465.414	652.19
465.634	612.19
465.854	558.19
466.073	567.19
466.293	546.19
466.512	540.19
466.732	501.19
466.951	517.19
467.171	511.19
467.391	512.19
467.61	529.19
467.829	539.19
468.049	531.19
468.268	530.19
468.488	527.19
468.707	508.19
468.927	496.19
469.146	501.19
469.365	486.19
469.585	510.19
469.804	520.19
470.023	538.19
470.243	525.19
470.462	532.19
470.681	526.19
470.901	545.19
471.12	543.19
471.339	530.19
471.558	517.19
471.777	510.19
471.997	538.19
472.216	509.19
472.435	543.19
472.654	544.19
472.873	519.19
473.092	528.19
473.311	506.19
473.53	517.19
473.749	542.19
473.968	560.19
474.187	651.19
474.406	694.19
474.625	570.19
474.844	556.19
475.063	544.19
475.282	533.19
475.501	502.19
475.72	519.19
475.939	513.19
476.158	547.19
476.377	542.19
476.596	539.19
476.814	530.19
477.033	548.19
477.252	544.19
477.471	566.19
477.69	558.19
477.908	547.19
478.127	568.19
478.346	574.19
478.564	611.19
478.783	587.19
479.002	596.19
479.22	632.19
479.439	606.19
479.658	641.19
479.876	634.19
480.095	635.19
480.313	665.19
480.532	636.19
480.751	662.19
480.969	669.19
481.188	706.19
481.406	728.19
481.624	660.19
481.843	637.19
482.061	639.19
482.28	608.19
482.498	624.19
482.717	612.19
482.935	614.19
483.153	593.19
483.372	604.19
483.59	622.19
483.808	617.19
484.027	608.19
484.245	607.19
484.463	632.19
484.681	615.19
484.9	613.19
485.118	640.19
485.336	647.19
485.554	635.19
485.772	616.19
485.99	629.19
486.209	641.19
486.427	643.19
486.645	643.19
486.863	638.19
487.081	646.19
487.299	659.19
487.517	646.19
487.735	657.19
487.953	672.19
488.171	648.19
488.389	652.19
488.607	659.19
488.825	652.19
489.043	642.19
489.261	658.19
489.479	637.19
489.696	660.19
489.914	671.19
490.132	680.19
490.35	689.19
490.568	710.19
490.786	736.19
491.003	717.19
491.221	711.19
491.439	737.19
491.657	719.19
491.874	783.19
492.092	749.19
492.31	758.19
492.527	762.19
492.745	754.19
492.963	773.19
493.18	760.19
493.398	740.19
493.615	777.19
493.833	782.19
494.05	794.19
494.268	772.19
494.485	761.19
494.703	796.19
494.92	762.19
495.138	745.19
495.355	785.19
495.573	801.19
495.79	783.19
496.008	765.19
496.225	793.19
496.442	788.19
496.66	778.19
496.877	776.19
497.094	787.19
497.312	820.19
497.529	810.19
497.746	827.19
497.963	852.19
498.181	845.19
498.398	867.19
498.615	873.19
498.832	906.19
499.049	940.19
499.267	948.19
499.484	1004.19
499.701	1063.19
499.918	1066.19
500.135	1150.19
500.352	1244.19
500.569	1259.19
500.786	1259.19
501.003	1228.19
501.22	1170.19
501.437	1114.19
501.654	1054.19
