Data from 1975.PennyLincolnUp.Lamp.En5.5.200Scan.071719.P1.Changed Mount._HRD10591_15-55-40-858.txt Node
Date: Thu Jul 18 15:55:40 EDT 2019
User: cochatt
Spectrometer: HR+D1059
Trigger mode: 1
Integration Time (sec): 1.000000E-1
Scans to average: 1
Electric dark correction enabled: true
Nonlinearity correction enabled: false
Boxcar width: 0
XAxis mode: Wavelengths
Number of Pixels in Spectrum: 2048
>>>>>Begin Spectral Data<<<<<
223.165	-9.19
223.4	-9.19
223.635	-9.19
223.869	-17.19
224.104	-27.19
224.338	-6.19
224.573	-21.19
224.808	-15.19
225.042	-16.19
225.277	-10.19
225.511	-9.19
225.746	3.81
225.98	13.81
226.215	13.81
226.449	25.81
226.683	25.81
226.918	27.81
227.152	20.81
227.387	39.81
227.621	39.81
227.856	45.81
228.09	42.81
228.324	43.81
228.559	62.81
228.793	71.81
229.027	96.81
229.262	95.81
229.496	123.81
229.73	129.81
229.964	159.81
230.199	125.81
230.433	118.81
230.667	97.81
230.901	108.81
231.136	100.81
231.37	111.81
231.604	121.81
231.838	124.81
232.072	117.81
232.306	129.81
232.541	126.81
232.775	120.81
233.009	128.81
233.243	131.81
233.477	121.81
233.711	126.81
233.945	115.81
234.179	127.81
234.413	129.81
234.647	119.81
234.881	121.81
235.115	116.81
235.349	131.81
235.583	110.81
235.817	118.81
236.051	125.81
236.285	120.81
236.519	124.81
236.753	125.81
236.987	144.81
237.221	176.81
237.455	214.81
237.689	161.81
237.922	139.81
238.156	129.81
238.39	126.81
238.624	121.81
238.858	118.81
239.091	133.81
239.325	127.81
239.559	133.81
239.793	131.81
240.027	125.81
240.26	135.81
240.494	144.81
240.728	145.81
240.961	146.81
241.195	143.81
241.429	151.81
241.662	131.81
241.896	135.81
242.13	139.81
242.363	129.81
242.597	131.81
242.83	141.81
243.064	128.81
243.298	136.81
243.531	137.81
243.765	132.81
243.998	142.81
244.232	144.81
244.465	140.81
244.699	152.81
244.932	151.81
245.166	146.81
245.399	141.81
245.633	137.81
245.866	148.81
246.099	153.81
246.333	143.81
246.566	149.81
246.8	155.81
247.033	163.81
247.266	156.81
247.5	162.81
247.733	159.81
247.966	158.81
248.2	164.81
248.433	164.81
248.666	167.81
248.899	185.81
249.133	200.81
249.366	214.81
249.599	196.81
249.832	177.81
250.066	176.81
250.299	179.81
250.532	184.81
250.765	191.81
250.998	220.81
251.231	205.81
251.465	208.81
251.698	205.81
251.931	193.81
252.164	192.81
252.397	196.81
252.63	186.81
252.863	196.81
253.096	192.81
253.329	213.81
253.562	197.81
253.795	205.81
254.028	212.81
254.261	195.81
254.494	211.81
254.727	240.81
254.96	251.81
255.193	235.81
255.426	216.81
255.659	222.81
255.892	243.81
256.124	225.81
256.357	222.81
256.59	222.81
256.823	224.81
257.056	210.81
257.289	191.81
257.521	215.81
257.754	198.81
257.987	212.81
258.22	200.81
258.452	201.81
258.685	187.81
258.918	210.81
259.151	189.81
259.383	214.81
259.616	200.81
259.849	220.81
260.081	229.81
260.314	241.81
260.547	234.81
260.779	246.81
261.012	232.81
261.244	225.81
261.477	225.81
261.71	225.81
261.942	212.81
262.175	227.81
262.407	207.81
262.64	205.81
262.872	209.81
263.105	208.81
263.337	224.81
263.57	221.81
263.802	216.81
264.035	198.81
264.267	197.81
264.499	197.81
264.732	214.81
264.964	203.81
265.197	205.81
265.429	216.81
265.661	211.81
265.894	205.81
266.126	209.81
266.358	197.81
266.591	221.81
266.823	215.81
267.055	232.81
267.287	244.81
267.52	230.81
267.752	223.81
267.984	233.81
268.216	235.81
268.448	215.81
268.681	214.81
268.913	236.81
269.145	260.81
269.377	273.81
269.609	272.81
269.841	250.81
270.073	274.81
270.306	259.81
270.538	295.81
270.77	292.81
271.002	290.81
271.234	247.81
271.466	283.81
271.698	278.81
271.93	300.81
272.162	296.81
272.394	299.81
272.626	281.81
272.858	278.81
273.09	260.81
273.322	251.81
273.553	252.81
273.785	234.81
274.017	237.81
274.249	250.81
274.481	261.81
274.713	263.81
274.945	263.81
275.176	252.81
275.408	265.81
275.64	253.81
275.872	268.81
276.104	262.81
276.335	254.81
276.567	253.81
276.799	282.81
277.031	282.81
277.262	288.81
277.494	296.81
277.726	284.81
277.957	276.81
278.189	277.81
278.421	265.81
278.652	267.81
278.884	276.81
279.115	272.81
279.347	264.81
279.579	263.81
279.81	262.81
280.042	255.81
280.273	262.81
280.505	270.81
280.736	240.81
280.968	271.81
281.199	264.81
281.431	257.81
281.662	268.81
281.894	256.81
282.125	263.81
282.356	273.81
282.588	288.81
282.819	288.81
283.051	271.81
283.282	273.81
283.513	267.81
283.745	283.81
283.976	286.81
284.207	279.81
284.439	281.81
284.67	280.81
284.901	268.81
285.132	263.81
285.364	287.81
285.595	287.81
285.826	280.81
286.057	260.81
286.288	281.81
286.52	279.81
286.751	270.81
286.982	277.81
287.213	281.81
287.444	267.81
287.675	270.81
287.906	292.81
288.138	286.81
288.369	287.81
288.6	288.81
288.831	294.81
289.062	293.81
289.293	280.81
289.524	280.81
289.755	283.81
289.986	284.81
290.217	296.81
290.448	280.81
290.679	271.81
290.91	285.81
291.141	297.81
291.371	299.81
291.602	284.81
291.833	292.81
292.064	304.81
292.295	279.81
292.526	291.81
292.757	293.81
292.987	297.81
293.218	281.81
293.449	300.81
293.68	287.81
293.91	286.81
294.141	290.81
294.372	292.81
294.603	309.81
294.833	292.81
295.064	303.81
295.295	287.81
295.525	274.81
295.756	285.81
295.987	292.81
296.217	288.81
296.448	312.81
296.679	320.81
296.909	288.81
297.14	289.81
297.37	299.81
297.601	298.81
297.831	310.81
298.062	283.81
298.292	287.81
298.523	301.81
298.753	314.81
298.984	298.81
299.214	310.81
299.445	315.81
299.675	309.81
299.905	316.81
300.136	317.81
300.366	329.81
300.597	303.81
300.827	333.81
301.057	315.81
301.288	328.81
301.518	317.81
301.748	313.81
301.979	339.81
302.209	341.81
302.439	335.81
302.669	333.81
302.9	323.81
303.13	327.81
303.36	324.81
303.59	311.81
303.82	318.81
304.051	334.81
304.281	328.81
304.511	320.81
304.741	336.81
304.971	319.81
305.201	314.81
305.431	341.81
305.661	297.81
305.891	316.81
306.121	323.81
306.352	335.81
306.582	333.81
306.812	341.81
307.042	327.81
307.272	314.81
307.502	324.81
307.731	336.81
307.961	312.81
308.191	321.81
308.421	330.81
308.651	336.81
308.881	332.81
309.111	329.81
309.341	323.81
309.571	311.81
309.8	338.81
310.03	339.81
310.26	352.81
310.49	358.81
310.72	344.81
310.949	367.81
311.179	365.81
311.409	348.81
311.639	341.81
311.868	344.81
312.098	365.81
312.328	353.81
312.557	346.81
312.787	359.81
313.017	356.81
313.246	371.81
313.476	360.81
313.706	358.81
313.935	372.81
314.165	381.81
314.394	367.81
314.624	373.81
314.853	363.81
315.083	355.81
315.312	371.81
315.542	355.81
315.771	348.81
316.001	337.81
316.23	366.81
316.46	368.81
316.689	375.81
316.919	347.81
317.148	363.81
317.377	375.81
317.607	365.81
317.836	371.81
318.065	349.81
318.295	363.81
318.524	369.81
318.753	350.81
318.983	350.81
319.212	379.81
319.441	357.81
319.67	341.81
319.9	349.81
320.129	360.81
320.358	359.81
320.587	354.81
320.816	340.81
321.046	373.81
321.275	379.81
321.504	373.81
321.733	375.81
321.962	398.81
322.191	399.81
322.42	374.81
322.649	389.81
322.878	387.81
323.108	398.81
323.337	414.81
323.566	407.81
323.795	425.81
324.024	477.81
324.253	523.81
324.482	708.81
324.71	1043.81
324.939	1550.81
325.168	1371.81
325.397	689.81
325.626	517.81
325.855	459.81
326.084	418.81
326.313	436.81
326.542	437.81
326.77	456.81
326.999	541.81
327.228	684.81
327.457	971.81
327.686	1200.81
327.914	778.81
328.143	556.81
328.372	508.81
328.6	471.81
328.829	463.81
329.058	458.81
329.287	453.81
329.515	453.81
329.744	441.81
329.972	427.81
330.201	455.81
330.43	473.81
330.658	460.81
330.887	501.81
331.115	491.81
331.344	437.81
331.572	431.81
331.801	443.81
332.03	447.81
332.258	428.81
332.486	445.81
332.715	440.81
332.943	440.81
333.172	436.81
333.4	437.81
333.629	443.81
333.857	466.81
334.085	457.81
334.314	496.81
334.542	488.81
334.771	482.81
334.999	468.81
335.227	476.81
335.455	441.81
335.684	439.81
335.912	441.81
336.14	420.81
336.369	432.81
336.597	410.81
336.825	463.81
337.053	442.81
337.281	430.81
337.51	421.81
337.738	418.81
337.966	419.81
338.194	412.81
338.422	412.81
338.65	432.81
338.878	415.81
339.106	410.81
339.334	408.81
339.562	405.81
339.79	404.81
340.018	404.81
340.246	413.81
340.474	426.81
340.702	399.81
340.93	412.81
341.158	411.81
341.386	415.81
341.614	400.81
341.842	413.81
342.07	403.81
342.298	397.81
342.526	405.81
342.754	414.81
342.981	406.81
343.209	423.81
343.437	424.81
343.665	413.81
343.893	432.81
344.12	452.81
344.348	444.81
344.576	427.81
344.804	449.81
345.031	429.81
345.259	418.81
345.487	429.81
345.714	412.81
345.942	392.81
346.17	395.81
346.397	398.81
346.625	405.81
346.853	394.81
347.08	381.81
347.308	398.81
347.535	392.81
347.763	416.81
347.99	409.81
348.218	401.81
348.445	422.81
348.673	416.81
348.9	397.81
349.128	424.81
349.355	400.81
349.583	392.81
349.81	404.81
350.037	406.81
350.265	392.81
350.492	383.81
350.72	397.81
350.947	391.81
351.174	381.81
351.402	388.81
351.629	401.81
351.856	382.81
352.083	410.81
352.311	387.81
352.538	397.81
352.765	400.81
352.992	395.81
353.22	382.81
353.447	392.81
353.674	408.81
353.901	392.81
354.128	396.81
354.355	384.81
354.583	390.81
354.81	397.81
355.037	389.81
355.264	369.81
355.491	380.81
355.718	372.81
355.945	379.81
356.172	397.81
356.399	383.81
356.626	397.81
356.853	372.81
357.08	383.81
357.307	368.81
357.534	391.81
357.761	379.81
357.988	376.81
358.215	371.81
358.441	389.81
358.668	393.81
358.895	389.81
359.122	404.81
359.349	386.81
359.576	402.81
359.802	407.81
360.029	403.81
360.256	439.81
360.483	427.81
360.709	422.81
360.936	407.81
361.163	398.81
361.39	395.81
361.616	382.81
361.843	398.81
362.07	389.81
362.296	404.81
362.523	399.81
362.749	387.81
362.976	389.81
363.203	394.81
363.429	391.81
363.656	394.81
363.882	381.81
364.109	399.81
364.335	392.81
364.562	399.81
364.788	378.81
365.015	405.81
365.241	393.81
365.468	394.81
365.694	394.81
365.92	396.81
366.147	395.81
366.373	383.81
366.599	394.81
366.826	395.81
367.052	387.81
367.278	377.81
367.505	396.81
367.731	383.81
367.957	424.81
368.184	402.81
368.41	396.81
368.636	393.81
368.862	405.81
369.089	390.81
369.315	407.81
369.541	385.81
369.767	408.81
369.993	375.81
370.219	372.81
370.445	383.81
370.672	400.81
370.898	386.81
371.124	392.81
371.35	397.81
371.576	418.81
371.802	417.81
372.028	399.81
372.254	398.81
372.48	389.81
372.706	415.81
372.932	422.81
373.158	411.81
373.384	405.81
373.61	415.81
373.835	415.81
374.061	391.81
374.287	392.81
374.513	415.81
374.739	436.81
374.965	412.81
375.191	421.81
375.416	408.81
375.642	392.81
375.868	402.81
376.094	406.81
376.319	415.81
376.545	404.81
376.771	403.81
376.997	389.81
377.222	406.81
377.448	421.81
377.674	401.81
377.899	415.81
378.125	407.81
378.35	416.81
378.576	417.81
378.802	436.81
379.027	413.81
379.253	395.81
379.478	397.81
379.704	394.81
379.929	417.81
380.155	408.81
380.38	404.81
380.606	420.81
380.831	429.81
381.057	406.81
381.282	415.81
381.507	430.81
381.733	408.81
381.958	413.81
382.184	420.81
382.409	426.81
382.634	443.81
382.86	414.81
383.085	435.81
383.31	411.81
383.535	442.81
383.761	447.81
383.986	446.81
384.211	441.81
384.436	428.81
384.662	459.81
384.887	433.81
385.112	457.81
385.337	476.81
385.562	446.81
385.787	478.81
386.013	469.81
386.238	461.81
386.463	467.81
386.688	467.81
386.913	446.81
387.138	453.81
387.363	475.81
387.588	473.81
387.813	464.81
388.038	482.81
388.263	480.81
388.488	485.81
388.713	465.81
388.938	451.81
389.163	463.81
389.387	449.81
389.612	445.81
389.837	457.81
390.062	448.81
390.287	448.81
390.512	456.81
390.736	444.81
390.961	452.81
391.186	453.81
391.411	457.81
391.636	477.81
391.86	469.81
392.085	497.81
392.31	474.81
392.534	480.81
392.759	483.81
392.984	485.81
393.208	458.81
393.433	461.81
393.658	463.81
393.882	449.81
394.107	441.81
394.331	460.81
394.556	461.81
394.78	470.81
395.005	474.81
395.229	463.81
395.454	462.81
395.678	491.81
395.903	492.81
396.127	497.81
396.352	515.81
396.576	496.81
396.801	485.81
397.025	502.81
397.249	499.81
397.474	490.81
397.698	488.81
397.922	510.81
398.147	502.81
398.371	523.81
398.595	512.81
398.82	516.81
399.044	535.81
399.268	559.81
399.492	592.81
399.717	628.81
399.941	659.81
400.165	672.81
400.389	645.81
400.613	624.81
400.837	571.81
401.062	550.81
401.286	564.81
401.51	541.81
401.734	528.81
401.958	531.81
402.182	537.81
402.406	523.81
402.63	519.81
402.854	557.81
403.078	565.81
403.302	552.81
403.526	577.81
403.75	537.81
403.974	556.81
404.198	534.81
404.422	573.81
404.645	550.81
404.869	565.81
405.093	583.81
405.317	651.81
405.541	663.81
405.765	605.81
405.988	575.81
406.212	572.81
406.436	600.81
406.66	580.81
406.883	588.81
407.107	614.81
407.331	616.81
407.555	711.81
407.778	713.81
408.002	672.81
408.226	641.81
408.449	597.81
408.673	593.81
408.896	616.81
409.12	658.81
409.344	628.81
409.567	566.81
409.791	545.81
410.014	555.81
410.238	544.81
410.461	543.81
410.685	534.81
410.908	571.81
411.132	596.81
411.355	633.81
411.578	586.81
411.802	568.81
412.025	552.81
412.249	549.81
412.472	572.81
412.695	613.81
412.919	609.81
413.142	570.81
413.365	544.81
413.589	556.81
413.812	512.81
414.035	531.81
414.258	525.81
414.482	515.81
414.705	544.81
414.928	533.81
415.151	533.81
415.374	532.81
415.597	526.81
415.821	520.81
416.044	536.81
416.267	540.81
416.49	505.81
416.713	506.81
416.936	510.81
417.159	521.81
417.382	499.81
417.605	513.81
417.828	543.81
418.051	519.81
418.274	533.81
418.497	543.81
418.72	535.81
418.943	550.81
419.166	555.81
419.389	608.81
419.611	581.81
419.834	569.81
420.057	564.81
420.28	561.81
420.503	549.81
420.726	532.81
420.948	572.81
421.171	596.81
421.394	628.81
421.617	557.81
421.839	551.81
422.062	557.81
422.285	551.81
422.507	600.81
422.73	681.81
422.953	644.81
423.175	581.81
423.398	577.81
423.621	558.81
423.843	583.81
424.066	584.81
424.288	572.81
424.511	594.81
424.733	648.81
424.956	699.81
425.178	649.81
425.401	660.81
425.623	737.81
425.846	602.81
426.068	566.81
426.291	566.81
426.513	550.81
426.735	571.81
426.958	593.81
427.18	677.81
427.402	799.81
427.625	852.81
427.847	733.81
428.069	621.81
428.292	614.81
428.514	522.81
428.736	529.81
428.958	540.81
429.181	527.81
429.403	504.81
429.625	509.81
429.847	563.81
430.069	609.81
430.292	620.81
430.514	553.81
430.736	526.81
430.958	537.81
431.18	519.81
431.402	507.81
431.624	488.81
431.846	507.81
432.068	491.81
432.29	503.81
432.512	507.81
432.734	500.81
432.956	507.81
433.178	499.81
433.4	524.81
433.622	520.81
433.844	524.81
434.066	512.81
434.287	505.81
434.509	518.81
434.731	535.81
434.953	540.81
435.175	548.81
435.397	541.81
435.618	554.81
435.84	605.81
436.062	661.81
436.284	760.81
436.505	638.81
436.727	580.81
436.949	520.81
437.17	519.81
437.392	533.81
437.614	525.81
437.835	545.81
438.057	608.81
438.278	706.81
438.5	744.81
438.721	816.81
438.943	783.81
439.165	632.81
439.386	579.81
439.608	558.81
439.829	565.81
440.05	578.81
440.272	611.81
440.493	583.81
440.715	553.81
440.936	551.81
441.158	509.81
441.379	501.81
441.6	544.81
441.822	568.81
442.043	570.81
442.264	679.81
442.486	707.81
442.707	596.81
442.928	573.81
443.149	568.81
443.371	604.81
443.592	653.81
443.813	703.81
444.034	799.81
444.255	640.81
444.476	607.81
444.698	596.81
444.919	580.81
445.14	693.81
445.361	633.81
445.582	619.81
445.803	637.81
446.024	759.81
446.245	763.81
446.466	685.81
446.687	609.81
446.908	555.81
447.129	521.81
447.35	523.81
447.571	509.81
447.792	520.81
448.013	515.81
448.234	521.81
448.455	563.81
448.675	670.81
448.896	773.81
449.117	648.81
449.338	641.81
449.559	726.81
449.779	819.81
450	651.81
450.221	540.81
450.442	524.81
450.662	489.81
450.883	479.81
451.104	485.81
451.324	488.81
451.545	476.81
451.766	494.81
451.986	486.81
452.207	468.81
452.428	461.81
452.648	483.81
452.869	479.81
453.089	468.81
453.31	473.81
453.53	478.81
453.751	446.81
453.971	462.81
454.192	462.81
454.412	461.81
454.633	455.81
454.853	450.81
455.073	443.81
455.294	482.81
455.514	524.81
455.734	519.81
455.955	445.81
456.175	454.81
456.395	435.81
456.616	443.81
456.836	445.81
457.056	439.81
457.276	429.81
457.497	416.81
457.717	441.81
457.937	457.81
458.157	452.81
458.377	456.81
458.598	463.81
458.818	525.81
459.038	568.81
459.258	590.81
459.478	543.81
459.698	524.81
459.918	491.81
460.138	497.81
460.358	537.81
460.578	536.81
460.798	550.81
461.018	548.81
461.238	533.81
461.458	539.81
461.678	534.81
461.898	534.81
462.118	539.81
462.338	529.81
462.558	538.81
462.777	551.81
462.997	621.81
463.217	611.81
463.437	603.81
463.657	597.81
463.876	586.81
464.096	557.81
464.316	581.81
464.536	567.81
464.755	555.81
464.975	555.81
465.195	557.81
465.414	593.81
465.634	556.81
465.854	508.81
466.073	501.81
466.293	499.81
466.512	484.81
466.732	489.81
466.951	480.81
467.171	480.81
467.391	499.81
467.61	490.81
467.829	491.81
468.049	480.81
468.268	469.81
468.488	486.81
468.707	490.81
468.927	493.81
469.146	475.81
469.365	467.81
469.585	463.81
469.804	502.81
470.023	483.81
470.243	499.81
470.462	502.81
470.681	522.81
470.901	502.81
471.12	495.81
471.339	497.81
471.558	481.81
471.777	507.81
471.997	491.81
472.216	499.81
472.435	502.81
472.654	506.81
472.873	473.81
473.092	469.81
473.311	487.81
473.53	492.81
473.749	486.81
473.968	523.81
474.187	592.81
474.406	612.81
474.625	528.81
474.844	501.81
475.063	513.81
475.282	476.81
475.501	484.81
475.72	501.81
475.939	497.81
476.158	494.81
476.377	487.81
476.596	486.81
476.814	510.81
477.033	499.81
477.252	529.81
477.471	513.81
477.69	520.81
477.908	526.81
478.127	522.81
478.346	546.81
478.564	569.81
478.783	542.81
479.002	538.81
479.22	560.81
479.439	583.81
479.658	596.81
479.876	606.81
480.095	596.81
480.313	619.81
480.532	630.81
480.751	618.81
480.969	651.81
481.188	633.81
481.406	664.81
481.624	604.81
481.843	614.81
482.061	590.81
482.28	576.81
482.498	567.81
482.717	559.81
482.935	571.81
483.153	573.81
483.372	579.81
483.59	577.81
483.808	560.81
484.027	579.81
484.245	575.81
484.463	569.81
484.681	576.81
484.9	574.81
485.118	588.81
485.336	604.81
485.554	596.81
485.772	600.81
485.99	582.81
486.209	603.81
486.427	601.81
486.645	605.81
486.863	609.81
487.081	612.81
487.299	622.81
487.517	604.81
487.735	622.81
487.953	605.81
488.171	601.81
488.389	620.81
488.607	614.81
488.825	637.81
489.043	611.81
489.261	625.81
489.479	614.81
489.696	616.81
489.914	597.81
490.132	609.81
490.35	627.81
490.568	647.81
490.786	651.81
491.003	665.81
491.221	656.81
491.439	688.81
491.657	686.81
491.874	675.81
492.092	687.81
492.31	697.81
492.527	688.81
492.745	703.81
492.963	709.81
493.18	699.81
493.398	704.81
493.615	721.81
493.833	729.81
494.05	717.81
494.268	710.81
494.485	709.81
494.703	695.81
494.92	721.81
495.138	734.81
495.355	707.81
495.573	723.81
495.79	705.81
496.008	728.81
496.225	718.81
496.442	719.81
496.66	718.81
496.877	718.81
497.094	725.81
497.312	740.81
497.529	775.81
497.746	759.81
497.963	762.81
498.181	812.81
498.398	804.81
498.615	828.81
498.832	865.81
499.049	864.81
499.267	911.81
499.484	927.81
499.701	999.81
499.918	998.81
500.135	1086.81
500.352	1170.81
500.569	1136.81
500.786	1155.81
501.003	1178.81
501.22	1062.81
501.437	1042.81
501.654	985.81
