Data from 1975.PennyLincolnUp.Lamp.En5.5.200Scan.071719.P1.Changed Mount._HRD10591_15-58-43-860.txt Node
Date: Thu Jul 18 15:58:43 EDT 2019
User: cochatt
Spectrometer: HR+D1059
Trigger mode: 1
Integration Time (sec): 1.000000E-1
Scans to average: 1
Electric dark correction enabled: true
Nonlinearity correction enabled: false
Boxcar width: 0
XAxis mode: Wavelengths
Number of Pixels in Spectrum: 2048
>>>>>Begin Spectral Data<<<<<
223.165	-10.62
223.4	-10.62
223.635	-10.62
223.869	-11.62
224.104	-24.62
224.338	-22.62
224.573	-26.62
224.808	-14.62
225.042	3.38
225.277	8.38
225.511	-16.62
225.746	5.38
225.98	7.38
226.215	8.38
226.449	23.38
226.683	10.38
226.918	41.38
227.152	19.38
227.387	29.38
227.621	53.38
227.856	47.38
228.09	44.38
228.324	66.38
228.559	57.38
228.793	74.38
229.027	91.38
229.262	109.38
229.496	105.38
229.73	124.38
229.964	139.38
230.199	130.38
230.433	102.38
230.667	103.38
230.901	104.38
231.136	123.38
231.37	106.38
231.604	104.38
231.838	107.38
232.072	95.38
232.306	111.38
232.541	115.38
232.775	113.38
233.009	113.38
233.243	113.38
233.477	124.38
233.711	125.38
233.945	127.38
234.179	118.38
234.413	123.38
234.647	123.38
234.881	105.38
235.115	129.38
235.349	121.38
235.583	114.38
235.817	124.38
236.051	105.38
236.285	122.38
236.519	119.38
236.753	126.38
236.987	135.38
237.221	178.38
237.455	229.38
237.689	186.38
237.922	152.38
238.156	122.38
238.39	124.38
238.624	125.38
238.858	126.38
239.091	144.38
239.325	122.38
239.559	137.38
239.793	121.38
240.027	137.38
240.26	146.38
240.494	155.38
240.728	159.38
240.961	154.38
241.195	156.38
241.429	136.38
241.662	136.38
241.896	131.38
242.13	134.38
242.363	132.38
242.597	140.38
242.83	128.38
243.064	127.38
243.298	135.38
243.531	154.38
243.765	155.38
243.998	158.38
244.232	142.38
244.465	152.38
244.699	151.38
244.932	146.38
245.166	138.38
245.399	141.38
245.633	149.38
245.866	140.38
246.099	144.38
246.333	155.38
246.566	154.38
246.8	152.38
247.033	167.38
247.266	151.38
247.5	160.38
247.733	161.38
247.966	194.38
248.2	194.38
248.433	180.38
248.666	188.38
248.899	195.38
249.133	193.38
249.366	215.38
249.599	202.38
249.832	204.38
250.066	178.38
250.299	189.38
250.532	197.38
250.765	203.38
250.998	234.38
251.231	239.38
251.465	231.38
251.698	199.38
251.931	192.38
252.164	203.38
252.397	189.38
252.63	214.38
252.863	212.38
253.096	225.38
253.329	234.38
253.562	210.38
253.795	234.38
254.028	218.38
254.261	207.38
254.494	220.38
254.727	245.38
254.96	277.38
255.193	276.38
255.426	245.38
255.659	209.38
255.892	226.38
256.124	225.38
256.357	253.38
256.59	230.38
256.823	220.38
257.056	210.38
257.289	208.38
257.521	204.38
257.754	208.38
257.987	213.38
258.22	212.38
258.452	217.38
258.685	210.38
258.918	186.38
259.151	223.38
259.383	213.38
259.616	209.38
259.849	219.38
260.081	227.38
260.314	253.38
260.547	272.38
260.779	247.38
261.012	252.38
261.244	243.38
261.477	233.38
261.71	236.38
261.942	244.38
262.175	244.38
262.407	232.38
262.64	226.38
262.872	205.38
263.105	212.38
263.337	236.38
263.57	233.38
263.802	227.38
264.035	228.38
264.267	218.38
264.499	243.38
264.732	231.38
264.964	219.38
265.197	218.38
265.429	225.38
265.661	218.38
265.894	226.38
266.126	216.38
266.358	208.38
266.591	236.38
266.823	221.38
267.055	253.38
267.287	238.38
267.52	233.38
267.752	242.38
267.984	258.38
268.216	217.38
268.448	233.38
268.681	257.38
268.913	261.38
269.145	282.38
269.377	291.38
269.609	293.38
269.841	284.38
270.073	292.38
270.306	293.38
270.538	336.38
270.77	312.38
271.002	297.38
271.234	299.38
271.466	290.38
271.698	311.38
271.93	321.38
272.162	335.38
272.394	332.38
272.626	313.38
272.858	306.38
273.09	276.38
273.322	284.38
273.553	258.38
273.785	281.38
274.017	283.38
274.249	266.38
274.481	277.38
274.713	274.38
274.945	275.38
275.176	266.38
275.408	268.38
275.64	282.38
275.872	277.38
276.104	291.38
276.335	273.38
276.567	265.38
276.799	288.38
277.031	325.38
277.262	324.38
277.494	330.38
277.726	300.38
277.957	299.38
278.189	295.38
278.421	295.38
278.652	283.38
278.884	299.38
279.115	295.38
279.347	289.38
279.579	303.38
279.81	277.38
280.042	282.38
280.273	273.38
280.505	280.38
280.736	276.38
280.968	267.38
281.199	282.38
281.431	267.38
281.662	288.38
281.894	300.38
282.125	280.38
282.356	292.38
282.588	295.38
282.819	306.38
283.051	285.38
283.282	298.38
283.513	301.38
283.745	276.38
283.976	298.38
284.207	295.38
284.439	305.38
284.67	300.38
284.901	301.38
285.132	297.38
285.364	287.38
285.595	296.38
285.826	289.38
286.057	302.38
286.288	291.38
286.52	305.38
286.751	315.38
286.982	281.38
287.213	287.38
287.444	281.38
287.675	299.38
287.906	305.38
288.138	315.38
288.369	313.38
288.6	325.38
288.831	327.38
289.062	330.38
289.293	305.38
289.524	317.38
289.755	301.38
289.986	311.38
290.217	307.38
290.448	323.38
290.679	319.38
290.91	308.38
291.141	311.38
291.371	310.38
291.602	299.38
291.833	314.38
292.064	307.38
292.295	305.38
292.526	297.38
292.757	295.38
292.987	298.38
293.218	324.38
293.449	313.38
293.68	319.38
293.91	315.38
294.141	315.38
294.372	308.38
294.603	312.38
294.833	299.38
295.064	317.38
295.295	327.38
295.525	317.38
295.756	321.38
295.987	319.38
296.217	354.38
296.448	361.38
296.679	325.38
296.909	316.38
297.14	316.38
297.37	314.38
297.601	307.38
297.831	295.38
298.062	327.38
298.292	330.38
298.523	323.38
298.753	321.38
298.984	319.38
299.214	337.38
299.445	317.38
299.675	326.38
299.905	321.38
300.136	336.38
300.366	329.38
300.597	349.38
300.827	337.38
301.057	330.38
301.288	340.38
301.518	346.38
301.748	347.38
301.979	358.38
302.209	343.38
302.439	343.38
302.669	341.38
302.9	353.38
303.13	336.38
303.36	352.38
303.59	355.38
303.82	369.38
304.051	354.38
304.281	367.38
304.511	337.38
304.741	357.38
304.971	339.38
305.201	341.38
305.431	339.38
305.661	331.38
305.891	360.38
306.121	340.38
306.352	360.38
306.582	364.38
306.812	349.38
307.042	348.38
307.272	357.38
307.502	346.38
307.731	345.38
307.961	359.38
308.191	349.38
308.421	351.38
308.651	356.38
308.881	360.38
309.111	348.38
309.341	345.38
309.571	359.38
309.8	375.38
310.03	369.38
310.26	365.38
310.49	385.38
310.72	373.38
310.949	395.38
311.179	396.38
311.409	383.38
311.639	391.38
311.868	390.38
312.098	390.38
312.328	376.38
312.557	404.38
312.787	410.38
313.017	401.38
313.246	392.38
313.476	383.38
313.706	397.38
313.935	399.38
314.165	403.38
314.394	402.38
314.624	420.38
314.853	416.38
315.083	397.38
315.312	409.38
315.542	408.38
315.771	395.38
316.001	387.38
316.23	402.38
316.46	389.38
316.689	385.38
316.919	406.38
317.148	401.38
317.377	413.38
317.607	398.38
317.836	399.38
318.065	376.38
318.295	390.38
318.524	393.38
318.753	397.38
318.983	389.38
319.212	395.38
319.441	388.38
319.67	375.38
319.9	376.38
320.129	401.38
320.358	391.38
320.587	397.38
320.816	422.38
321.046	396.38
321.275	420.38
321.504	428.38
321.733	419.38
321.962	414.38
322.191	421.38
322.42	450.38
322.649	428.38
322.878	416.38
323.108	440.38
323.337	466.38
323.566	480.38
323.795	498.38
324.024	559.38
324.253	613.38
324.482	876.38
324.71	1324.38
324.939	1957.38
325.168	1669.38
325.397	868.38
325.626	605.38
325.855	513.38
326.084	484.38
326.313	478.38
326.542	513.38
326.77	517.38
326.999	581.38
327.228	808.38
327.457	1199.38
327.686	1497.38
327.914	998.38
328.143	671.38
328.372	573.38
328.6	567.38
328.829	546.38
329.058	561.38
329.287	543.38
329.515	541.38
329.744	533.38
329.972	514.38
330.201	539.38
330.43	543.38
330.658	579.38
330.887	589.38
331.115	566.38
331.344	539.38
331.572	481.38
331.801	486.38
332.03	483.38
332.258	488.38
332.486	480.38
332.715	487.38
332.943	481.38
333.172	501.38
333.4	491.38
333.629	487.38
333.857	515.38
334.085	523.38
334.314	516.38
334.542	542.38
334.771	570.38
334.999	531.38
335.227	505.38
335.455	503.38
335.684	474.38
335.912	495.38
336.14	473.38
336.369	467.38
336.597	492.38
336.825	487.38
337.053	458.38
337.281	459.38
337.51	467.38
337.738	457.38
337.966	455.38
338.194	470.38
338.422	464.38
338.65	447.38
338.878	472.38
339.106	463.38
339.334	438.38
339.562	467.38
339.79	447.38
340.018	442.38
340.246	455.38
340.474	471.38
340.702	461.38
340.93	419.38
341.158	433.38
341.386	439.38
341.614	455.38
341.842	439.38
342.07	439.38
342.298	451.38
342.526	444.38
342.754	418.38
342.981	427.38
343.209	442.38
343.437	444.38
343.665	463.38
343.893	473.38
344.12	495.38
344.348	475.38
344.576	467.38
344.804	471.38
345.031	463.38
345.259	480.38
345.487	447.38
345.714	448.38
345.942	449.38
346.17	437.38
346.397	435.38
346.625	424.38
346.853	416.38
347.08	418.38
347.308	454.38
347.535	433.38
347.763	437.38
347.99	446.38
348.218	460.38
348.445	433.38
348.673	436.38
348.9	438.38
349.128	436.38
349.355	419.38
349.583	435.38
349.81	405.38
350.037	419.38
350.265	423.38
350.492	415.38
350.72	434.38
350.947	433.38
351.174	405.38
351.402	422.38
351.629	431.38
351.856	435.38
352.083	449.38
352.311	431.38
352.538	419.38
352.765	457.38
352.992	433.38
353.22	428.38
353.447	425.38
353.674	420.38
353.901	413.38
354.128	429.38
354.355	435.38
354.583	421.38
354.81	423.38
355.037	427.38
355.264	404.38
355.491	392.38
355.718	387.38
355.945	387.38
356.172	425.38
356.399	426.38
356.626	409.38
356.853	432.38
357.08	419.38
357.307	409.38
357.534	415.38
357.761	406.38
357.988	422.38
358.215	399.38
358.441	397.38
358.668	423.38
358.895	398.38
359.122	417.38
359.349	412.38
359.576	431.38
359.802	451.38
360.029	469.38
360.256	487.38
360.483	484.38
360.709	446.38
360.936	440.38
361.163	433.38
361.39	415.38
361.616	435.38
361.843	415.38
362.07	421.38
362.296	428.38
362.523	444.38
362.749	427.38
362.976	427.38
363.203	428.38
363.429	429.38
363.656	433.38
363.882	429.38
364.109	405.38
364.335	392.38
364.562	409.38
364.788	414.38
365.015	415.38
365.241	421.38
365.468	433.38
365.694	439.38
365.92	437.38
366.147	426.38
366.373	417.38
366.599	409.38
366.826	412.38
367.052	417.38
367.278	414.38
367.505	426.38
367.731	424.38
367.957	431.38
368.184	431.38
368.41	429.38
368.636	447.38
368.862	418.38
369.089	435.38
369.315	413.38
369.541	412.38
369.767	414.38
369.993	425.38
370.219	419.38
370.445	427.38
370.672	426.38
370.898	413.38
371.124	422.38
371.35	423.38
371.576	436.38
371.802	431.38
372.028	417.38
372.254	441.38
372.48	456.38
372.706	443.38
372.932	427.38
373.158	441.38
373.384	440.38
373.61	442.38
373.835	427.38
374.061	419.38
374.287	441.38
374.513	441.38
374.739	438.38
374.965	424.38
375.191	444.38
375.416	436.38
375.642	451.38
375.868	442.38
376.094	450.38
376.319	434.38
376.545	439.38
376.771	405.38
376.997	426.38
377.222	423.38
377.448	442.38
377.674	418.38
377.899	417.38
378.125	423.38
378.35	407.38
378.576	430.38
378.802	419.38
379.027	428.38
379.253	433.38
379.478	450.38
379.704	436.38
379.929	428.38
380.155	411.38
380.38	433.38
380.606	426.38
380.831	423.38
381.057	435.38
381.282	426.38
381.507	433.38
381.733	427.38
381.958	450.38
382.184	433.38
382.409	433.38
382.634	420.38
382.86	447.38
383.085	445.38
383.31	447.38
383.535	463.38
383.761	460.38
383.986	444.38
384.211	455.38
384.436	473.38
384.662	456.38
384.887	464.38
385.112	456.38
385.337	474.38
385.562	467.38
385.787	479.38
386.013	486.38
386.238	496.38
386.463	462.38
386.688	495.38
386.913	491.38
387.138	475.38
387.363	486.38
387.588	480.38
387.813	481.38
388.038	488.38
388.263	479.38
388.488	473.38
388.713	487.38
388.938	476.38
389.163	461.38
389.387	507.38
389.612	478.38
389.837	484.38
390.062	455.38
390.287	474.38
390.512	471.38
390.736	481.38
390.961	497.38
391.186	486.38
391.411	483.38
391.636	501.38
391.86	495.38
392.085	508.38
392.31	507.38
392.534	512.38
392.759	491.38
392.984	481.38
393.208	467.38
393.433	492.38
393.658	491.38
393.882	476.38
394.107	482.38
394.331	473.38
394.556	497.38
394.78	499.38
395.005	473.38
395.229	491.38
395.454	508.38
395.678	516.38
395.903	529.38
396.127	527.38
396.352	547.38
396.576	505.38
396.801	500.38
397.025	516.38
397.249	514.38
397.474	522.38
397.698	538.38
397.922	539.38
398.147	523.38
398.371	536.38
398.595	540.38
398.82	560.38
399.044	578.38
399.268	603.38
399.492	635.38
399.717	689.38
399.941	695.38
400.165	681.38
400.389	709.38
400.613	651.38
400.837	614.38
401.062	579.38
401.286	577.38
401.51	576.38
401.734	581.38
401.958	581.38
402.182	564.38
402.406	574.38
402.63	582.38
402.854	585.38
403.078	569.38
403.302	578.38
403.526	586.38
403.75	589.38
403.974	584.38
404.198	577.38
404.422	579.38
404.645	596.38
404.869	617.38
405.093	632.38
405.317	671.38
405.541	727.38
405.765	664.38
405.988	633.38
406.212	609.38
406.436	609.38
406.66	646.38
406.883	651.38
407.107	664.38
407.331	714.38
407.555	779.38
407.778	767.38
408.002	718.38
408.226	648.38
408.449	636.38
408.673	608.38
408.896	672.38
409.12	707.38
409.344	667.38
409.567	591.38
409.791	615.38
410.014	616.38
410.238	579.38
410.461	584.38
410.685	582.38
410.908	584.38
411.132	638.38
411.355	677.38
411.578	651.38
411.802	604.38
412.025	577.38
412.249	575.38
412.472	618.38
412.695	663.38
412.919	659.38
413.142	597.38
413.365	589.38
413.589	573.38
413.812	567.38
414.035	549.38
414.258	556.38
414.482	561.38
414.705	561.38
414.928	549.38
415.151	532.38
415.374	554.38
415.597	553.38
415.821	555.38
416.044	556.38
416.267	550.38
416.49	555.38
416.713	535.38
416.936	549.38
417.159	533.38
417.382	551.38
417.605	545.38
417.828	588.38
418.051	571.38
418.274	596.38
418.497	589.38
418.72	565.38
418.943	527.38
419.166	570.38
419.389	601.38
419.611	627.38
419.834	606.38
420.057	601.38
420.28	607.38
420.503	598.38
420.726	580.38
420.948	577.38
421.171	633.38
421.394	639.38
421.617	600.38
421.839	581.38
422.062	580.38
422.285	579.38
422.507	657.38
422.73	753.38
422.953	709.38
423.175	596.38
423.398	613.38
423.621	604.38
423.843	640.38
424.066	636.38
424.288	615.38
424.511	625.38
424.733	693.38
424.956	775.38
425.178	759.38
425.401	735.38
425.623	777.38
425.846	655.38
426.068	617.38
426.291	588.38
426.513	608.38
426.735	635.38
426.958	633.38
427.18	741.38
427.402	884.38
427.625	967.38
427.847	821.38
428.069	704.38
428.292	649.38
428.514	603.38
428.736	577.38
428.958	575.38
429.181	558.38
429.403	560.38
429.625	581.38
429.847	604.38
430.069	655.38
430.292	680.38
430.514	597.38
430.736	552.38
430.958	553.38
431.18	551.38
431.402	559.38
431.624	529.38
431.846	537.38
432.068	545.38
432.29	536.38
432.512	533.38
432.734	552.38
432.956	524.38
433.178	540.38
433.4	572.38
433.622	549.38
433.844	559.38
434.066	541.38
434.287	531.38
434.509	546.38
434.731	553.38
434.953	596.38
435.175	594.38
435.397	592.38
435.618	626.38
435.84	641.38
436.062	746.38
436.284	843.38
436.505	682.38
436.727	626.38
436.949	595.38
437.17	560.38
437.392	556.38
437.614	571.38
437.835	597.38
438.057	716.38
438.278	804.38
438.5	793.38
438.721	868.38
438.943	836.38
439.165	643.38
439.386	610.38
439.608	628.38
439.829	610.38
440.05	635.38
440.272	670.38
440.493	625.38
440.715	608.38
440.936	573.38
441.158	571.38
441.379	571.38
441.6	597.38
441.822	586.38
442.043	625.38
442.264	707.38
442.486	753.38
442.707	675.38
442.928	628.38
443.149	631.38
443.371	656.38
443.592	697.38
443.813	791.38
444.034	846.38
444.255	704.38
444.476	655.38
444.698	647.38
444.919	628.38
445.14	762.38
445.361	684.38
445.582	671.38
445.803	737.38
446.024	804.38
446.245	827.38
446.466	741.38
446.687	662.38
446.908	620.38
447.129	575.38
447.35	564.38
447.571	550.38
447.792	559.38
448.013	549.38
448.234	590.38
448.455	619.38
448.675	727.38
448.896	848.38
449.117	716.38
449.338	684.38
449.559	806.38
449.779	897.38
450	751.38
450.221	609.38
450.442	567.38
450.662	537.38
450.883	551.38
451.104	551.38
451.324	522.38
451.545	526.38
451.766	524.38
451.986	518.38
452.207	488.38
452.428	501.38
452.648	491.38
452.869	490.38
453.089	506.38
453.31	505.38
453.53	532.38
453.751	526.38
453.971	506.38
454.192	500.38
454.412	525.38
454.633	487.38
454.853	495.38
455.073	467.38
455.294	499.38
455.514	591.38
455.734	572.38
455.955	515.38
456.175	495.38
456.395	484.38
456.616	465.38
456.836	485.38
457.056	461.38
457.276	449.38
457.497	494.38
457.717	479.38
457.937	475.38
458.157	482.38
458.377	495.38
458.598	500.38
458.818	539.38
459.038	633.38
459.258	658.38
459.478	586.38
459.698	518.38
459.918	520.38
460.138	557.38
460.358	537.38
460.578	540.38
460.798	555.38
461.018	591.38
461.238	553.38
461.458	553.38
461.678	556.38
461.898	551.38
462.118	562.38
462.338	555.38
462.558	597.38
462.777	601.38
462.997	612.38
463.217	616.38
463.437	634.38
463.657	605.38
463.876	610.38
464.096	603.38
464.316	588.38
464.536	619.38
464.755	614.38
464.975	605.38
465.195	625.38
465.414	665.38
465.634	595.38
465.854	549.38
466.073	539.38
466.293	541.38
466.512	523.38
466.732	515.38
466.951	503.38
467.171	513.38
467.391	535.38
467.61	528.38
467.829	517.38
468.049	517.38
468.268	520.38
468.488	516.38
468.707	499.38
468.927	500.38
469.146	521.38
469.365	518.38
469.585	522.38
469.804	536.38
470.023	519.38
470.243	520.38
470.462	544.38
470.681	542.38
470.901	532.38
471.12	526.38
471.339	524.38
471.558	521.38
471.777	541.38
471.997	505.38
472.216	534.38
472.435	565.38
472.654	554.38
472.873	525.38
473.092	513.38
473.311	516.38
473.53	526.38
473.749	520.38
473.968	561.38
474.187	637.38
474.406	665.38
474.625	568.38
474.844	522.38
475.063	522.38
475.282	521.38
475.501	520.38
475.72	541.38
475.939	528.38
476.158	518.38
476.377	547.38
476.596	532.38
476.814	541.38
477.033	549.38
477.252	544.38
477.471	563.38
477.69	549.38
477.908	571.38
478.127	559.38
478.346	561.38
478.564	593.38
478.783	577.38
479.002	619.38
479.22	607.38
479.439	624.38
479.658	609.38
479.876	612.38
480.095	620.38
480.313	675.38
480.532	675.38
480.751	653.38
480.969	649.38
481.188	680.38
481.406	744.38
481.624	662.38
481.843	651.38
482.061	623.38
482.28	613.38
482.498	628.38
482.717	597.38
482.935	604.38
483.153	610.38
483.372	602.38
483.59	604.38
483.808	617.38
484.027	609.38
484.245	629.38
484.463	609.38
484.681	626.38
484.9	599.38
485.118	618.38
485.336	616.38
485.554	621.38
485.772	625.38
485.99	613.38
486.209	651.38
486.427	647.38
486.645	644.38
486.863	644.38
487.081	659.38
487.299	645.38
487.517	650.38
487.735	643.38
487.953	642.38
488.171	653.38
488.389	654.38
488.607	649.38
488.825	639.38
489.043	671.38
489.261	651.38
489.479	666.38
489.696	655.38
489.914	692.38
490.132	680.38
490.35	684.38
490.568	682.38
490.786	696.38
491.003	687.38
491.221	733.38
491.439	740.38
491.657	730.38
491.874	754.38
492.092	764.38
492.31	767.38
492.527	749.38
492.745	764.38
492.963	773.38
493.18	762.38
493.398	762.38
493.615	781.38
493.833	777.38
494.05	778.38
494.268	774.38
494.485	744.38
494.703	789.38
494.92	797.38
495.138	793.38
495.355	770.38
495.573	773.38
495.79	777.38
496.008	781.38
496.225	790.38
496.442	777.38
496.66	767.38
496.877	754.38
497.094	768.38
497.312	794.38
497.529	838.38
497.746	815.38
497.963	811.38
498.181	857.38
498.398	866.38
498.615	886.38
498.832	907.38
499.049	915.38
499.267	936.38
499.484	1007.38
499.701	1025.38
499.918	1075.38
500.135	1160.38
500.352	1233.38
500.569	1219.38
500.786	1258.38
501.003	1210.38
501.22	1168.38
501.437	1122.38
501.654	1080.38
