Data from 1975.PennyLincolnUp.Lamp.En5.5.200Scan.071719.P1.Changed Mount._HRD10591_15-55-55-858.txt Node
Date: Thu Jul 18 15:55:55 EDT 2019
User: cochatt
Spectrometer: HR+D1059
Trigger mode: 1
Integration Time (sec): 1.000000E-1
Scans to average: 1
Electric dark correction enabled: true
Nonlinearity correction enabled: false
Boxcar width: 0
XAxis mode: Wavelengths
Number of Pixels in Spectrum: 2048
>>>>>Begin Spectral Data<<<<<
223.165	-0.69
223.4	-0.69
223.635	-0.69
223.869	-27.69
224.104	-16.69
224.338	-16.69
224.573	-28.69
224.808	-18.69
225.042	-10.69
225.277	10.31
225.511	4.31
225.746	-5.69
225.98	1.31
226.215	25.31
226.449	28.31
226.683	15.31
226.918	12.31
227.152	28.31
227.387	28.31
227.621	42.31
227.856	42.31
228.09	48.31
228.324	49.31
228.559	52.31
228.793	82.31
229.027	80.31
229.262	112.31
229.496	110.31
229.73	127.31
229.964	151.31
230.199	128.31
230.433	109.31
230.667	112.31
230.901	109.31
231.136	103.31
231.37	105.31
231.604	104.31
231.838	119.31
232.072	103.31
232.306	100.31
232.541	107.31
232.775	121.31
233.009	97.31
233.243	103.31
233.477	120.31
233.711	116.31
233.945	102.31
234.179	115.31
234.413	113.31
234.647	109.31
234.881	116.31
235.115	130.31
235.349	123.31
235.583	124.31
235.817	114.31
236.051	112.31
236.285	136.31
236.519	132.31
236.753	122.31
236.987	135.31
237.221	186.31
237.455	214.31
237.689	173.31
237.922	149.31
238.156	117.31
238.39	119.31
238.624	119.31
238.858	121.31
239.091	117.31
239.325	125.31
239.559	118.31
239.793	128.31
240.027	140.31
240.26	137.31
240.494	160.31
240.728	126.31
240.961	149.31
241.195	132.31
241.429	128.31
241.662	142.31
241.896	136.31
242.13	141.31
242.363	135.31
242.597	142.31
242.83	148.31
243.064	136.31
243.298	137.31
243.531	137.31
243.765	150.31
243.998	149.31
244.232	144.31
244.465	168.31
244.699	161.31
244.932	151.31
245.166	148.31
245.399	169.31
245.633	156.31
245.866	138.31
246.099	140.31
246.333	152.31
246.566	156.31
246.8	147.31
247.033	160.31
247.266	165.31
247.5	148.31
247.733	160.31
247.966	164.31
248.2	166.31
248.433	177.31
248.666	184.31
248.899	173.31
249.133	176.31
249.366	191.31
249.599	189.31
249.832	176.31
250.066	189.31
250.299	180.31
250.532	196.31
250.765	206.31
250.998	196.31
251.231	210.31
251.465	219.31
251.698	207.31
251.931	201.31
252.164	192.31
252.397	198.31
252.63	182.31
252.863	214.31
253.096	224.31
253.329	237.31
253.562	224.31
253.795	205.31
254.028	216.31
254.261	201.31
254.494	220.31
254.727	231.31
254.96	269.31
255.193	272.31
255.426	220.31
255.659	202.31
255.892	228.31
256.124	216.31
256.357	230.31
256.59	212.31
256.823	208.31
257.056	215.31
257.289	199.31
257.521	206.31
257.754	192.31
257.987	194.31
258.22	220.31
258.452	207.31
258.685	194.31
258.918	190.31
259.151	204.31
259.383	211.31
259.616	215.31
259.849	219.31
260.081	214.31
260.314	238.31
260.547	247.31
260.779	233.31
261.012	228.31
261.244	212.31
261.477	218.31
261.71	216.31
261.942	215.31
262.175	210.31
262.407	215.31
262.64	192.31
262.872	210.31
263.105	213.31
263.337	199.31
263.57	209.31
263.802	211.31
264.035	217.31
264.267	218.31
264.499	212.31
264.732	202.31
264.964	206.31
265.197	213.31
265.429	212.31
265.661	209.31
265.894	206.31
266.126	207.31
266.358	211.31
266.591	224.31
266.823	233.31
267.055	209.31
267.287	240.31
267.52	216.31
267.752	225.31
267.984	214.31
268.216	220.31
268.448	220.31
268.681	220.31
268.913	256.31
269.145	247.31
269.377	269.31
269.609	260.31
269.841	266.31
270.073	257.31
270.306	277.31
270.538	310.31
270.77	309.31
271.002	283.31
271.234	297.31
271.466	296.31
271.698	281.31
271.93	289.31
272.162	301.31
272.394	294.31
272.626	288.31
272.858	274.31
273.09	283.31
273.322	273.31
273.553	271.31
273.785	257.31
274.017	245.31
274.249	271.31
274.481	278.31
274.713	271.31
274.945	255.31
275.176	269.31
275.408	270.31
275.64	255.31
275.872	249.31
276.104	267.31
276.335	258.31
276.567	268.31
276.799	277.31
277.031	285.31
277.262	291.31
277.494	300.31
277.726	293.31
277.957	278.31
278.189	249.31
278.421	281.31
278.652	272.31
278.884	261.31
279.115	276.31
279.347	265.31
279.579	253.31
279.81	257.31
280.042	257.31
280.273	262.31
280.505	268.31
280.736	261.31
280.968	265.31
281.199	281.31
281.431	274.31
281.662	276.31
281.894	264.31
282.125	274.31
282.356	269.31
282.588	283.31
282.819	290.31
283.051	280.31
283.282	260.31
283.513	285.31
283.745	274.31
283.976	292.31
284.207	287.31
284.439	276.31
284.67	264.31
284.901	288.31
285.132	276.31
285.364	286.31
285.595	278.31
285.826	274.31
286.057	273.31
286.288	274.31
286.52	298.31
286.751	274.31
286.982	301.31
287.213	280.31
287.444	270.31
287.675	305.31
287.906	284.31
288.138	312.31
288.369	284.31
288.6	296.31
288.831	285.31
289.062	286.31
289.293	294.31
289.524	293.31
289.755	283.31
289.986	278.31
290.217	294.31
290.448	276.31
290.679	282.31
290.91	284.31
291.141	312.31
291.371	272.31
291.602	292.31
291.833	277.31
292.064	311.31
292.295	295.31
292.526	301.31
292.757	296.31
292.987	291.31
293.218	275.31
293.449	312.31
293.68	277.31
293.91	289.31
294.141	301.31
294.372	279.31
294.603	300.31
294.833	304.31
295.064	304.31
295.295	298.31
295.525	293.31
295.756	305.31
295.987	302.31
296.217	315.31
296.448	319.31
296.679	310.31
296.909	303.31
297.14	308.31
297.37	311.31
297.601	284.31
297.831	302.31
298.062	297.31
298.292	295.31
298.523	313.31
298.753	313.31
298.984	317.31
299.214	295.31
299.445	304.31
299.675	300.31
299.905	323.31
300.136	310.31
300.366	312.31
300.597	312.31
300.827	315.31
301.057	316.31
301.288	336.31
301.518	311.31
301.748	321.31
301.979	322.31
302.209	327.31
302.439	333.31
302.669	319.31
302.9	319.31
303.13	322.31
303.36	329.31
303.59	334.31
303.82	335.31
304.051	344.31
304.281	337.31
304.511	322.31
304.741	308.31
304.971	316.31
305.201	313.31
305.431	342.31
305.661	320.31
305.891	322.31
306.121	319.31
306.352	324.31
306.582	329.31
306.812	320.31
307.042	330.31
307.272	324.31
307.502	338.31
307.731	344.31
307.961	344.31
308.191	329.31
308.421	333.31
308.651	326.31
308.881	330.31
309.111	339.31
309.341	316.31
309.571	352.31
309.8	338.31
310.03	377.31
310.26	367.31
310.49	364.31
310.72	364.31
310.949	374.31
311.179	360.31
311.409	356.31
311.639	367.31
311.868	362.31
312.098	353.31
312.328	349.31
312.557	368.31
312.787	382.31
313.017	392.31
313.246	367.31
313.476	363.31
313.706	373.31
313.935	362.31
314.165	366.31
314.394	376.31
314.624	380.31
314.853	368.31
315.083	365.31
315.312	360.31
315.542	356.31
315.771	363.31
316.001	361.31
316.23	366.31
316.46	349.31
316.689	358.31
316.919	385.31
317.148	376.31
317.377	392.31
317.607	371.31
317.836	384.31
318.065	383.31
318.295	368.31
318.524	353.31
318.753	374.31
318.983	370.31
319.212	356.31
319.441	380.31
319.67	375.31
319.9	354.31
320.129	364.31
320.358	384.31
320.587	364.31
320.816	372.31
321.046	388.31
321.275	373.31
321.504	379.31
321.733	387.31
321.962	384.31
322.191	385.31
322.42	399.31
322.649	402.31
322.878	396.31
323.108	403.31
323.337	447.31
323.566	452.31
323.795	476.31
324.024	470.31
324.253	538.31
324.482	704.31
324.71	1143.31
324.939	1628.31
325.168	1453.31
325.397	704.31
325.626	518.31
325.855	457.31
326.084	437.31
326.313	424.31
326.542	442.31
326.77	476.31
326.999	519.31
327.228	696.31
327.457	992.31
327.686	1274.31
327.914	839.31
328.143	562.31
328.372	522.31
328.6	471.31
328.829	485.31
329.058	495.31
329.287	493.31
329.515	470.31
329.744	432.31
329.972	458.31
330.201	476.31
330.43	495.31
330.658	501.31
330.887	536.31
331.115	501.31
331.344	472.31
331.572	454.31
331.801	448.31
332.03	446.31
332.258	435.31
332.486	448.31
332.715	434.31
332.943	445.31
333.172	456.31
333.4	471.31
333.629	444.31
333.857	454.31
334.085	496.31
334.314	489.31
334.542	528.31
334.771	516.31
334.999	494.31
335.227	456.31
335.455	470.31
335.684	447.31
335.912	460.31
336.14	424.31
336.369	451.31
336.597	463.31
336.825	453.31
337.053	445.31
337.281	431.31
337.51	441.31
337.738	430.31
337.966	404.31
338.194	431.31
338.422	433.31
338.65	415.31
338.878	422.31
339.106	402.31
339.334	429.31
339.562	408.31
339.79	414.31
340.018	403.31
340.246	403.31
340.474	419.31
340.702	422.31
340.93	400.31
341.158	425.31
341.386	419.31
341.614	418.31
341.842	397.31
342.07	423.31
342.298	420.31
342.526	395.31
342.754	422.31
342.981	401.31
343.209	400.31
343.437	425.31
343.665	438.31
343.893	436.31
344.12	458.31
344.348	453.31
344.576	447.31
344.804	450.31
345.031	445.31
345.259	434.31
345.487	416.31
345.714	418.31
345.942	416.31
346.17	415.31
346.397	399.31
346.625	399.31
346.853	400.31
347.08	408.31
347.308	401.31
347.535	406.31
347.763	416.31
347.99	398.31
348.218	425.31
348.445	406.31
348.673	410.31
348.9	398.31
349.128	400.31
349.355	398.31
349.583	389.31
349.81	411.31
350.037	412.31
350.265	406.31
350.492	395.31
350.72	396.31
350.947	392.31
351.174	404.31
351.402	408.31
351.629	411.31
351.856	422.31
352.083	394.31
352.311	413.31
352.538	416.31
352.765	412.31
352.992	405.31
353.22	410.31
353.447	396.31
353.674	406.31
353.901	388.31
354.128	413.31
354.355	389.31
354.583	375.31
354.81	374.31
355.037	412.31
355.264	391.31
355.491	404.31
355.718	380.31
355.945	379.31
356.172	393.31
356.399	389.31
356.626	383.31
356.853	399.31
357.08	372.31
357.307	378.31
357.534	391.31
357.761	391.31
357.988	397.31
358.215	392.31
358.441	377.31
358.668	396.31
358.895	371.31
359.122	401.31
359.349	401.31
359.576	408.31
359.802	416.31
360.029	426.31
360.256	414.31
360.483	423.31
360.709	412.31
360.936	420.31
361.163	409.31
361.39	406.31
361.616	414.31
361.843	410.31
362.07	409.31
362.296	398.31
362.523	397.31
362.749	393.31
362.976	410.31
363.203	407.31
363.429	406.31
363.656	402.31
363.882	390.31
364.109	401.31
364.335	391.31
364.562	402.31
364.788	393.31
365.015	402.31
365.241	393.31
365.468	391.31
365.694	401.31
365.92	404.31
366.147	386.31
366.373	386.31
366.599	414.31
366.826	391.31
367.052	392.31
367.278	386.31
367.505	401.31
367.731	412.31
367.957	406.31
368.184	409.31
368.41	419.31
368.636	412.31
368.862	411.31
369.089	417.31
369.315	425.31
369.541	393.31
369.767	414.31
369.993	404.31
370.219	392.31
370.445	403.31
370.672	400.31
370.898	402.31
371.124	389.31
371.35	400.31
371.576	410.31
371.802	408.31
372.028	396.31
372.254	415.31
372.48	411.31
372.706	409.31
372.932	408.31
373.158	398.31
373.384	414.31
373.61	407.31
373.835	417.31
374.061	408.31
374.287	419.31
374.513	405.31
374.739	432.31
374.965	424.31
375.191	422.31
375.416	431.31
375.642	415.31
375.868	405.31
376.094	431.31
376.319	412.31
376.545	408.31
376.771	413.31
376.997	437.31
377.222	424.31
377.448	403.31
377.674	393.31
377.899	402.31
378.125	399.31
378.35	388.31
378.576	421.31
378.802	394.31
379.027	401.31
379.253	416.31
379.478	383.31
379.704	413.31
379.929	411.31
380.155	429.31
380.38	434.31
380.606	413.31
380.831	425.31
381.057	402.31
381.282	418.31
381.507	405.31
381.733	425.31
381.958	400.31
382.184	398.31
382.409	447.31
382.634	420.31
382.86	404.31
383.085	427.31
383.31	422.31
383.535	410.31
383.761	441.31
383.986	441.31
384.211	455.31
384.436	441.31
384.662	459.31
384.887	450.31
385.112	442.31
385.337	459.31
385.562	468.31
385.787	479.31
386.013	469.31
386.238	444.31
386.463	454.31
386.688	480.31
386.913	440.31
387.138	447.31
387.363	464.31
387.588	442.31
387.813	466.31
388.038	462.31
388.263	437.31
388.488	465.31
388.713	456.31
388.938	445.31
389.163	462.31
389.387	470.31
389.612	463.31
389.837	467.31
390.062	441.31
390.287	472.31
390.512	448.31
390.736	450.31
390.961	484.31
391.186	473.31
391.411	476.31
391.636	462.31
391.86	483.31
392.085	487.31
392.31	491.31
392.534	488.31
392.759	485.31
392.984	478.31
393.208	466.31
393.433	456.31
393.658	466.31
393.882	457.31
394.107	477.31
394.331	462.31
394.556	460.31
394.78	465.31
395.005	465.31
395.229	454.31
395.454	467.31
395.678	476.31
395.903	506.31
396.127	516.31
396.352	498.31
396.576	477.31
396.801	460.31
397.025	483.31
397.249	493.31
397.474	493.31
397.698	477.31
397.922	501.31
398.147	504.31
398.371	510.31
398.595	494.31
398.82	538.31
399.044	536.31
399.268	575.31
399.492	590.31
399.717	641.31
399.941	665.31
400.165	678.31
400.389	659.31
400.613	604.31
400.837	555.31
401.062	554.31
401.286	533.31
401.51	571.31
401.734	547.31
401.958	552.31
402.182	520.31
402.406	536.31
402.63	549.31
402.854	526.31
403.078	567.31
403.302	556.31
403.526	587.31
403.75	559.31
403.974	569.31
404.198	555.31
404.422	582.31
404.645	577.31
404.869	572.31
405.093	609.31
405.317	624.31
405.541	645.31
405.765	613.31
405.988	566.31
406.212	578.31
406.436	595.31
406.66	574.31
406.883	586.31
407.107	628.31
407.331	692.31
407.555	731.31
407.778	710.31
408.002	646.31
408.226	623.31
408.449	626.31
408.673	592.31
408.896	648.31
409.12	710.31
409.344	642.31
409.567	593.31
409.791	566.31
410.014	566.31
410.238	548.31
410.461	554.31
410.685	557.31
410.908	581.31
411.132	603.31
411.355	632.31
411.578	598.31
411.802	572.31
412.025	575.31
412.249	581.31
412.472	569.31
412.695	608.31
412.919	600.31
413.142	567.31
413.365	558.31
413.589	574.31
413.812	554.31
414.035	544.31
414.258	534.31
414.482	546.31
414.705	526.31
414.928	533.31
415.151	536.31
415.374	537.31
415.597	510.31
415.821	517.31
416.044	522.31
416.267	531.31
416.49	532.31
416.713	538.31
416.936	522.31
417.159	516.31
417.382	532.31
417.605	518.31
417.828	545.31
418.051	556.31
418.274	546.31
418.497	519.31
418.72	538.31
418.943	526.31
419.166	532.31
419.389	578.31
419.611	598.31
419.834	556.31
420.057	583.31
420.28	557.31
420.503	552.31
420.726	573.31
420.948	542.31
421.171	587.31
421.394	609.31
421.617	546.31
421.839	554.31
422.062	533.31
422.285	541.31
422.507	588.31
422.73	686.31
422.953	674.31
423.175	589.31
423.398	580.31
423.621	552.31
423.843	604.31
424.066	580.31
424.288	573.31
424.511	586.31
424.733	664.31
424.956	730.31
425.178	682.31
425.401	668.31
425.623	711.31
425.846	603.31
426.068	570.31
426.291	573.31
426.513	551.31
426.735	573.31
426.958	616.31
427.18	694.31
427.402	820.31
427.625	885.31
427.847	760.31
428.069	633.31
428.292	597.31
428.514	575.31
428.736	535.31
428.958	529.31
429.181	538.31
429.403	492.31
429.625	558.31
429.847	564.31
430.069	620.31
430.292	639.31
430.514	546.31
430.736	538.31
430.958	533.31
431.18	502.31
431.402	512.31
431.624	506.31
431.846	493.31
432.068	513.31
432.29	504.31
432.512	526.31
432.734	525.31
432.956	526.31
433.178	510.31
433.4	528.31
433.622	509.31
433.844	518.31
434.066	522.31
434.287	517.31
434.509	518.31
434.731	554.31
434.953	541.31
435.175	541.31
435.397	588.31
435.618	572.31
435.84	618.31
436.062	672.31
436.284	765.31
436.505	646.31
436.727	568.31
436.949	544.31
437.17	539.31
437.392	527.31
437.614	512.31
437.835	548.31
438.057	644.31
438.278	726.31
438.5	732.31
438.721	827.31
438.943	785.31
439.165	645.31
439.386	561.31
439.608	558.31
439.829	595.31
440.05	585.31
440.272	623.31
440.493	601.31
440.715	577.31
440.936	570.31
441.158	530.31
441.379	542.31
441.6	571.31
441.822	561.31
442.043	602.31
442.264	668.31
442.486	746.31
442.707	623.31
442.928	570.31
443.149	571.31
443.371	594.31
443.592	649.31
443.813	736.31
444.034	788.31
444.255	684.31
444.476	604.31
444.698	592.31
444.919	582.31
445.14	657.31
445.361	647.31
445.582	604.31
445.803	663.31
446.024	740.31
446.245	785.31
446.466	726.31
446.687	589.31
446.908	574.31
447.129	542.31
447.35	533.31
447.571	538.31
447.792	500.31
448.013	525.31
448.234	530.31
448.455	565.31
448.675	674.31
448.896	838.31
449.117	668.31
449.338	657.31
449.559	728.31
449.779	866.31
450	675.31
450.221	540.31
450.442	524.31
450.662	519.31
450.883	520.31
451.104	522.31
451.324	520.31
451.545	492.31
451.766	463.31
451.986	465.31
452.207	461.31
452.428	465.31
452.648	471.31
452.869	454.31
453.089	457.31
453.31	474.31
453.53	467.31
453.751	465.31
453.971	467.31
454.192	480.31
454.412	459.31
454.633	455.31
454.853	464.31
455.073	469.31
455.294	480.31
455.514	541.31
455.734	518.31
455.955	472.31
456.175	446.31
456.395	429.31
456.616	427.31
456.836	428.31
457.056	419.31
457.276	426.31
457.497	436.31
457.717	456.31
457.937	464.31
458.157	445.31
458.377	460.31
458.598	490.31
458.818	500.31
459.038	552.31
459.258	589.31
459.478	534.31
459.698	529.31
459.918	517.31
460.138	519.31
460.358	531.31
460.578	507.31
460.798	541.31
461.018	526.31
461.238	547.31
461.458	545.31
461.678	511.31
461.898	534.31
462.118	530.31
462.338	545.31
462.558	564.31
462.777	568.31
462.997	568.31
463.217	609.31
463.437	610.31
463.657	577.31
463.876	598.31
464.096	574.31
464.316	580.31
464.536	585.31
464.755	571.31
464.975	570.31
465.195	574.31
465.414	593.31
465.634	556.31
465.854	530.31
466.073	522.31
466.293	495.31
466.512	488.31
466.732	465.31
466.951	486.31
467.171	482.31
467.391	490.31
467.61	493.31
467.829	494.31
468.049	475.31
468.268	461.31
468.488	458.31
468.707	466.31
468.927	474.31
469.146	462.31
469.365	478.31
469.585	473.31
469.804	489.31
470.023	480.31
470.243	483.31
470.462	506.31
470.681	513.31
470.901	488.31
471.12	486.31
471.339	489.31
471.558	468.31
471.777	491.31
471.997	460.31
472.216	493.31
472.435	507.31
472.654	513.31
472.873	520.31
473.092	504.31
473.311	465.31
473.53	471.31
473.749	505.31
473.968	521.31
474.187	630.31
474.406	634.31
474.625	522.31
474.844	514.31
475.063	488.31
475.282	491.31
475.501	482.31
475.72	516.31
475.939	501.31
476.158	496.31
476.377	487.31
476.596	505.31
476.814	498.31
477.033	502.31
477.252	506.31
477.471	537.31
477.69	520.31
477.908	568.31
478.127	543.31
478.346	538.31
478.564	544.31
478.783	560.31
479.002	579.31
479.22	568.31
479.439	567.31
479.658	585.31
479.876	603.31
480.095	586.31
480.313	616.31
480.532	617.31
480.751	612.31
480.969	614.31
481.188	646.31
481.406	663.31
481.624	637.31
481.843	591.31
482.061	585.31
482.28	584.31
482.498	580.31
482.717	588.31
482.935	569.31
483.153	575.31
483.372	584.31
483.59	578.31
483.808	569.31
484.027	592.31
484.245	582.31
484.463	572.31
484.681	585.31
484.9	580.31
485.118	585.31
485.336	608.31
485.554	603.31
485.772	628.31
485.99	581.31
486.209	579.31
486.427	601.31
486.645	604.31
486.863	613.31
487.081	618.31
487.299	617.31
487.517	620.31
487.735	581.31
487.953	588.31
488.171	618.31
488.389	618.31
488.607	621.31
488.825	601.31
489.043	624.31
489.261	621.31
489.479	649.31
489.696	623.31
489.914	612.31
490.132	633.31
490.35	638.31
490.568	635.31
490.786	669.31
491.003	688.31
491.221	656.31
491.439	679.31
491.657	680.31
491.874	688.31
492.092	708.31
492.31	696.31
492.527	703.31
492.745	713.31
492.963	724.31
493.18	703.31
493.398	718.31
493.615	718.31
493.833	750.31
494.05	734.31
494.268	726.31
494.485	713.31
494.703	704.31
494.92	708.31
495.138	708.31
495.355	735.31
495.573	717.31
495.79	722.31
496.008	763.31
496.225	728.31
496.442	751.31
496.66	742.31
496.877	722.31
497.094	733.31
497.312	740.31
497.529	745.31
497.746	743.31
497.963	750.31
498.181	782.31
498.398	829.31
498.615	830.31
498.832	836.31
499.049	873.31
499.267	884.31
499.484	924.31
499.701	981.31
499.918	1051.31
500.135	1068.31
500.352	1167.31
500.569	1190.31
500.786	1183.31
501.003	1170.31
501.22	1082.31
501.437	1067.31
501.654	1022.31
