Data from 1975.PennyLincolnUp.Lamp.En5.5.200Scan.071719.P1.Changed Mount._HRD10591_15-57-53-860.txt Node
Date: Thu Jul 18 15:57:53 EDT 2019
User: cochatt
Spectrometer: HR+D1059
Trigger mode: 1
Integration Time (sec): 1.000000E-1
Scans to average: 1
Electric dark correction enabled: true
Nonlinearity correction enabled: false
Boxcar width: 0
XAxis mode: Wavelengths
Number of Pixels in Spectrum: 2048
>>>>>Begin Spectral Data<<<<<
223.165	1.56
223.4	1.56
223.635	1.56
223.869	-23.44
224.104	-13.44
224.338	-17.44
224.573	-22.44
224.808	-3.44
225.042	-11.44
225.277	-20.44
225.511	-10.44
225.746	17.56
225.98	-2.44
226.215	6.56
226.449	13.56
226.683	28.56
226.918	25.56
227.152	31.56
227.387	41.56
227.621	18.56
227.856	36.56
228.09	41.56
228.324	45.56
228.559	56.56
228.793	62.56
229.027	78.56
229.262	110.56
229.496	115.56
229.73	117.56
229.964	160.56
230.199	133.56
230.433	132.56
230.667	108.56
230.901	111.56
231.136	104.56
231.37	113.56
231.604	116.56
231.838	123.56
232.072	118.56
232.306	114.56
232.541	119.56
232.775	120.56
233.009	126.56
233.243	114.56
233.477	118.56
233.711	129.56
233.945	124.56
234.179	107.56
234.413	99.56
234.647	100.56
234.881	114.56
235.115	120.56
235.349	116.56
235.583	118.56
235.817	131.56
236.051	123.56
236.285	133.56
236.519	105.56
236.753	132.56
236.987	142.56
237.221	171.56
237.455	241.56
237.689	190.56
237.922	148.56
238.156	145.56
238.39	120.56
238.624	127.56
238.858	127.56
239.091	141.56
239.325	131.56
239.559	136.56
239.793	127.56
240.027	128.56
240.26	139.56
240.494	152.56
240.728	147.56
240.961	156.56
241.195	141.56
241.429	155.56
241.662	146.56
241.896	142.56
242.13	147.56
242.363	140.56
242.597	141.56
242.83	144.56
243.064	142.56
243.298	141.56
243.531	149.56
243.765	136.56
243.998	155.56
244.232	145.56
244.465	156.56
244.699	157.56
244.932	176.56
245.166	140.56
245.399	154.56
245.633	156.56
245.866	156.56
246.099	174.56
246.333	147.56
246.566	151.56
246.8	151.56
247.033	166.56
247.266	167.56
247.5	178.56
247.733	172.56
247.966	168.56
248.2	183.56
248.433	170.56
248.666	193.56
248.899	195.56
249.133	203.56
249.366	209.56
249.599	216.56
249.832	204.56
250.066	183.56
250.299	180.56
250.532	206.56
250.765	214.56
250.998	227.56
251.231	227.56
251.465	222.56
251.698	212.56
251.931	208.56
252.164	221.56
252.397	210.56
252.63	194.56
252.863	205.56
253.096	223.56
253.329	236.56
253.562	253.56
253.795	232.56
254.028	209.56
254.261	236.56
254.494	230.56
254.727	267.56
254.96	295.56
255.193	279.56
255.426	238.56
255.659	246.56
255.892	234.56
256.124	229.56
256.357	245.56
256.59	216.56
256.823	231.56
257.056	213.56
257.289	220.56
257.521	212.56
257.754	218.56
257.987	227.56
258.22	226.56
258.452	209.56
258.685	210.56
258.918	231.56
259.151	218.56
259.383	224.56
259.616	218.56
259.849	233.56
260.081	244.56
260.314	265.56
260.547	266.56
260.779	274.56
261.012	246.56
261.244	233.56
261.477	218.56
261.71	227.56
261.942	227.56
262.175	244.56
262.407	219.56
262.64	224.56
262.872	233.56
263.105	214.56
263.337	222.56
263.57	228.56
263.802	233.56
264.035	226.56
264.267	223.56
264.499	221.56
264.732	242.56
264.964	228.56
265.197	239.56
265.429	220.56
265.661	221.56
265.894	228.56
266.126	230.56
266.358	221.56
266.591	234.56
266.823	231.56
267.055	227.56
267.287	236.56
267.52	235.56
267.752	239.56
267.984	230.56
268.216	243.56
268.448	251.56
268.681	258.56
268.913	265.56
269.145	270.56
269.377	294.56
269.609	285.56
269.841	289.56
270.073	273.56
270.306	307.56
270.538	310.56
270.77	317.56
271.002	299.56
271.234	292.56
271.466	300.56
271.698	321.56
271.93	315.56
272.162	332.56
272.394	325.56
272.626	308.56
272.858	301.56
273.09	295.56
273.322	289.56
273.553	275.56
273.785	294.56
274.017	270.56
274.249	261.56
274.481	259.56
274.713	279.56
274.945	280.56
275.176	286.56
275.408	276.56
275.64	261.56
275.872	277.56
276.104	264.56
276.335	288.56
276.567	279.56
276.799	303.56
277.031	334.56
277.262	317.56
277.494	329.56
277.726	313.56
277.957	287.56
278.189	298.56
278.421	272.56
278.652	295.56
278.884	294.56
279.115	275.56
279.347	271.56
279.579	275.56
279.81	282.56
280.042	270.56
280.273	285.56
280.505	278.56
280.736	288.56
280.968	283.56
281.199	302.56
281.431	287.56
281.662	303.56
281.894	301.56
282.125	294.56
282.356	294.56
282.588	286.56
282.819	322.56
283.051	297.56
283.282	294.56
283.513	305.56
283.745	295.56
283.976	313.56
284.207	302.56
284.439	300.56
284.67	293.56
284.901	296.56
285.132	309.56
285.364	317.56
285.595	300.56
285.826	284.56
286.057	311.56
286.288	298.56
286.52	302.56
286.751	291.56
286.982	301.56
287.213	308.56
287.444	317.56
287.675	311.56
287.906	313.56
288.138	312.56
288.369	304.56
288.6	335.56
288.831	318.56
289.062	321.56
289.293	319.56
289.524	307.56
289.755	305.56
289.986	315.56
290.217	322.56
290.448	321.56
290.679	311.56
290.91	303.56
291.141	318.56
291.371	317.56
291.602	302.56
291.833	305.56
292.064	300.56
292.295	311.56
292.526	313.56
292.757	322.56
292.987	322.56
293.218	290.56
293.449	317.56
293.68	325.56
293.91	308.56
294.141	308.56
294.372	309.56
294.603	313.56
294.833	321.56
295.064	323.56
295.295	319.56
295.525	318.56
295.756	322.56
295.987	326.56
296.217	332.56
296.448	348.56
296.679	314.56
296.909	305.56
297.14	334.56
297.37	327.56
297.601	317.56
297.831	321.56
298.062	328.56
298.292	335.56
298.523	344.56
298.753	332.56
298.984	324.56
299.214	340.56
299.445	342.56
299.675	343.56
299.905	333.56
300.136	333.56
300.366	331.56
300.597	334.56
300.827	335.56
301.057	337.56
301.288	364.56
301.518	358.56
301.748	348.56
301.979	363.56
302.209	343.56
302.439	333.56
302.669	338.56
302.9	356.56
303.13	349.56
303.36	357.56
303.59	358.56
303.82	362.56
304.051	364.56
304.281	369.56
304.511	347.56
304.741	335.56
304.971	350.56
305.201	347.56
305.431	348.56
305.661	349.56
305.891	342.56
306.121	337.56
306.352	355.56
306.582	347.56
306.812	349.56
307.042	347.56
307.272	352.56
307.502	358.56
307.731	347.56
307.961	360.56
308.191	360.56
308.421	359.56
308.651	373.56
308.881	353.56
309.111	350.56
309.341	360.56
309.571	373.56
309.8	355.56
310.03	374.56
310.26	381.56
310.49	382.56
310.72	381.56
310.949	404.56
311.179	419.56
311.409	405.56
311.639	375.56
311.868	391.56
312.098	369.56
312.328	410.56
312.557	405.56
312.787	421.56
313.017	416.56
313.246	403.56
313.476	406.56
313.706	401.56
313.935	399.56
314.165	411.56
314.394	414.56
314.624	394.56
314.853	406.56
315.083	380.56
315.312	397.56
315.542	399.56
315.771	404.56
316.001	381.56
316.23	385.56
316.46	389.56
316.689	403.56
316.919	384.56
317.148	399.56
317.377	400.56
317.607	409.56
317.836	406.56
318.065	385.56
318.295	376.56
318.524	381.56
318.753	397.56
318.983	396.56
319.212	391.56
319.441	420.56
319.67	405.56
319.9	399.56
320.129	389.56
320.358	394.56
320.587	410.56
320.816	398.56
321.046	409.56
321.275	420.56
321.504	421.56
321.733	429.56
321.962	437.56
322.191	423.56
322.42	440.56
322.649	445.56
322.878	454.56
323.108	438.56
323.337	484.56
323.566	478.56
323.795	502.56
324.024	549.56
324.253	636.56
324.482	852.56
324.71	1309.56
324.939	1895.56
325.168	1730.56
325.397	858.56
325.626	611.56
325.855	519.56
326.084	496.56
326.313	484.56
326.542	481.56
326.77	545.56
326.999	611.56
327.228	803.56
327.457	1195.56
327.686	1466.56
327.914	987.56
328.143	643.56
328.372	585.56
328.6	563.56
328.829	538.56
329.058	541.56
329.287	551.56
329.515	499.56
329.744	498.56
329.972	502.56
330.201	522.56
330.43	545.56
330.658	565.56
330.887	597.56
331.115	585.56
331.344	521.56
331.572	499.56
331.801	489.56
332.03	475.56
332.258	499.56
332.486	468.56
332.715	481.56
332.943	474.56
333.172	469.56
333.4	495.56
333.629	505.56
333.857	514.56
334.085	511.56
334.314	538.56
334.542	564.56
334.771	579.56
334.999	530.56
335.227	504.56
335.455	497.56
335.684	497.56
335.912	500.56
336.14	482.56
336.369	483.56
336.597	478.56
336.825	458.56
337.053	473.56
337.281	477.56
337.51	478.56
337.738	480.56
337.966	468.56
338.194	475.56
338.422	473.56
338.65	458.56
338.878	458.56
339.106	449.56
339.334	431.56
339.562	449.56
339.79	461.56
340.018	457.56
340.246	449.56
340.474	449.56
340.702	441.56
340.93	456.56
341.158	429.56
341.386	451.56
341.614	461.56
341.842	450.56
342.07	424.56
342.298	441.56
342.526	447.56
342.754	443.56
342.981	445.56
343.209	439.56
343.437	468.56
343.665	469.56
343.893	461.56
344.12	509.56
344.348	482.56
344.576	475.56
344.804	474.56
345.031	493.56
345.259	473.56
345.487	464.56
345.714	451.56
345.942	421.56
346.17	442.56
346.397	425.56
346.625	420.56
346.853	432.56
347.08	413.56
347.308	437.56
347.535	435.56
347.763	454.56
347.99	453.56
348.218	450.56
348.445	452.56
348.673	452.56
348.9	443.56
349.128	446.56
349.355	423.56
349.583	437.56
349.81	424.56
350.037	421.56
350.265	437.56
350.492	434.56
350.72	450.56
350.947	431.56
351.174	445.56
351.402	442.56
351.629	451.56
351.856	449.56
352.083	434.56
352.311	441.56
352.538	457.56
352.765	456.56
352.992	436.56
353.22	444.56
353.447	430.56
353.674	429.56
353.901	439.56
354.128	416.56
354.355	426.56
354.583	416.56
354.81	441.56
355.037	416.56
355.264	421.56
355.491	405.56
355.718	431.56
355.945	425.56
356.172	415.56
356.399	408.56
356.626	410.56
356.853	414.56
357.08	436.56
357.307	413.56
357.534	414.56
357.761	411.56
357.988	402.56
358.215	398.56
358.441	438.56
358.668	416.56
358.895	428.56
359.122	438.56
359.349	433.56
359.576	419.56
359.802	447.56
360.029	475.56
360.256	491.56
360.483	463.56
360.709	457.56
360.936	439.56
361.163	462.56
361.39	437.56
361.616	447.56
361.843	443.56
362.07	455.56
362.296	445.56
362.523	440.56
362.749	442.56
362.976	451.56
363.203	427.56
363.429	421.56
363.656	430.56
363.882	424.56
364.109	421.56
364.335	431.56
364.562	406.56
364.788	447.56
365.015	431.56
365.241	422.56
365.468	443.56
365.694	419.56
365.92	429.56
366.147	453.56
366.373	442.56
366.599	426.56
366.826	410.56
367.052	405.56
367.278	410.56
367.505	426.56
367.731	427.56
367.957	441.56
368.184	429.56
368.41	438.56
368.636	447.56
368.862	431.56
369.089	438.56
369.315	435.56
369.541	429.56
369.767	410.56
369.993	430.56
370.219	421.56
370.445	437.56
370.672	444.56
370.898	423.56
371.124	427.56
371.35	428.56
371.576	431.56
371.802	426.56
372.028	426.56
372.254	426.56
372.48	433.56
372.706	445.56
372.932	446.56
373.158	439.56
373.384	450.56
373.61	428.56
373.835	457.56
374.061	442.56
374.287	432.56
374.513	451.56
374.739	434.56
374.965	475.56
375.191	446.56
375.416	459.56
375.642	451.56
375.868	441.56
376.094	451.56
376.319	441.56
376.545	451.56
376.771	443.56
376.997	427.56
377.222	423.56
377.448	428.56
377.674	427.56
377.899	413.56
378.125	440.56
378.35	428.56
378.576	433.56
378.802	433.56
379.027	426.56
379.253	433.56
379.478	427.56
379.704	443.56
379.929	420.56
380.155	441.56
380.38	469.56
380.606	436.56
380.831	423.56
381.057	441.56
381.282	420.56
381.507	438.56
381.733	468.56
381.958	444.56
382.184	455.56
382.409	438.56
382.634	448.56
382.86	451.56
383.085	461.56
383.31	463.56
383.535	452.56
383.761	462.56
383.986	457.56
384.211	484.56
384.436	486.56
384.662	484.56
384.887	474.56
385.112	494.56
385.337	487.56
385.562	484.56
385.787	486.56
386.013	501.56
386.238	495.56
386.463	499.56
386.688	499.56
386.913	482.56
387.138	487.56
387.363	495.56
387.588	492.56
387.813	467.56
388.038	481.56
388.263	487.56
388.488	491.56
388.713	470.56
388.938	489.56
389.163	487.56
389.387	503.56
389.612	489.56
389.837	474.56
390.062	476.56
390.287	479.56
390.512	482.56
390.736	493.56
390.961	504.56
391.186	485.56
391.411	506.56
391.636	493.56
391.86	484.56
392.085	500.56
392.31	502.56
392.534	518.56
392.759	514.56
392.984	510.56
393.208	498.56
393.433	509.56
393.658	503.56
393.882	501.56
394.107	488.56
394.331	489.56
394.556	454.56
394.78	497.56
395.005	494.56
395.229	478.56
395.454	504.56
395.678	513.56
395.903	523.56
396.127	528.56
396.352	544.56
396.576	532.56
396.801	517.56
397.025	515.56
397.249	528.56
397.474	533.56
397.698	539.56
397.922	552.56
398.147	546.56
398.371	557.56
398.595	550.56
398.82	567.56
399.044	596.56
399.268	613.56
399.492	655.56
399.717	682.56
399.941	723.56
400.165	744.56
400.389	740.56
400.613	663.56
400.837	614.56
401.062	619.56
401.286	562.56
401.51	571.56
401.734	569.56
401.958	578.56
402.182	557.56
402.406	585.56
402.63	565.56
402.854	568.56
403.078	587.56
403.302	585.56
403.526	585.56
403.75	596.56
403.974	585.56
404.198	618.56
404.422	604.56
404.645	602.56
404.869	594.56
405.093	638.56
405.317	645.56
405.541	691.56
405.765	659.56
405.988	612.56
406.212	620.56
406.436	653.56
406.66	653.56
406.883	665.56
407.107	677.56
407.331	710.56
407.555	775.56
407.778	774.56
408.002	711.56
408.226	639.56
408.449	668.56
408.673	674.56
408.896	685.56
409.12	691.56
409.344	687.56
409.567	618.56
409.791	597.56
410.014	579.56
410.238	594.56
410.461	604.56
410.685	585.56
410.908	611.56
411.132	666.56
411.355	684.56
411.578	656.56
411.802	590.56
412.025	581.56
412.249	585.56
412.472	627.56
412.695	668.56
412.919	670.56
413.142	600.56
413.365	606.56
413.589	603.56
413.812	572.56
414.035	558.56
414.258	577.56
414.482	567.56
414.705	581.56
414.928	549.56
415.151	565.56
415.374	552.56
415.597	564.56
415.821	580.56
416.044	554.56
416.267	549.56
416.49	590.56
416.713	569.56
416.936	587.56
417.159	556.56
417.382	553.56
417.605	584.56
417.828	580.56
418.051	580.56
418.274	572.56
418.497	577.56
418.72	547.56
418.943	575.56
419.166	598.56
419.389	606.56
419.611	599.56
419.834	603.56
420.057	617.56
420.28	614.56
420.503	610.56
420.726	586.56
420.948	568.56
421.171	643.56
421.394	663.56
421.617	636.56
421.839	601.56
422.062	608.56
422.285	605.56
422.507	676.56
422.73	725.56
422.953	713.56
423.175	635.56
423.398	621.56
423.621	618.56
423.843	633.56
424.066	628.56
424.288	641.56
424.511	642.56
424.733	692.56
424.956	798.56
425.178	776.56
425.401	740.56
425.623	775.56
425.846	663.56
426.068	611.56
426.291	611.56
426.513	621.56
426.735	637.56
426.958	673.56
427.18	734.56
427.402	887.56
427.625	947.56
427.847	839.56
428.069	721.56
428.292	648.56
428.514	605.56
428.736	600.56
428.958	572.56
429.181	573.56
429.403	567.56
429.625	584.56
429.847	605.56
430.069	650.56
430.292	667.56
430.514	566.56
430.736	558.56
430.958	579.56
431.18	537.56
431.402	533.56
431.624	527.56
431.846	563.56
432.068	544.56
432.29	541.56
432.512	528.56
432.734	534.56
432.956	578.56
433.178	565.56
433.4	550.56
433.622	553.56
433.844	538.56
434.066	549.56
434.287	548.56
434.509	568.56
434.731	576.56
434.953	565.56
435.175	596.56
435.397	586.56
435.618	632.56
435.84	661.56
436.062	741.56
436.284	823.56
436.505	679.56
436.727	623.56
436.949	579.56
437.17	579.56
437.392	549.56
437.614	589.56
437.835	606.56
438.057	675.56
438.278	812.56
438.5	774.56
438.721	860.56
438.943	865.56
439.165	669.56
439.386	624.56
439.608	633.56
439.829	626.56
440.05	629.56
440.272	701.56
440.493	644.56
440.715	604.56
440.936	579.56
441.158	563.56
441.379	573.56
441.6	583.56
441.822	621.56
442.043	663.56
442.264	742.56
442.486	781.56
442.707	691.56
442.928	629.56
443.149	617.56
443.371	675.56
443.592	700.56
443.813	799.56
444.034	887.56
444.255	724.56
444.476	643.56
444.698	629.56
444.919	625.56
445.14	772.56
445.361	698.56
445.582	661.56
445.803	713.56
446.024	857.56
446.245	824.56
446.466	747.56
446.687	649.56
446.908	642.56
447.129	599.56
447.35	560.56
447.571	577.56
447.792	531.56
448.013	571.56
448.234	590.56
448.455	623.56
448.675	721.56
448.896	866.56
449.117	775.56
449.338	687.56
449.559	802.56
449.779	927.56
450	730.56
450.221	599.56
450.442	558.56
450.662	542.56
450.883	558.56
451.104	569.56
451.324	550.56
451.545	529.56
451.766	519.56
451.986	503.56
452.207	500.56
452.428	486.56
452.648	505.56
452.869	501.56
453.089	514.56
453.31	517.56
453.53	519.56
453.751	491.56
453.971	504.56
454.192	493.56
454.412	486.56
454.633	504.56
454.853	484.56
455.073	510.56
455.294	532.56
455.514	565.56
455.734	580.56
455.955	491.56
456.175	489.56
456.395	474.56
456.616	470.56
456.836	484.56
457.056	495.56
457.276	471.56
457.497	471.56
457.717	451.56
457.937	487.56
458.157	503.56
458.377	516.56
458.598	528.56
458.818	552.56
459.038	609.56
459.258	661.56
459.478	546.56
459.698	546.56
459.918	526.56
460.138	551.56
460.358	559.56
460.578	576.56
460.798	559.56
461.018	561.56
461.238	565.56
461.458	567.56
461.678	563.56
461.898	574.56
462.118	584.56
462.338	574.56
462.558	606.56
462.777	616.56
462.997	607.56
463.217	641.56
463.437	651.56
463.657	618.56
463.876	611.56
464.096	601.56
464.316	587.56
464.536	597.56
464.755	609.56
464.975	594.56
465.195	616.56
465.414	674.56
465.634	609.56
465.854	591.56
466.073	539.56
466.293	550.56
466.512	527.56
466.732	525.56
466.951	532.56
467.171	517.56
467.391	537.56
467.61	519.56
467.829	513.56
468.049	536.56
468.268	496.56
468.488	512.56
468.707	505.56
468.927	506.56
469.146	497.56
469.365	509.56
469.585	502.56
469.804	518.56
470.023	523.56
470.243	506.56
470.462	535.56
470.681	563.56
470.901	545.56
471.12	531.56
471.339	535.56
471.558	527.56
471.777	542.56
471.997	518.56
472.216	513.56
472.435	555.56
472.654	526.56
472.873	507.56
473.092	527.56
473.311	520.56
473.53	523.56
473.749	524.56
473.968	578.56
474.187	644.56
474.406	709.56
474.625	565.56
474.844	549.56
475.063	522.56
475.282	529.56
475.501	535.56
475.72	540.56
475.939	543.56
476.158	547.56
476.377	533.56
476.596	529.56
476.814	546.56
477.033	544.56
477.252	557.56
477.471	569.56
477.69	566.56
477.908	586.56
478.127	588.56
478.346	555.56
478.564	583.56
478.783	583.56
479.002	593.56
479.22	635.56
479.439	615.56
479.658	621.56
479.876	611.56
480.095	653.56
480.313	677.56
480.532	651.56
480.751	655.56
480.969	661.56
481.188	711.56
481.406	758.56
481.624	680.56
481.843	641.56
482.061	629.56
482.28	623.56
482.498	601.56
482.717	601.56
482.935	611.56
483.153	630.56
483.372	620.56
483.59	621.56
483.808	627.56
484.027	609.56
484.245	616.56
484.463	614.56
484.681	622.56
484.9	634.56
485.118	633.56
485.336	618.56
485.554	629.56
485.772	645.56
485.99	634.56
486.209	655.56
486.427	655.56
486.645	657.56
486.863	666.56
487.081	641.56
487.299	650.56
487.517	666.56
487.735	639.56
487.953	661.56
488.171	639.56
488.389	660.56
488.607	661.56
488.825	693.56
489.043	683.56
489.261	683.56
489.479	678.56
489.696	690.56
489.914	675.56
490.132	675.56
490.35	694.56
490.568	706.56
490.786	698.56
491.003	711.56
491.221	709.56
491.439	735.56
491.657	713.56
491.874	758.56
492.092	760.56
492.31	745.56
492.527	769.56
492.745	781.56
492.963	781.56
493.18	783.56
493.398	782.56
493.615	773.56
493.833	796.56
494.05	792.56
494.268	777.56
494.485	798.56
494.703	768.56
494.92	790.56
495.138	798.56
495.355	780.56
495.573	796.56
495.79	782.56
496.008	791.56
496.225	780.56
496.442	777.56
496.66	808.56
496.877	818.56
497.094	797.56
497.312	810.56
497.529	830.56
497.746	846.56
497.963	839.56
498.181	873.56
498.398	866.56
498.615	896.56
498.832	913.56
499.049	954.56
499.267	967.56
499.484	1014.56
499.701	1054.56
499.918	1088.56
500.135	1158.56
500.352	1208.56
500.569	1291.56
500.786	1275.56
501.003	1218.56
501.22	1171.56
501.437	1142.56
501.654	1077.56
