Data from 1975.PennyLincolnUp.Lamp.En5.5.200Scan.071719.P1.Changed Mount._HRD10591_15-55-38-858.txt Node
Date: Thu Jul 18 15:55:38 EDT 2019
User: cochatt
Spectrometer: HR+D1059
Trigger mode: 1
Integration Time (sec): 1.000000E-1
Scans to average: 1
Electric dark correction enabled: true
Nonlinearity correction enabled: false
Boxcar width: 0
XAxis mode: Wavelengths
Number of Pixels in Spectrum: 2048
>>>>>Begin Spectral Data<<<<<
223.165	-5.56
223.4	-5.56
223.635	-5.56
223.869	-26.56
224.104	-18.56
224.338	4.44
224.573	-3.56
224.808	-18.56
225.042	-4.56
225.277	-27.56
225.511	-9.56
225.746	3.44
225.98	7.44
226.215	-1.56
226.449	5.44
226.683	17.44
226.918	37.44
227.152	40.44
227.387	44.44
227.621	31.44
227.856	40.44
228.09	45.44
228.324	53.44
228.559	61.44
228.793	59.44
229.027	84.44
229.262	87.44
229.496	105.44
229.73	152.44
229.964	140.44
230.199	107.44
230.433	111.44
230.667	112.44
230.901	112.44
231.136	106.44
231.37	101.44
231.604	96.44
231.838	98.44
232.072	105.44
232.306	105.44
232.541	111.44
232.775	97.44
233.009	109.44
233.243	110.44
233.477	106.44
233.711	122.44
233.945	117.44
234.179	120.44
234.413	125.44
234.647	121.44
234.881	106.44
235.115	118.44
235.349	129.44
235.583	132.44
235.817	117.44
236.051	114.44
236.285	127.44
236.519	117.44
236.753	129.44
236.987	151.44
237.221	178.44
237.455	205.44
237.689	161.44
237.922	137.44
238.156	138.44
238.39	130.44
238.624	129.44
238.858	118.44
239.091	126.44
239.325	114.44
239.559	125.44
239.793	119.44
240.027	138.44
240.26	136.44
240.494	141.44
240.728	151.44
240.961	140.44
241.195	131.44
241.429	151.44
241.662	137.44
241.896	138.44
242.13	121.44
242.363	147.44
242.597	112.44
242.83	129.44
243.064	133.44
243.298	132.44
243.531	134.44
243.765	148.44
243.998	125.44
244.232	141.44
244.465	152.44
244.699	149.44
244.932	132.44
245.166	150.44
245.399	157.44
245.633	141.44
245.866	141.44
246.099	154.44
246.333	144.44
246.566	151.44
246.8	153.44
247.033	158.44
247.266	150.44
247.5	157.44
247.733	151.44
247.966	184.44
248.2	182.44
248.433	175.44
248.666	158.44
248.899	183.44
249.133	177.44
249.366	192.44
249.599	191.44
249.832	177.44
250.066	177.44
250.299	169.44
250.532	173.44
250.765	179.44
250.998	208.44
251.231	221.44
251.465	219.44
251.698	178.44
251.931	185.44
252.164	193.44
252.397	182.44
252.63	199.44
252.863	192.44
253.096	204.44
253.329	214.44
253.562	196.44
253.795	201.44
254.028	190.44
254.261	210.44
254.494	206.44
254.727	224.44
254.96	247.44
255.193	238.44
255.426	220.44
255.659	218.44
255.892	207.44
256.124	225.44
256.357	222.44
256.59	210.44
256.823	214.44
257.056	201.44
257.289	184.44
257.521	215.44
257.754	205.44
257.987	205.44
258.22	205.44
258.452	208.44
258.685	192.44
258.918	218.44
259.151	206.44
259.383	211.44
259.616	221.44
259.849	206.44
260.081	238.44
260.314	225.44
260.547	234.44
260.779	223.44
261.012	203.44
261.244	225.44
261.477	217.44
261.71	199.44
261.942	215.44
262.175	208.44
262.407	221.44
262.64	210.44
262.872	215.44
263.105	209.44
263.337	193.44
263.57	225.44
263.802	201.44
264.035	215.44
264.267	209.44
264.499	209.44
264.732	205.44
264.964	203.44
265.197	207.44
265.429	223.44
265.661	210.44
265.894	212.44
266.126	213.44
266.358	195.44
266.591	213.44
266.823	201.44
267.055	220.44
267.287	219.44
267.52	216.44
267.752	215.44
267.984	224.44
268.216	211.44
268.448	225.44
268.681	232.44
268.913	236.44
269.145	242.44
269.377	259.44
269.609	254.44
269.841	267.44
270.073	265.44
270.306	267.44
270.538	286.44
270.77	299.44
271.002	285.44
271.234	266.44
271.466	281.44
271.698	284.44
271.93	298.44
272.162	300.44
272.394	255.44
272.626	276.44
272.858	271.44
273.09	233.44
273.322	269.44
273.553	261.44
273.785	262.44
274.017	265.44
274.249	242.44
274.481	245.44
274.713	234.44
274.945	237.44
275.176	268.44
275.408	249.44
275.64	245.44
275.872	255.44
276.104	240.44
276.335	245.44
276.567	267.44
276.799	273.44
277.031	291.44
277.262	314.44
277.494	298.44
277.726	271.44
277.957	283.44
278.189	262.44
278.421	240.44
278.652	249.44
278.884	248.44
279.115	265.44
279.347	262.44
279.579	258.44
279.81	271.44
280.042	251.44
280.273	259.44
280.505	245.44
280.736	267.44
280.968	274.44
281.199	270.44
281.431	275.44
281.662	256.44
281.894	274.44
282.125	266.44
282.356	281.44
282.588	285.44
282.819	285.44
283.051	275.44
283.282	268.44
283.513	263.44
283.745	287.44
283.976	267.44
284.207	277.44
284.439	273.44
284.67	291.44
284.901	271.44
285.132	264.44
285.364	282.44
285.595	284.44
285.826	266.44
286.057	274.44
286.288	270.44
286.52	280.44
286.751	275.44
286.982	270.44
287.213	281.44
287.444	281.44
287.675	292.44
287.906	294.44
288.138	272.44
288.369	303.44
288.6	291.44
288.831	286.44
289.062	304.44
289.293	297.44
289.524	293.44
289.755	260.44
289.986	273.44
290.217	283.44
290.448	284.44
290.679	281.44
290.91	300.44
291.141	263.44
291.371	293.44
291.602	282.44
291.833	302.44
292.064	274.44
292.295	269.44
292.526	288.44
292.757	290.44
292.987	276.44
293.218	297.44
293.449	288.44
293.68	287.44
293.91	277.44
294.141	280.44
294.372	286.44
294.603	299.44
294.833	283.44
295.064	305.44
295.295	292.44
295.525	289.44
295.756	291.44
295.987	313.44
296.217	312.44
296.448	301.44
296.679	297.44
296.909	286.44
297.14	302.44
297.37	289.44
297.601	306.44
297.831	308.44
298.062	287.44
298.292	310.44
298.523	304.44
298.753	305.44
298.984	311.44
299.214	304.44
299.445	305.44
299.675	303.44
299.905	309.44
300.136	290.44
300.366	302.44
300.597	305.44
300.827	324.44
301.057	321.44
301.288	321.44
301.518	314.44
301.748	322.44
301.979	325.44
302.209	313.44
302.439	307.44
302.669	329.44
302.9	305.44
303.13	339.44
303.36	345.44
303.59	314.44
303.82	322.44
304.051	334.44
304.281	314.44
304.511	319.44
304.741	313.44
304.971	325.44
305.201	332.44
305.431	313.44
305.661	334.44
305.891	319.44
306.121	328.44
306.352	316.44
306.582	329.44
306.812	321.44
307.042	313.44
307.272	309.44
307.502	298.44
307.731	331.44
307.961	329.44
308.191	329.44
308.421	322.44
308.651	337.44
308.881	325.44
309.111	325.44
309.341	341.44
309.571	320.44
309.8	339.44
310.03	330.44
310.26	358.44
310.49	342.44
310.72	350.44
310.949	349.44
311.179	349.44
311.409	344.44
311.639	347.44
311.868	341.44
312.098	363.44
312.328	365.44
312.557	349.44
312.787	362.44
313.017	397.44
313.246	362.44
313.476	338.44
313.706	336.44
313.935	363.44
314.165	369.44
314.394	366.44
314.624	360.44
314.853	347.44
315.083	370.44
315.312	360.44
315.542	350.44
315.771	338.44
316.001	353.44
316.23	355.44
316.46	349.44
316.689	361.44
316.919	368.44
317.148	350.44
317.377	370.44
317.607	343.44
317.836	367.44
318.065	352.44
318.295	350.44
318.524	371.44
318.753	347.44
318.983	352.44
319.212	354.44
319.441	349.44
319.67	374.44
319.9	345.44
320.129	375.44
320.358	375.44
320.587	362.44
320.816	369.44
321.046	369.44
321.275	377.44
321.504	368.44
321.733	364.44
321.962	375.44
322.191	367.44
322.42	377.44
322.649	399.44
322.878	383.44
323.108	385.44
323.337	385.44
323.566	417.44
323.795	438.44
324.024	449.44
324.253	505.44
324.482	715.44
324.71	1062.44
324.939	1541.44
325.168	1380.44
325.397	687.44
325.626	519.44
325.855	448.44
326.084	425.44
326.313	419.44
326.542	442.44
326.77	462.44
326.999	509.44
327.228	664.44
327.457	959.44
327.686	1202.44
327.914	791.44
328.143	540.44
328.372	480.44
328.6	462.44
328.829	449.44
329.058	453.44
329.287	473.44
329.515	462.44
329.744	443.44
329.972	441.44
330.201	446.44
330.43	470.44
330.658	502.44
330.887	504.44
331.115	480.44
331.344	437.44
331.572	400.44
331.801	428.44
332.03	426.44
332.258	417.44
332.486	441.44
332.715	421.44
332.943	420.44
333.172	433.44
333.4	433.44
333.629	440.44
333.857	441.44
334.085	479.44
334.314	457.44
334.542	479.44
334.771	479.44
334.999	473.44
335.227	430.44
335.455	450.44
335.684	439.44
335.912	439.44
336.14	440.44
336.369	427.44
336.597	425.44
336.825	429.44
337.053	429.44
337.281	436.44
337.51	422.44
337.738	412.44
337.966	422.44
338.194	437.44
338.422	432.44
338.65	424.44
338.878	419.44
339.106	397.44
339.334	394.44
339.562	411.44
339.79	419.44
340.018	415.44
340.246	409.44
340.474	424.44
340.702	420.44
340.93	412.44
341.158	406.44
341.386	414.44
341.614	404.44
341.842	401.44
342.07	408.44
342.298	405.44
342.526	409.44
342.754	400.44
342.981	390.44
343.209	406.44
343.437	402.44
343.665	411.44
343.893	456.44
344.12	441.44
344.348	432.44
344.576	427.44
344.804	433.44
345.031	425.44
345.259	415.44
345.487	429.44
345.714	426.44
345.942	407.44
346.17	393.44
346.397	381.44
346.625	398.44
346.853	389.44
347.08	389.44
347.308	396.44
347.535	386.44
347.763	395.44
347.99	417.44
348.218	405.44
348.445	409.44
348.673	409.44
348.9	397.44
349.128	399.44
349.355	394.44
349.583	398.44
349.81	366.44
350.037	383.44
350.265	386.44
350.492	409.44
350.72	375.44
350.947	384.44
351.174	387.44
351.402	393.44
351.629	405.44
351.856	387.44
352.083	405.44
352.311	415.44
352.538	389.44
352.765	413.44
352.992	419.44
353.22	400.44
353.447	387.44
353.674	377.44
353.901	374.44
354.128	373.44
354.355	381.44
354.583	367.44
354.81	389.44
355.037	395.44
355.264	390.44
355.491	387.44
355.718	385.44
355.945	393.44
356.172	374.44
356.399	387.44
356.626	389.44
356.853	387.44
357.08	387.44
357.307	386.44
357.534	400.44
357.761	377.44
357.988	387.44
358.215	383.44
358.441	395.44
358.668	395.44
358.895	399.44
359.122	393.44
359.349	391.44
359.576	387.44
359.802	403.44
360.029	424.44
360.256	417.44
360.483	438.44
360.709	414.44
360.936	399.44
361.163	407.44
361.39	397.44
361.616	397.44
361.843	406.44
362.07	369.44
362.296	411.44
362.523	412.44
362.749	399.44
362.976	390.44
363.203	403.44
363.429	380.44
363.656	383.44
363.882	399.44
364.109	383.44
364.335	414.44
364.562	385.44
364.788	381.44
365.015	389.44
365.241	378.44
365.468	381.44
365.694	386.44
365.92	393.44
366.147	398.44
366.373	407.44
366.599	359.44
366.826	385.44
367.052	403.44
367.278	402.44
367.505	401.44
367.731	385.44
367.957	396.44
368.184	383.44
368.41	386.44
368.636	391.44
368.862	384.44
369.089	395.44
369.315	408.44
369.541	402.44
369.767	393.44
369.993	391.44
370.219	386.44
370.445	399.44
370.672	389.44
370.898	396.44
371.124	385.44
371.35	403.44
371.576	426.44
371.802	403.44
372.028	370.44
372.254	404.44
372.48	420.44
372.706	413.44
372.932	413.44
373.158	420.44
373.384	395.44
373.61	414.44
373.835	405.44
374.061	411.44
374.287	414.44
374.513	405.44
374.739	406.44
374.965	436.44
375.191	455.44
375.416	438.44
375.642	422.44
375.868	398.44
376.094	414.44
376.319	402.44
376.545	401.44
376.771	377.44
376.997	395.44
377.222	398.44
377.448	409.44
377.674	401.44
377.899	399.44
378.125	393.44
378.35	394.44
378.576	385.44
378.802	382.44
379.027	414.44
379.253	400.44
379.478	395.44
379.704	401.44
379.929	396.44
380.155	378.44
380.38	405.44
380.606	409.44
380.831	407.44
381.057	422.44
381.282	421.44
381.507	411.44
381.733	406.44
381.958	417.44
382.184	418.44
382.409	440.44
382.634	434.44
382.86	403.44
383.085	441.44
383.31	441.44
383.535	448.44
383.761	437.44
383.986	434.44
384.211	437.44
384.436	460.44
384.662	430.44
384.887	456.44
385.112	449.44
385.337	438.44
385.562	466.44
385.787	449.44
386.013	478.44
386.238	444.44
386.463	464.44
386.688	466.44
386.913	457.44
387.138	453.44
387.363	460.44
387.588	463.44
387.813	458.44
388.038	459.44
388.263	462.44
388.488	451.44
388.713	458.44
388.938	459.44
389.163	459.44
389.387	478.44
389.612	442.44
389.837	476.44
390.062	447.44
390.287	452.44
390.512	445.44
390.736	450.44
390.961	439.44
391.186	446.44
391.411	450.44
391.636	457.44
391.86	472.44
392.085	475.44
392.31	461.44
392.534	476.44
392.759	470.44
392.984	453.44
393.208	453.44
393.433	461.44
393.658	440.44
393.882	475.44
394.107	469.44
394.331	465.44
394.556	467.44
394.78	473.44
395.005	473.44
395.229	477.44
395.454	467.44
395.678	478.44
395.903	490.44
396.127	501.44
396.352	505.44
396.576	483.44
396.801	478.44
397.025	476.44
397.249	472.44
397.474	484.44
397.698	491.44
397.922	482.44
398.147	490.44
398.371	494.44
398.595	535.44
398.82	521.44
399.044	537.44
399.268	559.44
399.492	585.44
399.717	631.44
399.941	645.44
400.165	670.44
400.389	641.44
400.613	613.44
400.837	556.44
401.062	520.44
401.286	538.44
401.51	527.44
401.734	539.44
401.958	519.44
402.182	544.44
402.406	536.44
402.63	537.44
402.854	543.44
403.078	557.44
403.302	553.44
403.526	566.44
403.75	540.44
403.974	542.44
404.198	553.44
404.422	555.44
404.645	543.44
404.869	537.44
405.093	596.44
405.317	632.44
405.541	670.44
405.765	609.44
405.988	573.44
406.212	569.44
406.436	560.44
406.66	595.44
406.883	575.44
407.107	623.44
407.331	636.44
407.555	722.44
407.778	708.44
408.002	644.44
408.226	606.44
408.449	600.44
408.673	615.44
408.896	638.44
409.12	665.44
409.344	620.44
409.567	578.44
409.791	565.44
410.014	536.44
410.238	541.44
410.461	526.44
410.685	553.44
410.908	561.44
411.132	567.44
411.355	609.44
411.578	589.44
411.802	567.44
412.025	545.44
412.249	562.44
412.472	592.44
412.695	640.44
412.919	587.44
413.142	547.44
413.365	538.44
413.589	562.44
413.812	526.44
414.035	515.44
414.258	512.44
414.482	503.44
414.705	528.44
414.928	514.44
415.151	519.44
415.374	517.44
415.597	521.44
415.821	514.44
416.044	521.44
416.267	490.44
416.49	513.44
416.713	511.44
416.936	530.44
417.159	488.44
417.382	525.44
417.605	519.44
417.828	525.44
418.051	541.44
418.274	541.44
418.497	536.44
418.72	549.44
418.943	505.44
419.166	553.44
419.389	563.44
419.611	576.44
419.834	581.44
420.057	551.44
420.28	539.44
420.503	554.44
420.726	551.44
420.948	548.44
421.171	569.44
421.394	597.44
421.617	541.44
421.839	527.44
422.062	549.44
422.285	534.44
422.507	598.44
422.73	676.44
422.953	639.44
423.175	574.44
423.398	563.44
423.621	559.44
423.843	579.44
424.066	585.44
424.288	552.44
424.511	605.44
424.733	623.44
424.956	733.44
425.178	670.44
425.401	642.44
425.623	699.44
425.846	593.44
426.068	559.44
426.291	557.44
426.513	557.44
426.735	571.44
426.958	597.44
427.18	655.44
427.402	813.44
427.625	883.44
427.847	745.44
428.069	649.44
428.292	583.44
428.514	535.44
428.736	518.44
428.958	522.44
429.181	532.44
429.403	514.44
429.625	519.44
429.847	558.44
430.069	602.44
430.292	595.44
430.514	540.44
430.736	529.44
430.958	504.44
431.18	501.44
431.402	503.44
431.624	481.44
431.846	499.44
432.068	503.44
432.29	504.44
432.512	510.44
432.734	518.44
432.956	496.44
433.178	509.44
433.4	515.44
433.622	515.44
433.844	508.44
434.066	498.44
434.287	502.44
434.509	514.44
434.731	523.44
434.953	545.44
435.175	536.44
435.397	558.44
435.618	554.44
435.84	582.44
436.062	695.44
436.284	743.44
436.505	637.44
436.727	553.44
436.949	521.44
437.17	518.44
437.392	510.44
437.614	530.44
437.835	521.44
438.057	623.44
438.278	728.44
438.5	707.44
438.721	809.44
438.943	764.44
439.165	629.44
439.386	581.44
439.608	544.44
439.829	552.44
440.05	565.44
440.272	613.44
440.493	559.44
440.715	565.44
440.936	551.44
441.158	537.44
441.379	530.44
441.6	521.44
441.822	573.44
442.043	582.44
442.264	695.44
442.486	727.44
442.707	588.44
442.928	569.44
443.149	602.44
443.371	594.44
443.592	638.44
443.813	712.44
444.034	821.44
444.255	653.44
444.476	598.44
444.698	585.44
444.919	569.44
445.14	715.44
445.361	635.44
445.582	613.44
445.803	647.44
446.024	754.44
446.245	749.44
446.466	689.44
446.687	595.44
446.908	547.44
447.129	525.44
447.35	507.44
447.571	520.44
447.792	501.44
448.013	513.44
448.234	495.44
448.455	559.44
448.675	675.44
448.896	761.44
449.117	660.44
449.338	623.44
449.559	735.44
449.779	818.44
450	656.44
450.221	553.44
450.442	511.44
450.662	466.44
450.883	508.44
451.104	496.44
451.324	478.44
451.545	481.44
451.766	465.44
451.986	458.44
452.207	460.44
452.428	451.44
452.648	484.44
452.869	450.44
453.089	449.44
453.31	471.44
453.53	475.44
453.751	446.44
453.971	447.44
454.192	469.44
454.412	451.44
454.633	449.44
454.853	424.44
455.073	457.44
455.294	480.44
455.514	527.44
455.734	520.44
455.955	459.44
456.175	445.44
456.395	436.44
456.616	430.44
456.836	426.44
457.056	428.44
457.276	438.44
457.497	451.44
457.717	441.44
457.937	441.44
458.157	448.44
458.377	463.44
458.598	471.44
458.818	504.44
459.038	563.44
459.258	585.44
459.478	524.44
459.698	521.44
459.918	495.44
460.138	496.44
460.358	534.44
460.578	509.44
460.798	539.44
461.018	535.44
461.238	505.44
461.458	527.44
461.678	511.44
461.898	551.44
462.118	539.44
462.338	539.44
462.558	538.44
462.777	575.44
462.997	579.44
463.217	619.44
463.437	629.44
463.657	593.44
463.876	581.44
464.096	581.44
464.316	584.44
464.536	569.44
464.755	581.44
464.975	564.44
465.195	567.44
465.414	609.44
465.634	551.44
465.854	493.44
466.073	521.44
466.293	489.44
466.512	487.44
466.732	485.44
466.951	481.44
467.171	482.44
467.391	495.44
467.61	495.44
467.829	509.44
468.049	504.44
468.268	456.44
468.488	462.44
468.707	473.44
468.927	459.44
469.146	480.44
469.365	465.44
469.585	477.44
469.804	484.44
470.023	504.44
470.243	494.44
470.462	499.44
470.681	482.44
470.901	496.44
471.12	497.44
471.339	503.44
471.558	497.44
471.777	482.44
471.997	495.44
472.216	490.44
472.435	532.44
472.654	501.44
472.873	493.44
473.092	487.44
473.311	472.44
473.53	488.44
473.749	485.44
473.968	518.44
474.187	602.44
474.406	615.44
474.625	529.44
474.844	503.44
475.063	518.44
475.282	505.44
475.501	510.44
475.72	502.44
475.939	501.44
476.158	484.44
476.377	518.44
476.596	494.44
476.814	515.44
477.033	523.44
477.252	524.44
477.471	518.44
477.69	504.44
477.908	543.44
478.127	542.44
478.346	526.44
478.564	567.44
478.783	554.44
479.002	560.44
479.22	565.44
479.439	583.44
479.658	565.44
479.876	583.44
480.095	602.44
480.313	632.44
480.532	613.44
480.751	602.44
480.969	613.44
481.188	651.44
481.406	636.44
481.624	614.44
481.843	577.44
482.061	555.44
482.28	574.44
482.498	561.44
482.717	547.44
482.935	570.44
483.153	581.44
483.372	569.44
483.59	566.44
483.808	590.44
484.027	557.44
484.245	573.44
484.463	576.44
484.681	578.44
484.9	566.44
485.118	575.44
485.336	602.44
485.554	584.44
485.772	582.44
485.99	567.44
486.209	586.44
486.427	604.44
486.645	614.44
486.863	599.44
487.081	625.44
487.299	605.44
487.517	612.44
487.735	617.44
487.953	598.44
488.171	606.44
488.389	631.44
488.607	629.44
488.825	594.44
489.043	602.44
489.261	597.44
489.479	610.44
489.696	607.44
489.914	635.44
490.132	631.44
490.35	649.44
490.568	643.44
490.786	664.44
491.003	663.44
491.221	647.44
491.439	682.44
491.657	700.44
491.874	660.44
492.092	711.44
492.31	705.44
492.527	708.44
492.745	686.44
492.963	710.44
493.18	693.44
493.398	728.44
493.615	723.44
493.833	702.44
494.05	697.44
494.268	710.44
494.485	720.44
494.703	710.44
494.92	708.44
495.138	704.44
495.355	693.44
495.573	732.44
495.79	717.44
496.008	756.44
496.225	739.44
496.442	711.44
496.66	742.44
496.877	715.44
497.094	736.44
497.312	721.44
497.529	736.44
497.746	765.44
497.963	768.44
498.181	778.44
498.398	819.44
498.615	801.44
498.832	859.44
499.049	848.44
499.267	898.44
499.484	957.44
499.701	1008.44
499.918	1043.44
500.135	1065.44
500.352	1165.44
500.569	1205.44
500.786	1197.44
501.003	1152.44
501.22	1138.44
501.437	1049.44
501.654	1002.44
