Data from 1975.PennyLincolnUp.Lamp.En5.5.200Scan.071719.P1.Changed Mount._HRD10591_15-56-32-859.txt Node
Date: Thu Jul 18 15:56:32 EDT 2019
User: cochatt
Spectrometer: HR+D1059
Trigger mode: 1
Integration Time (sec): 1.000000E-1
Scans to average: 1
Electric dark correction enabled: true
Nonlinearity correction enabled: false
Boxcar width: 0
XAxis mode: Wavelengths
Number of Pixels in Spectrum: 2048
>>>>>Begin Spectral Data<<<<<
223.165	-16.81
223.4	-16.81
223.635	-16.81
223.869	-19.81
224.104	-24.81
224.338	-15.81
224.573	-16.81
224.808	-8.81
225.042	-21.81
225.277	-15.81
225.511	8.19
225.746	8.19
225.98	8.19
226.215	10.19
226.449	21.19
226.683	20.19
226.918	23.19
227.152	41.19
227.387	35.19
227.621	43.19
227.856	40.19
228.09	60.19
228.324	55.19
228.559	64.19
228.793	80.19
229.027	93.19
229.262	91.19
229.496	109.19
229.73	134.19
229.964	155.19
230.199	128.19
230.433	113.19
230.667	112.19
230.901	133.19
231.136	112.19
231.37	121.19
231.604	113.19
231.838	115.19
232.072	120.19
232.306	109.19
232.541	124.19
232.775	115.19
233.009	126.19
233.243	124.19
233.477	109.19
233.711	124.19
233.945	127.19
234.179	115.19
234.413	118.19
234.647	135.19
234.881	137.19
235.115	124.19
235.349	136.19
235.583	118.19
235.817	125.19
236.051	130.19
236.285	138.19
236.519	135.19
236.753	132.19
236.987	147.19
237.221	172.19
237.455	221.19
237.689	170.19
237.922	147.19
238.156	140.19
238.39	136.19
238.624	139.19
238.858	129.19
239.091	128.19
239.325	137.19
239.559	133.19
239.793	144.19
240.027	158.19
240.26	149.19
240.494	147.19
240.728	155.19
240.961	162.19
241.195	154.19
241.429	142.19
241.662	143.19
241.896	149.19
242.13	139.19
242.363	145.19
242.597	143.19
242.83	136.19
243.064	150.19
243.298	162.19
243.531	148.19
243.765	147.19
243.998	145.19
244.232	147.19
244.465	153.19
244.699	156.19
244.932	139.19
245.166	140.19
245.399	148.19
245.633	144.19
245.866	143.19
246.099	169.19
246.333	168.19
246.566	162.19
246.8	159.19
247.033	144.19
247.266	178.19
247.5	178.19
247.733	180.19
247.966	176.19
248.2	173.19
248.433	169.19
248.666	179.19
248.899	201.19
249.133	189.19
249.366	199.19
249.599	205.19
249.832	187.19
250.066	187.19
250.299	173.19
250.532	214.19
250.765	195.19
250.998	233.19
251.231	230.19
251.465	214.19
251.698	202.19
251.931	206.19
252.164	201.19
252.397	204.19
252.63	190.19
252.863	216.19
253.096	218.19
253.329	219.19
253.562	229.19
253.795	220.19
254.028	228.19
254.261	211.19
254.494	219.19
254.727	259.19
254.96	280.19
255.193	273.19
255.426	249.19
255.659	242.19
255.892	236.19
256.124	251.19
256.357	242.19
256.59	243.19
256.823	224.19
257.056	229.19
257.289	223.19
257.521	197.19
257.754	213.19
257.987	204.19
258.22	231.19
258.452	200.19
258.685	217.19
258.918	217.19
259.151	208.19
259.383	233.19
259.616	223.19
259.849	237.19
260.081	253.19
260.314	257.19
260.547	260.19
260.779	251.19
261.012	238.19
261.244	234.19
261.477	213.19
261.71	229.19
261.942	232.19
262.175	235.19
262.407	233.19
262.64	227.19
262.872	209.19
263.105	230.19
263.337	211.19
263.57	229.19
263.802	221.19
264.035	228.19
264.267	219.19
264.499	229.19
264.732	229.19
264.964	214.19
265.197	223.19
265.429	218.19
265.661	218.19
265.894	217.19
266.126	217.19
266.358	217.19
266.591	230.19
266.823	229.19
267.055	227.19
267.287	239.19
267.52	243.19
267.752	224.19
267.984	224.19
268.216	236.19
268.448	261.19
268.681	241.19
268.913	252.19
269.145	278.19
269.377	289.19
269.609	276.19
269.841	272.19
270.073	277.19
270.306	295.19
270.538	309.19
270.77	318.19
271.002	304.19
271.234	302.19
271.466	304.19
271.698	308.19
271.93	295.19
272.162	308.19
272.394	295.19
272.626	306.19
272.858	274.19
273.09	276.19
273.322	281.19
273.553	271.19
273.785	254.19
274.017	270.19
274.249	275.19
274.481	265.19
274.713	263.19
274.945	285.19
275.176	283.19
275.408	270.19
275.64	274.19
275.872	284.19
276.104	278.19
276.335	259.19
276.567	278.19
276.799	278.19
277.031	304.19
277.262	312.19
277.494	318.19
277.726	293.19
277.957	288.19
278.189	281.19
278.421	295.19
278.652	284.19
278.884	299.19
279.115	287.19
279.347	285.19
279.579	264.19
279.81	273.19
280.042	279.19
280.273	259.19
280.505	275.19
280.736	260.19
280.968	285.19
281.199	277.19
281.431	285.19
281.662	274.19
281.894	285.19
282.125	282.19
282.356	296.19
282.588	313.19
282.819	299.19
283.051	285.19
283.282	259.19
283.513	284.19
283.745	292.19
283.976	275.19
284.207	295.19
284.439	287.19
284.67	280.19
284.901	288.19
285.132	283.19
285.364	292.19
285.595	275.19
285.826	292.19
286.057	304.19
286.288	285.19
286.52	290.19
286.751	296.19
286.982	304.19
287.213	297.19
287.444	287.19
287.675	284.19
287.906	322.19
288.138	303.19
288.369	319.19
288.6	312.19
288.831	302.19
289.062	281.19
289.293	313.19
289.524	305.19
289.755	304.19
289.986	300.19
290.217	299.19
290.448	311.19
290.679	315.19
290.91	301.19
291.141	317.19
291.371	313.19
291.602	304.19
291.833	297.19
292.064	308.19
292.295	299.19
292.526	283.19
292.757	319.19
292.987	271.19
293.218	311.19
293.449	306.19
293.68	321.19
293.91	299.19
294.141	292.19
294.372	314.19
294.603	317.19
294.833	304.19
295.064	287.19
295.295	310.19
295.525	305.19
295.756	322.19
295.987	313.19
296.217	327.19
296.448	329.19
296.679	327.19
296.909	304.19
297.14	311.19
297.37	321.19
297.601	336.19
297.831	295.19
298.062	315.19
298.292	311.19
298.523	328.19
298.753	307.19
298.984	338.19
299.214	322.19
299.445	319.19
299.675	314.19
299.905	316.19
300.136	332.19
300.366	338.19
300.597	332.19
300.827	345.19
301.057	339.19
301.288	335.19
301.518	324.19
301.748	334.19
301.979	353.19
302.209	345.19
302.439	321.19
302.669	336.19
302.9	338.19
303.13	352.19
303.36	333.19
303.59	349.19
303.82	347.19
304.051	333.19
304.281	348.19
304.511	328.19
304.741	328.19
304.971	343.19
305.201	349.19
305.431	333.19
305.661	351.19
305.891	327.19
306.121	327.19
306.352	345.19
306.582	345.19
306.812	350.19
307.042	321.19
307.272	343.19
307.502	340.19
307.731	328.19
307.961	328.19
308.191	341.19
308.421	354.19
308.651	353.19
308.881	332.19
309.111	347.19
309.341	339.19
309.571	343.19
309.8	353.19
310.03	366.19
310.26	362.19
310.49	367.19
310.72	361.19
310.949	381.19
311.179	401.19
311.409	375.19
311.639	350.19
311.868	368.19
312.098	375.19
312.328	382.19
312.557	384.19
312.787	384.19
313.017	379.19
313.246	382.19
313.476	375.19
313.706	367.19
313.935	383.19
314.165	387.19
314.394	402.19
314.624	395.19
314.853	391.19
315.083	370.19
315.312	370.19
315.542	377.19
315.771	391.19
316.001	395.19
316.23	346.19
316.46	381.19
316.689	389.19
316.919	378.19
317.148	385.19
317.377	389.19
317.607	393.19
317.836	377.19
318.065	366.19
318.295	370.19
318.524	383.19
318.753	378.19
318.983	375.19
319.212	376.19
319.441	372.19
319.67	407.19
319.9	381.19
320.129	365.19
320.358	395.19
320.587	378.19
320.816	379.19
321.046	401.19
321.275	408.19
321.504	398.19
321.733	399.19
321.962	388.19
322.191	388.19
322.42	413.19
322.649	432.19
322.878	423.19
323.108	417.19
323.337	443.19
323.566	464.19
323.795	499.19
324.024	496.19
324.253	576.19
324.482	795.19
324.71	1149.19
324.939	1740.19
325.168	1547.19
325.397	802.19
325.626	543.19
325.855	473.19
326.084	476.19
326.313	467.19
326.542	453.19
326.77	482.19
326.999	560.19
327.228	737.19
327.457	1069.19
327.686	1319.19
327.914	873.19
328.143	635.19
328.372	547.19
328.6	532.19
328.829	491.19
329.058	511.19
329.287	505.19
329.515	493.19
329.744	477.19
329.972	467.19
330.201	500.19
330.43	523.19
330.658	540.19
330.887	539.19
331.115	556.19
331.344	496.19
331.572	459.19
331.801	475.19
332.03	469.19
332.258	477.19
332.486	457.19
332.715	447.19
332.943	472.19
333.172	459.19
333.4	468.19
333.629	474.19
333.857	487.19
334.085	496.19
334.314	515.19
334.542	551.19
334.771	559.19
334.999	489.19
335.227	476.19
335.455	467.19
335.684	464.19
335.912	472.19
336.14	450.19
336.369	453.19
336.597	465.19
336.825	471.19
337.053	454.19
337.281	466.19
337.51	455.19
337.738	455.19
337.966	443.19
338.194	458.19
338.422	457.19
338.65	455.19
338.878	446.19
339.106	442.19
339.334	450.19
339.562	444.19
339.79	433.19
340.018	445.19
340.246	429.19
340.474	449.19
340.702	455.19
340.93	453.19
341.158	414.19
341.386	408.19
341.614	433.19
341.842	429.19
342.07	434.19
342.298	425.19
342.526	452.19
342.754	409.19
342.981	411.19
343.209	431.19
343.437	425.19
343.665	428.19
343.893	445.19
344.12	455.19
344.348	443.19
344.576	455.19
344.804	447.19
345.031	453.19
345.259	456.19
345.487	462.19
345.714	433.19
345.942	427.19
346.17	426.19
346.397	409.19
346.625	410.19
346.853	411.19
347.08	404.19
347.308	435.19
347.535	436.19
347.763	433.19
347.99	430.19
348.218	421.19
348.445	435.19
348.673	426.19
348.9	434.19
349.128	419.19
349.355	403.19
349.583	412.19
349.81	406.19
350.037	399.19
350.265	405.19
350.492	427.19
350.72	398.19
350.947	399.19
351.174	424.19
351.402	441.19
351.629	429.19
351.856	419.19
352.083	419.19
352.311	417.19
352.538	429.19
352.765	405.19
352.992	436.19
353.22	397.19
353.447	397.19
353.674	434.19
353.901	411.19
354.128	391.19
354.355	416.19
354.583	414.19
354.81	386.19
355.037	404.19
355.264	382.19
355.491	398.19
355.718	408.19
355.945	401.19
356.172	403.19
356.399	385.19
356.626	404.19
356.853	393.19
357.08	378.19
357.307	391.19
357.534	388.19
357.761	404.19
357.988	388.19
358.215	395.19
358.441	400.19
358.668	419.19
358.895	405.19
359.122	385.19
359.349	410.19
359.576	433.19
359.802	446.19
360.029	445.19
360.256	443.19
360.483	441.19
360.709	424.19
360.936	424.19
361.163	402.19
361.39	423.19
361.616	434.19
361.843	435.19
362.07	428.19
362.296	420.19
362.523	404.19
362.749	433.19
362.976	418.19
363.203	426.19
363.429	404.19
363.656	424.19
363.882	411.19
364.109	395.19
364.335	401.19
364.562	421.19
364.788	378.19
365.015	383.19
365.241	411.19
365.468	420.19
365.694	417.19
365.92	412.19
366.147	412.19
366.373	396.19
366.599	420.19
366.826	419.19
367.052	402.19
367.278	420.19
367.505	409.19
367.731	394.19
367.957	402.19
368.184	412.19
368.41	387.19
368.636	429.19
368.862	435.19
369.089	408.19
369.315	396.19
369.541	421.19
369.767	421.19
369.993	405.19
370.219	401.19
370.445	408.19
370.672	395.19
370.898	421.19
371.124	432.19
371.35	405.19
371.576	436.19
371.802	423.19
372.028	413.19
372.254	436.19
372.48	412.19
372.706	436.19
372.932	417.19
373.158	413.19
373.384	421.19
373.61	397.19
373.835	432.19
374.061	419.19
374.287	411.19
374.513	427.19
374.739	442.19
374.965	427.19
375.191	449.19
375.416	445.19
375.642	435.19
375.868	445.19
376.094	439.19
376.319	429.19
376.545	439.19
376.771	423.19
376.997	434.19
377.222	439.19
377.448	419.19
377.674	413.19
377.899	411.19
378.125	420.19
378.35	431.19
378.576	419.19
378.802	420.19
379.027	412.19
379.253	429.19
379.478	437.19
379.704	432.19
379.929	445.19
380.155	418.19
380.38	424.19
380.606	439.19
380.831	423.19
381.057	424.19
381.282	440.19
381.507	423.19
381.733	424.19
381.958	407.19
382.184	435.19
382.409	427.19
382.634	424.19
382.86	453.19
383.085	437.19
383.31	435.19
383.535	451.19
383.761	440.19
383.986	437.19
384.211	460.19
384.436	466.19
384.662	469.19
384.887	475.19
385.112	455.19
385.337	491.19
385.562	474.19
385.787	469.19
386.013	488.19
386.238	481.19
386.463	484.19
386.688	464.19
386.913	464.19
387.138	460.19
387.363	448.19
387.588	490.19
387.813	490.19
388.038	469.19
388.263	484.19
388.488	487.19
388.713	482.19
388.938	460.19
389.163	466.19
389.387	471.19
389.612	449.19
389.837	445.19
390.062	474.19
390.287	470.19
390.512	456.19
390.736	458.19
390.961	458.19
391.186	483.19
391.411	468.19
391.636	475.19
391.86	478.19
392.085	497.19
392.31	491.19
392.534	495.19
392.759	505.19
392.984	479.19
393.208	484.19
393.433	471.19
393.658	482.19
393.882	491.19
394.107	491.19
394.331	481.19
394.556	484.19
394.78	470.19
395.005	480.19
395.229	476.19
395.454	475.19
395.678	504.19
395.903	511.19
396.127	536.19
396.352	529.19
396.576	529.19
396.801	493.19
397.025	484.19
397.249	488.19
397.474	512.19
397.698	525.19
397.922	515.19
398.147	532.19
398.371	547.19
398.595	540.19
398.82	547.19
399.044	551.19
399.268	596.19
399.492	627.19
399.717	643.19
399.941	701.19
400.165	681.19
400.389	689.19
400.613	613.19
400.837	609.19
401.062	571.19
401.286	577.19
401.51	556.19
401.734	543.19
401.958	551.19
402.182	567.19
402.406	557.19
402.63	557.19
402.854	572.19
403.078	576.19
403.302	587.19
403.526	608.19
403.75	585.19
403.974	586.19
404.198	553.19
404.422	571.19
404.645	599.19
404.869	596.19
405.093	622.19
405.317	679.19
405.541	672.19
405.765	617.19
405.988	587.19
406.212	587.19
406.436	608.19
406.66	633.19
406.883	608.19
407.107	632.19
407.331	673.19
407.555	775.19
407.778	748.19
408.002	697.19
408.226	617.19
408.449	626.19
408.673	628.19
408.896	655.19
409.12	705.19
409.344	654.19
409.567	595.19
409.791	602.19
410.014	576.19
410.238	560.19
410.461	569.19
410.685	587.19
410.908	597.19
411.132	602.19
411.355	662.19
411.578	652.19
411.802	583.19
412.025	571.19
412.249	591.19
412.472	598.19
412.695	615.19
412.919	619.19
413.142	594.19
413.365	584.19
413.589	569.19
413.812	567.19
414.035	540.19
414.258	523.19
414.482	535.19
414.705	525.19
414.928	548.19
415.151	556.19
415.374	545.19
415.597	552.19
415.821	527.19
416.044	553.19
416.267	564.19
416.49	513.19
416.713	559.19
416.936	553.19
417.159	525.19
417.382	532.19
417.605	555.19
417.828	556.19
418.051	543.19
418.274	543.19
418.497	529.19
418.72	562.19
418.943	556.19
419.166	559.19
419.389	611.19
419.611	580.19
419.834	577.19
420.057	578.19
420.28	582.19
420.503	571.19
420.726	569.19
420.948	585.19
421.171	623.19
421.394	619.19
421.617	605.19
421.839	551.19
422.062	554.19
422.285	577.19
422.507	618.19
422.73	710.19
422.953	671.19
423.175	590.19
423.398	570.19
423.621	594.19
423.843	628.19
424.066	619.19
424.288	592.19
424.511	613.19
424.733	669.19
424.956	737.19
425.178	691.19
425.401	703.19
425.623	724.19
425.846	634.19
426.068	592.19
426.291	591.19
426.513	586.19
426.735	601.19
426.958	613.19
427.18	698.19
427.402	859.19
427.625	939.19
427.847	774.19
428.069	673.19
428.292	626.19
428.514	573.19
428.736	555.19
428.958	560.19
429.181	550.19
429.403	560.19
429.625	535.19
429.847	585.19
430.069	641.19
430.292	626.19
430.514	549.19
430.736	539.19
430.958	528.19
431.18	515.19
431.402	506.19
431.624	540.19
431.846	514.19
432.068	509.19
432.29	513.19
432.512	535.19
432.734	514.19
432.956	535.19
433.178	536.19
433.4	542.19
433.622	536.19
433.844	500.19
434.066	541.19
434.287	546.19
434.509	532.19
434.731	554.19
434.953	549.19
435.175	580.19
435.397	591.19
435.618	587.19
435.84	588.19
436.062	693.19
436.284	758.19
436.505	662.19
436.727	598.19
436.949	567.19
437.17	555.19
437.392	551.19
437.614	563.19
437.835	588.19
438.057	652.19
438.278	753.19
438.5	747.19
438.721	849.19
438.943	823.19
439.165	643.19
439.386	620.19
439.608	613.19
439.829	587.19
440.05	607.19
440.272	665.19
440.493	629.19
440.715	593.19
440.936	538.19
441.158	564.19
441.379	554.19
441.6	596.19
441.822	601.19
442.043	636.19
442.264	734.19
442.486	775.19
442.707	637.19
442.928	586.19
443.149	611.19
443.371	633.19
443.592	665.19
443.813	760.19
444.034	860.19
444.255	707.19
444.476	653.19
444.698	621.19
444.919	583.19
445.14	712.19
445.361	653.19
445.582	621.19
445.803	688.19
446.024	785.19
446.245	795.19
446.466	698.19
446.687	623.19
446.908	588.19
447.129	561.19
447.35	544.19
447.571	532.19
447.792	545.19
448.013	527.19
448.234	552.19
448.455	605.19
448.675	709.19
448.896	815.19
449.117	717.19
449.338	640.19
449.559	764.19
449.779	887.19
450	695.19
450.221	576.19
450.442	539.19
450.662	529.19
450.883	533.19
451.104	529.19
451.324	527.19
451.545	511.19
451.766	499.19
451.986	494.19
452.207	501.19
452.428	480.19
452.648	491.19
452.869	483.19
453.089	483.19
453.31	519.19
453.53	497.19
453.751	464.19
453.971	498.19
454.192	487.19
454.412	467.19
454.633	463.19
454.853	466.19
455.073	481.19
455.294	514.19
455.514	539.19
455.734	555.19
455.955	488.19
456.175	479.19
456.395	455.19
456.616	443.19
456.836	479.19
457.056	468.19
457.276	451.19
457.497	455.19
457.717	441.19
457.937	475.19
458.157	483.19
458.377	467.19
458.598	507.19
458.818	544.19
459.038	606.19
459.258	637.19
459.478	567.19
459.698	523.19
459.918	521.19
460.138	527.19
460.358	540.19
460.578	539.19
460.798	546.19
461.018	556.19
461.238	556.19
461.458	533.19
461.678	511.19
461.898	565.19
462.118	544.19
462.338	552.19
462.558	578.19
462.777	583.19
462.997	609.19
463.217	635.19
463.437	625.19
463.657	635.19
463.876	583.19
464.096	578.19
464.316	595.19
464.536	636.19
464.755	596.19
464.975	579.19
465.195	606.19
465.414	644.19
465.634	577.19
465.854	567.19
466.073	546.19
466.293	512.19
466.512	509.19
466.732	494.19
466.951	493.19
467.171	492.19
467.391	494.19
467.61	495.19
467.829	517.19
468.049	494.19
468.268	498.19
468.488	494.19
468.707	477.19
468.927	508.19
469.146	469.19
469.365	484.19
469.585	487.19
469.804	492.19
470.023	493.19
470.243	516.19
470.462	517.19
470.681	511.19
470.901	500.19
471.12	511.19
471.339	500.19
471.558	527.19
471.777	500.19
471.997	476.19
472.216	507.19
472.435	546.19
472.654	526.19
472.873	524.19
473.092	509.19
473.311	495.19
473.53	512.19
473.749	513.19
473.968	529.19
474.187	634.19
474.406	659.19
474.625	540.19
474.844	525.19
475.063	507.19
475.282	514.19
475.501	515.19
475.72	537.19
475.939	522.19
476.158	536.19
476.377	504.19
476.596	525.19
476.814	545.19
477.033	542.19
477.252	563.19
477.471	548.19
477.69	563.19
477.908	564.19
478.127	554.19
478.346	548.19
478.564	564.19
478.783	603.19
479.002	594.19
479.22	591.19
479.439	563.19
479.658	601.19
479.876	615.19
480.095	586.19
480.313	657.19
480.532	639.19
480.751	636.19
480.969	627.19
481.188	676.19
481.406	690.19
481.624	659.19
481.843	626.19
482.061	601.19
482.28	594.19
482.498	593.19
482.717	592.19
482.935	604.19
483.153	581.19
483.372	592.19
483.59	601.19
483.808	576.19
484.027	586.19
484.245	599.19
484.463	600.19
484.681	600.19
484.9	607.19
485.118	601.19
485.336	605.19
485.554	627.19
485.772	614.19
485.99	603.19
486.209	606.19
486.427	623.19
486.645	629.19
486.863	628.19
487.081	618.19
487.299	666.19
487.517	650.19
487.735	645.19
487.953	628.19
488.171	622.19
488.389	638.19
488.607	629.19
488.825	631.19
489.043	635.19
489.261	633.19
489.479	660.19
489.696	644.19
489.914	654.19
490.132	657.19
490.35	685.19
490.568	691.19
490.786	677.19
491.003	714.19
491.221	691.19
491.439	684.19
491.657	727.19
491.874	720.19
492.092	719.19
492.31	739.19
492.527	727.19
492.745	746.19
492.963	761.19
493.18	752.19
493.398	754.19
493.615	772.19
493.833	745.19
494.05	752.19
494.268	743.19
494.485	715.19
494.703	743.19
494.92	730.19
495.138	736.19
495.355	759.19
495.573	757.19
495.79	748.19
496.008	728.19
496.225	770.19
496.442	765.19
496.66	767.19
496.877	762.19
497.094	776.19
497.312	775.19
497.529	772.19
497.746	815.19
497.963	780.19
498.181	820.19
498.398	845.19
498.615	869.19
498.832	865.19
499.049	884.19
499.267	934.19
499.484	998.19
499.701	1051.19
499.918	1042.19
500.135	1097.19
500.352	1165.19
500.569	1222.19
500.786	1186.19
501.003	1219.19
501.22	1152.19
501.437	1071.19
501.654	1024.19
