Data from 1975.PennyLincolnUp.Lamp.En5.5.200Scan.071719.P1.Changed Mount._HRD10591_15-56-29-859.txt Node
Date: Thu Jul 18 15:56:29 EDT 2019
User: cochatt
Spectrometer: HR+D1059
Trigger mode: 1
Integration Time (sec): 1.000000E-1
Scans to average: 1
Electric dark correction enabled: true
Nonlinearity correction enabled: false
Boxcar width: 0
XAxis mode: Wavelengths
Number of Pixels in Spectrum: 2048
>>>>>Begin Spectral Data<<<<<
223.165	-16.06
223.4	-16.06
223.635	-16.06
223.869	-13.06
224.104	-3.06
224.338	-14.06
224.573	-12.06
224.808	-25.06
225.042	-3.06
225.277	3.94
225.511	-6.06
225.746	-5.06
225.98	10.94
226.215	0.94
226.449	4.94
226.683	23.94
226.918	19.94
227.152	32.94
227.387	32.94
227.621	33.94
227.856	33.94
228.09	38.94
228.324	55.94
228.559	51.94
228.793	71.94
229.027	101.94
229.262	120.94
229.496	121.94
229.73	127.94
229.964	148.94
230.199	128.94
230.433	127.94
230.667	110.94
230.901	133.94
231.136	121.94
231.37	101.94
231.604	113.94
231.838	118.94
232.072	115.94
232.306	112.94
232.541	111.94
232.775	96.94
233.009	111.94
233.243	117.94
233.477	116.94
233.711	126.94
233.945	136.94
234.179	115.94
234.413	105.94
234.647	118.94
234.881	117.94
235.115	120.94
235.349	117.94
235.583	128.94
235.817	125.94
236.051	125.94
236.285	117.94
236.519	119.94
236.753	137.94
236.987	150.94
237.221	179.94
237.455	219.94
237.689	177.94
237.922	134.94
238.156	140.94
238.39	137.94
238.624	127.94
238.858	128.94
239.091	124.94
239.325	110.94
239.559	123.94
239.793	141.94
240.027	124.94
240.26	152.94
240.494	153.94
240.728	148.94
240.961	152.94
241.195	140.94
241.429	149.94
241.662	159.94
241.896	137.94
242.13	140.94
242.363	132.94
242.597	122.94
242.83	135.94
243.064	135.94
243.298	138.94
243.531	126.94
243.765	145.94
243.998	144.94
244.232	130.94
244.465	148.94
244.699	138.94
244.932	162.94
245.166	156.94
245.399	156.94
245.633	157.94
245.866	143.94
246.099	143.94
246.333	139.94
246.566	153.94
246.8	151.94
247.033	160.94
247.266	171.94
247.5	149.94
247.733	163.94
247.966	161.94
248.2	152.94
248.433	184.94
248.666	169.94
248.899	189.94
249.133	202.94
249.366	205.94
249.599	192.94
249.832	176.94
250.066	167.94
250.299	194.94
250.532	180.94
250.765	207.94
250.998	224.94
251.231	223.94
251.465	240.94
251.698	208.94
251.931	206.94
252.164	195.94
252.397	212.94
252.63	187.94
252.863	196.94
253.096	211.94
253.329	215.94
253.562	207.94
253.795	215.94
254.028	198.94
254.261	223.94
254.494	219.94
254.727	252.94
254.96	280.94
255.193	256.94
255.426	229.94
255.659	227.94
255.892	234.94
256.124	227.94
256.357	231.94
256.59	221.94
256.823	207.94
257.056	212.94
257.289	215.94
257.521	210.94
257.754	213.94
257.987	220.94
258.22	209.94
258.452	214.94
258.685	196.94
258.918	201.94
259.151	214.94
259.383	226.94
259.616	220.94
259.849	237.94
260.081	231.94
260.314	244.94
260.547	255.94
260.779	227.94
261.012	233.94
261.244	233.94
261.477	219.94
261.71	211.94
261.942	225.94
262.175	231.94
262.407	228.94
262.64	209.94
262.872	200.94
263.105	223.94
263.337	216.94
263.57	193.94
263.802	220.94
264.035	209.94
264.267	231.94
264.499	203.94
264.732	208.94
264.964	208.94
265.197	224.94
265.429	223.94
265.661	213.94
265.894	227.94
266.126	215.94
266.358	214.94
266.591	205.94
266.823	229.94
267.055	240.94
267.287	233.94
267.52	253.94
267.752	220.94
267.984	239.94
268.216	233.94
268.448	234.94
268.681	228.94
268.913	241.94
269.145	261.94
269.377	269.94
269.609	265.94
269.841	264.94
270.073	258.94
270.306	277.94
270.538	325.94
270.77	298.94
271.002	288.94
271.234	282.94
271.466	299.94
271.698	294.94
271.93	315.94
272.162	331.94
272.394	320.94
272.626	296.94
272.858	293.94
273.09	272.94
273.322	279.94
273.553	262.94
273.785	278.94
274.017	284.94
274.249	250.94
274.481	271.94
274.713	265.94
274.945	268.94
275.176	285.94
275.408	261.94
275.64	277.94
275.872	253.94
276.104	262.94
276.335	267.94
276.567	284.94
276.799	272.94
277.031	311.94
277.262	317.94
277.494	304.94
277.726	287.94
277.957	296.94
278.189	287.94
278.421	284.94
278.652	281.94
278.884	288.94
279.115	274.94
279.347	279.94
279.579	266.94
279.81	271.94
280.042	276.94
280.273	277.94
280.505	266.94
280.736	269.94
280.968	273.94
281.199	288.94
281.431	274.94
281.662	297.94
281.894	271.94
282.125	265.94
282.356	290.94
282.588	289.94
282.819	310.94
283.051	284.94
283.282	288.94
283.513	272.94
283.745	282.94
283.976	292.94
284.207	306.94
284.439	284.94
284.67	288.94
284.901	283.94
285.132	294.94
285.364	301.94
285.595	292.94
285.826	295.94
286.057	287.94
286.288	299.94
286.52	279.94
286.751	292.94
286.982	308.94
287.213	289.94
287.444	275.94
287.675	300.94
287.906	320.94
288.138	312.94
288.369	329.94
288.6	316.94
288.831	311.94
289.062	300.94
289.293	285.94
289.524	304.94
289.755	296.94
289.986	305.94
290.217	298.94
290.448	298.94
290.679	291.94
290.91	297.94
291.141	317.94
291.371	307.94
291.602	307.94
291.833	296.94
292.064	303.94
292.295	296.94
292.526	311.94
292.757	304.94
292.987	303.94
293.218	301.94
293.449	330.94
293.68	299.94
293.91	309.94
294.141	301.94
294.372	307.94
294.603	302.94
294.833	295.94
295.064	306.94
295.295	320.94
295.525	307.94
295.756	302.94
295.987	332.94
296.217	318.94
296.448	325.94
296.679	306.94
296.909	318.94
297.14	304.94
297.37	327.94
297.601	330.94
297.831	320.94
298.062	328.94
298.292	305.94
298.523	318.94
298.753	309.94
298.984	317.94
299.214	323.94
299.445	333.94
299.675	314.94
299.905	319.94
300.136	342.94
300.366	337.94
300.597	318.94
300.827	334.94
301.057	335.94
301.288	336.94
301.518	326.94
301.748	343.94
301.979	335.94
302.209	349.94
302.439	361.94
302.669	339.94
302.9	342.94
303.13	346.94
303.36	340.94
303.59	345.94
303.82	349.94
304.051	335.94
304.281	335.94
304.511	359.94
304.741	333.94
304.971	346.94
305.201	354.94
305.431	342.94
305.661	329.94
305.891	317.94
306.121	324.94
306.352	361.94
306.582	327.94
306.812	335.94
307.042	354.94
307.272	358.94
307.502	336.94
307.731	344.94
307.961	333.94
308.191	333.94
308.421	350.94
308.651	341.94
308.881	346.94
309.111	350.94
309.341	346.94
309.571	362.94
309.8	360.94
310.03	356.94
310.26	358.94
310.49	363.94
310.72	351.94
310.949	368.94
311.179	387.94
311.409	356.94
311.639	389.94
311.868	388.94
312.098	360.94
312.328	383.94
312.557	391.94
312.787	387.94
313.017	406.94
313.246	382.94
313.476	377.94
313.706	367.94
313.935	389.94
314.165	380.94
314.394	399.94
314.624	401.94
314.853	377.94
315.083	384.94
315.312	388.94
315.542	378.94
315.771	383.94
316.001	380.94
316.23	373.94
316.46	355.94
316.689	378.94
316.919	393.94
317.148	367.94
317.377	372.94
317.607	371.94
317.836	374.94
318.065	371.94
318.295	389.94
318.524	387.94
318.753	382.94
318.983	356.94
319.212	371.94
319.441	394.94
319.67	383.94
319.9	400.94
320.129	375.94
320.358	363.94
320.587	387.94
320.816	389.94
321.046	388.94
321.275	390.94
321.504	393.94
321.733	396.94
321.962	403.94
322.191	391.94
322.42	407.94
322.649	414.94
322.878	426.94
323.108	420.94
323.337	437.94
323.566	463.94
323.795	460.94
324.024	498.94
324.253	565.94
324.482	792.94
324.71	1137.94
324.939	1708.94
325.168	1484.94
325.397	779.94
325.626	557.94
325.855	477.94
326.084	466.94
326.313	461.94
326.542	473.94
326.77	489.94
326.999	545.94
327.228	707.94
327.457	1036.94
327.686	1344.94
327.914	890.94
328.143	591.94
328.372	559.94
328.6	511.94
328.829	521.94
329.058	517.94
329.287	510.94
329.515	518.94
329.744	469.94
329.972	462.94
330.201	508.94
330.43	513.94
330.658	544.94
330.887	543.94
331.115	543.94
331.344	502.94
331.572	480.94
331.801	459.94
332.03	469.94
332.258	475.94
332.486	467.94
332.715	477.94
332.943	452.94
333.172	479.94
333.4	471.94
333.629	463.94
333.857	483.94
334.085	493.94
334.314	515.94
334.542	548.94
334.771	535.94
334.999	512.94
335.227	478.94
335.455	474.94
335.684	485.94
335.912	453.94
336.14	437.94
336.369	457.94
336.597	471.94
336.825	475.94
337.053	487.94
337.281	475.94
337.51	446.94
337.738	458.94
337.966	445.94
338.194	458.94
338.422	457.94
338.65	455.94
338.878	421.94
339.106	442.94
339.334	434.94
339.562	432.94
339.79	451.94
340.018	424.94
340.246	447.94
340.474	437.94
340.702	437.94
340.93	426.94
341.158	443.94
341.386	442.94
341.614	430.94
341.842	441.94
342.07	440.94
342.298	434.94
342.526	432.94
342.754	421.94
342.981	430.94
343.209	428.94
343.437	442.94
343.665	444.94
343.893	447.94
344.12	481.94
344.348	458.94
344.576	447.94
344.804	452.94
345.031	428.94
345.259	442.94
345.487	445.94
345.714	430.94
345.942	450.94
346.17	435.94
346.397	416.94
346.625	413.94
346.853	405.94
347.08	415.94
347.308	402.94
347.535	423.94
347.763	416.94
347.99	421.94
348.218	433.94
348.445	426.94
348.673	422.94
348.9	409.94
349.128	413.94
349.355	419.94
349.583	397.94
349.81	409.94
350.037	405.94
350.265	395.94
350.492	397.94
350.72	432.94
350.947	419.94
351.174	427.94
351.402	424.94
351.629	421.94
351.856	398.94
352.083	445.94
352.311	431.94
352.538	416.94
352.765	438.94
352.992	423.94
353.22	400.94
353.447	429.94
353.674	429.94
353.901	427.94
354.128	428.94
354.355	408.94
354.583	407.94
354.81	428.94
355.037	407.94
355.264	407.94
355.491	396.94
355.718	398.94
355.945	416.94
356.172	387.94
356.399	405.94
356.626	425.94
356.853	409.94
357.08	386.94
357.307	389.94
357.534	407.94
357.761	401.94
357.988	418.94
358.215	395.94
358.441	391.94
358.668	391.94
358.895	399.94
359.122	399.94
359.349	390.94
359.576	419.94
359.802	437.94
360.029	438.94
360.256	433.94
360.483	449.94
360.709	444.94
360.936	424.94
361.163	412.94
361.39	428.94
361.616	431.94
361.843	423.94
362.07	430.94
362.296	408.94
362.523	418.94
362.749	419.94
362.976	417.94
363.203	433.94
363.429	422.94
363.656	414.94
363.882	425.94
364.109	407.94
364.335	407.94
364.562	424.94
364.788	406.94
365.015	437.94
365.241	413.94
365.468	402.94
365.694	409.94
365.92	409.94
366.147	397.94
366.373	413.94
366.599	397.94
366.826	411.94
367.052	415.94
367.278	408.94
367.505	410.94
367.731	396.94
367.957	408.94
368.184	414.94
368.41	422.94
368.636	421.94
368.862	425.94
369.089	452.94
369.315	419.94
369.541	397.94
369.767	405.94
369.993	412.94
370.219	418.94
370.445	423.94
370.672	397.94
370.898	435.94
371.124	423.94
371.35	402.94
371.576	424.94
371.802	415.94
372.028	430.94
372.254	430.94
372.48	399.94
372.706	405.94
372.932	431.94
373.158	440.94
373.384	416.94
373.61	429.94
373.835	427.94
374.061	431.94
374.287	416.94
374.513	434.94
374.739	444.94
374.965	445.94
375.191	430.94
375.416	439.94
375.642	412.94
375.868	424.94
376.094	420.94
376.319	418.94
376.545	436.94
376.771	437.94
376.997	436.94
377.222	433.94
377.448	425.94
377.674	431.94
377.899	414.94
378.125	418.94
378.35	419.94
378.576	422.94
378.802	415.94
379.027	448.94
379.253	444.94
379.478	409.94
379.704	429.94
379.929	431.94
380.155	427.94
380.38	416.94
380.606	396.94
380.831	411.94
381.057	420.94
381.282	428.94
381.507	431.94
381.733	423.94
381.958	430.94
382.184	428.94
382.409	430.94
382.634	448.94
382.86	451.94
383.085	438.94
383.31	410.94
383.535	446.94
383.761	455.94
383.986	444.94
384.211	445.94
384.436	442.94
384.662	452.94
384.887	444.94
385.112	477.94
385.337	455.94
385.562	455.94
385.787	471.94
386.013	468.94
386.238	484.94
386.463	480.94
386.688	481.94
386.913	465.94
387.138	461.94
387.363	483.94
387.588	469.94
387.813	510.94
388.038	498.94
388.263	475.94
388.488	479.94
388.713	507.94
388.938	464.94
389.163	471.94
389.387	467.94
389.612	485.94
389.837	466.94
390.062	480.94
390.287	462.94
390.512	474.94
390.736	463.94
390.961	472.94
391.186	482.94
391.411	482.94
391.636	485.94
391.86	527.94
392.085	490.94
392.31	513.94
392.534	484.94
392.759	494.94
392.984	492.94
393.208	477.94
393.433	494.94
393.658	491.94
393.882	477.94
394.107	473.94
394.331	486.94
394.556	499.94
394.78	472.94
395.005	473.94
395.229	493.94
395.454	487.94
395.678	488.94
395.903	508.94
396.127	507.94
396.352	526.94
396.576	519.94
396.801	494.94
397.025	486.94
397.249	479.94
397.474	515.94
397.698	501.94
397.922	539.94
398.147	529.94
398.371	538.94
398.595	536.94
398.82	550.94
399.044	556.94
399.268	610.94
399.492	625.94
399.717	638.94
399.941	670.94
400.165	712.94
400.389	705.94
400.613	628.94
400.837	577.94
401.062	575.94
401.286	559.94
401.51	541.94
401.734	559.94
401.958	571.94
402.182	565.94
402.406	556.94
402.63	560.94
402.854	590.94
403.078	586.94
403.302	563.94
403.526	580.94
403.75	584.94
403.974	596.94
404.198	569.94
404.422	590.94
404.645	605.94
404.869	577.94
405.093	638.94
405.317	649.94
405.541	693.94
405.765	627.94
405.988	603.94
406.212	619.94
406.436	636.94
406.66	616.94
406.883	606.94
407.107	645.94
407.331	673.94
407.555	739.94
407.778	747.94
408.002	709.94
408.226	656.94
408.449	637.94
408.673	629.94
408.896	627.94
409.12	669.94
409.344	669.94
409.567	620.94
409.791	608.94
410.014	574.94
410.238	583.94
410.461	588.94
410.685	575.94
410.908	608.94
411.132	643.94
411.355	693.94
411.578	637.94
411.802	612.94
412.025	564.94
412.249	596.94
412.472	611.94
412.695	662.94
412.919	621.94
413.142	595.94
413.365	587.94
413.589	590.94
413.812	549.94
414.035	543.94
414.258	529.94
414.482	564.94
414.705	554.94
414.928	557.94
415.151	551.94
415.374	553.94
415.597	557.94
415.821	529.94
416.044	520.94
416.267	549.94
416.49	559.94
416.713	553.94
416.936	557.94
417.159	536.94
417.382	568.94
417.605	559.94
417.828	560.94
418.051	568.94
418.274	556.94
418.497	554.94
418.72	553.94
418.943	547.94
419.166	551.94
419.389	592.94
419.611	608.94
419.834	598.94
420.057	588.94
420.28	577.94
420.503	573.94
420.726	559.94
420.948	592.94
421.171	611.94
421.394	635.94
421.617	594.94
421.839	563.94
422.062	574.94
422.285	574.94
422.507	632.94
422.73	702.94
422.953	677.94
423.175	603.94
423.398	608.94
423.621	593.94
423.843	599.94
424.066	624.94
424.288	614.94
424.511	603.94
424.733	663.94
424.956	731.94
425.178	720.94
425.401	728.94
425.623	748.94
425.846	639.94
426.068	593.94
426.291	591.94
426.513	580.94
426.735	576.94
426.958	644.94
427.18	692.94
427.402	861.94
427.625	935.94
427.847	791.94
428.069	691.94
428.292	612.94
428.514	586.94
428.736	566.94
428.958	541.94
429.181	560.94
429.403	543.94
429.625	532.94
429.847	608.94
430.069	631.94
430.292	651.94
430.514	568.94
430.736	556.94
430.958	537.94
431.18	518.94
431.402	525.94
431.624	505.94
431.846	490.94
432.068	513.94
432.29	534.94
432.512	521.94
432.734	549.94
432.956	537.94
433.178	537.94
433.4	565.94
433.622	526.94
433.844	521.94
434.066	536.94
434.287	532.94
434.509	546.94
434.731	548.94
434.953	548.94
435.175	577.94
435.397	591.94
435.618	583.94
435.84	617.94
436.062	716.94
436.284	795.94
436.505	637.94
436.727	596.94
436.949	567.94
437.17	562.94
437.392	542.94
437.614	540.94
437.835	571.94
438.057	650.94
438.278	735.94
438.5	757.94
438.721	843.94
438.943	798.94
439.165	637.94
439.386	600.94
439.608	598.94
439.829	598.94
440.05	636.94
440.272	663.94
440.493	616.94
440.715	586.94
440.936	565.94
441.158	588.94
441.379	557.94
441.6	569.94
441.822	575.94
442.043	615.94
442.264	685.94
442.486	745.94
442.707	640.94
442.928	636.94
443.149	617.94
443.371	625.94
443.592	663.94
443.813	775.94
444.034	824.94
444.255	665.94
444.476	620.94
444.698	631.94
444.919	631.94
445.14	728.94
445.361	676.94
445.582	659.94
445.803	673.94
446.024	773.94
446.245	819.94
446.466	727.94
446.687	600.94
446.908	587.94
447.129	571.94
447.35	547.94
447.571	523.94
447.792	513.94
448.013	547.94
448.234	555.94
448.455	589.94
448.675	705.94
448.896	827.94
449.117	673.94
449.338	636.94
449.559	745.94
449.779	869.94
450	679.94
450.221	595.94
450.442	539.94
450.662	495.94
450.883	513.94
451.104	536.94
451.324	553.94
451.545	514.94
451.766	488.94
451.986	487.94
452.207	494.94
452.428	494.94
452.648	487.94
452.869	473.94
453.089	491.94
453.31	496.94
453.53	476.94
453.751	489.94
453.971	479.94
454.192	494.94
454.412	466.94
454.633	489.94
454.853	504.94
455.073	492.94
455.294	504.94
455.514	563.94
455.734	571.94
455.955	484.94
456.175	479.94
456.395	465.94
456.616	461.94
456.836	450.94
457.056	448.94
457.276	453.94
457.497	475.94
457.717	468.94
457.937	466.94
458.157	486.94
458.377	483.94
458.598	504.94
458.818	512.94
459.038	589.94
459.258	620.94
459.478	568.94
459.698	539.94
459.918	545.94
460.138	524.94
460.358	540.94
460.578	550.94
460.798	550.94
461.018	571.94
461.238	547.94
461.458	550.94
461.678	553.94
461.898	557.94
462.118	541.94
462.338	581.94
462.558	580.94
462.777	585.94
462.997	604.94
463.217	633.94
463.437	617.94
463.657	613.94
463.876	611.94
464.096	586.94
464.316	583.94
464.536	609.94
464.755	592.94
464.975	591.94
465.195	606.94
465.414	613.94
465.634	583.94
465.854	540.94
466.073	526.94
466.293	514.94
466.512	488.94
466.732	523.94
466.951	491.94
467.171	493.94
467.391	502.94
467.61	520.94
467.829	527.94
468.049	510.94
468.268	505.94
468.488	488.94
468.707	486.94
468.927	493.94
469.146	489.94
469.365	491.94
469.585	489.94
469.804	506.94
470.023	521.94
470.243	510.94
470.462	530.94
470.681	548.94
470.901	541.94
471.12	541.94
471.339	530.94
471.558	523.94
471.777	514.94
471.997	517.94
472.216	490.94
472.435	535.94
472.654	521.94
472.873	496.94
473.092	521.94
473.311	482.94
473.53	512.94
473.749	533.94
473.968	545.94
474.187	631.94
474.406	639.94
474.625	568.94
474.844	531.94
475.063	503.94
475.282	511.94
475.501	514.94
475.72	533.94
475.939	497.94
476.158	517.94
476.377	543.94
476.596	506.94
476.814	538.94
477.033	536.94
477.252	522.94
477.471	540.94
477.69	537.94
477.908	554.94
478.127	575.94
478.346	580.94
478.564	599.94
478.783	591.94
479.002	577.94
479.22	582.94
479.439	589.94
479.658	613.94
479.876	623.94
480.095	614.94
480.313	647.94
480.532	654.94
480.751	631.94
480.969	629.94
481.188	695.94
481.406	696.94
481.624	627.94
481.843	615.94
482.061	629.94
482.28	611.94
482.498	606.94
482.717	582.94
482.935	597.94
483.153	629.94
483.372	597.94
483.59	605.94
483.808	596.94
484.027	593.94
484.245	599.94
484.463	618.94
484.681	625.94
484.9	573.94
485.118	622.94
485.336	583.94
485.554	620.94
485.772	612.94
485.99	602.94
486.209	614.94
486.427	624.94
486.645	628.94
486.863	639.94
487.081	653.94
487.299	666.94
487.517	637.94
487.735	633.94
487.953	642.94
488.171	631.94
488.389	637.94
488.607	651.94
488.825	630.94
489.043	616.94
489.261	627.94
489.479	641.94
489.696	633.94
489.914	634.94
490.132	663.94
490.35	661.94
490.568	666.94
490.786	675.94
491.003	683.94
491.221	707.94
491.439	701.94
491.657	721.94
491.874	726.94
492.092	714.94
492.31	767.94
492.527	732.94
492.745	734.94
492.963	763.94
493.18	739.94
493.398	741.94
493.615	750.94
493.833	765.94
494.05	760.94
494.268	769.94
494.485	763.94
494.703	752.94
494.92	744.94
495.138	748.94
495.355	761.94
495.573	749.94
495.79	745.94
496.008	787.94
496.225	772.94
496.442	778.94
496.66	748.94
496.877	744.94
497.094	752.94
497.312	784.94
497.529	795.94
497.746	789.94
497.963	843.94
498.181	839.94
498.398	849.94
498.615	873.94
498.832	872.94
499.049	908.94
499.267	955.94
499.484	967.94
499.701	1032.94
499.918	1083.94
500.135	1155.94
500.352	1252.94
500.569	1252.94
500.786	1249.94
501.003	1211.94
501.22	1143.94
501.437	1094.94
501.654	1031.94
