Data from 1975.PennyLincolnUp.Lamp.En5.5.200Scan.071719.P1.Changed Mount._HRD10591_15-56-46-858.txt Node
Date: Thu Jul 18 15:56:46 EDT 2019
User: cochatt
Spectrometer: HR+D1059
Trigger mode: 1
Integration Time (sec): 1.000000E-1
Scans to average: 1
Electric dark correction enabled: true
Nonlinearity correction enabled: false
Boxcar width: 0
XAxis mode: Wavelengths
Number of Pixels in Spectrum: 2048
>>>>>Begin Spectral Data<<<<<
223.165	-9.69
223.4	-9.69
223.635	-9.69
223.869	-22.69
224.104	-13.69
224.338	-9.69
224.573	-18.69
224.808	-20.69
225.042	-5.69
225.277	7.31
225.511	-14.69
225.746	5.31
225.98	3.31
226.215	4.31
226.449	16.31
226.683	23.31
226.918	27.31
227.152	28.31
227.387	14.31
227.621	53.31
227.856	46.31
228.09	52.31
228.324	54.31
228.559	68.31
228.793	77.31
229.027	97.31
229.262	105.31
229.496	98.31
229.73	147.31
229.964	145.31
230.199	131.31
230.433	119.31
230.667	110.31
230.901	116.31
231.136	112.31
231.37	109.31
231.604	111.31
231.838	125.31
232.072	121.31
232.306	132.31
232.541	121.31
232.775	115.31
233.009	123.31
233.243	107.31
233.477	116.31
233.711	117.31
233.945	118.31
234.179	115.31
234.413	121.31
234.647	123.31
234.881	102.31
235.115	129.31
235.349	126.31
235.583	116.31
235.817	124.31
236.051	126.31
236.285	117.31
236.519	116.31
236.753	118.31
236.987	142.31
237.221	172.31
237.455	214.31
237.689	181.31
237.922	132.31
238.156	125.31
238.39	126.31
238.624	133.31
238.858	123.31
239.091	117.31
239.325	119.31
239.559	133.31
239.793	137.31
240.027	134.31
240.26	133.31
240.494	160.31
240.728	137.31
240.961	146.31
241.195	137.31
241.429	135.31
241.662	135.31
241.896	142.31
242.13	133.31
242.363	138.31
242.597	141.31
242.83	135.31
243.064	147.31
243.298	135.31
243.531	132.31
243.765	128.31
243.998	159.31
244.232	133.31
244.465	157.31
244.699	156.31
244.932	142.31
245.166	147.31
245.399	141.31
245.633	149.31
245.866	152.31
246.099	153.31
246.333	150.31
246.566	153.31
246.8	165.31
247.033	163.31
247.266	168.31
247.5	155.31
247.733	164.31
247.966	178.31
248.2	160.31
248.433	177.31
248.666	195.31
248.899	190.31
249.133	215.31
249.366	203.31
249.599	203.31
249.832	174.31
250.066	201.31
250.299	210.31
250.532	203.31
250.765	196.31
250.998	213.31
251.231	224.31
251.465	211.31
251.698	207.31
251.931	212.31
252.164	205.31
252.397	205.31
252.63	200.31
252.863	205.31
253.096	211.31
253.329	213.31
253.562	227.31
253.795	211.31
254.028	205.31
254.261	218.31
254.494	223.31
254.727	255.31
254.96	269.31
255.193	262.31
255.426	247.31
255.659	235.31
255.892	229.31
256.124	230.31
256.357	234.31
256.59	223.31
256.823	231.31
257.056	203.31
257.289	225.31
257.521	209.31
257.754	215.31
257.987	216.31
258.22	198.31
258.452	211.31
258.685	198.31
258.918	206.31
259.151	228.31
259.383	217.31
259.616	221.31
259.849	236.31
260.081	250.31
260.314	247.31
260.547	268.31
260.779	255.31
261.012	241.31
261.244	209.31
261.477	228.31
261.71	221.31
261.942	228.31
262.175	229.31
262.407	218.31
262.64	202.31
262.872	213.31
263.105	208.31
263.337	227.31
263.57	213.31
263.802	223.31
264.035	224.31
264.267	228.31
264.499	236.31
264.732	221.31
264.964	232.31
265.197	227.31
265.429	215.31
265.661	219.31
265.894	235.31
266.126	218.31
266.358	234.31
266.591	222.31
266.823	225.31
267.055	225.31
267.287	236.31
267.52	242.31
267.752	242.31
267.984	227.31
268.216	238.31
268.448	244.31
268.681	235.31
268.913	236.31
269.145	269.31
269.377	277.31
269.609	268.31
269.841	281.31
270.073	245.31
270.306	282.31
270.538	305.31
270.77	315.31
271.002	311.31
271.234	291.31
271.466	300.31
271.698	316.31
271.93	319.31
272.162	313.31
272.394	315.31
272.626	301.31
272.858	281.31
273.09	286.31
273.322	269.31
273.553	270.31
273.785	265.31
274.017	269.31
274.249	275.31
274.481	285.31
274.713	271.31
274.945	279.31
275.176	262.31
275.408	259.31
275.64	278.31
275.872	282.31
276.104	261.31
276.335	281.31
276.567	268.31
276.799	283.31
277.031	302.31
277.262	311.31
277.494	323.31
277.726	306.31
277.957	284.31
278.189	291.31
278.421	293.31
278.652	261.31
278.884	279.31
279.115	276.31
279.347	277.31
279.579	287.31
279.81	267.31
280.042	266.31
280.273	280.31
280.505	283.31
280.736	260.31
280.968	275.31
281.199	273.31
281.431	289.31
281.662	275.31
281.894	284.31
282.125	293.31
282.356	299.31
282.588	319.31
282.819	318.31
283.051	286.31
283.282	281.31
283.513	287.31
283.745	287.31
283.976	287.31
284.207	281.31
284.439	289.31
284.67	272.31
284.901	284.31
285.132	279.31
285.364	297.31
285.595	285.31
285.826	284.31
286.057	282.31
286.288	300.31
286.52	295.31
286.751	325.31
286.982	301.31
287.213	295.31
287.444	317.31
287.675	299.31
287.906	305.31
288.138	314.31
288.369	308.31
288.6	319.31
288.831	310.31
289.062	285.31
289.293	299.31
289.524	278.31
289.755	299.31
289.986	295.31
290.217	301.31
290.448	296.31
290.679	310.31
290.91	307.31
291.141	315.31
291.371	314.31
291.602	281.31
291.833	299.31
292.064	306.31
292.295	308.31
292.526	279.31
292.757	306.31
292.987	294.31
293.218	292.31
293.449	302.31
293.68	299.31
293.91	296.31
294.141	305.31
294.372	293.31
294.603	313.31
294.833	315.31
295.064	311.31
295.295	317.31
295.525	318.31
295.756	315.31
295.987	315.31
296.217	327.31
296.448	339.31
296.679	321.31
296.909	317.31
297.14	324.31
297.37	322.31
297.601	313.31
297.831	309.31
298.062	324.31
298.292	314.31
298.523	314.31
298.753	328.31
298.984	322.31
299.214	307.31
299.445	319.31
299.675	331.31
299.905	327.31
300.136	323.31
300.366	322.31
300.597	329.31
300.827	341.31
301.057	344.31
301.288	316.31
301.518	357.31
301.748	335.31
301.979	345.31
302.209	337.31
302.439	331.31
302.669	346.31
302.9	339.31
303.13	327.31
303.36	336.31
303.59	337.31
303.82	355.31
304.051	344.31
304.281	337.31
304.511	359.31
304.741	341.31
304.971	326.31
305.201	337.31
305.431	341.31
305.661	327.31
305.891	333.31
306.121	343.31
306.352	323.31
306.582	350.31
306.812	366.31
307.042	356.31
307.272	332.31
307.502	345.31
307.731	379.31
307.961	355.31
308.191	346.31
308.421	348.31
308.651	357.31
308.881	340.31
309.111	345.31
309.341	361.31
309.571	354.31
309.8	358.31
310.03	373.31
310.26	380.31
310.49	367.31
310.72	388.31
310.949	389.31
311.179	375.31
311.409	379.31
311.639	375.31
311.868	374.31
312.098	374.31
312.328	386.31
312.557	392.31
312.787	397.31
313.017	412.31
313.246	387.31
313.476	374.31
313.706	375.31
313.935	386.31
314.165	396.31
314.394	399.31
314.624	383.31
314.853	368.31
315.083	379.31
315.312	387.31
315.542	381.31
315.771	381.31
316.001	366.31
316.23	389.31
316.46	369.31
316.689	380.31
316.919	374.31
317.148	375.31
317.377	393.31
317.607	388.31
317.836	371.31
318.065	365.31
318.295	366.31
318.524	385.31
318.753	362.31
318.983	363.31
319.212	383.31
319.441	395.31
319.67	411.31
319.9	384.31
320.129	383.31
320.358	400.31
320.587	383.31
320.816	382.31
321.046	391.31
321.275	405.31
321.504	400.31
321.733	409.31
321.962	399.31
322.191	413.31
322.42	407.31
322.649	425.31
322.878	437.31
323.108	438.31
323.337	455.31
323.566	489.31
323.795	487.31
324.024	519.31
324.253	606.31
324.482	816.31
324.71	1195.31
324.939	1779.31
325.168	1603.31
325.397	826.31
325.626	592.31
325.855	499.31
326.084	466.31
326.313	472.31
326.542	474.31
326.77	494.31
326.999	576.31
327.228	727.31
327.457	1097.31
327.686	1399.31
327.914	933.31
328.143	636.31
328.372	553.31
328.6	517.31
328.829	533.31
329.058	519.31
329.287	552.31
329.515	528.31
329.744	486.31
329.972	485.31
330.201	501.31
330.43	544.31
330.658	552.31
330.887	568.31
331.115	549.31
331.344	519.31
331.572	464.31
331.801	478.31
332.03	498.31
332.258	479.31
332.486	469.31
332.715	451.31
332.943	458.31
333.172	486.31
333.4	461.31
333.629	474.31
333.857	482.31
334.085	511.31
334.314	511.31
334.542	547.31
334.771	562.31
334.999	527.31
335.227	490.31
335.455	476.31
335.684	462.31
335.912	474.31
336.14	446.31
336.369	463.31
336.597	468.31
336.825	468.31
337.053	469.31
337.281	445.31
337.51	460.31
337.738	442.31
337.966	443.31
338.194	444.31
338.422	450.31
338.65	451.31
338.878	434.31
339.106	462.31
339.334	441.31
339.562	441.31
339.79	444.31
340.018	425.31
340.246	463.31
340.474	443.31
340.702	428.31
340.93	440.31
341.158	437.31
341.386	438.31
341.614	453.31
341.842	445.31
342.07	437.31
342.298	437.31
342.526	411.31
342.754	417.31
342.981	424.31
343.209	433.31
343.437	417.31
343.665	458.31
343.893	450.31
344.12	445.31
344.348	479.31
344.576	466.31
344.804	453.31
345.031	463.31
345.259	454.31
345.487	462.31
345.714	437.31
345.942	423.31
346.17	430.31
346.397	416.31
346.625	428.31
346.853	423.31
347.08	421.31
347.308	429.31
347.535	422.31
347.763	424.31
347.99	427.31
348.218	447.31
348.445	418.31
348.673	431.31
348.9	445.31
349.128	436.31
349.355	400.31
349.583	429.31
349.81	412.31
350.037	411.31
350.265	406.31
350.492	436.31
350.72	421.31
350.947	419.31
351.174	427.31
351.402	447.31
351.629	419.31
351.856	414.31
352.083	427.31
352.311	429.31
352.538	421.31
352.765	429.31
352.992	449.31
353.22	433.31
353.447	406.31
353.674	406.31
353.901	403.31
354.128	403.31
354.355	398.31
354.583	399.31
354.81	396.31
355.037	408.31
355.264	399.31
355.491	405.31
355.718	414.31
355.945	400.31
356.172	417.31
356.399	397.31
356.626	393.31
356.853	413.31
357.08	395.31
357.307	393.31
357.534	394.31
357.761	404.31
357.988	411.31
358.215	406.31
358.441	417.31
358.668	409.31
358.895	406.31
359.122	415.31
359.349	418.31
359.576	431.31
359.802	427.31
360.029	477.31
360.256	457.31
360.483	444.31
360.709	426.31
360.936	414.31
361.163	403.31
361.39	439.31
361.616	419.31
361.843	430.31
362.07	429.31
362.296	429.31
362.523	411.31
362.749	449.31
362.976	384.31
363.203	407.31
363.429	405.31
363.656	393.31
363.882	417.31
364.109	410.31
364.335	413.31
364.562	411.31
364.788	399.31
365.015	403.31
365.241	423.31
365.468	426.31
365.694	408.31
365.92	421.31
366.147	419.31
366.373	398.31
366.599	424.31
366.826	430.31
367.052	407.31
367.278	415.31
367.505	404.31
367.731	409.31
367.957	405.31
368.184	428.31
368.41	411.31
368.636	414.31
368.862	438.31
369.089	432.31
369.315	446.31
369.541	420.31
369.767	401.31
369.993	419.31
370.219	417.31
370.445	399.31
370.672	421.31
370.898	417.31
371.124	430.31
371.35	437.31
371.576	415.31
371.802	422.31
372.028	411.31
372.254	431.31
372.48	419.31
372.706	411.31
372.932	447.31
373.158	423.31
373.384	418.31
373.61	427.31
373.835	425.31
374.061	419.31
374.287	445.31
374.513	434.31
374.739	444.31
374.965	447.31
375.191	435.31
375.416	443.31
375.642	426.31
375.868	421.31
376.094	426.31
376.319	403.31
376.545	425.31
376.771	420.31
376.997	419.31
377.222	418.31
377.448	410.31
377.674	426.31
377.899	407.31
378.125	431.31
378.35	441.31
378.576	416.31
378.802	426.31
379.027	413.31
379.253	433.31
379.478	433.31
379.704	414.31
379.929	415.31
380.155	414.31
380.38	437.31
380.606	427.31
380.831	439.31
381.057	440.31
381.282	429.31
381.507	451.31
381.733	435.31
381.958	450.31
382.184	423.31
382.409	437.31
382.634	435.31
382.86	434.31
383.085	439.31
383.31	433.31
383.535	447.31
383.761	450.31
383.986	452.31
384.211	448.31
384.436	466.31
384.662	458.31
384.887	462.31
385.112	447.31
385.337	461.31
385.562	447.31
385.787	468.31
386.013	480.31
386.238	455.31
386.463	474.31
386.688	489.31
386.913	485.31
387.138	469.31
387.363	473.31
387.588	475.31
387.813	461.31
388.038	475.31
388.263	457.31
388.488	473.31
388.713	442.31
388.938	492.31
389.163	501.31
389.387	493.31
389.612	464.31
389.837	463.31
390.062	465.31
390.287	450.31
390.512	469.31
390.736	463.31
390.961	480.31
391.186	476.31
391.411	486.31
391.636	474.31
391.86	499.31
392.085	501.31
392.31	481.31
392.534	493.31
392.759	477.31
392.984	492.31
393.208	489.31
393.433	467.31
393.658	481.31
393.882	471.31
394.107	472.31
394.331	466.31
394.556	461.31
394.78	475.31
395.005	477.31
395.229	475.31
395.454	474.31
395.678	494.31
395.903	509.31
396.127	541.31
396.352	514.31
396.576	502.31
396.801	499.31
397.025	487.31
397.249	497.31
397.474	508.31
397.698	506.31
397.922	521.31
398.147	553.31
398.371	515.31
398.595	523.31
398.82	566.31
399.044	584.31
399.268	596.31
399.492	612.31
399.717	682.31
399.941	691.31
400.165	723.31
400.389	684.31
400.613	615.31
400.837	587.31
401.062	577.31
401.286	567.31
401.51	566.31
401.734	537.31
401.958	573.31
402.182	551.31
402.406	561.31
402.63	564.31
402.854	556.31
403.078	559.31
403.302	584.31
403.526	582.31
403.75	574.31
403.974	582.31
404.198	583.31
404.422	581.31
404.645	587.31
404.869	598.31
405.093	626.31
405.317	674.31
405.541	687.31
405.765	644.31
405.988	611.31
406.212	616.31
406.436	614.31
406.66	630.31
406.883	613.31
407.107	647.31
407.331	685.31
407.555	757.31
407.778	753.31
408.002	692.31
408.226	657.31
408.449	632.31
408.673	630.31
408.896	659.31
409.12	689.31
409.344	658.31
409.567	590.31
409.791	595.31
410.014	598.31
410.238	589.31
410.461	576.31
410.685	583.31
410.908	597.31
411.132	644.31
411.355	641.31
411.578	625.31
411.802	596.31
412.025	585.31
412.249	593.31
412.472	600.31
412.695	665.31
412.919	627.31
413.142	583.31
413.365	587.31
413.589	584.31
413.812	558.31
414.035	557.31
414.258	540.31
414.482	538.31
414.705	541.31
414.928	552.31
415.151	543.31
415.374	547.31
415.597	560.31
415.821	522.31
416.044	539.31
416.267	577.31
416.49	525.31
416.713	546.31
416.936	523.31
417.159	545.31
417.382	549.31
417.605	543.31
417.828	554.31
418.051	575.31
418.274	575.31
418.497	550.31
418.72	548.31
418.943	551.31
419.166	556.31
419.389	606.31
419.611	583.31
419.834	589.31
420.057	609.31
420.28	577.31
420.503	584.31
420.726	570.31
420.948	568.31
421.171	623.31
421.394	629.31
421.617	583.31
421.839	564.31
422.062	591.31
422.285	597.31
422.507	629.31
422.73	723.31
422.953	659.31
423.175	609.31
423.398	596.31
423.621	580.31
423.843	616.31
424.066	621.31
424.288	613.31
424.511	635.31
424.733	661.31
424.956	768.31
425.178	735.31
425.401	724.31
425.623	753.31
425.846	652.31
426.068	584.31
426.291	594.31
426.513	587.31
426.735	587.31
426.958	624.31
427.18	704.31
427.402	865.31
427.625	931.31
427.847	787.31
428.069	678.31
428.292	611.31
428.514	589.31
428.736	543.31
428.958	552.31
429.181	547.31
429.403	532.31
429.625	553.31
429.847	587.31
430.069	652.31
430.292	679.31
430.514	556.31
430.736	552.31
430.958	532.31
431.18	524.31
431.402	530.31
431.624	517.31
431.846	499.31
432.068	529.31
432.29	533.31
432.512	551.31
432.734	547.31
432.956	548.31
433.178	552.31
433.4	542.31
433.622	526.31
433.844	521.31
434.066	544.31
434.287	536.31
434.509	535.31
434.731	551.31
434.953	540.31
435.175	557.31
435.397	592.31
435.618	604.31
435.84	624.31
436.062	720.31
436.284	798.31
436.505	651.31
436.727	612.31
436.949	573.31
437.17	569.31
437.392	555.31
437.614	570.31
437.835	572.31
438.057	668.31
438.278	787.31
438.5	766.31
438.721	853.31
438.943	841.31
439.165	651.31
439.386	608.31
439.608	615.31
439.829	582.31
440.05	597.31
440.272	651.31
440.493	632.31
440.715	593.31
440.936	574.31
441.158	564.31
441.379	558.31
441.6	569.31
441.822	587.31
442.043	628.31
442.264	709.31
442.486	773.31
442.707	634.31
442.928	633.31
443.149	622.31
443.371	627.31
443.592	667.31
443.813	779.31
444.034	850.31
444.255	717.31
444.476	619.31
444.698	609.31
444.919	628.31
445.14	750.31
445.361	680.31
445.582	627.31
445.803	695.31
446.024	781.31
446.245	810.31
446.466	736.31
446.687	618.31
446.908	590.31
447.129	550.31
447.35	556.31
447.571	550.31
447.792	556.31
448.013	553.31
448.234	555.31
448.455	591.31
448.675	721.31
448.896	845.31
449.117	718.31
449.338	671.31
449.559	804.31
449.779	894.31
450	733.31
450.221	581.31
450.442	546.31
450.662	542.31
450.883	524.31
451.104	543.31
451.324	549.31
451.545	521.31
451.766	500.31
451.986	499.31
452.207	491.31
452.428	503.31
452.648	484.31
452.869	469.31
453.089	493.31
453.31	489.31
453.53	513.31
453.751	485.31
453.971	483.31
454.192	506.31
454.412	488.31
454.633	469.31
454.853	486.31
455.073	477.31
455.294	506.31
455.514	578.31
455.734	577.31
455.955	476.31
456.175	459.31
456.395	451.31
456.616	459.31
456.836	462.31
457.056	486.31
457.276	441.31
457.497	488.31
457.717	459.31
457.937	459.31
458.157	477.31
458.377	478.31
458.598	487.31
458.818	544.31
459.038	602.31
459.258	640.31
459.478	570.31
459.698	535.31
459.918	538.31
460.138	526.31
460.358	554.31
460.578	557.31
460.798	561.31
461.018	547.31
461.238	556.31
461.458	547.31
461.678	534.31
461.898	568.31
462.118	556.31
462.338	550.31
462.558	574.31
462.777	592.31
462.997	613.31
463.217	633.31
463.437	626.31
463.657	611.31
463.876	591.31
464.096	592.31
464.316	620.31
464.536	600.31
464.755	610.31
464.975	583.31
465.195	586.31
465.414	638.31
465.634	594.31
465.854	558.31
466.073	537.31
466.293	515.31
466.512	507.31
466.732	497.31
466.951	511.31
467.171	483.31
467.391	511.31
467.61	523.31
467.829	514.31
468.049	517.31
468.268	499.31
468.488	472.31
468.707	469.31
468.927	493.31
469.146	501.31
469.365	494.31
469.585	497.31
469.804	492.31
470.023	509.31
470.243	513.31
470.462	531.31
470.681	531.31
470.901	523.31
471.12	509.31
471.339	511.31
471.558	514.31
471.777	510.31
471.997	509.31
472.216	534.31
472.435	553.31
472.654	537.31
472.873	491.31
473.092	501.31
473.311	502.31
473.53	512.31
473.749	510.31
473.968	542.31
474.187	625.31
474.406	672.31
474.625	574.31
474.844	535.31
475.063	526.31
475.282	493.31
475.501	491.31
475.72	522.31
475.939	529.31
476.158	524.31
476.377	533.31
476.596	518.31
476.814	500.31
477.033	549.31
477.252	543.31
477.471	535.31
477.69	552.31
477.908	551.31
478.127	557.31
478.346	542.31
478.564	571.31
478.783	576.31
479.002	614.31
479.22	585.31
479.439	612.31
479.658	599.31
479.876	598.31
480.095	613.31
480.313	663.31
480.532	650.31
480.751	658.31
480.969	657.31
481.188	677.31
481.406	720.31
481.624	641.31
481.843	641.31
482.061	595.31
482.28	589.31
482.498	575.31
482.717	583.31
482.935	603.31
483.153	591.31
483.372	591.31
483.59	595.31
483.808	598.31
484.027	591.31
484.245	629.31
484.463	589.31
484.681	642.31
484.9	628.31
485.118	613.31
485.336	615.31
485.554	617.31
485.772	613.31
485.99	615.31
486.209	628.31
486.427	640.31
486.645	613.31
486.863	642.31
487.081	650.31
487.299	651.31
487.517	640.31
487.735	649.31
487.953	668.31
488.171	638.31
488.389	629.31
488.607	620.31
488.825	631.31
489.043	665.31
489.261	656.31
489.479	657.31
489.696	673.31
489.914	661.31
490.132	667.31
490.35	687.31
490.568	691.31
490.786	654.31
491.003	702.31
491.221	706.31
491.439	690.31
491.657	725.31
491.874	730.31
492.092	711.31
492.31	732.31
492.527	747.31
492.745	750.31
492.963	742.31
493.18	770.31
493.398	756.31
493.615	782.31
493.833	744.31
494.05	773.31
494.268	734.31
494.485	778.31
494.703	761.31
494.92	739.31
495.138	744.31
495.355	770.31
495.573	764.31
495.79	756.31
496.008	745.31
496.225	745.31
496.442	762.31
496.66	773.31
496.877	763.31
497.094	756.31
497.312	772.31
497.529	812.31
497.746	784.31
497.963	805.31
498.181	830.31
498.398	834.31
498.615	871.31
498.832	893.31
499.049	910.31
499.267	934.31
499.484	980.31
499.701	1027.31
499.918	1092.31
500.135	1119.31
500.352	1195.31
500.569	1197.31
500.786	1221.31
501.003	1210.31
501.22	1133.31
501.437	1109.31
501.654	1071.31
