Data from 1975.PennyLincolnUp.Lamp.En5.5.200Scan.071719.P1.Changed Mount._HRD10591_15-55-50-858.txt Node
Date: Thu Jul 18 15:55:50 EDT 2019
User: cochatt
Spectrometer: HR+D1059
Trigger mode: 1
Integration Time (sec): 1.000000E-1
Scans to average: 1
Electric dark correction enabled: true
Nonlinearity correction enabled: false
Boxcar width: 0
XAxis mode: Wavelengths
Number of Pixels in Spectrum: 2048
>>>>>Begin Spectral Data<<<<<
223.165	-8.56
223.4	-8.56
223.635	-8.56
223.869	-4.56
224.104	-27.56
224.338	-17.56
224.573	-20.56
224.808	-12.56
225.042	-6.56
225.277	5.44
225.511	3.44
225.746	11.44
225.98	6.44
226.215	-6.56
226.449	14.44
226.683	14.44
226.918	29.44
227.152	19.44
227.387	28.44
227.621	43.44
227.856	45.44
228.09	56.44
228.324	61.44
228.559	42.44
228.793	53.44
229.027	100.44
229.262	105.44
229.496	104.44
229.73	126.44
229.964	133.44
230.199	125.44
230.433	111.44
230.667	107.44
230.901	92.44
231.136	117.44
231.37	93.44
231.604	99.44
231.838	103.44
232.072	97.44
232.306	108.44
232.541	101.44
232.775	113.44
233.009	107.44
233.243	118.44
233.477	117.44
233.711	113.44
233.945	107.44
234.179	105.44
234.413	113.44
234.647	117.44
234.881	100.44
235.115	106.44
235.349	103.44
235.583	116.44
235.817	119.44
236.051	120.44
236.285	125.44
236.519	123.44
236.753	125.44
236.987	125.44
237.221	151.44
237.455	193.44
237.689	175.44
237.922	129.44
238.156	98.44
238.39	119.44
238.624	121.44
238.858	122.44
239.091	123.44
239.325	116.44
239.559	117.44
239.793	118.44
240.027	135.44
240.26	142.44
240.494	137.44
240.728	138.44
240.961	149.44
241.195	150.44
241.429	124.44
241.662	137.44
241.896	133.44
242.13	127.44
242.363	126.44
242.597	138.44
242.83	118.44
243.064	126.44
243.298	124.44
243.531	133.44
243.765	149.44
243.998	127.44
244.232	134.44
244.465	141.44
244.699	145.44
244.932	132.44
245.166	152.44
245.399	135.44
245.633	149.44
245.866	137.44
246.099	142.44
246.333	141.44
246.566	150.44
246.8	145.44
247.033	150.44
247.266	147.44
247.5	137.44
247.733	153.44
247.966	170.44
248.2	177.44
248.433	168.44
248.666	174.44
248.899	182.44
249.133	195.44
249.366	195.44
249.599	195.44
249.832	166.44
250.066	182.44
250.299	168.44
250.532	181.44
250.765	192.44
250.998	217.44
251.231	215.44
251.465	207.44
251.698	194.44
251.931	192.44
252.164	188.44
252.397	189.44
252.63	201.44
252.863	192.44
253.096	190.44
253.329	213.44
253.562	202.44
253.795	202.44
254.028	218.44
254.261	194.44
254.494	200.44
254.727	248.44
254.96	242.44
255.193	238.44
255.426	228.44
255.659	218.44
255.892	230.44
256.124	220.44
256.357	226.44
256.59	222.44
256.823	187.44
257.056	212.44
257.289	201.44
257.521	199.44
257.754	206.44
257.987	201.44
258.22	198.44
258.452	194.44
258.685	203.44
258.918	201.44
259.151	211.44
259.383	209.44
259.616	205.44
259.849	213.44
260.081	220.44
260.314	215.44
260.547	247.44
260.779	219.44
261.012	207.44
261.244	201.44
261.477	226.44
261.71	213.44
261.942	220.44
262.175	198.44
262.407	194.44
262.64	195.44
262.872	198.44
263.105	188.44
263.337	199.44
263.57	211.44
263.802	220.44
264.035	212.44
264.267	218.44
264.499	204.44
264.732	204.44
264.964	202.44
265.197	210.44
265.429	202.44
265.661	209.44
265.894	210.44
266.126	213.44
266.358	196.44
266.591	210.44
266.823	215.44
267.055	217.44
267.287	200.44
267.52	212.44
267.752	207.44
267.984	219.44
268.216	226.44
268.448	229.44
268.681	218.44
268.913	231.44
269.145	243.44
269.377	255.44
269.609	268.44
269.841	255.44
270.073	274.44
270.306	261.44
270.538	273.44
270.77	280.44
271.002	275.44
271.234	276.44
271.466	282.44
271.698	296.44
271.93	300.44
272.162	307.44
272.394	313.44
272.626	293.44
272.858	267.44
273.09	233.44
273.322	247.44
273.553	265.44
273.785	259.44
274.017	245.44
274.249	256.44
274.481	259.44
274.713	236.44
274.945	259.44
275.176	261.44
275.408	236.44
275.64	249.44
275.872	227.44
276.104	248.44
276.335	274.44
276.567	255.44
276.799	261.44
277.031	279.44
277.262	290.44
277.494	276.44
277.726	289.44
277.957	275.44
278.189	260.44
278.421	255.44
278.652	260.44
278.884	246.44
279.115	261.44
279.347	235.44
279.579	275.44
279.81	255.44
280.042	262.44
280.273	277.44
280.505	261.44
280.736	245.44
280.968	254.44
281.199	269.44
281.431	265.44
281.662	255.44
281.894	269.44
282.125	263.44
282.356	270.44
282.588	276.44
282.819	286.44
283.051	271.44
283.282	275.44
283.513	251.44
283.745	271.44
283.976	255.44
284.207	280.44
284.439	284.44
284.67	294.44
284.901	275.44
285.132	278.44
285.364	281.44
285.595	279.44
285.826	275.44
286.057	287.44
286.288	270.44
286.52	279.44
286.751	277.44
286.982	283.44
287.213	296.44
287.444	280.44
287.675	279.44
287.906	284.44
288.138	294.44
288.369	293.44
288.6	281.44
288.831	283.44
289.062	278.44
289.293	298.44
289.524	278.44
289.755	278.44
289.986	295.44
290.217	270.44
290.448	256.44
290.679	283.44
290.91	276.44
291.141	295.44
291.371	273.44
291.602	298.44
291.833	275.44
292.064	285.44
292.295	271.44
292.526	283.44
292.757	277.44
292.987	277.44
293.218	260.44
293.449	291.44
293.68	292.44
293.91	285.44
294.141	286.44
294.372	279.44
294.603	283.44
294.833	293.44
295.064	283.44
295.295	279.44
295.525	275.44
295.756	280.44
295.987	279.44
296.217	317.44
296.448	322.44
296.679	297.44
296.909	292.44
297.14	307.44
297.37	304.44
297.601	313.44
297.831	310.44
298.062	283.44
298.292	311.44
298.523	297.44
298.753	307.44
298.984	294.44
299.214	318.44
299.445	304.44
299.675	301.44
299.905	303.44
300.136	313.44
300.366	318.44
300.597	296.44
300.827	303.44
301.057	309.44
301.288	319.44
301.518	322.44
301.748	332.44
301.979	335.44
302.209	326.44
302.439	327.44
302.669	311.44
302.9	323.44
303.13	339.44
303.36	331.44
303.59	309.44
303.82	323.44
304.051	334.44
304.281	327.44
304.511	326.44
304.741	328.44
304.971	312.44
305.201	321.44
305.431	311.44
305.661	341.44
305.891	334.44
306.121	310.44
306.352	323.44
306.582	303.44
306.812	323.44
307.042	353.44
307.272	321.44
307.502	307.44
307.731	316.44
307.961	317.44
308.191	322.44
308.421	299.44
308.651	342.44
308.881	315.44
309.111	317.44
309.341	331.44
309.571	338.44
309.8	360.44
310.03	343.44
310.26	333.44
310.49	340.44
310.72	344.44
310.949	343.44
311.179	357.44
311.409	343.44
311.639	339.44
311.868	355.44
312.098	342.44
312.328	371.44
312.557	339.44
312.787	365.44
313.017	358.44
313.246	351.44
313.476	350.44
313.706	359.44
313.935	349.44
314.165	344.44
314.394	354.44
314.624	348.44
314.853	347.44
315.083	375.44
315.312	354.44
315.542	346.44
315.771	346.44
316.001	346.44
316.23	347.44
316.46	354.44
316.689	359.44
316.919	366.44
317.148	369.44
317.377	373.44
317.607	365.44
317.836	349.44
318.065	335.44
318.295	349.44
318.524	357.44
318.753	336.44
318.983	361.44
319.212	346.44
319.441	349.44
319.67	362.44
319.9	346.44
320.129	348.44
320.358	345.44
320.587	361.44
320.816	369.44
321.046	359.44
321.275	369.44
321.504	381.44
321.733	363.44
321.962	373.44
322.191	390.44
322.42	393.44
322.649	374.44
322.878	395.44
323.108	387.44
323.337	412.44
323.566	417.44
323.795	418.44
324.024	467.44
324.253	521.44
324.482	700.44
324.71	1050.44
324.939	1533.44
325.168	1379.44
325.397	704.44
325.626	487.44
325.855	459.44
326.084	438.44
326.313	418.44
326.542	423.44
326.77	449.44
326.999	486.44
327.228	663.44
327.457	970.44
327.686	1185.44
327.914	797.44
328.143	553.44
328.372	490.44
328.6	481.44
328.829	464.44
329.058	461.44
329.287	473.44
329.515	456.44
329.744	431.44
329.972	433.44
330.201	441.44
330.43	472.44
330.658	498.44
330.887	495.44
331.115	491.44
331.344	443.44
331.572	436.44
331.801	445.44
332.03	431.44
332.258	422.44
332.486	427.44
332.715	441.44
332.943	430.44
333.172	428.44
333.4	446.44
333.629	443.44
333.857	449.44
334.085	465.44
334.314	471.44
334.542	525.44
334.771	503.44
334.999	453.44
335.227	458.44
335.455	460.44
335.684	458.44
335.912	430.44
336.14	427.44
336.369	423.44
336.597	426.44
336.825	443.44
337.053	427.44
337.281	430.44
337.51	406.44
337.738	419.44
337.966	429.44
338.194	435.44
338.422	428.44
338.65	410.44
338.878	418.44
339.106	410.44
339.334	421.44
339.562	408.44
339.79	394.44
340.018	415.44
340.246	419.44
340.474	422.44
340.702	420.44
340.93	401.44
341.158	397.44
341.386	405.44
341.614	423.44
341.842	414.44
342.07	390.44
342.298	389.44
342.526	404.44
342.754	410.44
342.981	387.44
343.209	407.44
343.437	395.44
343.665	428.44
343.893	416.44
344.12	432.44
344.348	426.44
344.576	433.44
344.804	441.44
345.031	410.44
345.259	422.44
345.487	395.44
345.714	395.44
345.942	396.44
346.17	413.44
346.397	391.44
346.625	381.44
346.853	404.44
347.08	383.44
347.308	379.44
347.535	389.44
347.763	396.44
347.99	406.44
348.218	381.44
348.445	417.44
348.673	406.44
348.9	394.44
349.128	404.44
349.355	392.44
349.583	375.44
349.81	375.44
350.037	379.44
350.265	379.44
350.492	398.44
350.72	381.44
350.947	423.44
351.174	415.44
351.402	409.44
351.629	397.44
351.856	385.44
352.083	388.44
352.311	388.44
352.538	398.44
352.765	410.44
352.992	387.44
353.22	393.44
353.447	417.44
353.674	398.44
353.901	370.44
354.128	387.44
354.355	403.44
354.583	372.44
354.81	391.44
355.037	367.44
355.264	379.44
355.491	370.44
355.718	367.44
355.945	380.44
356.172	387.44
356.399	387.44
356.626	374.44
356.853	377.44
357.08	361.44
357.307	396.44
357.534	389.44
357.761	383.44
357.988	385.44
358.215	379.44
358.441	388.44
358.668	396.44
358.895	383.44
359.122	387.44
359.349	397.44
359.576	393.44
359.802	395.44
360.029	428.44
360.256	430.44
360.483	405.44
360.709	421.44
360.936	408.44
361.163	417.44
361.39	394.44
361.616	381.44
361.843	409.44
362.07	407.44
362.296	394.44
362.523	390.44
362.749	397.44
362.976	379.44
363.203	399.44
363.429	381.44
363.656	385.44
363.882	379.44
364.109	387.44
364.335	382.44
364.562	373.44
364.788	385.44
365.015	388.44
365.241	393.44
365.468	382.44
365.694	398.44
365.92	394.44
366.147	403.44
366.373	386.44
366.599	385.44
366.826	393.44
367.052	370.44
367.278	399.44
367.505	389.44
367.731	389.44
367.957	398.44
368.184	381.44
368.41	391.44
368.636	412.44
368.862	405.44
369.089	400.44
369.315	381.44
369.541	389.44
369.767	390.44
369.993	394.44
370.219	394.44
370.445	397.44
370.672	386.44
370.898	363.44
371.124	393.44
371.35	400.44
371.576	398.44
371.802	391.44
372.028	406.44
372.254	404.44
372.48	393.44
372.706	409.44
372.932	418.44
373.158	395.44
373.384	412.44
373.61	398.44
373.835	405.44
374.061	391.44
374.287	387.44
374.513	397.44
374.739	414.44
374.965	400.44
375.191	433.44
375.416	392.44
375.642	427.44
375.868	415.44
376.094	411.44
376.319	398.44
376.545	398.44
376.771	387.44
376.997	398.44
377.222	392.44
377.448	404.44
377.674	389.44
377.899	405.44
378.125	412.44
378.35	397.44
378.576	389.44
378.802	399.44
379.027	389.44
379.253	393.44
379.478	398.44
379.704	405.44
379.929	405.44
380.155	415.44
380.38	420.44
380.606	413.44
380.831	407.44
381.057	423.44
381.282	382.44
381.507	403.44
381.733	402.44
381.958	414.44
382.184	404.44
382.409	393.44
382.634	421.44
382.86	423.44
383.085	405.44
383.31	420.44
383.535	422.44
383.761	421.44
383.986	441.44
384.211	433.44
384.436	428.44
384.662	439.44
384.887	445.44
385.112	438.44
385.337	457.44
385.562	451.44
385.787	443.44
386.013	447.44
386.238	455.44
386.463	449.44
386.688	447.44
386.913	446.44
387.138	455.44
387.363	432.44
387.588	456.44
387.813	435.44
388.038	441.44
388.263	425.44
388.488	456.44
388.713	428.44
388.938	418.44
389.163	451.44
389.387	469.44
389.612	449.44
389.837	442.44
390.062	443.44
390.287	450.44
390.512	430.44
390.736	464.44
390.961	461.44
391.186	443.44
391.411	452.44
391.636	446.44
391.86	443.44
392.085	459.44
392.31	462.44
392.534	456.44
392.759	473.44
392.984	446.44
393.208	449.44
393.433	456.44
393.658	477.44
393.882	453.44
394.107	469.44
394.331	455.44
394.556	443.44
394.78	446.44
395.005	453.44
395.229	480.44
395.454	463.44
395.678	468.44
395.903	481.44
396.127	505.44
396.352	504.44
396.576	492.44
396.801	467.44
397.025	464.44
397.249	459.44
397.474	479.44
397.698	483.44
397.922	509.44
398.147	483.44
398.371	501.44
398.595	529.44
398.82	504.44
399.044	517.44
399.268	555.44
399.492	606.44
399.717	616.44
399.941	628.44
400.165	673.44
400.389	653.44
400.613	606.44
400.837	549.44
401.062	530.44
401.286	542.44
401.51	520.44
401.734	513.44
401.958	540.44
402.182	527.44
402.406	512.44
402.63	545.44
402.854	554.44
403.078	532.44
403.302	544.44
403.526	548.44
403.75	523.44
403.974	546.44
404.198	547.44
404.422	546.44
404.645	569.44
404.869	566.44
405.093	601.44
405.317	627.44
405.541	647.44
405.765	615.44
405.988	565.44
406.212	567.44
406.436	591.44
406.66	584.44
406.883	585.44
407.107	617.44
407.331	628.44
407.555	704.44
407.778	699.44
408.002	641.44
408.226	612.44
408.449	590.44
408.673	579.44
408.896	622.44
409.12	669.44
409.344	619.44
409.567	575.44
409.791	563.44
410.014	545.44
410.238	531.44
410.461	538.44
410.685	521.44
410.908	549.44
411.132	596.44
411.355	595.44
411.578	591.44
411.802	556.44
412.025	550.44
412.249	531.44
412.472	563.44
412.695	596.44
412.919	604.44
413.142	532.44
413.365	519.44
413.589	549.44
413.812	518.44
414.035	509.44
414.258	514.44
414.482	505.44
414.705	507.44
414.928	522.44
415.151	513.44
415.374	478.44
415.597	498.44
415.821	505.44
416.044	504.44
416.267	508.44
416.49	505.44
416.713	508.44
416.936	523.44
417.159	485.44
417.382	521.44
417.605	514.44
417.828	515.44
418.051	530.44
418.274	527.44
418.497	526.44
418.72	500.44
418.943	509.44
419.166	536.44
419.389	554.44
419.611	546.44
419.834	574.44
420.057	552.44
420.28	561.44
420.503	533.44
420.726	532.44
420.948	540.44
421.171	571.44
421.394	599.44
421.617	545.44
421.839	528.44
422.062	521.44
422.285	538.44
422.507	587.44
422.73	676.44
422.953	638.44
423.175	577.44
423.398	555.44
423.621	533.44
423.843	567.44
424.066	571.44
424.288	568.44
424.511	593.44
424.733	630.44
424.956	695.44
425.178	659.44
425.401	686.44
425.623	661.44
425.846	585.44
426.068	558.44
426.291	546.44
426.513	555.44
426.735	540.44
426.958	612.44
427.18	684.44
427.402	771.44
427.625	867.44
427.847	753.44
428.069	647.44
428.292	588.44
428.514	547.44
428.736	505.44
428.958	515.44
429.181	507.44
429.403	507.44
429.625	517.44
429.847	539.44
430.069	614.44
430.292	594.44
430.514	538.44
430.736	510.44
430.958	488.44
431.18	488.44
431.402	506.44
431.624	484.44
431.846	499.44
432.068	485.44
432.29	499.44
432.512	493.44
432.734	471.44
432.956	505.44
433.178	490.44
433.4	509.44
433.622	482.44
433.844	511.44
434.066	507.44
434.287	514.44
434.509	489.44
434.731	522.44
434.953	515.44
435.175	533.44
435.397	558.44
435.618	544.44
435.84	579.44
436.062	673.44
436.284	742.44
436.505	610.44
436.727	567.44
436.949	522.44
437.17	507.44
437.392	497.44
437.614	514.44
437.835	542.44
438.057	640.44
438.278	734.44
438.5	709.44
438.721	802.44
438.943	763.44
439.165	611.44
439.386	569.44
439.608	550.44
439.829	535.44
440.05	575.44
440.272	591.44
440.493	591.44
440.715	539.44
440.936	540.44
441.158	503.44
441.379	499.44
441.6	550.44
441.822	549.44
442.043	583.44
442.264	645.44
442.486	723.44
442.707	611.44
442.928	574.44
443.149	569.44
443.371	584.44
443.592	634.44
443.813	694.44
444.034	790.44
444.255	661.44
444.476	620.44
444.698	582.44
444.919	590.44
445.14	702.44
445.361	623.44
445.582	597.44
445.803	652.44
446.024	747.44
446.245	734.44
446.466	704.44
446.687	609.44
446.908	557.44
447.129	536.44
447.35	501.44
447.571	512.44
447.792	502.44
448.013	506.44
448.234	530.44
448.455	568.44
448.675	644.44
448.896	780.44
449.117	674.44
449.338	610.44
449.559	710.44
449.779	850.44
450	662.44
450.221	547.44
450.442	516.44
450.662	452.44
450.883	503.44
451.104	498.44
451.324	477.44
451.545	469.44
451.766	472.44
451.986	442.44
452.207	469.44
452.428	480.44
452.648	433.44
452.869	469.44
453.089	462.44
453.31	483.44
453.53	451.44
453.751	453.44
453.971	444.44
454.192	466.44
454.412	439.44
454.633	465.44
454.853	435.44
455.073	453.44
455.294	482.44
455.514	547.44
455.734	533.44
455.955	467.44
456.175	454.44
456.395	426.44
456.616	435.44
456.836	462.44
457.056	433.44
457.276	436.44
457.497	440.44
457.717	426.44
457.937	428.44
458.157	458.44
458.377	434.44
458.598	454.44
458.818	487.44
459.038	577.44
459.258	585.44
459.478	537.44
459.698	482.44
459.918	493.44
460.138	488.44
460.358	535.44
460.578	513.44
460.798	508.44
461.018	516.44
461.238	510.44
461.458	503.44
461.678	537.44
461.898	548.44
462.118	537.44
462.338	544.44
462.558	526.44
462.777	537.44
462.997	584.44
463.217	599.44
463.437	590.44
463.657	571.44
463.876	553.44
464.096	556.44
464.316	555.44
464.536	542.44
464.755	572.44
464.975	542.44
465.195	550.44
465.414	581.44
465.634	537.44
465.854	519.44
466.073	513.44
466.293	473.44
466.512	449.44
466.732	477.44
466.951	455.44
467.171	463.44
467.391	453.44
467.61	479.44
467.829	470.44
468.049	489.44
468.268	452.44
468.488	463.44
468.707	453.44
468.927	475.44
469.146	445.44
469.365	457.44
469.585	449.44
469.804	477.44
470.023	469.44
470.243	476.44
470.462	468.44
470.681	489.44
470.901	496.44
471.12	467.44
471.339	474.44
471.558	476.44
471.777	474.44
471.997	477.44
472.216	474.44
472.435	481.44
472.654	483.44
472.873	489.44
473.092	458.44
473.311	491.44
473.53	485.44
473.749	466.44
473.968	504.44
474.187	585.44
474.406	606.44
474.625	529.44
474.844	481.44
475.063	470.44
475.282	515.44
475.501	493.44
475.72	483.44
475.939	485.44
476.158	504.44
476.377	479.44
476.596	462.44
476.814	504.44
477.033	502.44
477.252	519.44
477.471	540.44
477.69	533.44
477.908	508.44
478.127	532.44
478.346	563.44
478.564	553.44
478.783	549.44
479.002	558.44
479.22	569.44
479.439	546.44
479.658	590.44
479.876	577.44
480.095	572.44
480.313	617.44
480.532	611.44
480.751	593.44
480.969	612.44
481.188	613.44
481.406	655.44
481.624	605.44
481.843	567.44
482.061	571.44
482.28	558.44
482.498	541.44
482.717	563.44
482.935	550.44
483.153	562.44
483.372	551.44
483.59	569.44
483.808	535.44
484.027	559.44
484.245	573.44
484.463	573.44
484.681	575.44
484.9	581.44
485.118	566.44
485.336	578.44
485.554	574.44
485.772	570.44
485.99	568.44
486.209	585.44
486.427	586.44
486.645	598.44
486.863	604.44
487.081	609.44
487.299	606.44
487.517	599.44
487.735	590.44
487.953	593.44
488.171	625.44
488.389	604.44
488.607	587.44
488.825	602.44
489.043	593.44
489.261	614.44
489.479	599.44
489.696	611.44
489.914	614.44
490.132	629.44
490.35	646.44
490.568	640.44
490.786	634.44
491.003	647.44
491.221	643.44
491.439	684.44
491.657	673.44
491.874	708.44
492.092	670.44
492.31	669.44
492.527	685.44
492.745	686.44
492.963	705.44
493.18	711.44
493.398	713.44
493.615	715.44
493.833	710.44
494.05	711.44
494.268	703.44
494.485	706.44
494.703	726.44
494.92	702.44
495.138	682.44
495.355	685.44
495.573	705.44
495.79	690.44
496.008	715.44
496.225	706.44
496.442	713.44
496.66	675.44
496.877	717.44
497.094	713.44
497.312	719.44
497.529	700.44
497.746	723.44
497.963	743.44
498.181	787.44
498.398	808.44
498.615	810.44
498.832	856.44
499.049	847.44
499.267	887.44
499.484	910.44
499.701	950.44
499.918	1003.44
500.135	1077.44
500.352	1137.44
500.569	1161.44
500.786	1146.44
501.003	1117.44
501.22	1059.44
501.437	1005.44
501.654	981.44
501.871	949.44
