Data from 1975.PennyLincolnUp.Lamp.En5.5.200Scan.071719.P1.Changed Mount._HRD10591_15-57-15-858.txt Node
Date: Thu Jul 18 15:57:15 EDT 2019
User: cochatt
Spectrometer: HR+D1059
Trigger mode: 1
Integration Time (sec): 1.000000E-1
Scans to average: 1
Electric dark correction enabled: true
Nonlinearity correction enabled: false
Boxcar width: 0
XAxis mode: Wavelengths
Number of Pixels in Spectrum: 2048
>>>>>Begin Spectral Data<<<<<
223.165	-18.69
223.4	-18.69
223.635	-18.69
223.869	-24.69
224.104	-11.69
224.338	-0.69
224.573	-10.69
224.808	-13.69
225.042	-9.69
225.277	-11.69
225.511	-4.69
225.746	5.31
225.98	10.31
226.215	9.31
226.449	8.31
226.683	35.31
226.918	22.31
227.152	15.31
227.387	37.31
227.621	36.31
227.856	39.31
228.09	63.31
228.324	46.31
228.559	57.31
228.793	68.31
229.027	86.31
229.262	119.31
229.496	113.31
229.73	116.31
229.964	147.31
230.199	125.31
230.433	116.31
230.667	116.31
230.901	109.31
231.136	99.31
231.37	101.31
231.604	115.31
231.838	116.31
232.072	118.31
232.306	110.31
232.541	118.31
232.775	119.31
233.009	116.31
233.243	108.31
233.477	115.31
233.711	122.31
233.945	116.31
234.179	118.31
234.413	129.31
234.647	107.31
234.881	112.31
235.115	123.31
235.349	117.31
235.583	131.31
235.817	130.31
236.051	119.31
236.285	139.31
236.519	104.31
236.753	133.31
236.987	145.31
237.221	187.31
237.455	239.31
237.689	178.31
237.922	131.31
238.156	129.31
238.39	130.31
238.624	115.31
238.858	96.31
239.091	126.31
239.325	118.31
239.559	123.31
239.793	123.31
240.027	129.31
240.26	127.31
240.494	168.31
240.728	145.31
240.961	154.31
241.195	144.31
241.429	149.31
241.662	135.31
241.896	140.31
242.13	126.31
242.363	137.31
242.597	143.31
242.83	136.31
243.064	149.31
243.298	141.31
243.531	141.31
243.765	139.31
243.998	132.31
244.232	141.31
244.465	141.31
244.699	135.31
244.932	151.31
245.166	148.31
245.399	148.31
245.633	151.31
245.866	153.31
246.099	148.31
246.333	145.31
246.566	149.31
246.8	148.31
247.033	156.31
247.266	151.31
247.5	170.31
247.733	173.31
247.966	171.31
248.2	162.31
248.433	167.31
248.666	173.31
248.899	205.31
249.133	207.31
249.366	210.31
249.599	198.31
249.832	189.31
250.066	180.31
250.299	186.31
250.532	207.31
250.765	213.31
250.998	223.31
251.231	229.31
251.465	219.31
251.698	205.31
251.931	211.31
252.164	194.31
252.397	193.31
252.63	184.31
252.863	210.31
253.096	219.31
253.329	228.31
253.562	222.31
253.795	225.31
254.028	215.31
254.261	231.31
254.494	221.31
254.727	270.31
254.96	282.31
255.193	279.31
255.426	251.31
255.659	215.31
255.892	230.31
256.124	240.31
256.357	233.31
256.59	237.31
256.823	217.31
257.056	204.31
257.289	210.31
257.521	215.31
257.754	205.31
257.987	208.31
258.22	204.31
258.452	212.31
258.685	221.31
258.918	203.31
259.151	197.31
259.383	231.31
259.616	220.31
259.849	229.31
260.081	228.31
260.314	246.31
260.547	257.31
260.779	233.31
261.012	243.31
261.244	225.31
261.477	222.31
261.71	231.31
261.942	221.31
262.175	247.31
262.407	231.31
262.64	217.31
262.872	205.31
263.105	226.31
263.337	232.31
263.57	210.31
263.802	215.31
264.035	227.31
264.267	208.31
264.499	209.31
264.732	244.31
264.964	233.31
265.197	210.31
265.429	221.31
265.661	224.31
265.894	219.31
266.126	223.31
266.358	217.31
266.591	220.31
266.823	231.31
267.055	238.31
267.287	234.31
267.52	226.31
267.752	232.31
267.984	221.31
268.216	242.31
268.448	243.31
268.681	235.31
268.913	258.31
269.145	264.31
269.377	285.31
269.609	279.31
269.841	278.31
270.073	277.31
270.306	275.31
270.538	309.31
270.77	321.31
271.002	317.31
271.234	283.31
271.466	307.31
271.698	305.31
271.93	313.31
272.162	300.31
272.394	321.31
272.626	302.31
272.858	275.31
273.09	292.31
273.322	290.31
273.553	283.31
273.785	265.31
274.017	266.31
274.249	278.31
274.481	278.31
274.713	263.31
274.945	285.31
275.176	269.31
275.408	272.31
275.64	267.31
275.872	241.31
276.104	252.31
276.335	275.31
276.567	272.31
276.799	284.31
277.031	295.31
277.262	323.31
277.494	334.31
277.726	305.31
277.957	286.31
278.189	295.31
278.421	298.31
278.652	287.31
278.884	274.31
279.115	283.31
279.347	274.31
279.579	269.31
279.81	279.31
280.042	273.31
280.273	280.31
280.505	279.31
280.736	267.31
280.968	289.31
281.199	276.31
281.431	305.31
281.662	278.31
281.894	283.31
282.125	288.31
282.356	298.31
282.588	312.31
282.819	324.31
283.051	307.31
283.282	274.31
283.513	289.31
283.745	280.31
283.976	296.31
284.207	291.31
284.439	297.31
284.67	282.31
284.901	293.31
285.132	293.31
285.364	285.31
285.595	286.31
285.826	287.31
286.057	293.31
286.288	289.31
286.52	311.31
286.751	298.31
286.982	303.31
287.213	299.31
287.444	296.31
287.675	308.31
287.906	305.31
288.138	314.31
288.369	315.31
288.6	316.31
288.831	310.31
289.062	322.31
289.293	307.31
289.524	308.31
289.755	304.31
289.986	311.31
290.217	300.31
290.448	294.31
290.679	312.31
290.91	291.31
291.141	312.31
291.371	326.31
291.602	301.31
291.833	305.31
292.064	298.31
292.295	300.31
292.526	314.31
292.757	293.31
292.987	308.31
293.218	313.31
293.449	308.31
293.68	312.31
293.91	283.31
294.141	298.31
294.372	308.31
294.603	305.31
294.833	309.31
295.064	324.31
295.295	316.31
295.525	309.31
295.756	312.31
295.987	316.31
296.217	329.31
296.448	349.31
296.679	296.31
296.909	313.31
297.14	317.31
297.37	319.31
297.601	326.31
297.831	323.31
298.062	313.31
298.292	324.31
298.523	310.31
298.753	333.31
298.984	323.31
299.214	325.31
299.445	329.31
299.675	328.31
299.905	317.31
300.136	331.31
300.366	330.31
300.597	326.31
300.827	320.31
301.057	325.31
301.288	357.31
301.518	345.31
301.748	331.31
301.979	343.31
302.209	333.31
302.439	359.31
302.669	362.31
302.9	326.31
303.13	340.31
303.36	331.31
303.59	351.31
303.82	342.31
304.051	341.31
304.281	333.31
304.511	327.31
304.741	334.31
304.971	344.31
305.201	335.31
305.431	360.31
305.661	340.31
305.891	336.31
306.121	336.31
306.352	343.31
306.582	357.31
306.812	341.31
307.042	348.31
307.272	342.31
307.502	359.31
307.731	335.31
307.961	343.31
308.191	350.31
308.421	362.31
308.651	358.31
308.881	356.31
309.111	387.31
309.341	338.31
309.571	353.31
309.8	353.31
310.03	376.31
310.26	395.31
310.49	381.31
310.72	383.31
310.949	401.31
311.179	385.31
311.409	371.31
311.639	367.31
311.868	375.31
312.098	378.31
312.328	378.31
312.557	391.31
312.787	397.31
313.017	408.31
313.246	378.31
313.476	387.31
313.706	383.31
313.935	400.31
314.165	381.31
314.394	404.31
314.624	398.31
314.853	399.31
315.083	381.31
315.312	398.31
315.542	395.31
315.771	401.31
316.001	399.31
316.23	395.31
316.46	390.31
316.689	393.31
316.919	368.31
317.148	388.31
317.377	395.31
317.607	391.31
317.836	378.31
318.065	376.31
318.295	389.31
318.524	379.31
318.753	370.31
318.983	368.31
319.212	371.31
319.441	399.31
319.67	402.31
319.9	390.31
320.129	380.31
320.358	387.31
320.587	408.31
320.816	396.31
321.046	397.31
321.275	413.31
321.504	392.31
321.733	397.31
321.962	412.31
322.191	438.31
322.42	430.31
322.649	418.31
322.878	436.31
323.108	419.31
323.337	451.31
323.566	487.31
323.795	508.31
324.024	521.31
324.253	600.31
324.482	817.31
324.71	1283.31
324.939	1826.31
325.168	1611.31
325.397	831.31
325.626	607.31
325.855	516.31
326.084	479.31
326.313	482.31
326.542	473.31
326.77	494.31
326.999	596.31
327.228	761.31
327.457	1126.31
327.686	1407.31
327.914	941.31
328.143	635.31
328.372	576.31
328.6	547.31
328.829	523.31
329.058	554.31
329.287	549.31
329.515	518.31
329.744	507.31
329.972	485.31
330.201	529.31
330.43	563.31
330.658	557.31
330.887	565.31
331.115	572.31
331.344	520.31
331.572	496.31
331.801	484.31
332.03	485.31
332.258	483.31
332.486	468.31
332.715	461.31
332.943	488.31
333.172	497.31
333.4	480.31
333.629	476.31
333.857	508.31
334.085	523.31
334.314	535.31
334.542	539.31
334.771	554.31
334.999	528.31
335.227	485.31
335.455	487.31
335.684	476.31
335.912	471.31
336.14	469.31
336.369	469.31
336.597	479.31
336.825	450.31
337.053	456.31
337.281	445.31
337.51	429.31
337.738	481.31
337.966	453.31
338.194	460.31
338.422	457.31
338.65	437.31
338.878	453.31
339.106	449.31
339.334	451.31
339.562	441.31
339.79	455.31
340.018	452.31
340.246	443.31
340.474	449.31
340.702	428.31
340.93	463.31
341.158	449.31
341.386	453.31
341.614	427.31
341.842	453.31
342.07	448.31
342.298	440.31
342.526	428.31
342.754	423.31
342.981	444.31
343.209	440.31
343.437	472.31
343.665	449.31
343.893	466.31
344.12	472.31
344.348	472.31
344.576	462.31
344.804	448.31
345.031	452.31
345.259	464.31
345.487	471.31
345.714	457.31
345.942	427.31
346.17	429.31
346.397	425.31
346.625	423.31
346.853	444.31
347.08	438.31
347.308	420.31
347.535	425.31
347.763	425.31
347.99	439.31
348.218	453.31
348.445	452.31
348.673	434.31
348.9	404.31
349.128	424.31
349.355	438.31
349.583	423.31
349.81	428.31
350.037	415.31
350.265	412.31
350.492	398.31
350.72	399.31
350.947	417.31
351.174	424.31
351.402	443.31
351.629	424.31
351.856	435.31
352.083	433.31
352.311	445.31
352.538	448.31
352.765	447.31
352.992	438.31
353.22	438.31
353.447	433.31
353.674	435.31
353.901	409.31
354.128	411.31
354.355	429.31
354.583	404.31
354.81	409.31
355.037	401.31
355.264	394.31
355.491	411.31
355.718	430.31
355.945	410.31
356.172	416.31
356.399	397.31
356.626	415.31
356.853	422.31
357.08	409.31
357.307	387.31
357.534	391.31
357.761	408.31
357.988	422.31
358.215	396.31
358.441	402.31
358.668	412.31
358.895	411.31
359.122	415.31
359.349	422.31
359.576	421.31
359.802	450.31
360.029	441.31
360.256	459.31
360.483	453.31
360.709	426.31
360.936	448.31
361.163	420.31
361.39	428.31
361.616	427.31
361.843	447.31
362.07	415.31
362.296	415.31
362.523	449.31
362.749	436.31
362.976	437.31
363.203	437.31
363.429	419.31
363.656	426.31
363.882	421.31
364.109	411.31
364.335	427.31
364.562	409.31
364.788	411.31
365.015	396.31
365.241	404.31
365.468	433.31
365.694	429.31
365.92	442.31
366.147	425.31
366.373	400.31
366.599	409.31
366.826	404.31
367.052	398.31
367.278	428.31
367.505	404.31
367.731	424.31
367.957	421.31
368.184	429.31
368.41	448.31
368.636	414.31
368.862	456.31
369.089	437.31
369.315	424.31
369.541	434.31
369.767	412.31
369.993	418.31
370.219	427.31
370.445	425.31
370.672	442.31
370.898	423.31
371.124	437.31
371.35	435.31
371.576	415.31
371.802	425.31
372.028	441.31
372.254	429.31
372.48	419.31
372.706	421.31
372.932	409.31
373.158	428.31
373.384	432.31
373.61	407.31
373.835	416.31
374.061	429.31
374.287	438.31
374.513	441.31
374.739	440.31
374.965	439.31
375.191	450.31
375.416	429.31
375.642	440.31
375.868	436.31
376.094	440.31
376.319	426.31
376.545	431.31
376.771	427.31
376.997	413.31
377.222	415.31
377.448	437.31
377.674	438.31
377.899	419.31
378.125	413.31
378.35	414.31
378.576	405.31
378.802	428.31
379.027	428.31
379.253	420.31
379.478	419.31
379.704	426.31
379.929	425.31
380.155	414.31
380.38	427.31
380.606	426.31
380.831	409.31
381.057	447.31
381.282	441.31
381.507	449.31
381.733	452.31
381.958	452.31
382.184	435.31
382.409	435.31
382.634	412.31
382.86	438.31
383.085	438.31
383.31	454.31
383.535	458.31
383.761	436.31
383.986	445.31
384.211	457.31
384.436	444.31
384.662	460.31
384.887	481.31
385.112	458.31
385.337	495.31
385.562	483.31
385.787	463.31
386.013	480.31
386.238	500.31
386.463	479.31
386.688	500.31
386.913	491.31
387.138	476.31
387.363	480.31
387.588	455.31
387.813	474.31
388.038	470.31
388.263	459.31
388.488	481.31
388.713	472.31
388.938	476.31
389.163	500.31
389.387	511.31
389.612	470.31
389.837	477.31
390.062	465.31
390.287	479.31
390.512	456.31
390.736	470.31
390.961	467.31
391.186	484.31
391.411	491.31
391.636	503.31
391.86	507.31
392.085	485.31
392.31	526.31
392.534	500.31
392.759	491.31
392.984	498.31
393.208	491.31
393.433	477.31
393.658	475.31
393.882	480.31
394.107	486.31
394.331	505.31
394.556	506.31
394.78	500.31
395.005	488.31
395.229	489.31
395.454	498.31
395.678	505.31
395.903	506.31
396.127	543.31
396.352	555.31
396.576	489.31
396.801	505.31
397.025	481.31
397.249	502.31
397.474	511.31
397.698	490.31
397.922	542.31
398.147	562.31
398.371	545.31
398.595	515.31
398.82	565.31
399.044	585.31
399.268	586.31
399.492	642.31
399.717	673.31
399.941	701.31
400.165	722.31
400.389	674.31
400.613	653.31
400.837	600.31
401.062	588.31
401.286	573.31
401.51	569.31
401.734	534.31
401.958	582.31
402.182	572.31
402.406	567.31
402.63	598.31
402.854	566.31
403.078	593.31
403.302	579.31
403.526	593.31
403.75	613.31
403.974	586.31
404.198	572.31
404.422	580.31
404.645	609.31
404.869	596.31
405.093	645.31
405.317	673.31
405.541	705.31
405.765	657.31
405.988	612.31
406.212	595.31
406.436	642.31
406.66	666.31
406.883	600.31
407.107	663.31
407.331	687.31
407.555	775.31
407.778	779.31
408.002	705.31
408.226	643.31
408.449	644.31
408.673	651.31
408.896	634.31
409.12	709.31
409.344	656.31
409.567	618.31
409.791	596.31
410.014	593.31
410.238	584.31
410.461	581.31
410.685	608.31
410.908	606.31
411.132	628.31
411.355	669.31
411.578	616.31
411.802	604.31
412.025	585.31
412.249	607.31
412.472	623.31
412.695	656.31
412.919	643.31
413.142	610.31
413.365	593.31
413.589	579.31
413.812	554.31
414.035	575.31
414.258	566.31
414.482	572.31
414.705	535.31
414.928	565.31
415.151	536.31
415.374	570.31
415.597	551.31
415.821	530.31
416.044	561.31
416.267	567.31
416.49	547.31
416.713	553.31
416.936	547.31
417.159	529.31
417.382	551.31
417.605	553.31
417.828	571.31
418.051	581.31
418.274	562.31
418.497	538.31
418.72	534.31
418.943	536.31
419.166	578.31
419.389	607.31
419.611	594.31
419.834	606.31
420.057	605.31
420.28	595.31
420.503	571.31
420.726	576.31
420.948	592.31
421.171	636.31
421.394	641.31
421.617	589.31
421.839	567.31
422.062	559.31
422.285	579.31
422.507	652.31
422.73	733.31
422.953	703.31
423.175	627.31
423.398	594.31
423.621	599.31
423.843	627.31
424.066	632.31
424.288	607.31
424.511	639.31
424.733	694.31
424.956	769.31
425.178	748.31
425.401	727.31
425.623	745.31
425.846	667.31
426.068	607.31
426.291	601.31
426.513	616.31
426.735	626.31
426.958	655.31
427.18	725.31
427.402	879.31
427.625	939.31
427.847	794.31
428.069	693.31
428.292	633.31
428.514	569.31
428.736	575.31
428.958	561.31
429.181	542.31
429.403	545.31
429.625	569.31
429.847	595.31
430.069	668.31
430.292	657.31
430.514	573.31
430.736	553.31
430.958	576.31
431.18	545.31
431.402	498.31
431.624	525.31
431.846	525.31
432.068	526.31
432.29	545.31
432.512	548.31
432.734	555.31
432.956	520.31
433.178	536.31
433.4	539.31
433.622	561.31
433.844	562.31
434.066	552.31
434.287	535.31
434.509	543.31
434.731	538.31
434.953	562.31
435.175	567.31
435.397	585.31
435.618	602.31
435.84	640.31
436.062	716.31
436.284	801.31
436.505	650.31
436.727	604.31
436.949	570.31
437.17	554.31
437.392	571.31
437.614	563.31
437.835	592.31
438.057	685.31
438.278	808.31
438.5	807.31
438.721	867.31
438.943	853.31
439.165	667.31
439.386	611.31
439.608	603.31
439.829	592.31
440.05	626.31
440.272	658.31
440.493	637.31
440.715	586.31
440.936	579.31
441.158	591.31
441.379	590.31
441.6	598.31
441.822	607.31
442.043	657.31
442.264	716.31
442.486	785.31
442.707	686.31
442.928	636.31
443.149	608.31
443.371	641.31
443.592	709.31
443.813	768.31
444.034	837.31
444.255	697.31
444.476	635.31
444.698	633.31
444.919	664.31
445.14	748.31
445.361	684.31
445.582	668.31
445.803	689.31
446.024	829.31
446.245	785.31
446.466	751.31
446.687	657.31
446.908	595.31
447.129	556.31
447.35	551.31
447.571	572.31
447.792	556.31
448.013	556.31
448.234	570.31
448.455	618.31
448.675	713.31
448.896	870.31
449.117	725.31
449.338	699.31
449.559	757.31
449.779	917.31
450	716.31
450.221	587.31
450.442	549.31
450.662	531.31
450.883	522.31
451.104	554.31
451.324	537.31
451.545	536.31
451.766	517.31
451.986	496.31
452.207	485.31
452.428	513.31
452.648	471.31
452.869	488.31
453.089	521.31
453.31	505.31
453.53	488.31
453.751	486.31
453.971	482.31
454.192	502.31
454.412	493.31
454.633	473.31
454.853	475.31
455.073	488.31
455.294	519.31
455.514	578.31
455.734	553.31
455.955	504.31
456.175	466.31
456.395	461.31
456.616	473.31
456.836	480.31
457.056	475.31
457.276	464.31
457.497	476.31
457.717	474.31
457.937	478.31
458.157	477.31
458.377	476.31
458.598	513.31
458.818	571.31
459.038	652.31
459.258	659.31
459.478	580.31
459.698	515.31
459.918	515.31
460.138	521.31
460.358	567.31
460.578	544.31
460.798	536.31
461.018	561.31
461.238	553.31
461.458	575.31
461.678	549.31
461.898	554.31
462.118	548.31
462.338	580.31
462.558	593.31
462.777	588.31
462.997	600.31
463.217	633.31
463.437	648.31
463.657	622.31
463.876	620.31
464.096	583.31
464.316	598.31
464.536	598.31
464.755	611.31
464.975	597.31
465.195	632.31
465.414	644.31
465.634	583.31
465.854	547.31
466.073	540.31
466.293	536.31
466.512	524.31
466.732	509.31
466.951	498.31
467.171	511.31
467.391	518.31
467.61	512.31
467.829	526.31
468.049	517.31
468.268	517.31
468.488	508.31
468.707	519.31
468.927	489.31
469.146	495.31
469.365	491.31
469.585	496.31
469.804	495.31
470.023	507.31
470.243	524.31
470.462	546.31
470.681	529.31
470.901	529.31
471.12	520.31
471.339	503.31
471.558	524.31
471.777	524.31
471.997	515.31
472.216	515.31
472.435	538.31
472.654	534.31
472.873	539.31
473.092	515.31
473.311	481.31
473.53	507.31
473.749	519.31
473.968	531.31
474.187	664.31
474.406	677.31
474.625	590.31
474.844	532.31
475.063	528.31
475.282	528.31
475.501	520.31
475.72	542.31
475.939	486.31
476.158	533.31
476.377	541.31
476.596	539.31
476.814	540.31
477.033	548.31
477.252	559.31
477.471	554.31
477.69	542.31
477.908	542.31
478.127	571.31
478.346	561.31
478.564	579.31
478.783	598.31
479.002	580.31
479.22	577.31
479.439	605.31
479.658	623.31
479.876	624.31
480.095	610.31
480.313	647.31
480.532	638.31
480.751	660.31
480.969	667.31
481.188	695.31
481.406	734.31
481.624	641.31
481.843	643.31
482.061	637.31
482.28	612.31
482.498	609.31
482.717	611.31
482.935	610.31
483.153	611.31
483.372	616.31
483.59	579.31
483.808	604.31
484.027	607.31
484.245	600.31
484.463	602.31
484.681	609.31
484.9	630.31
485.118	619.31
485.336	633.31
485.554	624.31
485.772	623.31
485.99	617.31
486.209	595.31
486.427	633.31
486.645	631.31
486.863	640.31
487.081	651.31
487.299	629.31
487.517	641.31
487.735	648.31
487.953	633.31
488.171	647.31
488.389	642.31
488.607	662.31
488.825	664.31
489.043	650.31
489.261	660.31
489.479	690.31
489.696	661.31
489.914	663.31
490.132	668.31
490.35	673.31
490.568	701.31
490.786	689.31
491.003	707.31
491.221	736.31
491.439	726.31
491.657	743.31
491.874	734.31
492.092	744.31
492.31	731.31
492.527	731.31
492.745	779.31
492.963	750.31
493.18	754.31
493.398	752.31
493.615	754.31
493.833	766.31
494.05	769.31
494.268	759.31
494.485	776.31
494.703	765.31
494.92	767.31
495.138	780.31
495.355	802.31
495.573	772.31
495.79	767.31
496.008	776.31
496.225	740.31
496.442	780.31
496.66	786.31
496.877	799.31
497.094	776.31
497.312	792.31
497.529	796.31
497.746	823.31
497.963	826.31
498.181	869.31
498.398	840.31
498.615	867.31
498.832	907.31
499.049	923.31
499.267	969.31
499.484	987.31
499.701	1041.31
499.918	1086.31
500.135	1125.31
500.352	1235.31
500.569	1228.31
500.786	1255.31
501.003	1205.31
501.22	1157.31
501.437	1123.31
501.654	1066.31
