Data from 1975.PennyLincolnUp.Lamp.En5.5.200Scan.071719.P1.Changed Mount._HRD10591_15-55-39-859.txt Node
Date: Thu Jul 18 15:55:39 EDT 2019
User: cochatt
Spectrometer: HR+D1059
Trigger mode: 1
Integration Time (sec): 1.000000E-1
Scans to average: 1
Electric dark correction enabled: true
Nonlinearity correction enabled: false
Boxcar width: 0
XAxis mode: Wavelengths
Number of Pixels in Spectrum: 2048
>>>>>Begin Spectral Data<<<<<
223.165	-5.44
223.4	-5.44
223.635	-5.44
223.869	-17.44
224.104	-21.44
224.338	-21.44
224.573	-9.44
224.808	-12.44
225.042	-16.44
225.277	8.56
225.511	10.56
225.746	14.56
225.98	-0.44
226.215	-22.44
226.449	18.56
226.683	14.56
226.918	34.56
227.152	25.56
227.387	19.56
227.621	40.56
227.856	40.56
228.09	52.56
228.324	40.56
228.559	47.56
228.793	63.56
229.027	76.56
229.262	90.56
229.496	104.56
229.73	114.56
229.964	142.56
230.199	114.56
230.433	106.56
230.667	107.56
230.901	120.56
231.136	107.56
231.37	109.56
231.604	95.56
231.838	123.56
232.072	114.56
232.306	112.56
232.541	107.56
232.775	101.56
233.009	114.56
233.243	127.56
233.477	120.56
233.711	111.56
233.945	133.56
234.179	134.56
234.413	116.56
234.647	118.56
234.881	126.56
235.115	113.56
235.349	116.56
235.583	106.56
235.817	115.56
236.051	118.56
236.285	131.56
236.519	126.56
236.753	119.56
236.987	127.56
237.221	162.56
237.455	190.56
237.689	171.56
237.922	128.56
238.156	121.56
238.39	115.56
238.624	138.56
238.858	130.56
239.091	121.56
239.325	121.56
239.559	113.56
239.793	120.56
240.027	134.56
240.26	125.56
240.494	125.56
240.728	135.56
240.961	140.56
241.195	140.56
241.429	136.56
241.662	146.56
241.896	122.56
242.13	120.56
242.363	116.56
242.597	119.56
242.83	137.56
243.064	138.56
243.298	137.56
243.531	130.56
243.765	132.56
243.998	142.56
244.232	131.56
244.465	148.56
244.699	150.56
244.932	126.56
245.166	156.56
245.399	144.56
245.633	144.56
245.866	138.56
246.099	134.56
246.333	140.56
246.566	146.56
246.8	148.56
247.033	149.56
247.266	157.56
247.5	154.56
247.733	157.56
247.966	166.56
248.2	177.56
248.433	168.56
248.666	160.56
248.899	170.56
249.133	190.56
249.366	186.56
249.599	185.56
249.832	169.56
250.066	160.56
250.299	168.56
250.532	175.56
250.765	189.56
250.998	207.56
251.231	202.56
251.465	204.56
251.698	198.56
251.931	184.56
252.164	184.56
252.397	188.56
252.63	184.56
252.863	190.56
253.096	193.56
253.329	202.56
253.562	211.56
253.795	196.56
254.028	198.56
254.261	215.56
254.494	222.56
254.727	220.56
254.96	239.56
255.193	244.56
255.426	237.56
255.659	229.56
255.892	214.56
256.124	217.56
256.357	220.56
256.59	208.56
256.823	207.56
257.056	195.56
257.289	188.56
257.521	199.56
257.754	196.56
257.987	190.56
258.22	199.56
258.452	201.56
258.685	190.56
258.918	188.56
259.151	217.56
259.383	217.56
259.616	204.56
259.849	195.56
260.081	200.56
260.314	244.56
260.547	226.56
260.779	234.56
261.012	221.56
261.244	217.56
261.477	223.56
261.71	192.56
261.942	220.56
262.175	198.56
262.407	201.56
262.64	213.56
262.872	212.56
263.105	187.56
263.337	196.56
263.57	187.56
263.802	217.56
264.035	188.56
264.267	198.56
264.499	188.56
264.732	207.56
264.964	198.56
265.197	185.56
265.429	191.56
265.661	194.56
265.894	217.56
266.126	221.56
266.358	205.56
266.591	206.56
266.823	214.56
267.055	213.56
267.287	210.56
267.52	231.56
267.752	205.56
267.984	210.56
268.216	214.56
268.448	232.56
268.681	232.56
268.913	233.56
269.145	250.56
269.377	276.56
269.609	258.56
269.841	242.56
270.073	262.56
270.306	279.56
270.538	288.56
270.77	271.56
271.002	260.56
271.234	258.56
271.466	265.56
271.698	283.56
271.93	289.56
272.162	268.56
272.394	267.56
272.626	271.56
272.858	253.56
273.09	243.56
273.322	235.56
273.553	231.56
273.785	241.56
274.017	247.56
274.249	253.56
274.481	244.56
274.713	254.56
274.945	236.56
275.176	239.56
275.408	245.56
275.64	245.56
275.872	246.56
276.104	256.56
276.335	245.56
276.567	257.56
276.799	260.56
277.031	277.56
277.262	297.56
277.494	297.56
277.726	271.56
277.957	269.56
278.189	250.56
278.421	258.56
278.652	255.56
278.884	260.56
279.115	252.56
279.347	260.56
279.579	256.56
279.81	259.56
280.042	265.56
280.273	247.56
280.505	263.56
280.736	254.56
280.968	244.56
281.199	262.56
281.431	256.56
281.662	271.56
281.894	263.56
282.125	271.56
282.356	278.56
282.588	268.56
282.819	276.56
283.051	269.56
283.282	281.56
283.513	284.56
283.745	282.56
283.976	272.56
284.207	268.56
284.439	262.56
284.67	274.56
284.901	274.56
285.132	282.56
285.364	266.56
285.595	275.56
285.826	276.56
286.057	271.56
286.288	273.56
286.52	275.56
286.751	287.56
286.982	259.56
287.213	244.56
287.444	267.56
287.675	262.56
287.906	272.56
288.138	280.56
288.369	279.56
288.6	294.56
288.831	295.56
289.062	298.56
289.293	278.56
289.524	292.56
289.755	291.56
289.986	286.56
290.217	271.56
290.448	284.56
290.679	274.56
290.91	282.56
291.141	290.56
291.371	287.56
291.602	285.56
291.833	277.56
292.064	294.56
292.295	290.56
292.526	282.56
292.757	272.56
292.987	263.56
293.218	281.56
293.449	283.56
293.68	295.56
293.91	285.56
294.141	294.56
294.372	275.56
294.603	283.56
294.833	297.56
295.064	292.56
295.295	298.56
295.525	294.56
295.756	282.56
295.987	287.56
296.217	315.56
296.448	318.56
296.679	301.56
296.909	276.56
297.14	296.56
297.37	293.56
297.601	295.56
297.831	290.56
298.062	294.56
298.292	292.56
298.523	302.56
298.753	297.56
298.984	290.56
299.214	302.56
299.445	292.56
299.675	304.56
299.905	297.56
300.136	306.56
300.366	286.56
300.597	313.56
300.827	320.56
301.057	313.56
301.288	322.56
301.518	310.56
301.748	303.56
301.979	308.56
302.209	322.56
302.439	307.56
302.669	313.56
302.9	322.56
303.13	317.56
303.36	328.56
303.59	323.56
303.82	326.56
304.051	329.56
304.281	329.56
304.511	308.56
304.741	316.56
304.971	301.56
305.201	315.56
305.431	306.56
305.661	330.56
305.891	316.56
306.121	322.56
306.352	312.56
306.582	326.56
306.812	318.56
307.042	312.56
307.272	300.56
307.502	309.56
307.731	331.56
307.961	329.56
308.191	317.56
308.421	324.56
308.651	331.56
308.881	320.56
309.111	310.56
309.341	307.56
309.571	322.56
309.8	331.56
310.03	328.56
310.26	336.56
310.49	321.56
310.72	355.56
310.949	348.56
311.179	333.56
311.409	330.56
311.639	330.56
311.868	334.56
312.098	338.56
312.328	342.56
312.557	357.56
312.787	363.56
313.017	364.56
313.246	355.56
313.476	349.56
313.706	360.56
313.935	351.56
314.165	362.56
314.394	354.56
314.624	370.56
314.853	370.56
315.083	359.56
315.312	359.56
315.542	343.56
315.771	344.56
316.001	356.56
316.23	358.56
316.46	354.56
316.689	342.56
316.919	348.56
317.148	359.56
317.377	354.56
317.607	362.56
317.836	358.56
318.065	346.56
318.295	343.56
318.524	343.56
318.753	368.56
318.983	359.56
319.212	346.56
319.441	342.56
319.67	353.56
319.9	352.56
320.129	349.56
320.358	357.56
320.587	341.56
320.816	359.56
321.046	366.56
321.275	363.56
321.504	347.56
321.733	356.56
321.962	370.56
322.191	372.56
322.42	378.56
322.649	391.56
322.878	388.56
323.108	389.56
323.337	376.56
323.566	420.56
323.795	437.56
324.024	454.56
324.253	500.56
324.482	647.56
324.71	1001.56
324.939	1452.56
325.168	1312.56
325.397	677.56
325.626	491.56
325.855	431.56
326.084	408.56
326.313	406.56
326.542	423.56
326.77	445.56
326.999	508.56
327.228	639.56
327.457	916.56
327.686	1130.56
327.914	763.56
328.143	541.56
328.372	475.56
328.6	460.56
328.829	454.56
329.058	441.56
329.287	437.56
329.515	440.56
329.744	421.56
329.972	423.56
330.201	439.56
330.43	473.56
330.658	471.56
330.887	482.56
331.115	473.56
331.344	430.56
331.572	425.56
331.801	435.56
332.03	420.56
332.258	409.56
332.486	406.56
332.715	411.56
332.943	407.56
333.172	439.56
333.4	449.56
333.629	444.56
333.857	436.56
334.085	476.56
334.314	472.56
334.542	475.56
334.771	469.56
334.999	450.56
335.227	442.56
335.455	441.56
335.684	448.56
335.912	440.56
336.14	418.56
336.369	421.56
336.597	425.56
336.825	422.56
337.053	410.56
337.281	420.56
337.51	406.56
337.738	417.56
337.966	414.56
338.194	412.56
338.422	413.56
338.65	424.56
338.878	376.56
339.106	380.56
339.334	398.56
339.562	413.56
339.79	380.56
340.018	392.56
340.246	400.56
340.474	397.56
340.702	402.56
340.93	405.56
341.158	407.56
341.386	401.56
341.614	396.56
341.842	397.56
342.07	392.56
342.298	396.56
342.526	373.56
342.754	409.56
342.981	403.56
343.209	405.56
343.437	397.56
343.665	407.56
343.893	410.56
344.12	436.56
344.348	415.56
344.576	432.56
344.804	424.56
345.031	429.56
345.259	421.56
345.487	393.56
345.714	416.56
345.942	396.56
346.17	405.56
346.397	383.56
346.625	402.56
346.853	384.56
347.08	388.56
347.308	399.56
347.535	378.56
347.763	404.56
347.99	393.56
348.218	375.56
348.445	390.56
348.673	390.56
348.9	412.56
349.128	385.56
349.355	374.56
349.583	376.56
349.81	380.56
350.037	391.56
350.265	376.56
350.492	375.56
350.72	399.56
350.947	390.56
351.174	388.56
351.402	408.56
351.629	415.56
351.856	392.56
352.083	401.56
352.311	399.56
352.538	391.56
352.765	418.56
352.992	393.56
353.22	374.56
353.447	380.56
353.674	394.56
353.901	360.56
354.128	370.56
354.355	370.56
354.583	362.56
354.81	363.56
355.037	391.56
355.264	372.56
355.491	380.56
355.718	389.56
355.945	386.56
356.172	366.56
356.399	374.56
356.626	364.56
356.853	379.56
357.08	363.56
357.307	398.56
357.534	382.56
357.761	381.56
357.988	379.56
358.215	375.56
358.441	382.56
358.668	373.56
358.895	359.56
359.122	384.56
359.349	382.56
359.576	398.56
359.802	395.56
360.029	405.56
360.256	412.56
360.483	410.56
360.709	409.56
360.936	394.56
361.163	399.56
361.39	383.56
361.616	380.56
361.843	376.56
362.07	381.56
362.296	367.56
362.523	394.56
362.749	384.56
362.976	378.56
363.203	384.56
363.429	390.56
363.656	387.56
363.882	407.56
364.109	374.56
364.335	370.56
364.562	376.56
364.788	372.56
365.015	377.56
365.241	382.56
365.468	402.56
365.694	386.56
365.92	387.56
366.147	368.56
366.373	380.56
366.599	402.56
366.826	377.56
367.052	380.56
367.278	376.56
367.505	372.56
367.731	379.56
367.957	387.56
368.184	401.56
368.41	379.56
368.636	394.56
368.862	391.56
369.089	398.56
369.315	408.56
369.541	391.56
369.767	375.56
369.993	389.56
370.219	370.56
370.445	384.56
370.672	393.56
370.898	394.56
371.124	399.56
371.35	403.56
371.576	378.56
371.802	399.56
372.028	396.56
372.254	391.56
372.48	411.56
372.706	393.56
372.932	419.56
373.158	402.56
373.384	408.56
373.61	397.56
373.835	388.56
374.061	393.56
374.287	407.56
374.513	397.56
374.739	395.56
374.965	403.56
375.191	400.56
375.416	424.56
375.642	388.56
375.868	393.56
376.094	416.56
376.319	392.56
376.545	411.56
376.771	401.56
376.997	389.56
377.222	413.56
377.448	393.56
377.674	396.56
377.899	388.56
378.125	395.56
378.35	403.56
378.576	404.56
378.802	415.56
379.027	395.56
379.253	402.56
379.478	408.56
379.704	387.56
379.929	409.56
380.155	412.56
380.38	418.56
380.606	392.56
380.831	406.56
381.057	400.56
381.282	390.56
381.507	394.56
381.733	393.56
381.958	404.56
382.184	408.56
382.409	403.56
382.634	415.56
382.86	410.56
383.085	409.56
383.31	415.56
383.535	438.56
383.761	442.56
383.986	431.56
384.211	427.56
384.436	437.56
384.662	418.56
384.887	448.56
385.112	431.56
385.337	461.56
385.562	490.56
385.787	438.56
386.013	478.56
386.238	461.56
386.463	468.56
386.688	448.56
386.913	452.56
387.138	455.56
387.363	463.56
387.588	442.56
387.813	456.56
388.038	474.56
388.263	444.56
388.488	457.56
388.713	434.56
388.938	457.56
389.163	442.56
389.387	446.56
389.612	448.56
389.837	445.56
390.062	432.56
390.287	440.56
390.512	430.56
390.736	435.56
390.961	430.56
391.186	442.56
391.411	478.56
391.636	457.56
391.86	470.56
392.085	462.56
392.31	467.56
392.534	464.56
392.759	471.56
392.984	449.56
393.208	450.56
393.433	457.56
393.658	456.56
393.882	462.56
394.107	430.56
394.331	456.56
394.556	469.56
394.78	448.56
395.005	463.56
395.229	464.56
395.454	473.56
395.678	450.56
395.903	474.56
396.127	495.56
396.352	460.56
396.576	458.56
396.801	463.56
397.025	463.56
397.249	507.56
397.474	479.56
397.698	483.56
397.922	487.56
398.147	492.56
398.371	494.56
398.595	511.56
398.82	490.56
399.044	532.56
399.268	546.56
399.492	586.56
399.717	629.56
399.941	647.56
400.165	659.56
400.389	652.56
400.613	593.56
400.837	564.56
401.062	521.56
401.286	511.56
401.51	510.56
401.734	508.56
401.958	528.56
402.182	516.56
402.406	517.56
402.63	534.56
402.854	533.56
403.078	540.56
403.302	523.56
403.526	533.56
403.75	555.56
403.974	536.56
404.198	521.56
404.422	551.56
404.645	558.56
404.869	548.56
405.093	599.56
405.317	586.56
405.541	644.56
405.765	589.56
405.988	548.56
406.212	559.56
406.436	579.56
406.66	569.56
406.883	584.56
407.107	611.56
407.331	621.56
407.555	720.56
407.778	694.56
408.002	640.56
408.226	621.56
408.449	596.56
408.673	580.56
408.896	611.56
409.12	665.56
409.344	618.56
409.567	570.56
409.791	548.56
410.014	552.56
410.238	554.56
410.461	530.56
410.685	566.56
410.908	549.56
411.132	579.56
411.355	596.56
411.578	587.56
411.802	555.56
412.025	531.56
412.249	546.56
412.472	575.56
412.695	604.56
412.919	564.56
413.142	508.56
413.365	496.56
413.589	524.56
413.812	518.56
414.035	522.56
414.258	502.56
414.482	515.56
414.705	509.56
414.928	532.56
415.151	510.56
415.374	508.56
415.597	516.56
415.821	509.56
416.044	503.56
416.267	515.56
416.49	496.56
416.713	505.56
416.936	491.56
417.159	502.56
417.382	518.56
417.605	499.56
417.828	529.56
418.051	522.56
418.274	509.56
418.497	489.56
418.72	504.56
418.943	520.56
419.166	533.56
419.389	551.56
419.611	556.56
419.834	555.56
420.057	527.56
420.28	531.56
420.503	537.56
420.726	511.56
420.948	548.56
421.171	581.56
421.394	585.56
421.617	533.56
421.839	518.56
422.062	530.56
422.285	525.56
422.507	614.56
422.73	651.56
422.953	665.56
423.175	575.56
423.398	562.56
423.621	541.56
423.843	576.56
424.066	572.56
424.288	588.56
424.511	570.56
424.733	611.56
424.956	681.56
425.178	652.56
425.401	649.56
425.623	666.56
425.846	572.56
426.068	566.56
426.291	533.56
426.513	530.56
426.735	549.56
426.958	563.56
427.18	660.56
427.402	784.56
427.625	864.56
427.847	705.56
428.069	590.56
428.292	564.56
428.514	533.56
428.736	527.56
428.958	524.56
429.181	518.56
429.403	488.56
429.625	506.56
429.847	536.56
430.069	588.56
430.292	604.56
430.514	519.56
430.736	503.56
430.958	503.56
431.18	499.56
431.402	494.56
431.624	502.56
431.846	477.56
432.068	474.56
432.29	478.56
432.512	486.56
432.734	510.56
432.956	498.56
433.178	522.56
433.4	492.56
433.622	515.56
433.844	480.56
434.066	472.56
434.287	518.56
434.509	483.56
434.731	516.56
434.953	530.56
435.175	526.56
435.397	547.56
435.618	541.56
435.84	562.56
436.062	648.56
436.284	730.56
436.505	585.56
436.727	539.56
436.949	512.56
437.17	510.56
437.392	500.56
437.614	500.56
437.835	536.56
438.057	604.56
438.278	666.56
438.5	696.56
438.721	787.56
438.943	754.56
439.165	590.56
439.386	566.56
439.608	559.56
439.829	548.56
440.05	546.56
440.272	585.56
440.493	567.56
440.715	538.56
440.936	527.56
441.158	522.56
441.379	520.56
441.6	538.56
441.822	546.56
442.043	580.56
442.264	672.56
442.486	692.56
442.707	610.56
442.928	546.56
443.149	559.56
443.371	576.56
443.592	604.56
443.813	725.56
444.034	759.56
444.255	631.56
444.476	588.56
444.698	576.56
444.919	596.56
445.14	720.56
445.361	624.56
445.582	596.56
445.803	627.56
446.024	715.56
446.245	725.56
446.466	666.56
446.687	557.56
446.908	547.56
447.129	528.56
447.35	520.56
447.571	494.56
447.792	482.56
448.013	486.56
448.234	500.56
448.455	558.56
448.675	649.56
448.896	775.56
449.117	635.56
449.338	614.56
449.559	674.56
449.779	808.56
450	647.56
450.221	555.56
450.442	500.56
450.662	483.56
450.883	484.56
451.104	492.56
451.324	492.56
451.545	481.56
451.766	466.56
451.986	461.56
452.207	452.56
452.428	449.56
452.648	448.56
452.869	455.56
453.089	463.56
453.31	463.56
453.53	466.56
453.751	442.56
453.971	452.56
454.192	444.56
454.412	445.56
454.633	462.56
454.853	461.56
455.073	451.56
455.294	471.56
455.514	517.56
455.734	510.56
455.955	461.56
456.175	448.56
456.395	414.56
456.616	419.56
456.836	433.56
457.056	416.56
457.276	414.56
457.497	416.56
457.717	418.56
457.937	412.56
458.157	428.56
458.377	428.56
458.598	451.56
458.818	489.56
459.038	528.56
459.258	571.56
459.478	504.56
459.698	500.56
459.918	495.56
460.138	488.56
460.358	494.56
460.578	495.56
460.798	514.56
461.018	495.56
461.238	504.56
461.458	513.56
461.678	516.56
461.898	545.56
462.118	525.56
462.338	535.56
462.558	546.56
462.777	562.56
462.997	566.56
463.217	583.56
463.437	583.56
463.657	562.56
463.876	564.56
464.096	562.56
464.316	546.56
464.536	560.56
464.755	558.56
464.975	552.56
465.195	552.56
465.414	567.56
465.634	519.56
465.854	539.56
466.073	519.56
466.293	473.56
466.512	506.56
466.732	471.56
466.951	471.56
467.171	469.56
467.391	465.56
467.61	469.56
467.829	471.56
468.049	473.56
468.268	466.56
468.488	450.56
468.707	462.56
468.927	463.56
469.146	439.56
469.365	460.56
469.585	454.56
469.804	458.56
470.023	469.56
470.243	485.56
470.462	487.56
470.681	494.56
470.901	502.56
471.12	479.56
471.339	484.56
471.558	500.56
471.777	474.56
471.997	457.56
472.216	475.56
472.435	500.56
472.654	503.56
472.873	470.56
473.092	472.56
473.311	477.56
473.53	465.56
473.749	450.56
473.968	500.56
474.187	588.56
474.406	598.56
474.625	533.56
474.844	498.56
475.063	462.56
475.282	459.56
475.501	483.56
475.72	482.56
475.939	477.56
476.158	495.56
476.377	522.56
476.596	491.56
476.814	516.56
477.033	508.56
477.252	502.56
477.471	506.56
477.69	487.56
477.908	525.56
478.127	524.56
478.346	531.56
478.564	550.56
478.783	555.56
479.002	537.56
479.22	559.56
479.439	563.56
479.658	566.56
479.876	588.56
480.095	581.56
480.313	619.56
480.532	614.56
480.751	580.56
480.969	594.56
481.188	630.56
481.406	612.56
481.624	571.56
481.843	572.56
482.061	540.56
482.28	552.56
482.498	554.56
482.717	529.56
482.935	566.56
483.153	549.56
483.372	568.56
483.59	560.56
483.808	570.56
484.027	543.56
484.245	574.56
484.463	584.56
484.681	568.56
484.9	575.56
485.118	562.56
485.336	571.56
485.554	586.56
485.772	583.56
485.99	601.56
486.209	582.56
486.427	581.56
486.645	588.56
486.863	618.56
487.081	610.56
487.299	587.56
487.517	596.56
487.735	599.56
487.953	602.56
488.171	588.56
488.389	592.56
488.607	594.56
488.825	583.56
489.043	598.56
489.261	604.56
489.479	599.56
489.696	611.56
489.914	605.56
490.132	627.56
490.35	639.56
490.568	654.56
490.786	646.56
491.003	680.56
491.221	652.56
491.439	655.56
491.657	679.56
491.874	688.56
492.092	679.56
492.31	664.56
492.527	696.56
492.745	680.56
492.963	687.56
493.18	671.56
493.398	680.56
493.615	684.56
493.833	680.56
494.05	718.56
494.268	697.56
494.485	694.56
494.703	695.56
494.92	691.56
495.138	693.56
495.355	702.56
495.573	719.56
495.79	728.56
496.008	729.56
496.225	697.56
496.442	721.56
496.66	694.56
496.877	699.56
497.094	707.56
497.312	709.56
497.529	717.56
497.746	741.56
497.963	743.56
498.181	774.56
498.398	786.56
498.615	817.56
498.832	830.56
499.049	850.56
499.267	884.56
499.484	915.56
499.701	975.56
499.918	980.56
500.135	1042.56
500.352	1120.56
500.569	1127.56
500.786	1146.56
501.003	1116.56
501.22	1093.56
501.437	986.56
501.654	946.56
