Data from 1975.PennyLincolnUp.Lamp.En5.5.200Scan.071719.P1.Changed Mount._HRD10591_15-56-20-859.txt Node
Date: Thu Jul 18 15:56:20 EDT 2019
User: cochatt
Spectrometer: HR+D1059
Trigger mode: 1
Integration Time (sec): 1.000000E-1
Scans to average: 1
Electric dark correction enabled: true
Nonlinearity correction enabled: false
Boxcar width: 0
XAxis mode: Wavelengths
Number of Pixels in Spectrum: 2048
>>>>>Begin Spectral Data<<<<<
223.165	-11.19
223.4	-11.19
223.635	-11.19
223.869	-26.19
224.104	-20.19
224.338	-10.19
224.573	-17.19
224.808	-3.19
225.042	0.81
225.277	-14.19
225.511	0.81
225.746	8.81
225.98	16.81
226.215	-4.19
226.449	12.81
226.683	22.81
226.918	21.81
227.152	21.81
227.387	42.81
227.621	40.81
227.856	31.81
228.09	45.81
228.324	36.81
228.559	45.81
228.793	73.81
229.027	92.81
229.262	92.81
229.496	107.81
229.73	117.81
229.964	120.81
230.199	131.81
230.433	112.81
230.667	110.81
230.901	123.81
231.136	116.81
231.37	109.81
231.604	103.81
231.838	106.81
232.072	112.81
232.306	113.81
232.541	101.81
232.775	122.81
233.009	99.81
233.243	106.81
233.477	128.81
233.711	109.81
233.945	115.81
234.179	113.81
234.413	119.81
234.647	99.81
234.881	102.81
235.115	109.81
235.349	104.81
235.583	123.81
235.817	100.81
236.051	109.81
236.285	117.81
236.519	132.81
236.753	133.81
236.987	123.81
237.221	156.81
237.455	209.81
237.689	174.81
237.922	128.81
238.156	139.81
238.39	138.81
238.624	108.81
238.858	128.81
239.091	122.81
239.325	123.81
239.559	124.81
239.793	125.81
240.027	117.81
240.26	138.81
240.494	146.81
240.728	142.81
240.961	161.81
241.195	141.81
241.429	140.81
241.662	127.81
241.896	142.81
242.13	130.81
242.363	135.81
242.597	143.81
242.83	124.81
243.064	136.81
243.298	145.81
243.531	140.81
243.765	140.81
243.998	129.81
244.232	136.81
244.465	146.81
244.699	134.81
244.932	150.81
245.166	139.81
245.399	144.81
245.633	153.81
245.866	176.81
246.099	157.81
246.333	147.81
246.566	151.81
246.8	143.81
247.033	152.81
247.266	166.81
247.5	168.81
247.733	171.81
247.966	168.81
248.2	173.81
248.433	186.81
248.666	172.81
248.899	184.81
249.133	185.81
249.366	206.81
249.599	176.81
249.832	168.81
250.066	167.81
250.299	183.81
250.532	188.81
250.765	198.81
250.998	208.81
251.231	209.81
251.465	204.81
251.698	199.81
251.931	208.81
252.164	189.81
252.397	207.81
252.63	189.81
252.863	203.81
253.096	201.81
253.329	201.81
253.562	211.81
253.795	216.81
254.028	215.81
254.261	199.81
254.494	201.81
254.727	251.81
254.96	260.81
255.193	256.81
255.426	230.81
255.659	241.81
255.892	217.81
256.124	226.81
256.357	215.81
256.59	220.81
256.823	219.81
257.056	215.81
257.289	213.81
257.521	201.81
257.754	215.81
257.987	203.81
258.22	200.81
258.452	190.81
258.685	192.81
258.918	184.81
259.151	199.81
259.383	213.81
259.616	221.81
259.849	219.81
260.081	229.81
260.314	240.81
260.547	245.81
260.779	240.81
261.012	235.81
261.244	227.81
261.477	233.81
261.71	209.81
261.942	217.81
262.175	210.81
262.407	221.81
262.64	210.81
262.872	201.81
263.105	206.81
263.337	205.81
263.57	220.81
263.802	205.81
264.035	204.81
264.267	214.81
264.499	219.81
264.732	213.81
264.964	224.81
265.197	226.81
265.429	216.81
265.661	203.81
265.894	219.81
266.126	210.81
266.358	221.81
266.591	217.81
266.823	218.81
267.055	225.81
267.287	226.81
267.52	224.81
267.752	214.81
267.984	210.81
268.216	231.81
268.448	223.81
268.681	227.81
268.913	228.81
269.145	247.81
269.377	264.81
269.609	262.81
269.841	243.81
270.073	258.81
270.306	278.81
270.538	305.81
270.77	306.81
271.002	297.81
271.234	269.81
271.466	281.81
271.698	293.81
271.93	300.81
272.162	292.81
272.394	283.81
272.626	290.81
272.858	275.81
273.09	269.81
273.322	269.81
273.553	276.81
273.785	273.81
274.017	268.81
274.249	249.81
274.481	262.81
274.713	245.81
274.945	259.81
275.176	267.81
275.408	256.81
275.64	258.81
275.872	246.81
276.104	241.81
276.335	262.81
276.567	265.81
276.799	285.81
277.031	285.81
277.262	288.81
277.494	308.81
277.726	302.81
277.957	291.81
278.189	262.81
278.421	267.81
278.652	268.81
278.884	260.81
279.115	261.81
279.347	284.81
279.579	280.81
279.81	261.81
280.042	271.81
280.273	280.81
280.505	276.81
280.736	257.81
280.968	247.81
281.199	254.81
281.431	273.81
281.662	273.81
281.894	273.81
282.125	268.81
282.356	275.81
282.588	293.81
282.819	297.81
283.051	275.81
283.282	259.81
283.513	274.81
283.745	266.81
283.976	286.81
284.207	286.81
284.439	288.81
284.67	278.81
284.901	265.81
285.132	280.81
285.364	259.81
285.595	278.81
285.826	256.81
286.057	281.81
286.288	293.81
286.52	269.81
286.751	282.81
286.982	269.81
287.213	268.81
287.444	280.81
287.675	300.81
287.906	285.81
288.138	291.81
288.369	283.81
288.6	299.81
288.831	294.81
289.062	296.81
289.293	281.81
289.524	284.81
289.755	295.81
289.986	297.81
290.217	285.81
290.448	297.81
290.679	291.81
290.91	290.81
291.141	294.81
291.371	308.81
291.602	285.81
291.833	292.81
292.064	292.81
292.295	275.81
292.526	270.81
292.757	298.81
292.987	301.81
293.218	297.81
293.449	298.81
293.68	308.81
293.91	294.81
294.141	304.81
294.372	301.81
294.603	283.81
294.833	285.81
295.064	268.81
295.295	296.81
295.525	285.81
295.756	301.81
295.987	279.81
296.217	318.81
296.448	317.81
296.679	314.81
296.909	313.81
297.14	304.81
297.37	312.81
297.601	288.81
297.831	307.81
298.062	289.81
298.292	317.81
298.523	299.81
298.753	301.81
298.984	314.81
299.214	316.81
299.445	316.81
299.675	309.81
299.905	307.81
300.136	313.81
300.366	314.81
300.597	313.81
300.827	318.81
301.057	323.81
301.288	320.81
301.518	317.81
301.748	324.81
301.979	331.81
302.209	319.81
302.439	324.81
302.669	306.81
302.9	333.81
303.13	324.81
303.36	317.81
303.59	337.81
303.82	308.81
304.051	322.81
304.281	338.81
304.511	331.81
304.741	340.81
304.971	342.81
305.201	327.81
305.431	320.81
305.661	326.81
305.891	340.81
306.121	328.81
306.352	333.81
306.582	328.81
306.812	318.81
307.042	320.81
307.272	329.81
307.502	332.81
307.731	327.81
307.961	338.81
308.191	336.81
308.421	335.81
308.651	334.81
308.881	336.81
309.111	346.81
309.341	341.81
309.571	337.81
309.8	328.81
310.03	343.81
310.26	366.81
310.49	355.81
310.72	366.81
310.949	362.81
311.179	399.81
311.409	375.81
311.639	355.81
311.868	352.81
312.098	370.81
312.328	362.81
312.557	362.81
312.787	391.81
313.017	376.81
313.246	365.81
313.476	355.81
313.706	344.81
313.935	364.81
314.165	365.81
314.394	380.81
314.624	388.81
314.853	377.81
315.083	377.81
315.312	373.81
315.542	365.81
315.771	363.81
316.001	379.81
316.23	364.81
316.46	360.81
316.689	359.81
316.919	352.81
317.148	375.81
317.377	390.81
317.607	357.81
317.836	342.81
318.065	377.81
318.295	357.81
318.524	373.81
318.753	355.81
318.983	373.81
319.212	362.81
319.441	373.81
319.67	376.81
319.9	379.81
320.129	363.81
320.358	366.81
320.587	375.81
320.816	384.81
321.046	394.81
321.275	387.81
321.504	371.81
321.733	390.81
321.962	391.81
322.191	368.81
322.42	373.81
322.649	395.81
322.878	411.81
323.108	422.81
323.337	432.81
323.566	402.81
323.795	460.81
324.024	476.81
324.253	550.81
324.482	756.81
324.71	1131.81
324.939	1668.81
325.168	1489.81
325.397	773.81
325.626	549.81
325.855	457.81
326.084	449.81
326.313	408.81
326.542	442.81
326.77	476.81
326.999	538.81
327.228	713.81
327.457	1052.81
327.686	1290.81
327.914	868.81
328.143	586.81
328.372	514.81
328.6	485.81
328.829	487.81
329.058	499.81
329.287	506.81
329.515	476.81
329.744	472.81
329.972	452.81
330.201	480.81
330.43	508.81
330.658	499.81
330.887	551.81
331.115	524.81
331.344	474.81
331.572	443.81
331.801	441.81
332.03	445.81
332.258	434.81
332.486	436.81
332.715	443.81
332.943	445.81
333.172	451.81
333.4	432.81
333.629	470.81
333.857	455.81
334.085	477.81
334.314	508.81
334.542	512.81
334.771	533.81
334.999	498.81
335.227	476.81
335.455	441.81
335.684	471.81
335.912	460.81
336.14	437.81
336.369	440.81
336.597	432.81
336.825	432.81
337.053	417.81
337.281	439.81
337.51	437.81
337.738	440.81
337.966	414.81
338.194	438.81
338.422	462.81
338.65	438.81
338.878	439.81
339.106	416.81
339.334	425.81
339.562	403.81
339.79	423.81
340.018	424.81
340.246	417.81
340.474	436.81
340.702	416.81
340.93	435.81
341.158	418.81
341.386	422.81
341.614	446.81
341.842	437.81
342.07	418.81
342.298	422.81
342.526	408.81
342.754	422.81
342.981	388.81
343.209	411.81
343.437	414.81
343.665	413.81
343.893	451.81
344.12	453.81
344.348	453.81
344.576	432.81
344.804	430.81
345.031	445.81
345.259	455.81
345.487	434.81
345.714	413.81
345.942	409.81
346.17	422.81
346.397	404.81
346.625	407.81
346.853	433.81
347.08	406.81
347.308	400.81
347.535	424.81
347.763	414.81
347.99	404.81
348.218	419.81
348.445	434.81
348.673	388.81
348.9	401.81
349.128	410.81
349.355	389.81
349.583	388.81
349.81	404.81
350.037	400.81
350.265	398.81
350.492	389.81
350.72	407.81
350.947	421.81
351.174	410.81
351.402	409.81
351.629	415.81
351.856	411.81
352.083	398.81
352.311	405.81
352.538	428.81
352.765	410.81
352.992	395.81
353.22	404.81
353.447	400.81
353.674	380.81
353.901	385.81
354.128	402.81
354.355	390.81
354.583	399.81
354.81	404.81
355.037	403.81
355.264	395.81
355.491	388.81
355.718	388.81
355.945	392.81
356.172	394.81
356.399	403.81
356.626	374.81
356.853	388.81
357.08	378.81
357.307	384.81
357.534	376.81
357.761	392.81
357.988	403.81
358.215	406.81
358.441	390.81
358.668	381.81
358.895	399.81
359.122	394.81
359.349	402.81
359.576	411.81
359.802	440.81
360.029	432.81
360.256	425.81
360.483	439.81
360.709	382.81
360.936	392.81
361.163	392.81
361.39	418.81
361.616	418.81
361.843	413.81
362.07	412.81
362.296	420.81
362.523	402.81
362.749	409.81
362.976	394.81
363.203	394.81
363.429	419.81
363.656	402.81
363.882	393.81
364.109	405.81
364.335	410.81
364.562	380.81
364.788	380.81
365.015	405.81
365.241	400.81
365.468	410.81
365.694	416.81
365.92	380.81
366.147	403.81
366.373	398.81
366.599	373.81
366.826	380.81
367.052	396.81
367.278	415.81
367.505	384.81
367.731	399.81
367.957	392.81
368.184	400.81
368.41	402.81
368.636	413.81
368.862	397.81
369.089	399.81
369.315	397.81
369.541	405.81
369.767	395.81
369.993	406.81
370.219	390.81
370.445	402.81
370.672	382.81
370.898	408.81
371.124	399.81
371.35	405.81
371.576	410.81
371.802	396.81
372.028	415.81
372.254	402.81
372.48	414.81
372.706	401.81
372.932	426.81
373.158	427.81
373.384	414.81
373.61	421.81
373.835	405.81
374.061	413.81
374.287	421.81
374.513	412.81
374.739	418.81
374.965	426.81
375.191	434.81
375.416	419.81
375.642	428.81
375.868	415.81
376.094	408.81
376.319	413.81
376.545	401.81
376.771	399.81
376.997	404.81
377.222	404.81
377.448	409.81
377.674	400.81
377.899	396.81
378.125	396.81
378.35	412.81
378.576	422.81
378.802	405.81
379.027	421.81
379.253	408.81
379.478	399.81
379.704	410.81
379.929	409.81
380.155	398.81
380.38	414.81
380.606	423.81
380.831	431.81
381.057	420.81
381.282	414.81
381.507	413.81
381.733	408.81
381.958	408.81
382.184	409.81
382.409	401.81
382.634	429.81
382.86	406.81
383.085	435.81
383.31	414.81
383.535	422.81
383.761	429.81
383.986	423.81
384.211	426.81
384.436	446.81
384.662	450.81
384.887	427.81
385.112	438.81
385.337	437.81
385.562	460.81
385.787	454.81
386.013	457.81
386.238	453.81
386.463	427.81
386.688	442.81
386.913	446.81
387.138	429.81
387.363	468.81
387.588	450.81
387.813	445.81
388.038	457.81
388.263	469.81
388.488	452.81
388.713	467.81
388.938	468.81
389.163	450.81
389.387	463.81
389.612	451.81
389.837	446.81
390.062	448.81
390.287	455.81
390.512	457.81
390.736	446.81
390.961	469.81
391.186	430.81
391.411	479.81
391.636	485.81
391.86	492.81
392.085	483.81
392.31	459.81
392.534	467.81
392.759	478.81
392.984	466.81
393.208	468.81
393.433	462.81
393.658	477.81
393.882	454.81
394.107	449.81
394.331	472.81
394.556	450.81
394.78	458.81
395.005	480.81
395.229	448.81
395.454	490.81
395.678	472.81
395.903	489.81
396.127	517.81
396.352	514.81
396.576	485.81
396.801	481.81
397.025	485.81
397.249	497.81
397.474	493.81
397.698	512.81
397.922	518.81
398.147	525.81
398.371	534.81
398.595	504.81
398.82	528.81
399.044	546.81
399.268	558.81
399.492	614.81
399.717	643.81
399.941	661.81
400.165	681.81
400.389	647.81
400.613	616.81
400.837	562.81
401.062	560.81
401.286	548.81
401.51	548.81
401.734	550.81
401.958	566.81
402.182	541.81
402.406	554.81
402.63	554.81
402.854	559.81
403.078	560.81
403.302	550.81
403.526	582.81
403.75	576.81
403.974	558.81
404.198	578.81
404.422	584.81
404.645	548.81
404.869	566.81
405.093	610.81
405.317	667.81
405.541	654.81
405.765	618.81
405.988	584.81
406.212	582.81
406.436	612.81
406.66	588.81
406.883	588.81
407.107	636.81
407.331	664.81
407.555	725.81
407.778	752.81
408.002	682.81
408.226	582.81
408.449	624.81
408.673	622.81
408.896	638.81
409.12	681.81
409.344	614.81
409.567	593.81
409.791	566.81
410.014	543.81
410.238	553.81
410.461	564.81
410.685	568.81
410.908	586.81
411.132	597.81
411.355	616.81
411.578	608.81
411.802	539.81
412.025	554.81
412.249	555.81
412.472	582.81
412.695	610.81
412.919	615.81
413.142	595.81
413.365	569.81
413.589	540.81
413.812	544.81
414.035	539.81
414.258	541.81
414.482	515.81
414.705	541.81
414.928	522.81
415.151	510.81
415.374	526.81
415.597	515.81
415.821	513.81
416.044	521.81
416.267	526.81
416.49	526.81
416.713	525.81
416.936	524.81
417.159	521.81
417.382	536.81
417.605	528.81
417.828	546.81
418.051	547.81
418.274	541.81
418.497	557.81
418.72	518.81
418.943	543.81
419.166	553.81
419.389	577.81
419.611	579.81
419.834	552.81
420.057	562.81
420.28	577.81
420.503	548.81
420.726	554.81
420.948	576.81
421.171	609.81
421.394	621.81
421.617	601.81
421.839	551.81
422.062	541.81
422.285	542.81
422.507	611.81
422.73	672.81
422.953	676.81
423.175	588.81
423.398	579.81
423.621	571.81
423.843	601.81
424.066	597.81
424.288	595.81
424.511	585.81
424.733	644.81
424.956	714.81
425.178	690.81
425.401	699.81
425.623	709.81
425.846	619.81
426.068	574.81
426.291	566.81
426.513	573.81
426.735	581.81
426.958	608.81
427.18	701.81
427.402	802.81
427.625	907.81
427.847	757.81
428.069	672.81
428.292	617.81
428.514	530.81
428.736	521.81
428.958	534.81
429.181	495.81
429.403	520.81
429.625	549.81
429.847	564.81
430.069	632.81
430.292	624.81
430.514	521.81
430.736	562.81
430.958	513.81
431.18	508.81
431.402	517.81
431.624	531.81
431.846	501.81
432.068	516.81
432.29	510.81
432.512	526.81
432.734	498.81
432.956	477.81
433.178	528.81
433.4	532.81
433.622	532.81
433.844	515.81
434.066	517.81
434.287	500.81
434.509	500.81
434.731	525.81
434.953	546.81
435.175	537.81
435.397	588.81
435.618	582.81
435.84	619.81
436.062	666.81
436.284	747.81
436.505	620.81
436.727	575.81
436.949	549.81
437.17	531.81
437.392	530.81
437.614	536.81
437.835	564.81
438.057	638.81
438.278	730.81
438.5	727.81
438.721	836.81
438.943	797.81
439.165	613.81
439.386	570.81
439.608	571.81
439.829	575.81
440.05	583.81
440.272	615.81
440.493	588.81
440.715	568.81
440.936	538.81
441.158	528.81
441.379	534.81
441.6	560.81
441.822	575.81
442.043	617.81
442.264	688.81
442.486	754.81
442.707	600.81
442.928	582.81
443.149	572.81
443.371	610.81
443.592	641.81
443.813	739.81
444.034	813.81
444.255	672.81
444.476	606.81
444.698	602.81
444.919	592.81
445.14	696.81
445.361	652.81
445.582	613.81
445.803	674.81
446.024	756.81
446.245	755.81
446.466	684.81
446.687	624.81
446.908	540.81
447.129	530.81
447.35	530.81
447.571	542.81
447.792	496.81
448.013	526.81
448.234	534.81
448.455	571.81
448.675	702.81
448.896	803.81
449.117	672.81
449.338	626.81
449.559	765.81
449.779	840.81
450	677.81
450.221	560.81
450.442	534.81
450.662	514.81
450.883	494.81
451.104	520.81
451.324	515.81
451.545	499.81
451.766	496.81
451.986	466.81
452.207	453.81
452.428	457.81
452.648	442.81
452.869	448.81
453.089	481.81
453.31	494.81
453.53	481.81
453.751	464.81
453.971	475.81
454.192	502.81
454.412	463.81
454.633	469.81
454.853	456.81
455.073	465.81
455.294	488.81
455.514	553.81
455.734	535.81
455.955	482.81
456.175	443.81
456.395	452.81
456.616	452.81
456.836	451.81
457.056	447.81
457.276	442.81
457.497	448.81
457.717	446.81
457.937	472.81
458.157	460.81
458.377	463.81
458.598	484.81
458.818	523.81
459.038	580.81
459.258	624.81
459.478	538.81
459.698	506.81
459.918	516.81
460.138	513.81
460.358	538.81
460.578	532.81
460.798	544.81
461.018	537.81
461.238	532.81
461.458	526.81
461.678	547.81
461.898	540.81
462.118	532.81
462.338	539.81
462.558	561.81
462.777	573.81
462.997	589.81
463.217	608.81
463.437	607.81
463.657	594.81
463.876	598.81
464.096	576.81
464.316	566.81
464.536	599.81
464.755	580.81
464.975	580.81
465.195	586.81
465.414	605.81
465.634	544.81
465.854	549.81
466.073	515.81
466.293	500.81
466.512	503.81
466.732	493.81
466.951	488.81
467.171	489.81
467.391	482.81
467.61	491.81
467.829	496.81
468.049	486.81
468.268	485.81
468.488	453.81
468.707	473.81
468.927	477.81
469.146	475.81
469.365	503.81
469.585	494.81
469.804	480.81
470.023	504.81
470.243	515.81
470.462	501.81
470.681	494.81
470.901	496.81
471.12	469.81
471.339	493.81
471.558	498.81
471.777	488.81
471.997	501.81
472.216	504.81
472.435	512.81
472.654	516.81
472.873	487.81
473.092	486.81
473.311	482.81
473.53	510.81
473.749	506.81
473.968	527.81
474.187	632.81
474.406	633.81
474.625	544.81
474.844	502.81
475.063	484.81
475.282	500.81
475.501	468.81
475.72	498.81
475.939	502.81
476.158	513.81
476.377	524.81
476.596	496.81
476.814	518.81
477.033	543.81
477.252	520.81
477.471	553.81
477.69	531.81
477.908	530.81
478.127	540.81
478.346	543.81
478.564	545.81
478.783	549.81
479.002	550.81
479.22	574.81
479.439	584.81
479.658	591.81
479.876	574.81
480.095	609.81
480.313	623.81
480.532	630.81
480.751	619.81
480.969	599.81
481.188	654.81
481.406	676.81
481.624	645.81
481.843	594.81
482.061	582.81
482.28	604.81
482.498	576.81
482.717	545.81
482.935	554.81
483.153	580.81
483.372	567.81
483.59	583.81
483.808	592.81
484.027	581.81
484.245	579.81
484.463	585.81
484.681	595.81
484.9	587.81
485.118	586.81
485.336	591.81
485.554	600.81
485.772	601.81
485.99	586.81
486.209	573.81
486.427	605.81
486.645	628.81
486.863	616.81
487.081	626.81
487.299	604.81
487.517	619.81
487.735	602.81
487.953	638.81
488.171	610.81
488.389	616.81
488.607	602.81
488.825	629.81
489.043	600.81
489.261	638.81
489.479	618.81
489.696	639.81
489.914	644.81
490.132	638.81
490.35	650.81
490.568	636.81
490.786	651.81
491.003	697.81
491.221	667.81
491.439	702.81
491.657	710.81
491.874	704.81
492.092	684.81
492.31	706.81
492.527	716.81
492.745	729.81
492.963	718.81
493.18	710.81
493.398	733.81
493.615	745.81
493.833	737.81
494.05	723.81
494.268	739.81
494.485	729.81
494.703	717.81
494.92	709.81
495.138	727.81
495.355	745.81
495.573	728.81
495.79	744.81
496.008	759.81
496.225	721.81
496.442	731.81
496.66	748.81
496.877	729.81
497.094	737.81
497.312	790.81
497.529	762.81
497.746	792.81
497.963	765.81
498.181	823.81
498.398	832.81
498.615	836.81
498.832	880.81
499.049	875.81
499.267	940.81
499.484	950.81
499.701	982.81
499.918	1024.81
500.135	1084.81
500.352	1148.81
500.569	1196.81
500.786	1188.81
501.003	1155.81
501.22	1132.81
501.437	1089.81
501.654	1012.81
