Data from 1975.PennyLincolnUp.Lamp.En5.5.200Scan.071719.P1.Changed Mount._HRD10591_15-58-10-859.txt Node
Date: Thu Jul 18 15:58:10 EDT 2019
User: cochatt
Spectrometer: HR+D1059
Trigger mode: 1
Integration Time (sec): 1.000000E-1
Scans to average: 1
Electric dark correction enabled: true
Nonlinearity correction enabled: false
Boxcar width: 0
XAxis mode: Wavelengths
Number of Pixels in Spectrum: 2048
>>>>>Begin Spectral Data<<<<<
223.165	-10.69
223.4	-10.69
223.635	-10.69
223.869	-26.69
224.104	-21.69
224.338	-15.69
224.573	-12.69
224.808	-8.69
225.042	2.31
225.277	-10.69
225.511	-9.69
225.746	2.31
225.98	10.31
226.215	15.31
226.449	12.31
226.683	16.31
226.918	22.31
227.152	35.31
227.387	25.31
227.621	40.31
227.856	45.31
228.09	42.31
228.324	64.31
228.559	50.31
228.793	66.31
229.027	94.31
229.262	112.31
229.496	122.31
229.73	137.31
229.964	158.31
230.199	126.31
230.433	112.31
230.667	110.31
230.901	132.31
231.136	114.31
231.37	126.31
231.604	128.31
231.838	120.31
232.072	102.31
232.306	124.31
232.541	122.31
232.775	129.31
233.009	114.31
233.243	114.31
233.477	107.31
233.711	124.31
233.945	132.31
234.179	126.31
234.413	125.31
234.647	121.31
234.881	118.31
235.115	128.31
235.349	125.31
235.583	119.31
235.817	134.31
236.051	132.31
236.285	130.31
236.519	121.31
236.753	129.31
236.987	145.31
237.221	180.31
237.455	235.31
237.689	178.31
237.922	146.31
238.156	133.31
238.39	130.31
238.624	131.31
238.858	118.31
239.091	125.31
239.325	124.31
239.559	112.31
239.793	125.31
240.027	122.31
240.26	138.31
240.494	159.31
240.728	155.31
240.961	144.31
241.195	132.31
241.429	146.31
241.662	150.31
241.896	125.31
242.13	143.31
242.363	154.31
242.597	125.31
242.83	130.31
243.064	133.31
243.298	142.31
243.531	143.31
243.765	152.31
243.998	151.31
244.232	130.31
244.465	143.31
244.699	166.31
244.932	140.31
245.166	132.31
245.399	152.31
245.633	167.31
245.866	159.31
246.099	153.31
246.333	155.31
246.566	173.31
246.8	155.31
247.033	170.31
247.266	156.31
247.5	169.31
247.733	181.31
247.966	167.31
248.2	178.31
248.433	168.31
248.666	194.31
248.899	184.31
249.133	208.31
249.366	215.31
249.599	184.31
249.832	167.31
250.066	195.31
250.299	207.31
250.532	218.31
250.765	206.31
250.998	221.31
251.231	231.31
251.465	223.31
251.698	188.31
251.931	206.31
252.164	197.31
252.397	203.31
252.63	200.31
252.863	216.31
253.096	231.31
253.329	230.31
253.562	236.31
253.795	226.31
254.028	226.31
254.261	212.31
254.494	249.31
254.727	268.31
254.96	270.31
255.193	275.31
255.426	259.31
255.659	247.31
255.892	243.31
256.124	252.31
256.357	252.31
256.59	243.31
256.823	230.31
257.056	213.31
257.289	211.31
257.521	208.31
257.754	234.31
257.987	198.31
258.22	219.31
258.452	200.31
258.685	208.31
258.918	196.31
259.151	207.31
259.383	222.31
259.616	216.31
259.849	238.31
260.081	245.31
260.314	258.31
260.547	256.31
260.779	242.31
261.012	228.31
261.244	222.31
261.477	232.31
261.71	239.31
261.942	220.31
262.175	246.31
262.407	238.31
262.64	227.31
262.872	212.31
263.105	218.31
263.337	213.31
263.57	221.31
263.802	198.31
264.035	204.31
264.267	218.31
264.499	216.31
264.732	227.31
264.964	220.31
265.197	207.31
265.429	227.31
265.661	216.31
265.894	227.31
266.126	221.31
266.358	216.31
266.591	236.31
266.823	240.31
267.055	234.31
267.287	252.31
267.52	215.31
267.752	243.31
267.984	235.31
268.216	227.31
268.448	241.31
268.681	250.31
268.913	254.31
269.145	284.31
269.377	281.31
269.609	272.31
269.841	279.31
270.073	299.31
270.306	288.31
270.538	318.31
270.77	314.31
271.002	304.31
271.234	289.31
271.466	322.31
271.698	312.31
271.93	336.31
272.162	324.31
272.394	329.31
272.626	327.31
272.858	290.31
273.09	302.31
273.322	278.31
273.553	274.31
273.785	267.31
274.017	266.31
274.249	276.31
274.481	279.31
274.713	266.31
274.945	256.31
275.176	279.31
275.408	284.31
275.64	285.31
275.872	288.31
276.104	280.31
276.335	286.31
276.567	292.31
276.799	282.31
277.031	294.31
277.262	322.31
277.494	336.31
277.726	315.31
277.957	304.31
278.189	289.31
278.421	283.31
278.652	300.31
278.884	297.31
279.115	279.31
279.347	278.31
279.579	269.31
279.81	282.31
280.042	257.31
280.273	278.31
280.505	271.31
280.736	284.31
280.968	276.31
281.199	270.31
281.431	281.31
281.662	288.31
281.894	282.31
282.125	294.31
282.356	312.31
282.588	320.31
282.819	323.31
283.051	281.31
283.282	278.31
283.513	302.31
283.745	294.31
283.976	301.31
284.207	281.31
284.439	272.31
284.67	302.31
284.901	307.31
285.132	300.31
285.364	301.31
285.595	302.31
285.826	292.31
286.057	310.31
286.288	302.31
286.52	292.31
286.751	285.31
286.982	310.31
287.213	302.31
287.444	293.31
287.675	289.31
287.906	313.31
288.138	322.31
288.369	309.31
288.6	338.31
288.831	306.31
289.062	314.31
289.293	294.31
289.524	301.31
289.755	314.31
289.986	300.31
290.217	309.31
290.448	317.31
290.679	321.31
290.91	307.31
291.141	304.31
291.371	305.31
291.602	312.31
291.833	305.31
292.064	318.31
292.295	318.31
292.526	307.31
292.757	309.31
292.987	311.31
293.218	303.31
293.449	307.31
293.68	310.31
293.91	322.31
294.141	329.31
294.372	313.31
294.603	316.31
294.833	308.31
295.064	317.31
295.295	315.31
295.525	323.31
295.756	318.31
295.987	317.31
296.217	345.31
296.448	331.31
296.679	326.31
296.909	323.31
297.14	321.31
297.37	345.31
297.601	323.31
297.831	328.31
298.062	313.31
298.292	324.31
298.523	333.31
298.753	324.31
298.984	314.31
299.214	334.31
299.445	322.31
299.675	320.31
299.905	339.31
300.136	314.31
300.366	334.31
300.597	330.31
300.827	353.31
301.057	347.31
301.288	332.31
301.518	348.31
301.748	338.31
301.979	358.31
302.209	334.31
302.439	343.31
302.669	353.31
302.9	341.31
303.13	339.31
303.36	337.31
303.59	345.31
303.82	368.31
304.051	353.31
304.281	359.31
304.511	355.31
304.741	334.31
304.971	342.31
305.201	333.31
305.431	365.31
305.661	360.31
305.891	363.31
306.121	346.31
306.352	374.31
306.582	335.31
306.812	349.31
307.042	342.31
307.272	338.31
307.502	356.31
307.731	361.31
307.961	357.31
308.191	351.31
308.421	374.31
308.651	368.31
308.881	347.31
309.111	365.31
309.341	353.31
309.571	386.31
309.8	378.31
310.03	375.31
310.26	377.31
310.49	387.31
310.72	376.31
310.949	394.31
311.179	411.31
311.409	388.31
311.639	381.31
311.868	376.31
312.098	377.31
312.328	406.31
312.557	414.31
312.787	412.31
313.017	417.31
313.246	388.31
313.476	386.31
313.706	374.31
313.935	406.31
314.165	398.31
314.394	396.31
314.624	416.31
314.853	414.31
315.083	385.31
315.312	379.31
315.542	388.31
315.771	379.31
316.001	366.31
316.23	378.31
316.46	392.31
316.689	371.31
316.919	379.31
317.148	412.31
317.377	395.31
317.607	404.31
317.836	411.31
318.065	376.31
318.295	391.31
318.524	388.31
318.753	371.31
318.983	398.31
319.212	389.31
319.441	390.31
319.67	398.31
319.9	376.31
320.129	399.31
320.358	396.31
320.587	400.31
320.816	404.31
321.046	404.31
321.275	389.31
321.504	416.31
321.733	425.31
321.962	422.31
322.191	425.31
322.42	421.31
322.649	424.31
322.878	462.31
323.108	452.31
323.337	474.31
323.566	469.31
323.795	497.31
324.024	530.31
324.253	628.31
324.482	838.31
324.71	1266.31
324.939	1910.31
325.168	1705.31
325.397	861.31
325.626	594.31
325.855	517.31
326.084	507.31
326.313	484.31
326.542	509.31
326.77	528.31
326.999	583.31
327.228	779.31
327.457	1150.31
327.686	1488.31
327.914	996.31
328.143	644.31
328.372	584.31
328.6	549.31
328.829	555.31
329.058	566.31
329.287	562.31
329.515	538.31
329.744	492.31
329.972	494.31
330.201	512.31
330.43	560.31
330.658	583.31
330.887	569.31
331.115	586.31
331.344	511.31
331.572	492.31
331.801	492.31
332.03	484.31
332.258	467.31
332.486	501.31
332.715	497.31
332.943	491.31
333.172	483.31
333.4	509.31
333.629	492.31
333.857	514.31
334.085	517.31
334.314	527.31
334.542	557.31
334.771	578.31
334.999	530.31
335.227	493.31
335.455	487.31
335.684	484.31
335.912	486.31
336.14	492.31
336.369	449.31
336.597	459.31
336.825	476.31
337.053	457.31
337.281	458.31
337.51	461.31
337.738	461.31
337.966	489.31
338.194	463.31
338.422	472.31
338.65	465.31
338.878	443.31
339.106	462.31
339.334	450.31
339.562	432.31
339.79	457.31
340.018	450.31
340.246	465.31
340.474	458.31
340.702	447.31
340.93	448.31
341.158	430.31
341.386	450.31
341.614	452.31
341.842	462.31
342.07	440.31
342.298	440.31
342.526	446.31
342.754	449.31
342.981	432.31
343.209	436.31
343.437	442.31
343.665	423.31
343.893	453.31
344.12	466.31
344.348	477.31
344.576	468.31
344.804	450.31
345.031	488.31
345.259	481.31
345.487	461.31
345.714	436.31
345.942	433.31
346.17	423.31
346.397	436.31
346.625	417.31
346.853	435.31
347.08	436.31
347.308	426.31
347.535	419.31
347.763	425.31
347.99	447.31
348.218	445.31
348.445	466.31
348.673	451.31
348.9	446.31
349.128	444.31
349.355	414.31
349.583	416.31
349.81	430.31
350.037	419.31
350.265	427.31
350.492	412.31
350.72	420.31
350.947	410.31
351.174	431.31
351.402	435.31
351.629	427.31
351.856	427.31
352.083	436.31
352.311	441.31
352.538	444.31
352.765	441.31
352.992	458.31
353.22	452.31
353.447	425.31
353.674	430.31
353.901	419.31
354.128	410.31
354.355	422.31
354.583	406.31
354.81	412.31
355.037	405.31
355.264	401.31
355.491	408.31
355.718	441.31
355.945	399.31
356.172	421.31
356.399	414.31
356.626	398.31
356.853	419.31
357.08	399.31
357.307	434.31
357.534	420.31
357.761	433.31
357.988	432.31
358.215	420.31
358.441	411.31
358.668	406.31
358.895	416.31
359.122	408.31
359.349	446.31
359.576	442.31
359.802	447.31
360.029	463.31
360.256	477.31
360.483	435.31
360.709	443.31
360.936	442.31
361.163	427.31
361.39	429.31
361.616	431.31
361.843	425.31
362.07	420.31
362.296	443.31
362.523	445.31
362.749	437.31
362.976	422.31
363.203	427.31
363.429	414.31
363.656	426.31
363.882	436.31
364.109	410.31
364.335	446.31
364.562	443.31
364.788	426.31
365.015	420.31
365.241	429.31
365.468	416.31
365.694	408.31
365.92	432.31
366.147	419.31
366.373	418.31
366.599	418.31
366.826	443.31
367.052	422.31
367.278	439.31
367.505	428.31
367.731	424.31
367.957	434.31
368.184	398.31
368.41	405.31
368.636	426.31
368.862	417.31
369.089	412.31
369.315	437.31
369.541	440.31
369.767	447.31
369.993	441.31
370.219	447.31
370.445	433.31
370.672	422.31
370.898	440.31
371.124	429.31
371.35	429.31
371.576	435.31
371.802	437.31
372.028	445.31
372.254	427.31
372.48	424.31
372.706	431.31
372.932	429.31
373.158	444.31
373.384	438.31
373.61	438.31
373.835	430.31
374.061	418.31
374.287	431.31
374.513	448.31
374.739	455.31
374.965	460.31
375.191	449.31
375.416	440.31
375.642	445.31
375.868	445.31
376.094	430.31
376.319	438.31
376.545	450.31
376.771	424.31
376.997	418.31
377.222	435.31
377.448	426.31
377.674	434.31
377.899	439.31
378.125	432.31
378.35	429.31
378.576	423.31
378.802	426.31
379.027	414.31
379.253	453.31
379.478	442.31
379.704	438.31
379.929	431.31
380.155	429.31
380.38	452.31
380.606	432.31
380.831	422.31
381.057	444.31
381.282	405.31
381.507	412.31
381.733	429.31
381.958	443.31
382.184	429.31
382.409	449.31
382.634	451.31
382.86	485.31
383.085	456.31
383.31	450.31
383.535	438.31
383.761	434.31
383.986	466.31
384.211	448.31
384.436	472.31
384.662	459.31
384.887	482.31
385.112	455.31
385.337	484.31
385.562	473.31
385.787	482.31
386.013	483.31
386.238	504.31
386.463	477.31
386.688	495.31
386.913	453.31
387.138	488.31
387.363	485.31
387.588	490.31
387.813	466.31
388.038	486.31
388.263	483.31
388.488	470.31
388.713	492.31
388.938	481.31
389.163	487.31
389.387	488.31
389.612	483.31
389.837	464.31
390.062	503.31
390.287	474.31
390.512	476.31
390.736	493.31
390.961	487.31
391.186	491.31
391.411	494.31
391.636	513.31
391.86	484.31
392.085	498.31
392.31	497.31
392.534	507.31
392.759	517.31
392.984	499.31
393.208	500.31
393.433	480.31
393.658	479.31
393.882	488.31
394.107	510.31
394.331	492.31
394.556	489.31
394.78	479.31
395.005	505.31
395.229	517.31
395.454	522.31
395.678	523.31
395.903	520.31
396.127	525.31
396.352	546.31
396.576	531.31
396.801	489.31
397.025	501.31
397.249	514.31
397.474	529.31
397.698	520.31
397.922	519.31
398.147	552.31
398.371	540.31
398.595	549.31
398.82	536.31
399.044	589.31
399.268	570.31
399.492	644.31
399.717	696.31
399.941	708.31
400.165	712.31
400.389	712.31
400.613	622.31
400.837	619.31
401.062	579.31
401.286	568.31
401.51	557.31
401.734	553.31
401.958	553.31
402.182	574.31
402.406	563.31
402.63	586.31
402.854	584.31
403.078	580.31
403.302	578.31
403.526	595.31
403.75	587.31
403.974	574.31
404.198	582.31
404.422	591.31
404.645	608.31
404.869	594.31
405.093	643.31
405.317	682.31
405.541	698.31
405.765	646.31
405.988	601.31
406.212	631.31
406.436	643.31
406.66	653.31
406.883	652.31
407.107	649.31
407.331	716.31
407.555	765.31
407.778	766.31
408.002	726.31
408.226	658.31
408.449	675.31
408.673	658.31
408.896	683.31
409.12	710.31
409.344	683.31
409.567	616.31
409.791	609.31
410.014	592.31
410.238	586.31
410.461	598.31
410.685	601.31
410.908	618.31
411.132	650.31
411.355	700.31
411.578	639.31
411.802	606.31
412.025	594.31
412.249	586.31
412.472	634.31
412.695	660.31
412.919	640.31
413.142	589.31
413.365	582.31
413.589	575.31
413.812	580.31
414.035	560.31
414.258	572.31
414.482	582.31
414.705	556.31
414.928	566.31
415.151	546.31
415.374	576.31
415.597	530.31
415.821	552.31
416.044	581.31
416.267	568.31
416.49	542.31
416.713	555.31
416.936	538.31
417.159	572.31
417.382	565.31
417.605	578.31
417.828	589.31
418.051	575.31
418.274	586.31
418.497	562.31
418.72	562.31
418.943	574.31
419.166	583.31
419.389	622.31
419.611	618.31
419.834	596.31
420.057	603.31
420.28	596.31
420.503	582.31
420.726	601.31
420.948	590.31
421.171	645.31
421.394	665.31
421.617	614.31
421.839	560.31
422.062	572.31
422.285	598.31
422.507	691.31
422.73	737.31
422.953	710.31
423.175	620.31
423.398	609.31
423.621	617.31
423.843	615.31
424.066	616.31
424.288	610.31
424.511	632.31
424.733	675.31
424.956	779.31
425.178	747.31
425.401	749.31
425.623	755.31
425.846	656.31
426.068	610.31
426.291	627.31
426.513	610.31
426.735	623.31
426.958	666.31
427.18	749.31
427.402	891.31
427.625	944.31
427.847	824.31
428.069	740.31
428.292	665.31
428.514	603.31
428.736	568.31
428.958	572.31
429.181	579.31
429.403	567.31
429.625	568.31
429.847	592.31
430.069	694.31
430.292	668.31
430.514	589.31
430.736	560.31
430.958	550.31
431.18	558.31
431.402	547.31
431.624	538.31
431.846	520.31
432.068	511.31
432.29	545.31
432.512	541.31
432.734	539.31
432.956	542.31
433.178	554.31
433.4	557.31
433.622	556.31
433.844	551.31
434.066	545.31
434.287	546.31
434.509	532.31
434.731	547.31
434.953	565.31
435.175	573.31
435.397	597.31
435.618	625.31
435.84	646.31
436.062	733.31
436.284	816.31
436.505	660.31
436.727	619.31
436.949	581.31
437.17	571.31
437.392	571.31
437.614	586.31
437.835	601.31
438.057	686.31
438.278	805.31
438.5	786.31
438.721	898.31
438.943	827.31
439.165	678.31
439.386	632.31
439.608	644.31
439.829	621.31
440.05	642.31
440.272	673.31
440.493	644.31
440.715	604.31
440.936	586.31
441.158	575.31
441.379	544.31
441.6	583.31
441.822	586.31
442.043	662.31
442.264	731.31
442.486	783.31
442.707	655.31
442.928	640.31
443.149	603.31
443.371	657.31
443.592	729.31
443.813	808.31
444.034	864.31
444.255	729.31
444.476	666.31
444.698	626.31
444.919	654.31
445.14	770.31
445.361	721.31
445.582	624.31
445.803	702.31
446.024	809.31
446.245	826.31
446.466	748.31
446.687	650.31
446.908	602.31
447.129	566.31
447.35	578.31
447.571	564.31
447.792	553.31
448.013	564.31
448.234	576.31
448.455	608.31
448.675	758.31
448.896	872.31
449.117	738.31
449.338	696.31
449.559	816.31
449.779	934.31
450	739.31
450.221	607.31
450.442	564.31
450.662	551.31
450.883	541.31
451.104	541.31
451.324	524.31
451.545	520.31
451.766	536.31
451.986	494.31
452.207	507.31
452.428	518.31
452.648	492.31
452.869	488.31
453.089	500.31
453.31	531.31
453.53	498.31
453.751	501.31
453.971	504.31
454.192	512.31
454.412	498.31
454.633	493.31
454.853	501.31
455.073	499.31
455.294	508.31
455.514	591.31
455.734	581.31
455.955	505.31
456.175	478.31
456.395	509.31
456.616	468.31
456.836	469.31
457.056	469.31
457.276	471.31
457.497	464.31
457.717	489.31
457.937	488.31
458.157	473.31
458.377	491.31
458.598	522.31
458.818	563.31
459.038	625.31
459.258	679.31
459.478	568.31
459.698	548.31
459.918	521.31
460.138	531.31
460.358	551.31
460.578	556.31
460.798	552.31
461.018	560.31
461.238	568.31
461.458	564.31
461.678	549.31
461.898	563.31
462.118	565.31
462.338	585.31
462.558	588.31
462.777	585.31
462.997	612.31
463.217	621.31
463.437	644.31
463.657	614.31
463.876	624.31
464.096	620.31
464.316	601.31
464.536	599.31
464.755	589.31
464.975	587.31
465.195	633.31
465.414	661.31
465.634	611.31
465.854	569.31
466.073	550.31
466.293	545.31
466.512	533.31
466.732	506.31
466.951	500.31
467.171	541.31
467.391	517.31
467.61	540.31
467.829	520.31
468.049	514.31
468.268	533.31
468.488	530.31
468.707	515.31
468.927	526.31
469.146	508.31
469.365	513.31
469.585	505.31
469.804	493.31
470.023	524.31
470.243	524.31
470.462	528.31
470.681	534.31
470.901	547.31
471.12	542.31
471.339	524.31
471.558	525.31
471.777	501.31
471.997	529.31
472.216	529.31
472.435	547.31
472.654	553.31
472.873	544.31
473.092	513.31
473.311	518.31
473.53	525.31
473.749	527.31
473.968	549.31
474.187	641.31
474.406	684.31
474.625	588.31
474.844	526.31
475.063	533.31
475.282	524.31
475.501	521.31
475.72	534.31
475.939	542.31
476.158	529.31
476.377	541.31
476.596	543.31
476.814	563.31
477.033	530.31
477.252	549.31
477.471	541.31
477.69	564.31
477.908	565.31
478.127	586.31
478.346	565.31
478.564	591.31
478.783	595.31
479.002	579.31
479.22	604.31
479.439	606.31
479.658	597.31
479.876	627.31
480.095	628.31
480.313	676.31
480.532	655.31
480.751	652.31
480.969	666.31
481.188	728.31
481.406	741.31
481.624	664.31
481.843	636.31
482.061	610.31
482.28	618.31
482.498	634.31
482.717	612.31
482.935	613.31
483.153	621.31
483.372	597.31
483.59	606.31
483.808	612.31
484.027	605.31
484.245	603.31
484.463	627.31
484.681	617.31
484.9	636.31
485.118	648.31
485.336	646.31
485.554	654.31
485.772	645.31
485.99	648.31
486.209	630.31
486.427	644.31
486.645	643.31
486.863	657.31
487.081	650.31
487.299	654.31
487.517	650.31
487.735	662.31
487.953	660.31
488.171	637.31
488.389	647.31
488.607	652.31
488.825	669.31
489.043	639.31
489.261	666.31
489.479	650.31
489.696	661.31
489.914	668.31
490.132	682.31
490.35	696.31
490.568	680.31
490.786	660.31
491.003	709.31
491.221	728.31
491.439	717.31
491.657	752.31
491.874	750.31
492.092	728.31
492.31	747.31
492.527	766.31
492.745	781.31
492.963	769.31
493.18	771.31
493.398	788.31
493.615	806.31
493.833	774.31
494.05	791.31
494.268	790.31
494.485	738.31
494.703	751.31
494.92	780.31
495.138	802.31
495.355	777.31
495.573	778.31
495.79	770.31
496.008	791.31
496.225	782.31
496.442	792.31
496.66	790.31
496.877	785.31
497.094	782.31
497.312	780.31
497.529	803.31
497.746	807.31
497.963	862.31
498.181	866.31
498.398	886.31
498.615	914.31
498.832	900.31
499.049	946.31
499.267	949.31
499.484	1001.31
499.701	1061.31
499.918	1080.31
500.135	1174.31
500.352	1224.31
500.569	1230.31
500.786	1272.31
501.003	1226.31
501.22	1160.31
501.437	1125.31
501.654	1066.31
