Data from 1975.PennyLincolnUp.Lamp.En5.5.200Scan.071719.P1.Changed Mount._HRD10591_15-57-13-859.txt Node
Date: Thu Jul 18 15:57:13 EDT 2019
User: cochatt
Spectrometer: HR+D1059
Trigger mode: 1
Integration Time (sec): 1.000000E-1
Scans to average: 1
Electric dark correction enabled: true
Nonlinearity correction enabled: false
Boxcar width: 0
XAxis mode: Wavelengths
Number of Pixels in Spectrum: 2048
>>>>>Begin Spectral Data<<<<<
223.165	-4.81
223.4	-4.81
223.635	-4.81
223.869	-17.81
224.104	-17.81
224.338	-8.81
224.573	-14.81
224.808	-5.81
225.042	1.19
225.277	-22.81
225.511	-9.81
225.746	-1.81
225.98	1.19
226.215	22.19
226.449	17.19
226.683	12.19
226.918	18.19
227.152	32.19
227.387	26.19
227.621	38.19
227.856	32.19
228.09	32.19
228.324	56.19
228.559	54.19
228.793	59.19
229.027	102.19
229.262	89.19
229.496	102.19
229.73	125.19
229.964	144.19
230.199	128.19
230.433	106.19
230.667	102.19
230.901	110.19
231.136	115.19
231.37	121.19
231.604	102.19
231.838	115.19
232.072	102.19
232.306	118.19
232.541	115.19
232.775	98.19
233.009	118.19
233.243	110.19
233.477	96.19
233.711	110.19
233.945	112.19
234.179	130.19
234.413	110.19
234.647	108.19
234.881	110.19
235.115	103.19
235.349	124.19
235.583	124.19
235.817	112.19
236.051	124.19
236.285	130.19
236.519	123.19
236.753	132.19
236.987	146.19
237.221	181.19
237.455	218.19
237.689	184.19
237.922	150.19
238.156	145.19
238.39	122.19
238.624	126.19
238.858	119.19
239.091	142.19
239.325	124.19
239.559	141.19
239.793	134.19
240.027	136.19
240.26	148.19
240.494	144.19
240.728	153.19
240.961	145.19
241.195	154.19
241.429	153.19
241.662	154.19
241.896	130.19
242.13	126.19
242.363	126.19
242.597	131.19
242.83	139.19
243.064	134.19
243.298	140.19
243.531	162.19
243.765	152.19
243.998	145.19
244.232	147.19
244.465	142.19
244.699	151.19
244.932	148.19
245.166	161.19
245.399	140.19
245.633	136.19
245.866	136.19
246.099	152.19
246.333	141.19
246.566	150.19
246.8	147.19
247.033	142.19
247.266	164.19
247.5	155.19
247.733	155.19
247.966	164.19
248.2	158.19
248.433	158.19
248.666	162.19
248.899	194.19
249.133	190.19
249.366	192.19
249.599	187.19
249.832	186.19
250.066	177.19
250.299	185.19
250.532	193.19
250.765	204.19
250.998	211.19
251.231	226.19
251.465	213.19
251.698	208.19
251.931	198.19
252.164	202.19
252.397	207.19
252.63	197.19
252.863	206.19
253.096	217.19
253.329	224.19
253.562	246.19
253.795	225.19
254.028	228.19
254.261	223.19
254.494	212.19
254.727	241.19
254.96	268.19
255.193	264.19
255.426	235.19
255.659	227.19
255.892	237.19
256.124	231.19
256.357	234.19
256.59	212.19
256.823	222.19
257.056	217.19
257.289	207.19
257.521	221.19
257.754	212.19
257.987	203.19
258.22	195.19
258.452	204.19
258.685	214.19
258.918	206.19
259.151	214.19
259.383	226.19
259.616	235.19
259.849	223.19
260.081	231.19
260.314	243.19
260.547	268.19
260.779	257.19
261.012	246.19
261.244	224.19
261.477	222.19
261.71	222.19
261.942	235.19
262.175	236.19
262.407	236.19
262.64	221.19
262.872	228.19
263.105	208.19
263.337	216.19
263.57	210.19
263.802	222.19
264.035	202.19
264.267	219.19
264.499	227.19
264.732	217.19
264.964	210.19
265.197	226.19
265.429	215.19
265.661	224.19
265.894	226.19
266.126	235.19
266.358	215.19
266.591	229.19
266.823	240.19
267.055	228.19
267.287	231.19
267.52	246.19
267.752	234.19
267.984	214.19
268.216	232.19
268.448	246.19
268.681	238.19
268.913	258.19
269.145	246.19
269.377	277.19
269.609	269.19
269.841	283.19
270.073	273.19
270.306	282.19
270.538	310.19
270.77	320.19
271.002	322.19
271.234	284.19
271.466	309.19
271.698	304.19
271.93	320.19
272.162	307.19
272.394	309.19
272.626	297.19
272.858	284.19
273.09	284.19
273.322	265.19
273.553	285.19
273.785	279.19
274.017	251.19
274.249	274.19
274.481	282.19
274.713	280.19
274.945	273.19
275.176	264.19
275.408	266.19
275.64	270.19
275.872	275.19
276.104	286.19
276.335	285.19
276.567	282.19
276.799	291.19
277.031	301.19
277.262	321.19
277.494	318.19
277.726	307.19
277.957	290.19
278.189	290.19
278.421	277.19
278.652	266.19
278.884	281.19
279.115	271.19
279.347	271.19
279.579	277.19
279.81	261.19
280.042	265.19
280.273	275.19
280.505	288.19
280.736	265.19
280.968	279.19
281.199	275.19
281.431	266.19
281.662	274.19
281.894	274.19
282.125	265.19
282.356	299.19
282.588	305.19
282.819	306.19
283.051	295.19
283.282	286.19
283.513	283.19
283.745	278.19
283.976	303.19
284.207	308.19
284.439	299.19
284.67	302.19
284.901	297.19
285.132	301.19
285.364	289.19
285.595	306.19
285.826	276.19
286.057	284.19
286.288	296.19
286.52	283.19
286.751	287.19
286.982	311.19
287.213	311.19
287.444	309.19
287.675	307.19
287.906	305.19
288.138	300.19
288.369	314.19
288.6	313.19
288.831	304.19
289.062	320.19
289.293	321.19
289.524	291.19
289.755	297.19
289.986	310.19
290.217	292.19
290.448	278.19
290.679	313.19
290.91	309.19
291.141	313.19
291.371	320.19
291.602	318.19
291.833	320.19
292.064	295.19
292.295	279.19
292.526	292.19
292.757	309.19
292.987	314.19
293.218	297.19
293.449	320.19
293.68	323.19
293.91	326.19
294.141	322.19
294.372	319.19
294.603	306.19
294.833	321.19
295.064	326.19
295.295	320.19
295.525	314.19
295.756	322.19
295.987	324.19
296.217	315.19
296.448	355.19
296.679	332.19
296.909	310.19
297.14	318.19
297.37	310.19
297.601	314.19
297.831	324.19
298.062	308.19
298.292	322.19
298.523	320.19
298.753	316.19
298.984	300.19
299.214	308.19
299.445	327.19
299.675	331.19
299.905	339.19
300.136	333.19
300.366	346.19
300.597	313.19
300.827	355.19
301.057	332.19
301.288	338.19
301.518	339.19
301.748	344.19
301.979	345.19
302.209	340.19
302.439	347.19
302.669	329.19
302.9	331.19
303.13	346.19
303.36	343.19
303.59	350.19
303.82	368.19
304.051	356.19
304.281	335.19
304.511	361.19
304.741	330.19
304.971	329.19
305.201	332.19
305.431	314.19
305.661	323.19
305.891	336.19
306.121	340.19
306.352	339.19
306.582	361.19
306.812	353.19
307.042	340.19
307.272	329.19
307.502	342.19
307.731	352.19
307.961	333.19
308.191	343.19
308.421	348.19
308.651	348.19
308.881	338.19
309.111	345.19
309.341	339.19
309.571	347.19
309.8	359.19
310.03	376.19
310.26	394.19
310.49	375.19
310.72	372.19
310.949	374.19
311.179	401.19
311.409	368.19
311.639	379.19
311.868	393.19
312.098	376.19
312.328	369.19
312.557	391.19
312.787	406.19
313.017	391.19
313.246	387.19
313.476	390.19
313.706	378.19
313.935	398.19
314.165	419.19
314.394	406.19
314.624	391.19
314.853	414.19
315.083	390.19
315.312	383.19
315.542	385.19
315.771	406.19
316.001	398.19
316.23	379.19
316.46	388.19
316.689	396.19
316.919	369.19
317.148	394.19
317.377	392.19
317.607	402.19
317.836	382.19
318.065	378.19
318.295	354.19
318.524	394.19
318.753	398.19
318.983	394.19
319.212	401.19
319.441	407.19
319.67	387.19
319.9	386.19
320.129	389.19
320.358	390.19
320.587	390.19
320.816	386.19
321.046	389.19
321.275	394.19
321.504	414.19
321.733	407.19
321.962	401.19
322.191	409.19
322.42	421.19
322.649	415.19
322.878	431.19
323.108	456.19
323.337	461.19
323.566	484.19
323.795	497.19
324.024	513.19
324.253	600.19
324.482	844.19
324.71	1264.19
324.939	1906.19
325.168	1680.19
325.397	871.19
325.626	583.19
325.855	515.19
326.084	479.19
326.313	482.19
326.542	472.19
326.77	516.19
326.999	605.19
327.228	754.19
327.457	1176.19
327.686	1450.19
327.914	962.19
328.143	643.19
328.372	587.19
328.6	536.19
328.829	531.19
329.058	514.19
329.287	548.19
329.515	527.19
329.744	499.19
329.972	498.19
330.201	518.19
330.43	559.19
330.658	558.19
330.887	580.19
331.115	562.19
331.344	514.19
331.572	478.19
331.801	483.19
332.03	497.19
332.258	470.19
332.486	478.19
332.715	488.19
332.943	482.19
333.172	461.19
333.4	472.19
333.629	495.19
333.857	509.19
334.085	524.19
334.314	532.19
334.542	555.19
334.771	560.19
334.999	516.19
335.227	508.19
335.455	494.19
335.684	480.19
335.912	474.19
336.14	459.19
336.369	461.19
336.597	470.19
336.825	468.19
337.053	443.19
337.281	447.19
337.51	455.19
337.738	458.19
337.966	451.19
338.194	434.19
338.422	448.19
338.65	448.19
338.878	454.19
339.106	467.19
339.334	446.19
339.562	467.19
339.79	462.19
340.018	427.19
340.246	453.19
340.474	445.19
340.702	449.19
340.93	444.19
341.158	417.19
341.386	436.19
341.614	456.19
341.842	470.19
342.07	432.19
342.298	425.19
342.526	427.19
342.754	426.19
342.981	415.19
343.209	430.19
343.437	450.19
343.665	425.19
343.893	464.19
344.12	463.19
344.348	450.19
344.576	449.19
344.804	459.19
345.031	470.19
345.259	474.19
345.487	447.19
345.714	444.19
345.942	425.19
346.17	427.19
346.397	448.19
346.625	432.19
346.853	431.19
347.08	424.19
347.308	435.19
347.535	431.19
347.763	442.19
347.99	427.19
348.218	473.19
348.445	436.19
348.673	442.19
348.9	428.19
349.128	431.19
349.355	433.19
349.583	449.19
349.81	434.19
350.037	434.19
350.265	441.19
350.492	395.19
350.72	435.19
350.947	432.19
351.174	431.19
351.402	429.19
351.629	419.19
351.856	416.19
352.083	435.19
352.311	444.19
352.538	440.19
352.765	427.19
352.992	435.19
353.22	428.19
353.447	422.19
353.674	403.19
353.901	420.19
354.128	414.19
354.355	392.19
354.583	423.19
354.81	401.19
355.037	416.19
355.264	411.19
355.491	406.19
355.718	414.19
355.945	410.19
356.172	409.19
356.399	389.19
356.626	412.19
356.853	416.19
357.08	399.19
357.307	384.19
357.534	434.19
357.761	404.19
357.988	408.19
358.215	428.19
358.441	400.19
358.668	403.19
358.895	412.19
359.122	399.19
359.349	416.19
359.576	420.19
359.802	436.19
360.029	472.19
360.256	478.19
360.483	448.19
360.709	442.19
360.936	430.19
361.163	422.19
361.39	420.19
361.616	440.19
361.843	434.19
362.07	445.19
362.296	424.19
362.523	424.19
362.749	422.19
362.976	418.19
363.203	425.19
363.429	422.19
363.656	439.19
363.882	409.19
364.109	405.19
364.335	420.19
364.562	416.19
364.788	435.19
365.015	432.19
365.241	444.19
365.468	406.19
365.694	408.19
365.92	448.19
366.147	424.19
366.373	409.19
366.599	415.19
366.826	406.19
367.052	433.19
367.278	390.19
367.505	418.19
367.731	434.19
367.957	420.19
368.184	440.19
368.41	428.19
368.636	422.19
368.862	449.19
369.089	442.19
369.315	416.19
369.541	453.19
369.767	434.19
369.993	420.19
370.219	405.19
370.445	424.19
370.672	414.19
370.898	419.19
371.124	419.19
371.35	416.19
371.576	424.19
371.802	427.19
372.028	407.19
372.254	432.19
372.48	425.19
372.706	416.19
372.932	425.19
373.158	434.19
373.384	429.19
373.61	424.19
373.835	424.19
374.061	435.19
374.287	420.19
374.513	428.19
374.739	433.19
374.965	440.19
375.191	432.19
375.416	450.19
375.642	421.19
375.868	432.19
376.094	429.19
376.319	425.19
376.545	427.19
376.771	452.19
376.997	419.19
377.222	407.19
377.448	437.19
377.674	418.19
377.899	425.19
378.125	424.19
378.35	424.19
378.576	436.19
378.802	420.19
379.027	421.19
379.253	426.19
379.478	420.19
379.704	429.19
379.929	415.19
380.155	427.19
380.38	425.19
380.606	424.19
380.831	413.19
381.057	442.19
381.282	432.19
381.507	421.19
381.733	428.19
381.958	430.19
382.184	431.19
382.409	418.19
382.634	424.19
382.86	458.19
383.085	439.19
383.31	435.19
383.535	426.19
383.761	442.19
383.986	454.19
384.211	454.19
384.436	448.19
384.662	470.19
384.887	464.19
385.112	456.19
385.337	480.19
385.562	476.19
385.787	482.19
386.013	472.19
386.238	481.19
386.463	494.19
386.688	487.19
386.913	478.19
387.138	466.19
387.363	480.19
387.588	473.19
387.813	460.19
388.038	479.19
388.263	481.19
388.488	474.19
388.713	471.19
388.938	482.19
389.163	457.19
389.387	490.19
389.612	479.19
389.837	465.19
390.062	472.19
390.287	477.19
390.512	497.19
390.736	487.19
390.961	483.19
391.186	494.19
391.411	480.19
391.636	486.19
391.86	513.19
392.085	496.19
392.31	500.19
392.534	502.19
392.759	513.19
392.984	478.19
393.208	475.19
393.433	462.19
393.658	473.19
393.882	480.19
394.107	485.19
394.331	490.19
394.556	483.19
394.78	497.19
395.005	481.19
395.229	475.19
395.454	497.19
395.678	500.19
395.903	520.19
396.127	544.19
396.352	528.19
396.576	516.19
396.801	489.19
397.025	512.19
397.249	500.19
397.474	524.19
397.698	530.19
397.922	531.19
398.147	532.19
398.371	543.19
398.595	526.19
398.82	558.19
399.044	576.19
399.268	604.19
399.492	633.19
399.717	670.19
399.941	721.19
400.165	720.19
400.389	705.19
400.613	635.19
400.837	603.19
401.062	574.19
401.286	594.19
401.51	552.19
401.734	554.19
401.958	547.19
402.182	553.19
402.406	571.19
402.63	563.19
402.854	559.19
403.078	570.19
403.302	575.19
403.526	608.19
403.75	601.19
403.974	563.19
404.198	596.19
404.422	594.19
404.645	597.19
404.869	592.19
405.093	645.19
405.317	662.19
405.541	718.19
405.765	638.19
405.988	649.19
406.212	628.19
406.436	653.19
406.66	634.19
406.883	633.19
407.107	654.19
407.331	711.19
407.555	754.19
407.778	774.19
408.002	724.19
408.226	626.19
408.449	652.19
408.673	660.19
408.896	682.19
409.12	711.19
409.344	667.19
409.567	615.19
409.791	617.19
410.014	585.19
410.238	572.19
410.461	594.19
410.685	595.19
410.908	625.19
411.132	633.19
411.355	659.19
411.578	626.19
411.802	602.19
412.025	590.19
412.249	590.19
412.472	628.19
412.695	661.19
412.919	651.19
413.142	606.19
413.365	558.19
413.589	579.19
413.812	546.19
414.035	553.19
414.258	575.19
414.482	562.19
414.705	560.19
414.928	541.19
415.151	565.19
415.374	568.19
415.597	564.19
415.821	529.19
416.044	555.19
416.267	541.19
416.49	534.19
416.713	537.19
416.936	559.19
417.159	534.19
417.382	553.19
417.605	554.19
417.828	565.19
418.051	559.19
418.274	580.19
418.497	561.19
418.72	542.19
418.943	546.19
419.166	592.19
419.389	626.19
419.611	600.19
419.834	580.19
420.057	612.19
420.28	596.19
420.503	593.19
420.726	575.19
420.948	584.19
421.171	639.19
421.394	665.19
421.617	598.19
421.839	592.19
422.062	557.19
422.285	566.19
422.507	632.19
422.73	727.19
422.953	663.19
423.175	627.19
423.398	623.19
423.621	609.19
423.843	612.19
424.066	640.19
424.288	595.19
424.511	610.19
424.733	691.19
424.956	765.19
425.178	745.19
425.401	727.19
425.623	756.19
425.846	662.19
426.068	591.19
426.291	604.19
426.513	629.19
426.735	622.19
426.958	655.19
427.18	732.19
427.402	844.19
427.625	919.19
427.847	808.19
428.069	710.19
428.292	632.19
428.514	600.19
428.736	569.19
428.958	572.19
429.181	546.19
429.403	559.19
429.625	570.19
429.847	612.19
430.069	675.19
430.292	656.19
430.514	583.19
430.736	571.19
430.958	551.19
431.18	571.19
431.402	532.19
431.624	526.19
431.846	532.19
432.068	502.19
432.29	547.19
432.512	542.19
432.734	539.19
432.956	532.19
433.178	542.19
433.4	524.19
433.622	540.19
433.844	533.19
434.066	513.19
434.287	543.19
434.509	555.19
434.731	575.19
434.953	544.19
435.175	578.19
435.397	623.19
435.618	615.19
435.84	636.19
436.062	750.19
436.284	808.19
436.505	635.19
436.727	614.19
436.949	600.19
437.17	555.19
437.392	575.19
437.614	564.19
437.835	586.19
438.057	669.19
438.278	796.19
438.5	786.19
438.721	889.19
438.943	830.19
439.165	656.19
439.386	597.19
439.608	619.19
439.829	609.19
440.05	618.19
440.272	661.19
440.493	611.19
440.715	576.19
440.936	574.19
441.158	552.19
441.379	562.19
441.6	588.19
441.822	598.19
442.043	644.19
442.264	742.19
442.486	756.19
442.707	688.19
442.928	608.19
443.149	623.19
443.371	648.19
443.592	714.19
443.813	788.19
444.034	870.19
444.255	715.19
444.476	641.19
444.698	622.19
444.919	627.19
445.14	746.19
445.361	681.19
445.582	650.19
445.803	699.19
446.024	802.19
446.245	840.19
446.466	758.19
446.687	636.19
446.908	603.19
447.129	558.19
447.35	559.19
447.571	552.19
447.792	536.19
448.013	542.19
448.234	545.19
448.455	634.19
448.675	736.19
448.896	844.19
449.117	711.19
449.338	663.19
449.559	807.19
449.779	896.19
450	711.19
450.221	594.19
450.442	558.19
450.662	537.19
450.883	534.19
451.104	544.19
451.324	543.19
451.545	514.19
451.766	505.19
451.986	477.19
452.207	507.19
452.428	486.19
452.648	489.19
452.869	470.19
453.089	503.19
453.31	504.19
453.53	484.19
453.751	494.19
453.971	481.19
454.192	500.19
454.412	507.19
454.633	481.19
454.853	482.19
455.073	480.19
455.294	505.19
455.514	568.19
455.734	572.19
455.955	496.19
456.175	478.19
456.395	451.19
456.616	470.19
456.836	465.19
457.056	462.19
457.276	460.19
457.497	471.19
457.717	470.19
457.937	448.19
458.157	465.19
458.377	477.19
458.598	491.19
458.818	540.19
459.038	609.19
459.258	627.19
459.478	572.19
459.698	544.19
459.918	510.19
460.138	533.19
460.358	537.19
460.578	544.19
460.798	545.19
461.018	591.19
461.238	567.19
461.458	545.19
461.678	528.19
461.898	556.19
462.118	563.19
462.338	558.19
462.558	562.19
462.777	588.19
462.997	610.19
463.217	615.19
463.437	631.19
463.657	610.19
463.876	625.19
464.096	589.19
464.316	602.19
464.536	614.19
464.755	605.19
464.975	607.19
465.195	594.19
465.414	669.19
465.634	595.19
465.854	561.19
466.073	539.19
466.293	527.19
466.512	512.19
466.732	507.19
466.951	513.19
467.171	498.19
467.391	510.19
467.61	501.19
467.829	503.19
468.049	527.19
468.268	518.19
468.488	494.19
468.707	523.19
468.927	489.19
469.146	479.19
469.365	486.19
469.585	516.19
469.804	512.19
470.023	537.19
470.243	508.19
470.462	515.19
470.681	530.19
470.901	550.19
471.12	513.19
471.339	547.19
471.558	525.19
471.777	526.19
471.997	515.19
472.216	525.19
472.435	540.19
472.654	544.19
472.873	508.19
473.092	500.19
473.311	507.19
473.53	511.19
473.749	520.19
473.968	544.19
474.187	667.19
474.406	679.19
474.625	569.19
474.844	556.19
475.063	545.19
475.282	514.19
475.501	534.19
475.72	534.19
475.939	522.19
476.158	544.19
476.377	536.19
476.596	537.19
476.814	526.19
477.033	532.19
477.252	527.19
477.471	558.19
477.69	575.19
477.908	561.19
478.127	568.19
478.346	578.19
478.564	566.19
478.783	572.19
479.002	600.19
479.22	596.19
479.439	609.19
479.658	608.19
479.876	639.19
480.095	615.19
480.313	655.19
480.532	648.19
480.751	656.19
480.969	659.19
481.188	678.19
481.406	737.19
481.624	664.19
481.843	610.19
482.061	624.19
482.28	618.19
482.498	619.19
482.717	595.19
482.935	621.19
483.153	582.19
483.372	592.19
483.59	593.19
483.808	577.19
484.027	602.19
484.245	619.19
484.463	597.19
484.681	613.19
484.9	598.19
485.118	595.19
485.336	612.19
485.554	611.19
485.772	613.19
485.99	624.19
486.209	646.19
486.427	638.19
486.645	635.19
486.863	644.19
487.081	666.19
487.299	644.19
487.517	625.19
487.735	632.19
487.953	639.19
488.171	652.19
488.389	656.19
488.607	649.19
488.825	662.19
489.043	650.19
489.261	642.19
489.479	650.19
489.696	661.19
489.914	679.19
490.132	696.19
490.35	675.19
490.568	692.19
490.786	688.19
491.003	691.19
491.221	726.19
491.439	727.19
491.657	737.19
491.874	737.19
492.092	740.19
492.31	745.19
492.527	750.19
492.745	752.19
492.963	751.19
493.18	782.19
493.398	771.19
493.615	747.19
493.833	760.19
494.05	770.19
494.268	771.19
494.485	805.19
494.703	764.19
494.92	775.19
495.138	761.19
495.355	757.19
495.573	777.19
495.79	770.19
496.008	755.19
496.225	789.19
496.442	795.19
496.66	804.19
496.877	771.19
497.094	794.19
497.312	784.19
497.529	804.19
497.746	829.19
497.963	797.19
498.181	829.19
498.398	856.19
498.615	886.19
498.832	921.19
499.049	907.19
499.267	956.19
499.484	986.19
499.701	1036.19
499.918	1086.19
500.135	1143.19
500.352	1222.19
500.569	1230.19
500.786	1247.19
501.003	1198.19
501.22	1184.19
501.437	1136.19
501.654	1084.19
