Data from 1975.PennyLincolnUp.Lamp.En5.5.200Scan.071719.P1.Changed Mount._HRD10591_15-56-04-858.txt Node
Date: Thu Jul 18 15:56:04 EDT 2019
User: cochatt
Spectrometer: HR+D1059
Trigger mode: 1
Integration Time (sec): 1.000000E-1
Scans to average: 1
Electric dark correction enabled: true
Nonlinearity correction enabled: false
Boxcar width: 0
XAxis mode: Wavelengths
Number of Pixels in Spectrum: 2048
>>>>>Begin Spectral Data<<<<<
223.165	-10.94
223.4	-10.94
223.635	-10.94
223.869	-13.94
224.104	-16.94
224.338	-18.94
224.573	-14.94
224.808	-11.94
225.042	9.06
225.277	-4.94
225.511	-17.94
225.746	7.06
225.98	4.06
226.215	10.06
226.449	19.06
226.683	25.06
226.918	11.06
227.152	25.06
227.387	25.06
227.621	43.06
227.856	35.06
228.09	35.06
228.324	47.06
228.559	48.06
228.793	65.06
229.027	80.06
229.262	105.06
229.496	102.06
229.73	134.06
229.964	149.06
230.199	116.06
230.433	86.06
230.667	109.06
230.901	111.06
231.136	116.06
231.37	114.06
231.604	102.06
231.838	120.06
232.072	111.06
232.306	106.06
232.541	105.06
232.775	110.06
233.009	119.06
233.243	114.06
233.477	102.06
233.711	105.06
233.945	120.06
234.179	118.06
234.413	126.06
234.647	115.06
234.881	127.06
235.115	131.06
235.349	116.06
235.583	111.06
235.817	118.06
236.051	109.06
236.285	121.06
236.519	121.06
236.753	123.06
236.987	105.06
237.221	163.06
237.455	224.06
237.689	161.06
237.922	141.06
238.156	127.06
238.39	125.06
238.624	122.06
238.858	119.06
239.091	121.06
239.325	127.06
239.559	129.06
239.793	129.06
240.027	133.06
240.26	126.06
240.494	141.06
240.728	145.06
240.961	147.06
241.195	139.06
241.429	151.06
241.662	121.06
241.896	134.06
242.13	113.06
242.363	122.06
242.597	117.06
242.83	131.06
243.064	136.06
243.298	128.06
243.531	130.06
243.765	145.06
243.998	152.06
244.232	130.06
244.465	140.06
244.699	137.06
244.932	149.06
245.166	145.06
245.399	139.06
245.633	144.06
245.866	159.06
246.099	131.06
246.333	155.06
246.566	153.06
246.8	149.06
247.033	136.06
247.266	150.06
247.5	157.06
247.733	158.06
247.966	159.06
248.2	164.06
248.433	176.06
248.666	161.06
248.899	174.06
249.133	182.06
249.366	193.06
249.599	177.06
249.832	182.06
250.066	165.06
250.299	178.06
250.532	181.06
250.765	189.06
250.998	221.06
251.231	211.06
251.465	210.06
251.698	197.06
251.931	196.06
252.164	181.06
252.397	189.06
252.63	191.06
252.863	196.06
253.096	202.06
253.329	209.06
253.562	221.06
253.795	208.06
254.028	216.06
254.261	209.06
254.494	223.06
254.727	232.06
254.96	242.06
255.193	255.06
255.426	252.06
255.659	221.06
255.892	223.06
256.124	212.06
256.357	211.06
256.59	222.06
256.823	229.06
257.056	198.06
257.289	195.06
257.521	196.06
257.754	191.06
257.987	214.06
258.22	203.06
258.452	193.06
258.685	190.06
258.918	199.06
259.151	206.06
259.383	203.06
259.616	227.06
259.849	197.06
260.081	219.06
260.314	231.06
260.547	233.06
260.779	235.06
261.012	239.06
261.244	225.06
261.477	223.06
261.71	210.06
261.942	219.06
262.175	216.06
262.407	206.06
262.64	214.06
262.872	211.06
263.105	200.06
263.337	205.06
263.57	198.06
263.802	181.06
264.035	200.06
264.267	207.06
264.499	200.06
264.732	208.06
264.964	205.06
265.197	211.06
265.429	214.06
265.661	197.06
265.894	212.06
266.126	213.06
266.358	222.06
266.591	222.06
266.823	218.06
267.055	215.06
267.287	220.06
267.52	211.06
267.752	195.06
267.984	228.06
268.216	220.06
268.448	210.06
268.681	223.06
268.913	235.06
269.145	246.06
269.377	282.06
269.609	250.06
269.841	269.06
270.073	238.06
270.306	275.06
270.538	296.06
270.77	296.06
271.002	285.06
271.234	265.06
271.466	293.06
271.698	273.06
271.93	285.06
272.162	285.06
272.394	274.06
272.626	267.06
272.858	277.06
273.09	268.06
273.322	255.06
273.553	258.06
273.785	249.06
274.017	257.06
274.249	240.06
274.481	251.06
274.713	258.06
274.945	248.06
275.176	254.06
275.408	245.06
275.64	263.06
275.872	266.06
276.104	252.06
276.335	246.06
276.567	267.06
276.799	261.06
277.031	281.06
277.262	303.06
277.494	307.06
277.726	295.06
277.957	275.06
278.189	267.06
278.421	260.06
278.652	255.06
278.884	263.06
279.115	267.06
279.347	257.06
279.579	277.06
279.81	258.06
280.042	269.06
280.273	277.06
280.505	267.06
280.736	270.06
280.968	250.06
281.199	264.06
281.431	267.06
281.662	243.06
281.894	272.06
282.125	279.06
282.356	276.06
282.588	295.06
282.819	290.06
283.051	280.06
283.282	270.06
283.513	279.06
283.745	266.06
283.976	279.06
284.207	286.06
284.439	270.06
284.67	276.06
284.901	286.06
285.132	259.06
285.364	276.06
285.595	259.06
285.826	279.06
286.057	278.06
286.288	281.06
286.52	268.06
286.751	268.06
286.982	278.06
287.213	287.06
287.444	292.06
287.675	283.06
287.906	296.06
288.138	288.06
288.369	306.06
288.6	309.06
288.831	309.06
289.062	313.06
289.293	285.06
289.524	288.06
289.755	285.06
289.986	299.06
290.217	286.06
290.448	291.06
290.679	292.06
290.91	288.06
291.141	295.06
291.371	276.06
291.602	289.06
291.833	287.06
292.064	288.06
292.295	281.06
292.526	275.06
292.757	274.06
292.987	292.06
293.218	281.06
293.449	287.06
293.68	281.06
293.91	290.06
294.141	289.06
294.372	274.06
294.603	273.06
294.833	276.06
295.064	276.06
295.295	279.06
295.525	288.06
295.756	287.06
295.987	295.06
296.217	319.06
296.448	319.06
296.679	325.06
296.909	290.06
297.14	305.06
297.37	303.06
297.601	297.06
297.831	297.06
298.062	305.06
298.292	313.06
298.523	306.06
298.753	297.06
298.984	301.06
299.214	288.06
299.445	317.06
299.675	321.06
299.905	320.06
300.136	319.06
300.366	307.06
300.597	309.06
300.827	316.06
301.057	327.06
301.288	321.06
301.518	317.06
301.748	313.06
301.979	338.06
302.209	330.06
302.439	321.06
302.669	313.06
302.9	317.06
303.13	326.06
303.36	322.06
303.59	335.06
303.82	315.06
304.051	319.06
304.281	325.06
304.511	327.06
304.741	321.06
304.971	305.06
305.201	307.06
305.431	328.06
305.661	325.06
305.891	318.06
306.121	295.06
306.352	319.06
306.582	333.06
306.812	316.06
307.042	337.06
307.272	329.06
307.502	329.06
307.731	325.06
307.961	331.06
308.191	349.06
308.421	312.06
308.651	350.06
308.881	311.06
309.111	339.06
309.341	329.06
309.571	335.06
309.8	345.06
310.03	344.06
310.26	343.06
310.49	345.06
310.72	357.06
310.949	374.06
311.179	377.06
311.409	346.06
311.639	362.06
311.868	345.06
312.098	343.06
312.328	350.06
312.557	382.06
312.787	379.06
313.017	373.06
313.246	369.06
313.476	331.06
313.706	346.06
313.935	384.06
314.165	377.06
314.394	380.06
314.624	358.06
314.853	358.06
315.083	364.06
315.312	359.06
315.542	356.06
315.771	357.06
316.001	367.06
316.23	360.06
316.46	351.06
316.689	362.06
316.919	375.06
317.148	372.06
317.377	356.06
317.607	377.06
317.836	379.06
318.065	366.06
318.295	371.06
318.524	359.06
318.753	368.06
318.983	356.06
319.212	375.06
319.441	361.06
319.67	370.06
319.9	359.06
320.129	372.06
320.358	377.06
320.587	376.06
320.816	379.06
321.046	377.06
321.275	361.06
321.504	373.06
321.733	377.06
321.962	386.06
322.191	389.06
322.42	388.06
322.649	401.06
322.878	393.06
323.108	393.06
323.337	443.06
323.566	465.06
323.795	459.06
324.024	453.06
324.253	530.06
324.482	731.06
324.71	1080.06
324.939	1629.06
325.168	1387.06
325.397	744.06
325.626	545.06
325.855	460.06
326.084	441.06
326.313	447.06
326.542	441.06
326.77	471.06
326.999	515.06
327.228	667.06
327.457	1005.06
327.686	1248.06
327.914	819.06
328.143	577.06
328.372	533.06
328.6	502.06
328.829	486.06
329.058	473.06
329.287	477.06
329.515	465.06
329.744	454.06
329.972	453.06
330.201	477.06
330.43	481.06
330.658	511.06
330.887	516.06
331.115	516.06
331.344	459.06
331.572	425.06
331.801	431.06
332.03	445.06
332.258	452.06
332.486	418.06
332.715	445.06
332.943	443.06
333.172	447.06
333.4	445.06
333.629	439.06
333.857	484.06
334.085	483.06
334.314	466.06
334.542	515.06
334.771	498.06
334.999	481.06
335.227	458.06
335.455	419.06
335.684	437.06
335.912	440.06
336.14	446.06
336.369	446.06
336.597	441.06
336.825	440.06
337.053	434.06
337.281	418.06
337.51	410.06
337.738	425.06
337.966	422.06
338.194	418.06
338.422	434.06
338.65	433.06
338.878	427.06
339.106	403.06
339.334	439.06
339.562	423.06
339.79	414.06
340.018	418.06
340.246	413.06
340.474	427.06
340.702	390.06
340.93	407.06
341.158	411.06
341.386	431.06
341.614	401.06
341.842	429.06
342.07	407.06
342.298	418.06
342.526	400.06
342.754	405.06
342.981	413.06
343.209	411.06
343.437	407.06
343.665	422.06
343.893	434.06
344.12	448.06
344.348	428.06
344.576	441.06
344.804	434.06
345.031	429.06
345.259	424.06
345.487	423.06
345.714	418.06
345.942	415.06
346.17	418.06
346.397	398.06
346.625	406.06
346.853	403.06
347.08	389.06
347.308	401.06
347.535	417.06
347.763	417.06
347.99	399.06
348.218	404.06
348.445	419.06
348.673	396.06
348.9	407.06
349.128	403.06
349.355	399.06
349.583	394.06
349.81	390.06
350.037	390.06
350.265	386.06
350.492	378.06
350.72	395.06
350.947	402.06
351.174	401.06
351.402	424.06
351.629	403.06
351.856	392.06
352.083	410.06
352.311	423.06
352.538	408.06
352.765	415.06
352.992	408.06
353.22	399.06
353.447	408.06
353.674	399.06
353.901	408.06
354.128	383.06
354.355	384.06
354.583	379.06
354.81	367.06
355.037	382.06
355.264	393.06
355.491	373.06
355.718	379.06
355.945	376.06
356.172	389.06
356.399	385.06
356.626	366.06
356.853	375.06
357.08	366.06
357.307	394.06
357.534	377.06
357.761	381.06
357.988	387.06
358.215	379.06
358.441	370.06
358.668	386.06
358.895	400.06
359.122	396.06
359.349	383.06
359.576	416.06
359.802	412.06
360.029	435.06
360.256	433.06
360.483	417.06
360.709	427.06
360.936	415.06
361.163	410.06
361.39	409.06
361.616	394.06
361.843	404.06
362.07	377.06
362.296	410.06
362.523	403.06
362.749	414.06
362.976	397.06
363.203	390.06
363.429	393.06
363.656	393.06
363.882	386.06
364.109	389.06
364.335	402.06
364.562	397.06
364.788	373.06
365.015	398.06
365.241	395.06
365.468	384.06
365.694	395.06
365.92	400.06
366.147	393.06
366.373	393.06
366.599	370.06
366.826	375.06
367.052	391.06
367.278	383.06
367.505	388.06
367.731	396.06
367.957	391.06
368.184	403.06
368.41	391.06
368.636	420.06
368.862	422.06
369.089	402.06
369.315	406.06
369.541	417.06
369.767	401.06
369.993	422.06
370.219	403.06
370.445	388.06
370.672	389.06
370.898	382.06
371.124	393.06
371.35	394.06
371.576	384.06
371.802	390.06
372.028	395.06
372.254	386.06
372.48	402.06
372.706	387.06
372.932	431.06
373.158	409.06
373.384	405.06
373.61	426.06
373.835	378.06
374.061	409.06
374.287	398.06
374.513	403.06
374.739	403.06
374.965	421.06
375.191	405.06
375.416	434.06
375.642	416.06
375.868	409.06
376.094	408.06
376.319	411.06
376.545	382.06
376.771	408.06
376.997	405.06
377.222	406.06
377.448	413.06
377.674	405.06
377.899	395.06
378.125	401.06
378.35	408.06
378.576	395.06
378.802	391.06
379.027	399.06
379.253	391.06
379.478	389.06
379.704	406.06
379.929	416.06
380.155	395.06
380.38	395.06
380.606	408.06
380.831	399.06
381.057	420.06
381.282	417.06
381.507	421.06
381.733	423.06
381.958	419.06
382.184	400.06
382.409	410.06
382.634	425.06
382.86	419.06
383.085	426.06
383.31	441.06
383.535	429.06
383.761	424.06
383.986	425.06
384.211	442.06
384.436	431.06
384.662	427.06
384.887	439.06
385.112	438.06
385.337	466.06
385.562	445.06
385.787	449.06
386.013	458.06
386.238	459.06
386.463	470.06
386.688	451.06
386.913	441.06
387.138	447.06
387.363	471.06
387.588	449.06
387.813	459.06
388.038	468.06
388.263	479.06
388.488	484.06
388.713	458.06
388.938	478.06
389.163	446.06
389.387	457.06
389.612	455.06
389.837	450.06
390.062	452.06
390.287	471.06
390.512	437.06
390.736	463.06
390.961	465.06
391.186	467.06
391.411	469.06
391.636	445.06
391.86	458.06
392.085	475.06
392.31	477.06
392.534	465.06
392.759	481.06
392.984	460.06
393.208	471.06
393.433	461.06
393.658	471.06
393.882	469.06
394.107	457.06
394.331	463.06
394.556	469.06
394.78	473.06
395.005	456.06
395.229	496.06
395.454	458.06
395.678	490.06
395.903	503.06
396.127	511.06
396.352	521.06
396.576	458.06
396.801	461.06
397.025	465.06
397.249	507.06
397.474	499.06
397.698	509.06
397.922	511.06
398.147	504.06
398.371	497.06
398.595	528.06
398.82	533.06
399.044	543.06
399.268	553.06
399.492	597.06
399.717	648.06
399.941	673.06
400.165	677.06
400.389	670.06
400.613	607.06
400.837	568.06
401.062	534.06
401.286	547.06
401.51	543.06
401.734	508.06
401.958	542.06
402.182	516.06
402.406	541.06
402.63	552.06
402.854	526.06
403.078	542.06
403.302	569.06
403.526	545.06
403.75	570.06
403.974	579.06
404.198	574.06
404.422	560.06
404.645	561.06
404.869	567.06
405.093	598.06
405.317	630.06
405.541	663.06
405.765	606.06
405.988	584.06
406.212	598.06
406.436	609.06
406.66	602.06
406.883	591.06
407.107	611.06
407.331	645.06
407.555	719.06
407.778	733.06
408.002	633.06
408.226	617.06
408.449	615.06
408.673	599.06
408.896	633.06
409.12	677.06
409.344	632.06
409.567	582.06
409.791	567.06
410.014	558.06
410.238	551.06
410.461	536.06
410.685	554.06
410.908	580.06
411.132	609.06
411.355	612.06
411.578	615.06
411.802	550.06
412.025	548.06
412.249	549.06
412.472	603.06
412.695	635.06
412.919	592.06
413.142	565.06
413.365	543.06
413.589	533.06
413.812	538.06
414.035	534.06
414.258	548.06
414.482	518.06
414.705	517.06
414.928	542.06
415.151	532.06
415.374	517.06
415.597	532.06
415.821	517.06
416.044	511.06
416.267	511.06
416.49	515.06
416.713	506.06
416.936	528.06
417.159	518.06
417.382	521.06
417.605	526.06
417.828	517.06
418.051	535.06
418.274	531.06
418.497	524.06
418.72	530.06
418.943	513.06
419.166	582.06
419.389	565.06
419.611	582.06
419.834	537.06
420.057	559.06
420.28	543.06
420.503	563.06
420.726	531.06
420.948	560.06
421.171	597.06
421.394	602.06
421.617	571.06
421.839	532.06
422.062	535.06
422.285	568.06
422.507	608.06
422.73	675.06
422.953	632.06
423.175	582.06
423.398	597.06
423.621	553.06
423.843	595.06
424.066	594.06
424.288	590.06
424.511	598.06
424.733	644.06
424.956	719.06
425.178	678.06
425.401	674.06
425.623	698.06
425.846	592.06
426.068	573.06
426.291	553.06
426.513	557.06
426.735	570.06
426.958	581.06
427.18	655.06
427.402	820.06
427.625	882.06
427.847	754.06
428.069	684.06
428.292	603.06
428.514	563.06
428.736	534.06
428.958	551.06
429.181	530.06
429.403	513.06
429.625	511.06
429.847	550.06
430.069	634.06
430.292	602.06
430.514	556.06
430.736	530.06
430.958	509.06
431.18	522.06
431.402	490.06
431.624	502.06
431.846	510.06
432.068	496.06
432.29	497.06
432.512	508.06
432.734	506.06
432.956	518.06
433.178	526.06
433.4	513.06
433.622	514.06
433.844	520.06
434.066	496.06
434.287	508.06
434.509	529.06
434.731	519.06
434.953	544.06
435.175	541.06
435.397	588.06
435.618	570.06
435.84	578.06
436.062	715.06
436.284	755.06
436.505	633.06
436.727	575.06
436.949	558.06
437.17	538.06
437.392	524.06
437.614	541.06
437.835	562.06
438.057	632.06
438.278	723.06
438.5	741.06
438.721	823.06
438.943	784.06
439.165	636.06
439.386	588.06
439.608	581.06
439.829	562.06
440.05	578.06
440.272	603.06
440.493	593.06
440.715	549.06
440.936	535.06
441.158	528.06
441.379	537.06
441.6	558.06
441.822	569.06
442.043	605.06
442.264	687.06
442.486	729.06
442.707	624.06
442.928	585.06
443.149	565.06
443.371	569.06
443.592	617.06
443.813	711.06
444.034	763.06
444.255	660.06
444.476	592.06
444.698	587.06
444.919	584.06
445.14	671.06
445.361	639.06
445.582	597.06
445.803	649.06
446.024	753.06
446.245	762.06
446.466	688.06
446.687	616.06
446.908	559.06
447.129	552.06
447.35	515.06
447.571	510.06
447.792	499.06
448.013	511.06
448.234	543.06
448.455	582.06
448.675	706.06
448.896	808.06
449.117	669.06
449.338	616.06
449.559	717.06
449.779	850.06
450	663.06
450.221	572.06
450.442	488.06
450.662	507.06
450.883	476.06
451.104	501.06
451.324	511.06
451.545	497.06
451.766	502.06
451.986	482.06
452.207	465.06
452.428	463.06
452.648	471.06
452.869	470.06
453.089	475.06
453.31	472.06
453.53	469.06
453.751	485.06
453.971	465.06
454.192	461.06
454.412	463.06
454.633	448.06
454.853	443.06
455.073	456.06
455.294	489.06
455.514	534.06
455.734	532.06
455.955	471.06
456.175	445.06
456.395	439.06
456.616	454.06
456.836	459.06
457.056	433.06
457.276	443.06
457.497	442.06
457.717	423.06
457.937	451.06
458.157	444.06
458.377	452.06
458.598	485.06
458.818	520.06
459.038	570.06
459.258	574.06
459.478	554.06
459.698	515.06
459.918	510.06
460.138	522.06
460.358	523.06
460.578	527.06
460.798	539.06
461.018	535.06
461.238	541.06
461.458	530.06
461.678	519.06
461.898	506.06
462.118	523.06
462.338	547.06
462.558	554.06
462.777	565.06
462.997	586.06
463.217	589.06
463.437	618.06
463.657	572.06
463.876	548.06
464.096	577.06
464.316	562.06
464.536	592.06
464.755	564.06
464.975	563.06
465.195	585.06
465.414	640.06
465.634	538.06
465.854	537.06
466.073	506.06
466.293	515.06
466.512	490.06
466.732	474.06
466.951	475.06
467.171	479.06
467.391	491.06
467.61	490.06
467.829	489.06
468.049	477.06
468.268	482.06
468.488	495.06
468.707	489.06
468.927	490.06
469.146	459.06
469.365	458.06
469.585	468.06
469.804	482.06
470.023	481.06
470.243	497.06
470.462	487.06
470.681	482.06
470.901	514.06
471.12	488.06
471.339	505.06
471.558	482.06
471.777	493.06
471.997	487.06
472.216	503.06
472.435	493.06
472.654	503.06
472.873	476.06
473.092	467.06
473.311	470.06
473.53	499.06
473.749	497.06
473.968	502.06
474.187	618.06
474.406	623.06
474.625	563.06
474.844	494.06
475.063	473.06
475.282	485.06
475.501	481.06
475.72	487.06
475.939	486.06
476.158	491.06
476.377	529.06
476.596	493.06
476.814	496.06
477.033	509.06
477.252	498.06
477.471	510.06
477.69	514.06
477.908	533.06
478.127	541.06
478.346	550.06
478.564	554.06
478.783	552.06
479.002	550.06
479.22	568.06
479.439	567.06
479.658	600.06
479.876	591.06
480.095	589.06
480.313	623.06
480.532	602.06
480.751	618.06
480.969	596.06
481.188	626.06
481.406	648.06
481.624	624.06
481.843	571.06
482.061	592.06
482.28	575.06
482.498	577.06
482.717	573.06
482.935	565.06
483.153	570.06
483.372	561.06
483.59	593.06
483.808	563.06
484.027	574.06
484.245	577.06
484.463	584.06
484.681	583.06
484.9	586.06
485.118	590.06
485.336	614.06
485.554	569.06
485.772	582.06
485.99	605.06
486.209	589.06
486.427	586.06
486.645	596.06
486.863	602.06
487.081	608.06
487.299	621.06
487.517	599.06
487.735	592.06
487.953	590.06
488.171	614.06
488.389	623.06
488.607	622.06
488.825	599.06
489.043	606.06
489.261	622.06
489.479	642.06
489.696	623.06
489.914	650.06
490.132	634.06
490.35	639.06
490.568	639.06
490.786	653.06
491.003	645.06
491.221	644.06
491.439	676.06
491.657	675.06
491.874	698.06
492.092	712.06
492.31	678.06
492.527	731.06
492.745	719.06
492.963	713.06
493.18	713.06
493.398	717.06
493.615	746.06
493.833	738.06
494.05	722.06
494.268	721.06
494.485	729.06
494.703	730.06
494.92	703.06
495.138	722.06
495.355	716.06
495.573	717.06
495.79	736.06
496.008	751.06
496.225	735.06
496.442	721.06
496.66	739.06
496.877	752.06
497.094	733.06
497.312	757.06
497.529	767.06
497.746	779.06
497.963	777.06
498.181	800.06
498.398	806.06
498.615	854.06
498.832	858.06
499.049	872.06
499.267	915.06
499.484	937.06
499.701	990.06
499.918	1026.06
500.135	1097.06
500.352	1151.06
500.569	1189.06
500.786	1162.06
501.003	1161.06
501.22	1108.06
501.437	1071.06
501.654	1012.06
