Data from 1975.PennyLincolnUp.Lamp.En5.5.200Scan.071719.P1.Changed Mount._HRD10591_15-58-12-859.txt Node
Date: Thu Jul 18 15:58:12 EDT 2019
User: cochatt
Spectrometer: HR+D1059
Trigger mode: 1
Integration Time (sec): 1.000000E-1
Scans to average: 1
Electric dark correction enabled: true
Nonlinearity correction enabled: false
Boxcar width: 0
XAxis mode: Wavelengths
Number of Pixels in Spectrum: 2048
>>>>>Begin Spectral Data<<<<<
223.165	-13.81
223.4	-13.81
223.635	-13.81
223.869	-20.81
224.104	-21.81
224.338	-6.81
224.573	-10.81
224.808	4.19
225.042	2.19
225.277	-21.81
225.511	-18.81
225.746	10.19
225.98	-2.81
226.215	18.19
226.449	15.19
226.683	15.19
226.918	22.19
227.152	30.19
227.387	35.19
227.621	45.19
227.856	43.19
228.09	42.19
228.324	46.19
228.559	64.19
228.793	72.19
229.027	91.19
229.262	103.19
229.496	110.19
229.73	143.19
229.964	163.19
230.199	129.19
230.433	114.19
230.667	124.19
230.901	108.19
231.136	111.19
231.37	121.19
231.604	110.19
231.838	114.19
232.072	124.19
232.306	102.19
232.541	116.19
232.775	134.19
233.009	122.19
233.243	120.19
233.477	116.19
233.711	116.19
233.945	111.19
234.179	134.19
234.413	130.19
234.647	127.19
234.881	127.19
235.115	118.19
235.349	120.19
235.583	127.19
235.817	138.19
236.051	128.19
236.285	148.19
236.519	130.19
236.753	133.19
236.987	134.19
237.221	165.19
237.455	225.19
237.689	191.19
237.922	150.19
238.156	139.19
238.39	139.19
238.624	136.19
238.858	133.19
239.091	138.19
239.325	117.19
239.559	122.19
239.793	114.19
240.027	133.19
240.26	143.19
240.494	160.19
240.728	145.19
240.961	164.19
241.195	154.19
241.429	134.19
241.662	138.19
241.896	130.19
242.13	134.19
242.363	144.19
242.597	146.19
242.83	148.19
243.064	144.19
243.298	140.19
243.531	149.19
243.765	148.19
243.998	151.19
244.232	136.19
244.465	143.19
244.699	154.19
244.932	146.19
245.166	146.19
245.399	153.19
245.633	147.19
245.866	156.19
246.099	166.19
246.333	159.19
246.566	150.19
246.8	160.19
247.033	168.19
247.266	164.19
247.5	171.19
247.733	169.19
247.966	175.19
248.2	181.19
248.433	178.19
248.666	189.19
248.899	175.19
249.133	184.19
249.366	206.19
249.599	207.19
249.832	169.19
250.066	195.19
250.299	191.19
250.532	195.19
250.765	216.19
250.998	222.19
251.231	233.19
251.465	221.19
251.698	226.19
251.931	214.19
252.164	208.19
252.397	211.19
252.63	209.19
252.863	203.19
253.096	220.19
253.329	236.19
253.562	230.19
253.795	217.19
254.028	217.19
254.261	219.19
254.494	244.19
254.727	257.19
254.96	297.19
255.193	279.19
255.426	267.19
255.659	238.19
255.892	232.19
256.124	266.19
256.357	230.19
256.59	238.19
256.823	221.19
257.056	220.19
257.289	223.19
257.521	207.19
257.754	231.19
257.987	208.19
258.22	218.19
258.452	207.19
258.685	202.19
258.918	215.19
259.151	218.19
259.383	238.19
259.616	238.19
259.849	223.19
260.081	231.19
260.314	259.19
260.547	264.19
260.779	258.19
261.012	227.19
261.244	231.19
261.477	238.19
261.71	230.19
261.942	228.19
262.175	236.19
262.407	234.19
262.64	235.19
262.872	226.19
263.105	208.19
263.337	217.19
263.57	205.19
263.802	235.19
264.035	227.19
264.267	225.19
264.499	217.19
264.732	226.19
264.964	217.19
265.197	222.19
265.429	227.19
265.661	227.19
265.894	238.19
266.126	227.19
266.358	213.19
266.591	235.19
266.823	227.19
267.055	240.19
267.287	234.19
267.52	246.19
267.752	243.19
267.984	247.19
268.216	247.19
268.448	244.19
268.681	227.19
268.913	252.19
269.145	267.19
269.377	269.19
269.609	303.19
269.841	284.19
270.073	296.19
270.306	301.19
270.538	310.19
270.77	315.19
271.002	313.19
271.234	287.19
271.466	308.19
271.698	312.19
271.93	318.19
272.162	323.19
272.394	314.19
272.626	311.19
272.858	313.19
273.09	288.19
273.322	276.19
273.553	275.19
273.785	272.19
274.017	276.19
274.249	282.19
274.481	273.19
274.713	274.19
274.945	270.19
275.176	279.19
275.408	276.19
275.64	290.19
275.872	273.19
276.104	273.19
276.335	265.19
276.567	287.19
276.799	293.19
277.031	309.19
277.262	338.19
277.494	336.19
277.726	320.19
277.957	300.19
278.189	313.19
278.421	281.19
278.652	280.19
278.884	279.19
279.115	290.19
279.347	282.19
279.579	292.19
279.81	287.19
280.042	290.19
280.273	283.19
280.505	268.19
280.736	278.19
280.968	288.19
281.199	284.19
281.431	281.19
281.662	300.19
281.894	298.19
282.125	285.19
282.356	313.19
282.588	336.19
282.819	319.19
283.051	294.19
283.282	278.19
283.513	281.19
283.745	292.19
283.976	278.19
284.207	324.19
284.439	282.19
284.67	292.19
284.901	295.19
285.132	302.19
285.364	299.19
285.595	298.19
285.826	286.19
286.057	285.19
286.288	295.19
286.52	299.19
286.751	285.19
286.982	296.19
287.213	292.19
287.444	290.19
287.675	289.19
287.906	324.19
288.138	336.19
288.369	324.19
288.6	323.19
288.831	311.19
289.062	306.19
289.293	316.19
289.524	295.19
289.755	313.19
289.986	310.19
290.217	320.19
290.448	319.19
290.679	302.19
290.91	312.19
291.141	308.19
291.371	304.19
291.602	310.19
291.833	310.19
292.064	309.19
292.295	303.19
292.526	302.19
292.757	315.19
292.987	296.19
293.218	290.19
293.449	321.19
293.68	326.19
293.91	301.19
294.141	301.19
294.372	315.19
294.603	324.19
294.833	318.19
295.064	314.19
295.295	292.19
295.525	319.19
295.756	310.19
295.987	330.19
296.217	329.19
296.448	343.19
296.679	323.19
296.909	303.19
297.14	314.19
297.37	330.19
297.601	329.19
297.831	320.19
298.062	321.19
298.292	321.19
298.523	336.19
298.753	344.19
298.984	334.19
299.214	316.19
299.445	338.19
299.675	327.19
299.905	327.19
300.136	328.19
300.366	323.19
300.597	328.19
300.827	350.19
301.057	327.19
301.288	346.19
301.518	350.19
301.748	356.19
301.979	342.19
302.209	337.19
302.439	352.19
302.669	341.19
302.9	336.19
303.13	336.19
303.36	347.19
303.59	327.19
303.82	350.19
304.051	364.19
304.281	355.19
304.511	353.19
304.741	335.19
304.971	357.19
305.201	327.19
305.431	352.19
305.661	347.19
305.891	346.19
306.121	334.19
306.352	351.19
306.582	347.19
306.812	342.19
307.042	359.19
307.272	351.19
307.502	349.19
307.731	354.19
307.961	362.19
308.191	355.19
308.421	355.19
308.651	363.19
308.881	356.19
309.111	364.19
309.341	360.19
309.571	364.19
309.8	364.19
310.03	380.19
310.26	376.19
310.49	378.19
310.72	383.19
310.949	382.19
311.179	395.19
311.409	385.19
311.639	385.19
311.868	392.19
312.098	378.19
312.328	399.19
312.557	403.19
312.787	415.19
313.017	392.19
313.246	379.19
313.476	386.19
313.706	366.19
313.935	380.19
314.165	393.19
314.394	397.19
314.624	409.19
314.853	408.19
315.083	386.19
315.312	379.19
315.542	392.19
315.771	370.19
316.001	387.19
316.23	383.19
316.46	378.19
316.689	402.19
316.919	412.19
317.148	405.19
317.377	411.19
317.607	403.19
317.836	416.19
318.065	400.19
318.295	391.19
318.524	384.19
318.753	411.19
318.983	393.19
319.212	384.19
319.441	397.19
319.67	389.19
319.9	390.19
320.129	386.19
320.358	383.19
320.587	399.19
320.816	408.19
321.046	407.19
321.275	390.19
321.504	402.19
321.733	394.19
321.962	409.19
322.191	411.19
322.42	441.19
322.649	427.19
322.878	429.19
323.108	459.19
323.337	466.19
323.566	487.19
323.795	495.19
324.024	543.19
324.253	596.19
324.482	858.19
324.71	1307.19
324.939	1920.19
325.168	1718.19
325.397	878.19
325.626	592.19
325.855	547.19
326.084	494.19
326.313	479.19
326.542	460.19
326.77	522.19
326.999	621.19
327.228	797.19
327.457	1160.19
327.686	1486.19
327.914	981.19
328.143	641.19
328.372	582.19
328.6	568.19
328.829	563.19
329.058	548.19
329.287	533.19
329.515	510.19
329.744	494.19
329.972	510.19
330.201	521.19
330.43	549.19
330.658	589.19
330.887	576.19
331.115	572.19
331.344	516.19
331.572	495.19
331.801	504.19
332.03	494.19
332.258	478.19
332.486	494.19
332.715	469.19
332.943	458.19
333.172	484.19
333.4	489.19
333.629	485.19
333.857	513.19
334.085	485.19
334.314	532.19
334.542	550.19
334.771	558.19
334.999	528.19
335.227	499.19
335.455	504.19
335.684	477.19
335.912	478.19
336.14	471.19
336.369	486.19
336.597	490.19
336.825	480.19
337.053	479.19
337.281	469.19
337.51	458.19
337.738	458.19
337.966	450.19
338.194	477.19
338.422	482.19
338.65	464.19
338.878	446.19
339.106	469.19
339.334	454.19
339.562	460.19
339.79	453.19
340.018	430.19
340.246	468.19
340.474	441.19
340.702	443.19
340.93	442.19
341.158	454.19
341.386	452.19
341.614	448.19
341.842	451.19
342.07	425.19
342.298	438.19
342.526	459.19
342.754	452.19
342.981	427.19
343.209	418.19
343.437	439.19
343.665	478.19
343.893	489.19
344.12	491.19
344.348	465.19
344.576	451.19
344.804	471.19
345.031	444.19
345.259	480.19
345.487	460.19
345.714	456.19
345.942	436.19
346.17	436.19
346.397	416.19
346.625	434.19
346.853	416.19
347.08	443.19
347.308	427.19
347.535	423.19
347.763	440.19
347.99	435.19
348.218	440.19
348.445	448.19
348.673	433.19
348.9	426.19
349.128	440.19
349.355	434.19
349.583	410.19
349.81	426.19
350.037	423.19
350.265	426.19
350.492	428.19
350.72	421.19
350.947	436.19
351.174	428.19
351.402	438.19
351.629	442.19
351.856	414.19
352.083	446.19
352.311	439.19
352.538	434.19
352.765	445.19
352.992	445.19
353.22	419.19
353.447	429.19
353.674	428.19
353.901	440.19
354.128	427.19
354.355	398.19
354.583	416.19
354.81	406.19
355.037	432.19
355.264	416.19
355.491	391.19
355.718	422.19
355.945	416.19
356.172	403.19
356.399	391.19
356.626	418.19
356.853	395.19
357.08	413.19
357.307	417.19
357.534	423.19
357.761	397.19
357.988	423.19
358.215	394.19
358.441	390.19
358.668	414.19
358.895	429.19
359.122	431.19
359.349	429.19
359.576	417.19
359.802	429.19
360.029	471.19
360.256	470.19
360.483	472.19
360.709	448.19
360.936	427.19
361.163	438.19
361.39	434.19
361.616	424.19
361.843	423.19
362.07	432.19
362.296	445.19
362.523	425.19
362.749	436.19
362.976	426.19
363.203	428.19
363.429	435.19
363.656	418.19
363.882	416.19
364.109	421.19
364.335	415.19
364.562	410.19
364.788	399.19
365.015	412.19
365.241	427.19
365.468	430.19
365.694	420.19
365.92	410.19
366.147	416.19
366.373	415.19
366.599	412.19
366.826	413.19
367.052	422.19
367.278	427.19
367.505	443.19
367.731	415.19
367.957	429.19
368.184	424.19
368.41	422.19
368.636	456.19
368.862	443.19
369.089	429.19
369.315	409.19
369.541	422.19
369.767	426.19
369.993	427.19
370.219	411.19
370.445	414.19
370.672	430.19
370.898	426.19
371.124	429.19
371.35	408.19
371.576	438.19
371.802	448.19
372.028	438.19
372.254	429.19
372.48	420.19
372.706	435.19
372.932	415.19
373.158	431.19
373.384	437.19
373.61	434.19
373.835	433.19
374.061	419.19
374.287	434.19
374.513	438.19
374.739	447.19
374.965	429.19
375.191	460.19
375.416	441.19
375.642	446.19
375.868	450.19
376.094	456.19
376.319	422.19
376.545	443.19
376.771	424.19
376.997	434.19
377.222	445.19
377.448	449.19
377.674	429.19
377.899	422.19
378.125	435.19
378.35	429.19
378.576	440.19
378.802	408.19
379.027	423.19
379.253	410.19
379.478	423.19
379.704	427.19
379.929	431.19
380.155	417.19
380.38	432.19
380.606	434.19
380.831	420.19
381.057	451.19
381.282	418.19
381.507	421.19
381.733	431.19
381.958	442.19
382.184	441.19
382.409	456.19
382.634	436.19
382.86	440.19
383.085	440.19
383.31	448.19
383.535	459.19
383.761	448.19
383.986	457.19
384.211	466.19
384.436	465.19
384.662	462.19
384.887	472.19
385.112	468.19
385.337	455.19
385.562	468.19
385.787	469.19
386.013	490.19
386.238	500.19
386.463	482.19
386.688	482.19
386.913	474.19
387.138	475.19
387.363	482.19
387.588	482.19
387.813	473.19
388.038	477.19
388.263	502.19
388.488	487.19
388.713	502.19
388.938	475.19
389.163	474.19
389.387	464.19
389.612	486.19
389.837	470.19
390.062	481.19
390.287	484.19
390.512	479.19
390.736	487.19
390.961	478.19
391.186	493.19
391.411	486.19
391.636	504.19
391.86	500.19
392.085	482.19
392.31	501.19
392.534	491.19
392.759	487.19
392.984	500.19
393.208	477.19
393.433	492.19
393.658	481.19
393.882	472.19
394.107	480.19
394.331	494.19
394.556	476.19
394.78	483.19
395.005	490.19
395.229	517.19
395.454	506.19
395.678	508.19
395.903	514.19
396.127	547.19
396.352	548.19
396.576	508.19
396.801	509.19
397.025	507.19
397.249	501.19
397.474	515.19
397.698	513.19
397.922	500.19
398.147	554.19
398.371	566.19
398.595	550.19
398.82	564.19
399.044	566.19
399.268	613.19
399.492	621.19
399.717	664.19
399.941	696.19
400.165	700.19
400.389	674.19
400.613	640.19
400.837	613.19
401.062	602.19
401.286	575.19
401.51	583.19
401.734	551.19
401.958	606.19
402.182	580.19
402.406	573.19
402.63	575.19
402.854	569.19
403.078	593.19
403.302	606.19
403.526	591.19
403.75	581.19
403.974	600.19
404.198	612.19
404.422	603.19
404.645	619.19
404.869	591.19
405.093	626.19
405.317	668.19
405.541	732.19
405.765	633.19
405.988	623.19
406.212	629.19
406.436	636.19
406.66	638.19
406.883	627.19
407.107	695.19
407.331	707.19
407.555	770.19
407.778	773.19
408.002	725.19
408.226	656.19
408.449	656.19
408.673	649.19
408.896	643.19
409.12	703.19
409.344	673.19
409.567	628.19
409.791	564.19
410.014	602.19
410.238	582.19
410.461	586.19
410.685	578.19
410.908	621.19
411.132	626.19
411.355	666.19
411.578	643.19
411.802	616.19
412.025	586.19
412.249	580.19
412.472	612.19
412.695	644.19
412.919	657.19
413.142	620.19
413.365	604.19
413.589	596.19
413.812	574.19
414.035	572.19
414.258	563.19
414.482	556.19
414.705	579.19
414.928	578.19
415.151	555.19
415.374	542.19
415.597	546.19
415.821	528.19
416.044	576.19
416.267	551.19
416.49	570.19
416.713	549.19
416.936	554.19
417.159	553.19
417.382	566.19
417.605	578.19
417.828	549.19
418.051	586.19
418.274	555.19
418.497	554.19
418.72	552.19
418.943	542.19
419.166	587.19
419.389	633.19
419.611	599.19
419.834	613.19
420.057	621.19
420.28	588.19
420.503	567.19
420.726	585.19
420.948	613.19
421.171	628.19
421.394	670.19
421.617	596.19
421.839	574.19
422.062	586.19
422.285	597.19
422.507	647.19
422.73	731.19
422.953	677.19
423.175	619.19
423.398	600.19
423.621	602.19
423.843	620.19
424.066	627.19
424.288	650.19
424.511	642.19
424.733	683.19
424.956	776.19
425.178	740.19
425.401	739.19
425.623	782.19
425.846	666.19
426.068	609.19
426.291	621.19
426.513	591.19
426.735	597.19
426.958	670.19
427.18	719.19
427.402	870.19
427.625	948.19
427.847	835.19
428.069	733.19
428.292	652.19
428.514	610.19
428.736	596.19
428.958	572.19
429.181	569.19
429.403	551.19
429.625	576.19
429.847	592.19
430.069	665.19
430.292	679.19
430.514	582.19
430.736	556.19
430.958	551.19
431.18	555.19
431.402	541.19
431.624	495.19
431.846	532.19
432.068	531.19
432.29	533.19
432.512	535.19
432.734	557.19
432.956	551.19
433.178	565.19
433.4	572.19
433.622	544.19
433.844	560.19
434.066	528.19
434.287	530.19
434.509	542.19
434.731	576.19
434.953	573.19
435.175	595.19
435.397	606.19
435.618	628.19
435.84	650.19
436.062	741.19
436.284	831.19
436.505	699.19
436.727	591.19
436.949	575.19
437.17	535.19
437.392	559.19
437.614	570.19
437.835	588.19
438.057	671.19
438.278	785.19
438.5	788.19
438.721	855.19
438.943	852.19
439.165	660.19
439.386	632.19
439.608	632.19
439.829	605.19
440.05	626.19
440.272	656.19
440.493	655.19
440.715	607.19
440.936	559.19
441.158	556.19
441.379	557.19
441.6	574.19
441.822	599.19
442.043	646.19
442.264	747.19
442.486	758.19
442.707	653.19
442.928	639.19
443.149	638.19
443.371	662.19
443.592	686.19
443.813	813.19
444.034	879.19
444.255	725.19
444.476	663.19
444.698	648.19
444.919	645.19
445.14	744.19
445.361	705.19
445.582	652.19
445.803	714.19
446.024	786.19
446.245	808.19
446.466	748.19
446.687	661.19
446.908	586.19
447.129	570.19
447.35	568.19
447.571	574.19
447.792	550.19
448.013	562.19
448.234	555.19
448.455	628.19
448.675	730.19
448.896	851.19
449.117	744.19
449.338	698.19
449.559	788.19
449.779	918.19
450	696.19
450.221	610.19
450.442	568.19
450.662	558.19
450.883	548.19
451.104	544.19
451.324	539.19
451.545	516.19
451.766	523.19
451.986	490.19
452.207	501.19
452.428	498.19
452.648	493.19
452.869	494.19
453.089	523.19
453.31	493.19
453.53	500.19
453.751	507.19
453.971	490.19
454.192	498.19
454.412	479.19
454.633	492.19
454.853	499.19
455.073	507.19
455.294	516.19
455.514	587.19
455.734	556.19
455.955	470.19
456.175	473.19
456.395	485.19
456.616	468.19
456.836	451.19
457.056	470.19
457.276	477.19
457.497	477.19
457.717	473.19
457.937	494.19
458.157	486.19
458.377	478.19
458.598	506.19
458.818	547.19
459.038	644.19
459.258	680.19
459.478	578.19
459.698	540.19
459.918	530.19
460.138	526.19
460.358	559.19
460.578	552.19
460.798	547.19
461.018	573.19
461.238	559.19
461.458	548.19
461.678	544.19
461.898	571.19
462.118	542.19
462.338	585.19
462.558	549.19
462.777	582.19
462.997	604.19
463.217	640.19
463.437	650.19
463.657	599.19
463.876	606.19
464.096	611.19
464.316	579.19
464.536	601.19
464.755	603.19
464.975	582.19
465.195	614.19
465.414	657.19
465.634	592.19
465.854	569.19
466.073	541.19
466.293	519.19
466.512	532.19
466.732	524.19
466.951	517.19
467.171	516.19
467.391	533.19
467.61	516.19
467.829	539.19
468.049	534.19
468.268	520.19
468.488	506.19
468.707	507.19
468.927	501.19
469.146	492.19
469.365	512.19
469.585	506.19
469.804	519.19
470.023	536.19
470.243	519.19
470.462	533.19
470.681	564.19
470.901	552.19
471.12	528.19
471.339	510.19
471.558	522.19
471.777	525.19
471.997	531.19
472.216	522.19
472.435	546.19
472.654	540.19
472.873	522.19
473.092	549.19
473.311	505.19
473.53	539.19
473.749	523.19
473.968	569.19
474.187	636.19
474.406	685.19
474.625	554.19
474.844	531.19
475.063	541.19
475.282	538.19
475.501	518.19
475.72	528.19
475.939	540.19
476.158	528.19
476.377	524.19
476.596	527.19
476.814	539.19
477.033	533.19
477.252	572.19
477.471	566.19
477.69	573.19
477.908	565.19
478.127	551.19
478.346	579.19
478.564	589.19
478.783	606.19
479.002	598.19
479.22	595.19
479.439	625.19
479.658	593.19
479.876	610.19
480.095	649.19
480.313	680.19
480.532	669.19
480.751	651.19
480.969	656.19
481.188	684.19
481.406	724.19
481.624	667.19
481.843	636.19
482.061	637.19
482.28	621.19
482.498	621.19
482.717	595.19
482.935	626.19
483.153	604.19
483.372	626.19
483.59	612.19
483.808	600.19
484.027	613.19
484.245	611.19
484.463	608.19
484.681	618.19
484.9	621.19
485.118	647.19
485.336	615.19
485.554	644.19
485.772	617.19
485.99	628.19
486.209	643.19
486.427	636.19
486.645	653.19
486.863	664.19
487.081	673.19
487.299	639.19
487.517	667.19
487.735	631.19
487.953	647.19
488.171	680.19
488.389	627.19
488.607	638.19
488.825	676.19
489.043	650.19
489.261	678.19
489.479	653.19
489.696	660.19
489.914	668.19
490.132	684.19
490.35	688.19
490.568	700.19
490.786	688.19
491.003	702.19
491.221	719.19
491.439	738.19
491.657	746.19
491.874	757.19
492.092	745.19
492.31	737.19
492.527	772.19
492.745	748.19
492.963	744.19
493.18	778.19
493.398	785.19
493.615	814.19
493.833	797.19
494.05	803.19
494.268	764.19
494.485	790.19
494.703	772.19
494.92	783.19
495.138	767.19
495.355	754.19
495.573	776.19
495.79	795.19
496.008	784.19
496.225	782.19
496.442	768.19
496.66	787.19
496.877	798.19
497.094	799.19
497.312	801.19
497.529	819.19
497.746	806.19
497.963	826.19
498.181	867.19
498.398	872.19
498.615	874.19
498.832	879.19
499.049	901.19
499.267	946.19
499.484	988.19
499.701	1039.19
499.918	1084.19
500.135	1170.19
500.352	1198.19
500.569	1268.19
500.786	1249.19
501.003	1228.19
501.22	1158.19
501.437	1106.19
501.654	1092.19
