Data from 1975.PennyLincolnUp.Lamp.En5.5.200Scan.071719.P1.Changed Mount._HRD10591_15-58-36-859.txt Node
Date: Thu Jul 18 15:58:36 EDT 2019
User: cochatt
Spectrometer: HR+D1059
Trigger mode: 1
Integration Time (sec): 1.000000E-1
Scans to average: 1
Electric dark correction enabled: true
Nonlinearity correction enabled: false
Boxcar width: 0
XAxis mode: Wavelengths
Number of Pixels in Spectrum: 2048
>>>>>Begin Spectral Data<<<<<
223.165	-13.12
223.4	-13.12
223.635	-13.12
223.869	-10.12
224.104	-13.12
224.338	-11.12
224.573	-25.12
224.808	-16.12
225.042	-11.12
225.277	-11.12
225.511	2.88
225.746	-4.12
225.98	11.88
226.215	5.88
226.449	10.88
226.683	21.88
226.918	17.88
227.152	43.88
227.387	27.88
227.621	43.88
227.856	40.88
228.09	53.88
228.324	55.88
228.559	45.88
228.793	58.88
229.027	110.88
229.262	110.88
229.496	125.88
229.73	123.88
229.964	151.88
230.199	123.88
230.433	108.88
230.667	119.88
230.901	104.88
231.136	126.88
231.37	103.88
231.604	114.88
231.838	110.88
232.072	107.88
232.306	96.88
232.541	102.88
232.775	116.88
233.009	122.88
233.243	121.88
233.477	118.88
233.711	124.88
233.945	116.88
234.179	120.88
234.413	114.88
234.647	125.88
234.881	106.88
235.115	121.88
235.349	121.88
235.583	126.88
235.817	121.88
236.051	127.88
236.285	129.88
236.519	122.88
236.753	141.88
236.987	164.88
237.221	185.88
237.455	229.88
237.689	201.88
237.922	149.88
238.156	133.88
238.39	141.88
238.624	144.88
238.858	113.88
239.091	134.88
239.325	123.88
239.559	128.88
239.793	137.88
240.027	154.88
240.26	161.88
240.494	153.88
240.728	158.88
240.961	158.88
241.195	149.88
241.429	144.88
241.662	153.88
241.896	152.88
242.13	135.88
242.363	149.88
242.597	148.88
242.83	142.88
243.064	137.88
243.298	148.88
243.531	149.88
243.765	138.88
243.998	154.88
244.232	142.88
244.465	143.88
244.699	145.88
244.932	152.88
245.166	147.88
245.399	150.88
245.633	138.88
245.866	146.88
246.099	149.88
246.333	161.88
246.566	166.88
246.8	151.88
247.033	158.88
247.266	165.88
247.5	166.88
247.733	165.88
247.966	158.88
248.2	172.88
248.433	172.88
248.666	179.88
248.899	183.88
249.133	206.88
249.366	200.88
249.599	188.88
249.832	198.88
250.066	190.88
250.299	195.88
250.532	198.88
250.765	213.88
250.998	220.88
251.231	232.88
251.465	229.88
251.698	221.88
251.931	203.88
252.164	192.88
252.397	201.88
252.63	203.88
252.863	204.88
253.096	218.88
253.329	241.88
253.562	239.88
253.795	225.88
254.028	222.88
254.261	228.88
254.494	229.88
254.727	249.88
254.96	275.88
255.193	275.88
255.426	250.88
255.659	241.88
255.892	241.88
256.124	225.88
256.357	246.88
256.59	217.88
256.823	215.88
257.056	218.88
257.289	218.88
257.521	236.88
257.754	199.88
257.987	211.88
258.22	213.88
258.452	201.88
258.685	218.88
258.918	212.88
259.151	206.88
259.383	240.88
259.616	213.88
259.849	226.88
260.081	238.88
260.314	263.88
260.547	259.88
260.779	245.88
261.012	235.88
261.244	218.88
261.477	226.88
261.71	208.88
261.942	236.88
262.175	245.88
262.407	219.88
262.64	219.88
262.872	213.88
263.105	220.88
263.337	234.88
263.57	215.88
263.802	220.88
264.035	210.88
264.267	222.88
264.499	235.88
264.732	229.88
264.964	236.88
265.197	222.88
265.429	235.88
265.661	228.88
265.894	225.88
266.126	235.88
266.358	234.88
266.591	233.88
266.823	231.88
267.055	236.88
267.287	246.88
267.52	238.88
267.752	248.88
267.984	228.88
268.216	249.88
268.448	230.88
268.681	254.88
268.913	257.88
269.145	267.88
269.377	303.88
269.609	284.88
269.841	285.88
270.073	276.88
270.306	296.88
270.538	331.88
270.77	314.88
271.002	311.88
271.234	303.88
271.466	307.88
271.698	311.88
271.93	336.88
272.162	341.88
272.394	325.88
272.626	318.88
272.858	314.88
273.09	285.88
273.322	287.88
273.553	278.88
273.785	262.88
274.017	266.88
274.249	295.88
274.481	287.88
274.713	287.88
274.945	275.88
275.176	271.88
275.408	300.88
275.64	281.88
275.872	281.88
276.104	288.88
276.335	255.88
276.567	266.88
276.799	290.88
277.031	318.88
277.262	325.88
277.494	325.88
277.726	324.88
277.957	301.88
278.189	298.88
278.421	275.88
278.652	287.88
278.884	278.88
279.115	271.88
279.347	269.88
279.579	260.88
279.81	273.88
280.042	286.88
280.273	282.88
280.505	289.88
280.736	266.88
280.968	287.88
281.199	284.88
281.431	281.88
281.662	287.88
281.894	265.88
282.125	285.88
282.356	286.88
282.588	306.88
282.819	331.88
283.051	299.88
283.282	294.88
283.513	276.88
283.745	281.88
283.976	281.88
284.207	297.88
284.439	294.88
284.67	289.88
284.901	291.88
285.132	310.88
285.364	301.88
285.595	298.88
285.826	301.88
286.057	285.88
286.288	295.88
286.52	304.88
286.751	315.88
286.982	313.88
287.213	322.88
287.444	305.88
287.675	305.88
287.906	310.88
288.138	337.88
288.369	314.88
288.6	324.88
288.831	318.88
289.062	303.88
289.293	287.88
289.524	312.88
289.755	323.88
289.986	313.88
290.217	298.88
290.448	308.88
290.679	324.88
290.91	324.88
291.141	318.88
291.371	299.88
291.602	303.88
291.833	292.88
292.064	278.88
292.295	308.88
292.526	300.88
292.757	298.88
292.987	303.88
293.218	313.88
293.449	331.88
293.68	316.88
293.91	314.88
294.141	306.88
294.372	314.88
294.603	305.88
294.833	332.88
295.064	328.88
295.295	300.88
295.525	305.88
295.756	321.88
295.987	318.88
296.217	354.88
296.448	350.88
296.679	320.88
296.909	328.88
297.14	317.88
297.37	342.88
297.601	332.88
297.831	311.88
298.062	317.88
298.292	323.88
298.523	349.88
298.753	341.88
298.984	325.88
299.214	321.88
299.445	339.88
299.675	345.88
299.905	353.88
300.136	322.88
300.366	346.88
300.597	343.88
300.827	349.88
301.057	360.88
301.288	330.88
301.518	355.88
301.748	355.88
301.979	357.88
302.209	355.88
302.439	361.88
302.669	343.88
302.9	375.88
303.13	347.88
303.36	358.88
303.59	370.88
303.82	373.88
304.051	364.88
304.281	354.88
304.511	369.88
304.741	357.88
304.971	344.88
305.201	349.88
305.431	362.88
305.661	364.88
305.891	345.88
306.121	322.88
306.352	347.88
306.582	348.88
306.812	351.88
307.042	341.88
307.272	359.88
307.502	353.88
307.731	345.88
307.961	377.88
308.191	357.88
308.421	341.88
308.651	360.88
308.881	351.88
309.111	355.88
309.341	373.88
309.571	364.88
309.8	383.88
310.03	379.88
310.26	382.88
310.49	391.88
310.72	378.88
310.949	395.88
311.179	386.88
311.409	386.88
311.639	390.88
311.868	385.88
312.098	383.88
312.328	405.88
312.557	400.88
312.787	406.88
313.017	407.88
313.246	410.88
313.476	401.88
313.706	382.88
313.935	397.88
314.165	423.88
314.394	412.88
314.624	405.88
314.853	399.88
315.083	417.88
315.312	385.88
315.542	386.88
315.771	369.88
316.001	388.88
316.23	376.88
316.46	381.88
316.689	394.88
316.919	397.88
317.148	407.88
317.377	396.88
317.607	396.88
317.836	410.88
318.065	399.88
318.295	386.88
318.524	384.88
318.753	380.88
318.983	377.88
319.212	409.88
319.441	400.88
319.67	416.88
319.9	391.88
320.129	397.88
320.358	396.88
320.587	402.88
320.816	382.88
321.046	419.88
321.275	409.88
321.504	420.88
321.733	418.88
321.962	399.88
322.191	423.88
322.42	422.88
322.649	419.88
322.878	445.88
323.108	447.88
323.337	463.88
323.566	470.88
323.795	485.88
324.024	554.88
324.253	627.88
324.482	855.88
324.71	1305.88
324.939	1987.88
325.168	1756.88
325.397	897.88
325.626	588.88
325.855	525.88
326.084	492.88
326.313	484.88
326.542	497.88
326.77	524.88
326.999	634.88
327.228	787.88
327.457	1196.88
327.686	1537.88
327.914	993.88
328.143	657.88
328.372	601.88
328.6	563.88
328.829	547.88
329.058	578.88
329.287	584.88
329.515	528.88
329.744	526.88
329.972	494.88
330.201	520.88
330.43	567.88
330.658	581.88
330.887	605.88
331.115	573.88
331.344	552.88
331.572	487.88
331.801	509.88
332.03	503.88
332.258	499.88
332.486	496.88
332.715	493.88
332.943	475.88
333.172	493.88
333.4	494.88
333.629	477.88
333.857	529.88
334.085	513.88
334.314	543.88
334.542	551.88
334.771	575.88
334.999	540.88
335.227	489.88
335.455	489.88
335.684	517.88
335.912	460.88
336.14	454.88
336.369	478.88
336.597	487.88
336.825	491.88
337.053	489.88
337.281	462.88
337.51	476.88
337.738	492.88
337.966	474.88
338.194	460.88
338.422	461.88
338.65	466.88
338.878	446.88
339.106	455.88
339.334	458.88
339.562	459.88
339.79	465.88
340.018	453.88
340.246	455.88
340.474	447.88
340.702	461.88
340.93	463.88
341.158	433.88
341.386	429.88
341.614	440.88
341.842	453.88
342.07	466.88
342.298	445.88
342.526	446.88
342.754	426.88
342.981	433.88
343.209	444.88
343.437	467.88
343.665	455.88
343.893	460.88
344.12	467.88
344.348	469.88
344.576	486.88
344.804	441.88
345.031	471.88
345.259	477.88
345.487	459.88
345.714	458.88
345.942	441.88
346.17	435.88
346.397	469.88
346.625	448.88
346.853	445.88
347.08	425.88
347.308	440.88
347.535	457.88
347.763	456.88
347.99	451.88
348.218	446.88
348.445	447.88
348.673	461.88
348.9	444.88
349.128	447.88
349.355	424.88
349.583	429.88
349.81	440.88
350.037	433.88
350.265	429.88
350.492	421.88
350.72	440.88
350.947	437.88
351.174	444.88
351.402	445.88
351.629	431.88
351.856	423.88
352.083	426.88
352.311	446.88
352.538	447.88
352.765	435.88
352.992	454.88
353.22	427.88
353.447	455.88
353.674	419.88
353.901	436.88
354.128	419.88
354.355	435.88
354.583	422.88
354.81	405.88
355.037	400.88
355.264	405.88
355.491	400.88
355.718	424.88
355.945	415.88
356.172	420.88
356.399	426.88
356.626	420.88
356.853	411.88
357.08	431.88
357.307	428.88
357.534	390.88
357.761	417.88
357.988	417.88
358.215	406.88
358.441	426.88
358.668	422.88
358.895	418.88
359.122	403.88
359.349	436.88
359.576	433.88
359.802	443.88
360.029	451.88
360.256	465.88
360.483	457.88
360.709	458.88
360.936	436.88
361.163	429.88
361.39	439.88
361.616	433.88
361.843	427.88
362.07	447.88
362.296	422.88
362.523	431.88
362.749	443.88
362.976	421.88
363.203	429.88
363.429	443.88
363.656	433.88
363.882	423.88
364.109	438.88
364.335	424.88
364.562	421.88
364.788	405.88
365.015	447.88
365.241	422.88
365.468	433.88
365.694	409.88
365.92	426.88
366.147	424.88
366.373	426.88
366.599	409.88
366.826	413.88
367.052	413.88
367.278	405.88
367.505	405.88
367.731	419.88
367.957	435.88
368.184	425.88
368.41	433.88
368.636	459.88
368.862	446.88
369.089	437.88
369.315	424.88
369.541	441.88
369.767	428.88
369.993	425.88
370.219	434.88
370.445	419.88
370.672	429.88
370.898	435.88
371.124	452.88
371.35	435.88
371.576	442.88
371.802	426.88
372.028	446.88
372.254	445.88
372.48	427.88
372.706	434.88
372.932	441.88
373.158	428.88
373.384	419.88
373.61	439.88
373.835	439.88
374.061	430.88
374.287	433.88
374.513	426.88
374.739	437.88
374.965	437.88
375.191	452.88
375.416	458.88
375.642	423.88
375.868	420.88
376.094	447.88
376.319	422.88
376.545	422.88
376.771	421.88
376.997	440.88
377.222	462.88
377.448	437.88
377.674	435.88
377.899	428.88
378.125	463.88
378.35	404.88
378.576	435.88
378.802	431.88
379.027	425.88
379.253	436.88
379.478	445.88
379.704	425.88
379.929	426.88
380.155	444.88
380.38	421.88
380.606	433.88
380.831	440.88
381.057	444.88
381.282	427.88
381.507	435.88
381.733	439.88
381.958	436.88
382.184	445.88
382.409	420.88
382.634	455.88
382.86	469.88
383.085	459.88
383.31	471.88
383.535	464.88
383.761	446.88
383.986	451.88
384.211	449.88
384.436	465.88
384.662	452.88
384.887	449.88
385.112	457.88
385.337	461.88
385.562	487.88
385.787	503.88
386.013	488.88
386.238	477.88
386.463	478.88
386.688	486.88
386.913	491.88
387.138	475.88
387.363	478.88
387.588	489.88
387.813	462.88
388.038	467.88
388.263	489.88
388.488	473.88
388.713	487.88
388.938	498.88
389.163	482.88
389.387	501.88
389.612	471.88
389.837	489.88
390.062	470.88
390.287	482.88
390.512	473.88
390.736	499.88
390.961	501.88
391.186	504.88
391.411	474.88
391.636	492.88
391.86	509.88
392.085	494.88
392.31	491.88
392.534	484.88
392.759	486.88
392.984	482.88
393.208	497.88
393.433	487.88
393.658	473.88
393.882	488.88
394.107	486.88
394.331	520.88
394.556	468.88
394.78	485.88
395.005	478.88
395.229	503.88
395.454	481.88
395.678	517.88
395.903	516.88
396.127	563.88
396.352	535.88
396.576	522.88
396.801	493.88
397.025	519.88
397.249	502.88
397.474	513.88
397.698	491.88
397.922	552.88
398.147	551.88
398.371	573.88
398.595	551.88
398.82	567.88
399.044	583.88
399.268	609.88
399.492	661.88
399.717	681.88
399.941	705.88
400.165	715.88
400.389	729.88
400.613	652.88
400.837	607.88
401.062	579.88
401.286	579.88
401.51	574.88
401.734	552.88
401.958	571.88
402.182	558.88
402.406	554.88
402.63	581.88
402.854	578.88
403.078	601.88
403.302	585.88
403.526	599.88
403.75	596.88
403.974	602.88
404.198	591.88
404.422	591.88
404.645	617.88
404.869	597.88
405.093	628.88
405.317	699.88
405.541	720.88
405.765	659.88
405.988	629.88
406.212	630.88
406.436	650.88
406.66	655.88
406.883	636.88
407.107	681.88
407.331	704.88
407.555	783.88
407.778	794.88
408.002	733.88
408.226	661.88
408.449	658.88
408.673	650.88
408.896	660.88
409.12	737.88
409.344	668.88
409.567	635.88
409.791	615.88
410.014	585.88
410.238	580.88
410.461	584.88
410.685	588.88
410.908	611.88
411.132	674.88
411.355	677.88
411.578	657.88
411.802	601.88
412.025	581.88
412.249	597.88
412.472	607.88
412.695	655.88
412.919	674.88
413.142	586.88
413.365	569.88
413.589	580.88
413.812	579.88
414.035	557.88
414.258	576.88
414.482	551.88
414.705	556.88
414.928	553.88
415.151	546.88
415.374	563.88
415.597	539.88
415.821	548.88
416.044	566.88
416.267	561.88
416.49	575.88
416.713	534.88
416.936	537.88
417.159	535.88
417.382	553.88
417.605	572.88
417.828	562.88
418.051	584.88
418.274	587.88
418.497	567.88
418.72	578.88
418.943	578.88
419.166	576.88
419.389	617.88
419.611	594.88
419.834	609.88
420.057	586.88
420.28	587.88
420.503	578.88
420.726	605.88
420.948	587.88
421.171	643.88
421.394	686.88
421.617	610.88
421.839	592.88
422.062	581.88
422.285	586.88
422.507	650.88
422.73	735.88
422.953	707.88
423.175	616.88
423.398	578.88
423.621	620.88
423.843	636.88
424.066	629.88
424.288	631.88
424.511	622.88
424.733	717.88
424.956	797.88
425.178	733.88
425.401	740.88
425.623	790.88
425.846	646.88
426.068	619.88
426.291	610.88
426.513	596.88
426.735	637.88
426.958	662.88
427.18	755.88
427.402	910.88
427.625	976.88
427.847	821.88
428.069	745.88
428.292	647.88
428.514	618.88
428.736	593.88
428.958	589.88
429.181	579.88
429.403	558.88
429.625	575.88
429.847	589.88
430.069	678.88
430.292	666.88
430.514	571.88
430.736	582.88
430.958	548.88
431.18	549.88
431.402	535.88
431.624	536.88
431.846	544.88
432.068	527.88
432.29	519.88
432.512	545.88
432.734	554.88
432.956	555.88
433.178	557.88
433.4	566.88
433.622	541.88
433.844	545.88
434.066	537.88
434.287	530.88
434.509	553.88
434.731	544.88
434.953	593.88
435.175	614.88
435.397	625.88
435.618	624.88
435.84	650.88
436.062	737.88
436.284	855.88
436.505	666.88
436.727	614.88
436.949	580.88
437.17	572.88
437.392	556.88
437.614	606.88
437.835	614.88
438.057	684.88
438.278	787.88
438.5	819.88
438.721	882.88
438.943	866.88
439.165	667.88
439.386	650.88
439.608	599.88
439.829	627.88
440.05	630.88
440.272	669.88
440.493	642.88
440.715	599.88
440.936	571.88
441.158	576.88
441.379	564.88
441.6	578.88
441.822	604.88
442.043	678.88
442.264	740.88
442.486	814.88
442.707	672.88
442.928	637.88
443.149	625.88
443.371	638.88
443.592	697.88
443.813	794.88
444.034	864.88
444.255	747.88
444.476	651.88
444.698	633.88
444.919	636.88
445.14	764.88
445.361	683.88
445.582	668.88
445.803	722.88
446.024	817.88
446.245	837.88
446.466	759.88
446.687	676.88
446.908	599.88
447.129	563.88
447.35	579.88
447.571	571.88
447.792	567.88
448.013	553.88
448.234	569.88
448.455	638.88
448.675	721.88
448.896	865.88
449.117	710.88
449.338	681.88
449.559	795.88
449.779	929.88
450	738.88
450.221	596.88
450.442	569.88
450.662	537.88
450.883	531.88
451.104	527.88
451.324	537.88
451.545	527.88
451.766	531.88
451.986	511.88
452.207	481.88
452.428	516.88
452.648	492.88
452.869	505.88
453.089	513.88
453.31	516.88
453.53	507.88
453.751	511.88
453.971	493.88
454.192	525.88
454.412	493.88
454.633	492.88
454.853	497.88
455.073	469.88
455.294	528.88
455.514	582.88
455.734	581.88
455.955	493.88
456.175	491.88
456.395	496.88
456.616	455.88
456.836	472.88
457.056	472.88
457.276	452.88
457.497	467.88
457.717	467.88
457.937	466.88
458.157	477.88
458.377	488.88
458.598	510.88
458.818	571.88
459.038	633.88
459.258	678.88
459.478	579.88
459.698	553.88
459.918	561.88
460.138	547.88
460.358	560.88
460.578	584.88
460.798	556.88
461.018	551.88
461.238	546.88
461.458	545.88
461.678	534.88
461.898	562.88
462.118	564.88
462.338	567.88
462.558	598.88
462.777	610.88
462.997	613.88
463.217	648.88
463.437	661.88
463.657	631.88
463.876	616.88
464.096	617.88
464.316	597.88
464.536	629.88
464.755	607.88
464.975	590.88
465.195	635.88
465.414	657.88
465.634	601.88
465.854	571.88
466.073	568.88
466.293	524.88
466.512	513.88
466.732	527.88
466.951	534.88
467.171	529.88
467.391	519.88
467.61	515.88
467.829	517.88
468.049	539.88
468.268	509.88
468.488	507.88
468.707	509.88
468.927	502.88
469.146	524.88
469.365	516.88
469.585	493.88
469.804	520.88
470.023	535.88
470.243	536.88
470.462	525.88
470.681	524.88
470.901	549.88
471.12	531.88
471.339	526.88
471.558	522.88
471.777	538.88
471.997	522.88
472.216	506.88
472.435	559.88
472.654	539.88
472.873	533.88
473.092	526.88
473.311	549.88
473.53	513.88
473.749	531.88
473.968	545.88
474.187	666.88
474.406	700.88
474.625	569.88
474.844	535.88
475.063	523.88
475.282	545.88
475.501	533.88
475.72	544.88
475.939	533.88
476.158	528.88
476.377	539.88
476.596	534.88
476.814	565.88
477.033	547.88
477.252	556.88
477.471	527.88
477.69	552.88
477.908	571.88
478.127	579.88
478.346	574.88
478.564	568.88
478.783	605.88
479.002	610.88
479.22	634.88
479.439	625.88
479.658	634.88
479.876	627.88
480.095	649.88
480.313	677.88
480.532	677.88
480.751	658.88
480.969	655.88
481.188	702.88
481.406	735.88
481.624	663.88
481.843	645.88
482.061	615.88
482.28	616.88
482.498	606.88
482.717	637.88
482.935	623.88
483.153	604.88
483.372	578.88
483.59	613.88
483.808	609.88
484.027	602.88
484.245	625.88
484.463	629.88
484.681	640.88
484.9	624.88
485.118	618.88
485.336	621.88
485.554	636.88
485.772	634.88
485.99	641.88
486.209	651.88
486.427	629.88
486.645	656.88
486.863	663.88
487.081	628.88
487.299	645.88
487.517	657.88
487.735	641.88
487.953	642.88
488.171	658.88
488.389	655.88
488.607	673.88
488.825	646.88
489.043	643.88
489.261	635.88
489.479	668.88
489.696	666.88
489.914	667.88
490.132	682.88
490.35	665.88
490.568	696.88
490.786	683.88
491.003	701.88
491.221	727.88
491.439	741.88
491.657	731.88
491.874	778.88
492.092	789.88
492.31	768.88
492.527	769.88
492.745	771.88
492.963	780.88
493.18	777.88
493.398	761.88
493.615	782.88
493.833	782.88
494.05	811.88
494.268	791.88
494.485	780.88
494.703	763.88
494.92	782.88
495.138	797.88
495.355	778.88
495.573	777.88
495.79	754.88
496.008	780.88
496.225	801.88
496.442	797.88
496.66	799.88
496.877	776.88
497.094	775.88
497.312	794.88
497.529	809.88
497.746	805.88
497.963	818.88
498.181	881.88
498.398	857.88
498.615	882.88
498.832	901.88
499.049	922.88
499.267	949.88
499.484	978.88
499.701	1055.88
499.918	1101.88
500.135	1193.88
500.352	1230.88
500.569	1279.88
500.786	1269.88
501.003	1220.88
501.22	1151.88
501.437	1096.88
501.654	1077.88
