Data from 1975.PennyLincolnUp.Lamp.En5.5.200Scan.071719.P1.Changed Mount._HRD10591_15-57-33-859.txt Node
Date: Thu Jul 18 15:57:33 EDT 2019
User: cochatt
Spectrometer: HR+D1059
Trigger mode: 1
Integration Time (sec): 1.000000E-1
Scans to average: 1
Electric dark correction enabled: true
Nonlinearity correction enabled: false
Boxcar width: 0
XAxis mode: Wavelengths
Number of Pixels in Spectrum: 2048
>>>>>Begin Spectral Data<<<<<
223.165	-10.19
223.4	-10.19
223.635	-10.19
223.869	-14.19
224.104	-13.19
224.338	-14.19
224.573	-25.19
224.808	-21.19
225.042	-21.19
225.277	-10.19
225.511	-20.19
225.746	1.81
225.98	14.81
226.215	2.81
226.449	18.81
226.683	29.81
226.918	41.81
227.152	39.81
227.387	26.81
227.621	34.81
227.856	23.81
228.09	41.81
228.324	40.81
228.559	77.81
228.793	74.81
229.027	85.81
229.262	95.81
229.496	108.81
229.73	141.81
229.964	143.81
230.199	126.81
230.433	114.81
230.667	117.81
230.901	102.81
231.136	112.81
231.37	124.81
231.604	105.81
231.838	117.81
232.072	113.81
232.306	115.81
232.541	103.81
232.775	104.81
233.009	116.81
233.243	113.81
233.477	125.81
233.711	126.81
233.945	118.81
234.179	111.81
234.413	109.81
234.647	118.81
234.881	108.81
235.115	141.81
235.349	121.81
235.583	118.81
235.817	118.81
236.051	126.81
236.285	127.81
236.519	129.81
236.753	128.81
236.987	148.81
237.221	194.81
237.455	225.81
237.689	185.81
237.922	151.81
238.156	129.81
238.39	126.81
238.624	124.81
238.858	142.81
239.091	131.81
239.325	126.81
239.559	131.81
239.793	110.81
240.027	133.81
240.26	134.81
240.494	157.81
240.728	147.81
240.961	149.81
241.195	157.81
241.429	134.81
241.662	145.81
241.896	150.81
242.13	133.81
242.363	127.81
242.597	149.81
242.83	140.81
243.064	146.81
243.298	147.81
243.531	137.81
243.765	139.81
243.998	148.81
244.232	144.81
244.465	143.81
244.699	156.81
244.932	157.81
245.166	138.81
245.399	156.81
245.633	156.81
245.866	163.81
246.099	141.81
246.333	152.81
246.566	154.81
246.8	158.81
247.033	149.81
247.266	164.81
247.5	157.81
247.733	161.81
247.966	162.81
248.2	182.81
248.433	185.81
248.666	165.81
248.899	203.81
249.133	198.81
249.366	206.81
249.599	198.81
249.832	187.81
250.066	193.81
250.299	195.81
250.532	206.81
250.765	207.81
250.998	221.81
251.231	234.81
251.465	214.81
251.698	205.81
251.931	207.81
252.164	193.81
252.397	187.81
252.63	194.81
252.863	210.81
253.096	213.81
253.329	235.81
253.562	226.81
253.795	234.81
254.028	207.81
254.261	223.81
254.494	234.81
254.727	253.81
254.96	273.81
255.193	263.81
255.426	260.81
255.659	246.81
255.892	262.81
256.124	232.81
256.357	255.81
256.59	220.81
256.823	223.81
257.056	212.81
257.289	207.81
257.521	225.81
257.754	222.81
257.987	214.81
258.22	215.81
258.452	218.81
258.685	218.81
258.918	217.81
259.151	215.81
259.383	227.81
259.616	216.81
259.849	211.81
260.081	250.81
260.314	255.81
260.547	251.81
260.779	235.81
261.012	243.81
261.244	249.81
261.477	259.81
261.71	226.81
261.942	238.81
262.175	219.81
262.407	225.81
262.64	196.81
262.872	222.81
263.105	227.81
263.337	224.81
263.57	219.81
263.802	216.81
264.035	207.81
264.267	231.81
264.499	199.81
264.732	228.81
264.964	220.81
265.197	211.81
265.429	222.81
265.661	230.81
265.894	224.81
266.126	229.81
266.358	235.81
266.591	242.81
266.823	247.81
267.055	228.81
267.287	262.81
267.52	249.81
267.752	241.81
267.984	234.81
268.216	244.81
268.448	252.81
268.681	257.81
268.913	276.81
269.145	269.81
269.377	287.81
269.609	284.81
269.841	285.81
270.073	268.81
270.306	294.81
270.538	330.81
270.77	329.81
271.002	320.81
271.234	295.81
271.466	309.81
271.698	325.81
271.93	335.81
272.162	318.81
272.394	318.81
272.626	292.81
272.858	291.81
273.09	289.81
273.322	264.81
273.553	268.81
273.785	259.81
274.017	273.81
274.249	287.81
274.481	268.81
274.713	268.81
274.945	277.81
275.176	277.81
275.408	266.81
275.64	264.81
275.872	270.81
276.104	265.81
276.335	266.81
276.567	287.81
276.799	303.81
277.031	300.81
277.262	320.81
277.494	338.81
277.726	302.81
277.957	307.81
278.189	302.81
278.421	301.81
278.652	260.81
278.884	278.81
279.115	286.81
279.347	294.81
279.579	282.81
279.81	302.81
280.042	298.81
280.273	271.81
280.505	293.81
280.736	295.81
280.968	302.81
281.199	287.81
281.431	291.81
281.662	284.81
281.894	275.81
282.125	293.81
282.356	293.81
282.588	301.81
282.819	321.81
283.051	300.81
283.282	297.81
283.513	301.81
283.745	291.81
283.976	273.81
284.207	317.81
284.439	311.81
284.67	305.81
284.901	305.81
285.132	290.81
285.364	302.81
285.595	282.81
285.826	295.81
286.057	291.81
286.288	309.81
286.52	309.81
286.751	297.81
286.982	293.81
287.213	293.81
287.444	300.81
287.675	301.81
287.906	314.81
288.138	312.81
288.369	319.81
288.6	313.81
288.831	309.81
289.062	323.81
289.293	315.81
289.524	330.81
289.755	311.81
289.986	301.81
290.217	294.81
290.448	308.81
290.679	321.81
290.91	308.81
291.141	322.81
291.371	315.81
291.602	323.81
291.833	316.81
292.064	328.81
292.295	305.81
292.526	315.81
292.757	302.81
292.987	325.81
293.218	300.81
293.449	320.81
293.68	314.81
293.91	289.81
294.141	308.81
294.372	307.81
294.603	294.81
294.833	316.81
295.064	318.81
295.295	319.81
295.525	322.81
295.756	328.81
295.987	302.81
296.217	337.81
296.448	333.81
296.679	319.81
296.909	318.81
297.14	319.81
297.37	313.81
297.601	310.81
297.831	336.81
298.062	324.81
298.292	331.81
298.523	339.81
298.753	328.81
298.984	338.81
299.214	330.81
299.445	326.81
299.675	345.81
299.905	341.81
300.136	339.81
300.366	338.81
300.597	323.81
300.827	335.81
301.057	339.81
301.288	345.81
301.518	339.81
301.748	339.81
301.979	361.81
302.209	334.81
302.439	349.81
302.669	351.81
302.9	350.81
303.13	346.81
303.36	341.81
303.59	376.81
303.82	348.81
304.051	366.81
304.281	342.81
304.511	355.81
304.741	349.81
304.971	353.81
305.201	351.81
305.431	354.81
305.661	353.81
305.891	342.81
306.121	349.81
306.352	341.81
306.582	351.81
306.812	356.81
307.042	347.81
307.272	351.81
307.502	350.81
307.731	354.81
307.961	360.81
308.191	335.81
308.421	351.81
308.651	355.81
308.881	351.81
309.111	354.81
309.341	363.81
309.571	372.81
309.8	373.81
310.03	383.81
310.26	373.81
310.49	386.81
310.72	411.81
310.949	406.81
311.179	394.81
311.409	379.81
311.639	387.81
311.868	383.81
312.098	386.81
312.328	406.81
312.557	409.81
312.787	409.81
313.017	404.81
313.246	419.81
313.476	392.81
313.706	386.81
313.935	390.81
314.165	414.81
314.394	414.81
314.624	403.81
314.853	429.81
315.083	389.81
315.312	389.81
315.542	385.81
315.771	376.81
316.001	373.81
316.23	391.81
316.46	385.81
316.689	392.81
316.919	397.81
317.148	401.81
317.377	415.81
317.607	388.81
317.836	375.81
318.065	389.81
318.295	404.81
318.524	399.81
318.753	407.81
318.983	405.81
319.212	404.81
319.441	398.81
319.67	377.81
319.9	397.81
320.129	398.81
320.358	397.81
320.587	399.81
320.816	406.81
321.046	417.81
321.275	438.81
321.504	426.81
321.733	413.81
321.962	405.81
322.191	421.81
322.42	428.81
322.649	450.81
322.878	455.81
323.108	435.81
323.337	442.81
323.566	462.81
323.795	499.81
324.024	527.81
324.253	630.81
324.482	851.81
324.71	1329.81
324.939	1899.81
325.168	1709.81
325.397	869.81
325.626	588.81
325.855	532.81
326.084	492.81
326.313	471.81
326.542	486.81
326.77	524.81
326.999	590.81
327.228	790.81
327.457	1165.81
327.686	1448.81
327.914	969.81
328.143	639.81
328.372	602.81
328.6	567.81
328.829	541.81
329.058	537.81
329.287	556.81
329.515	550.81
329.744	482.81
329.972	507.81
330.201	509.81
330.43	543.81
330.658	557.81
330.887	604.81
331.115	553.81
331.344	517.81
331.572	505.81
331.801	499.81
332.03	498.81
332.258	490.81
332.486	493.81
332.715	457.81
332.943	472.81
333.172	491.81
333.4	494.81
333.629	498.81
333.857	504.81
334.085	540.81
334.314	523.81
334.542	557.81
334.771	570.81
334.999	520.81
335.227	511.81
335.455	491.81
335.684	482.81
335.912	479.81
336.14	472.81
336.369	451.81
336.597	474.81
336.825	473.81
337.053	474.81
337.281	485.81
337.51	457.81
337.738	474.81
337.966	451.81
338.194	466.81
338.422	453.81
338.65	443.81
338.878	456.81
339.106	438.81
339.334	435.81
339.562	451.81
339.79	459.81
340.018	434.81
340.246	459.81
340.474	441.81
340.702	433.81
340.93	455.81
341.158	443.81
341.386	457.81
341.614	450.81
341.842	439.81
342.07	448.81
342.298	453.81
342.526	446.81
342.754	435.81
342.981	449.81
343.209	442.81
343.437	453.81
343.665	468.81
343.893	469.81
344.12	487.81
344.348	456.81
344.576	470.81
344.804	475.81
345.031	463.81
345.259	481.81
345.487	448.81
345.714	466.81
345.942	455.81
346.17	442.81
346.397	444.81
346.625	450.81
346.853	412.81
347.08	435.81
347.308	444.81
347.535	419.81
347.763	455.81
347.99	451.81
348.218	430.81
348.445	459.81
348.673	452.81
348.9	426.81
349.128	443.81
349.355	427.81
349.583	428.81
349.81	419.81
350.037	427.81
350.265	406.81
350.492	425.81
350.72	438.81
350.947	413.81
351.174	440.81
351.402	431.81
351.629	431.81
351.856	441.81
352.083	454.81
352.311	437.81
352.538	453.81
352.765	445.81
352.992	427.81
353.22	435.81
353.447	433.81
353.674	413.81
353.901	411.81
354.128	414.81
354.355	423.81
354.583	415.81
354.81	429.81
355.037	411.81
355.264	408.81
355.491	429.81
355.718	423.81
355.945	409.81
356.172	406.81
356.399	406.81
356.626	406.81
356.853	418.81
357.08	417.81
357.307	409.81
357.534	414.81
357.761	420.81
357.988	417.81
358.215	429.81
358.441	415.81
358.668	428.81
358.895	422.81
359.122	417.81
359.349	422.81
359.576	461.81
359.802	468.81
360.029	460.81
360.256	469.81
360.483	461.81
360.709	447.81
360.936	435.81
361.163	445.81
361.39	457.81
361.616	459.81
361.843	411.81
362.07	431.81
362.296	413.81
362.523	430.81
362.749	428.81
362.976	435.81
363.203	423.81
363.429	421.81
363.656	435.81
363.882	416.81
364.109	433.81
364.335	415.81
364.562	434.81
364.788	401.81
365.015	425.81
365.241	433.81
365.468	427.81
365.694	445.81
365.92	423.81
366.147	428.81
366.373	423.81
366.599	413.81
366.826	417.81
367.052	447.81
367.278	420.81
367.505	410.81
367.731	402.81
367.957	420.81
368.184	419.81
368.41	445.81
368.636	431.81
368.862	445.81
369.089	433.81
369.315	400.81
369.541	422.81
369.767	434.81
369.993	429.81
370.219	444.81
370.445	441.81
370.672	427.81
370.898	443.81
371.124	442.81
371.35	439.81
371.576	426.81
371.802	414.81
372.028	453.81
372.254	436.81
372.48	413.81
372.706	438.81
372.932	433.81
373.158	433.81
373.384	437.81
373.61	444.81
373.835	426.81
374.061	455.81
374.287	440.81
374.513	437.81
374.739	463.81
374.965	436.81
375.191	443.81
375.416	465.81
375.642	427.81
375.868	437.81
376.094	422.81
376.319	431.81
376.545	436.81
376.771	417.81
376.997	428.81
377.222	427.81
377.448	421.81
377.674	441.81
377.899	449.81
378.125	438.81
378.35	423.81
378.576	455.81
378.802	421.81
379.027	429.81
379.253	421.81
379.478	436.81
379.704	442.81
379.929	453.81
380.155	440.81
380.38	441.81
380.606	436.81
380.831	459.81
381.057	439.81
381.282	427.81
381.507	451.81
381.733	432.81
381.958	453.81
382.184	429.81
382.409	443.81
382.634	444.81
382.86	433.81
383.085	450.81
383.31	472.81
383.535	454.81
383.761	456.81
383.986	463.81
384.211	464.81
384.436	479.81
384.662	489.81
384.887	477.81
385.112	466.81
385.337	466.81
385.562	468.81
385.787	485.81
386.013	498.81
386.238	474.81
386.463	501.81
386.688	477.81
386.913	497.81
387.138	465.81
387.363	475.81
387.588	456.81
387.813	490.81
388.038	490.81
388.263	501.81
388.488	483.81
388.713	473.81
388.938	498.81
389.163	483.81
389.387	476.81
389.612	487.81
389.837	502.81
390.062	489.81
390.287	501.81
390.512	480.81
390.736	486.81
390.961	500.81
391.186	480.81
391.411	499.81
391.636	509.81
391.86	498.81
392.085	511.81
392.31	520.81
392.534	513.81
392.759	503.81
392.984	515.81
393.208	494.81
393.433	499.81
393.658	494.81
393.882	485.81
394.107	485.81
394.331	492.81
394.556	497.81
394.78	501.81
395.005	480.81
395.229	485.81
395.454	514.81
395.678	506.81
395.903	531.81
396.127	555.81
396.352	551.81
396.576	525.81
396.801	514.81
397.025	526.81
397.249	517.81
397.474	508.81
397.698	501.81
397.922	553.81
398.147	564.81
398.371	561.81
398.595	552.81
398.82	551.81
399.044	570.81
399.268	615.81
399.492	654.81
399.717	673.81
399.941	709.81
400.165	743.81
400.389	713.81
400.613	628.81
400.837	600.81
401.062	579.81
401.286	574.81
401.51	561.81
401.734	566.81
401.958	581.81
402.182	574.81
402.406	591.81
402.63	574.81
402.854	581.81
403.078	590.81
403.302	574.81
403.526	583.81
403.75	611.81
403.974	613.81
404.198	597.81
404.422	616.81
404.645	603.81
404.869	616.81
405.093	639.81
405.317	699.81
405.541	727.81
405.765	676.81
405.988	627.81
406.212	612.81
406.436	637.81
406.66	661.81
406.883	630.81
407.107	689.81
407.331	708.81
407.555	773.81
407.778	790.81
408.002	727.81
408.226	679.81
408.449	669.81
408.673	665.81
408.896	681.81
409.12	734.81
409.344	653.81
409.567	609.81
409.791	606.81
410.014	598.81
410.238	612.81
410.461	573.81
410.685	607.81
410.908	603.81
411.132	645.81
411.355	672.81
411.578	666.81
411.802	597.81
412.025	587.81
412.249	590.81
412.472	613.81
412.695	663.81
412.919	648.81
413.142	618.81
413.365	578.81
413.589	578.81
413.812	565.81
414.035	567.81
414.258	553.81
414.482	576.81
414.705	587.81
414.928	565.81
415.151	561.81
415.374	569.81
415.597	578.81
415.821	540.81
416.044	548.81
416.267	556.81
416.49	576.81
416.713	529.81
416.936	563.81
417.159	558.81
417.382	567.81
417.605	585.81
417.828	582.81
418.051	573.81
418.274	590.81
418.497	556.81
418.72	573.81
418.943	591.81
419.166	561.81
419.389	603.81
419.611	600.81
419.834	602.81
420.057	591.81
420.28	613.81
420.503	612.81
420.726	584.81
420.948	619.81
421.171	643.81
421.394	652.81
421.617	599.81
421.839	589.81
422.062	592.81
422.285	600.81
422.507	654.81
422.73	725.81
422.953	705.81
423.175	656.81
423.398	606.81
423.621	604.81
423.843	633.81
424.066	626.81
424.288	596.81
424.511	627.81
424.733	689.81
424.956	788.81
425.178	746.81
425.401	742.81
425.623	809.81
425.846	651.81
426.068	609.81
426.291	636.81
426.513	597.81
426.735	637.81
426.958	643.81
427.18	707.81
427.402	867.81
427.625	965.81
427.847	831.81
428.069	701.81
428.292	664.81
428.514	603.81
428.736	590.81
428.958	574.81
429.181	589.81
429.403	569.81
429.625	540.81
429.847	599.81
430.069	665.81
430.292	686.81
430.514	590.81
430.736	569.81
430.958	565.81
431.18	556.81
431.402	543.81
431.624	525.81
431.846	538.81
432.068	559.81
432.29	549.81
432.512	525.81
432.734	524.81
432.956	549.81
433.178	546.81
433.4	572.81
433.622	548.81
433.844	549.81
434.066	542.81
434.287	536.81
434.509	542.81
434.731	566.81
434.953	578.81
435.175	583.81
435.397	601.81
435.618	617.81
435.84	644.81
436.062	733.81
436.284	813.81
436.505	696.81
436.727	605.81
436.949	591.81
437.17	583.81
437.392	550.81
437.614	579.81
437.835	603.81
438.057	693.81
438.278	805.81
438.5	793.81
438.721	887.81
438.943	862.81
439.165	686.81
439.386	646.81
439.608	629.81
439.829	604.81
440.05	628.81
440.272	673.81
440.493	640.81
440.715	591.81
440.936	585.81
441.158	565.81
441.379	565.81
441.6	590.81
441.822	619.81
442.043	664.81
442.264	730.81
442.486	803.81
442.707	679.81
442.928	650.81
443.149	649.81
443.371	656.81
443.592	690.81
443.813	805.81
444.034	881.81
444.255	738.81
444.476	644.81
444.698	657.81
444.919	639.81
445.14	763.81
445.361	721.81
445.582	657.81
445.803	712.81
446.024	799.81
446.245	837.81
446.466	766.81
446.687	651.81
446.908	622.81
447.129	577.81
447.35	551.81
447.571	564.81
447.792	536.81
448.013	570.81
448.234	587.81
448.455	636.81
448.675	737.81
448.896	852.81
449.117	709.81
449.338	691.81
449.559	798.81
449.779	920.81
450	743.81
450.221	604.81
450.442	572.81
450.662	559.81
450.883	549.81
451.104	557.81
451.324	537.81
451.545	529.81
451.766	518.81
451.986	506.81
452.207	520.81
452.428	492.81
452.648	480.81
452.869	501.81
453.089	516.81
453.31	517.81
453.53	493.81
453.751	488.81
453.971	487.81
454.192	518.81
454.412	523.81
454.633	525.81
454.853	485.81
455.073	499.81
455.294	511.81
455.514	570.81
455.734	566.81
455.955	495.81
456.175	465.81
456.395	462.81
456.616	473.81
456.836	461.81
457.056	480.81
457.276	452.81
457.497	477.81
457.717	465.81
457.937	451.81
458.157	495.81
458.377	478.81
458.598	503.81
458.818	545.81
459.038	618.81
459.258	666.81
459.478	603.81
459.698	556.81
459.918	538.81
460.138	556.81
460.358	556.81
460.578	555.81
460.798	562.81
461.018	576.81
461.238	575.81
461.458	553.81
461.678	558.81
461.898	554.81
462.118	575.81
462.338	557.81
462.558	597.81
462.777	629.81
462.997	591.81
463.217	622.81
463.437	630.81
463.657	645.81
463.876	606.81
464.096	585.81
464.316	620.81
464.536	600.81
464.755	611.81
464.975	627.81
465.195	633.81
465.414	659.81
465.634	609.81
465.854	574.81
466.073	539.81
466.293	538.81
466.512	520.81
466.732	526.81
466.951	529.81
467.171	509.81
467.391	510.81
467.61	517.81
467.829	535.81
468.049	501.81
468.268	534.81
468.488	506.81
468.707	518.81
468.927	507.81
469.146	481.81
469.365	533.81
469.585	501.81
469.804	499.81
470.023	538.81
470.243	533.81
470.462	520.81
470.681	533.81
470.901	537.81
471.12	550.81
471.339	538.81
471.558	526.81
471.777	550.81
471.997	518.81
472.216	541.81
472.435	556.81
472.654	540.81
472.873	507.81
473.092	517.81
473.311	548.81
473.53	519.81
473.749	538.81
473.968	558.81
474.187	667.81
474.406	706.81
474.625	571.81
474.844	523.81
475.063	524.81
475.282	532.81
475.501	535.81
475.72	532.81
475.939	543.81
476.158	550.81
476.377	527.81
476.596	537.81
476.814	567.81
477.033	547.81
477.252	555.81
477.471	567.81
477.69	562.81
477.908	547.81
478.127	590.81
478.346	568.81
478.564	586.81
478.783	594.81
479.002	640.81
479.22	618.81
479.439	618.81
479.658	607.81
479.876	611.81
480.095	643.81
480.313	681.81
480.532	672.81
480.751	660.81
480.969	643.81
481.188	713.81
481.406	738.81
481.624	658.81
481.843	652.81
482.061	618.81
482.28	612.81
482.498	610.81
482.717	597.81
482.935	611.81
483.153	633.81
483.372	611.81
483.59	613.81
483.808	612.81
484.027	637.81
484.245	608.81
484.463	601.81
484.681	619.81
484.9	597.81
485.118	621.81
485.336	614.81
485.554	617.81
485.772	644.81
485.99	629.81
486.209	626.81
486.427	665.81
486.645	666.81
486.863	654.81
487.081	657.81
487.299	637.81
487.517	649.81
487.735	665.81
487.953	651.81
488.171	653.81
488.389	649.81
488.607	651.81
488.825	662.81
489.043	646.81
489.261	668.81
489.479	665.81
489.696	661.81
489.914	677.81
490.132	705.81
490.35	683.81
490.568	701.81
490.786	685.81
491.003	720.81
491.221	727.81
491.439	712.81
491.657	745.81
491.874	787.81
492.092	769.81
492.31	794.81
492.527	774.81
492.745	757.81
492.963	777.81
493.18	771.81
493.398	787.81
493.615	798.81
493.833	786.81
494.05	775.81
494.268	775.81
494.485	769.81
494.703	751.81
494.92	767.81
495.138	774.81
495.355	789.81
495.573	767.81
495.79	785.81
496.008	775.81
496.225	788.81
496.442	767.81
496.66	803.81
496.877	782.81
497.094	783.81
497.312	804.81
497.529	807.81
497.746	799.81
497.963	811.81
498.181	839.81
498.398	896.81
498.615	899.81
498.832	900.81
499.049	943.81
499.267	971.81
499.484	1018.81
499.701	1074.81
499.918	1113.81
500.135	1174.81
500.352	1212.81
500.569	1266.81
500.786	1270.81
501.003	1228.81
501.22	1176.81
501.437	1111.81
501.654	1065.81
