Data from 1975.PennyLincolnUp.Lamp.En5.5.200Scan.071719.P1.Changed Mount._HRD10591_15-56-26-859.txt Node
Date: Thu Jul 18 15:56:26 EDT 2019
User: cochatt
Spectrometer: HR+D1059
Trigger mode: 1
Integration Time (sec): 1.000000E-1
Scans to average: 1
Electric dark correction enabled: true
Nonlinearity correction enabled: false
Boxcar width: 0
XAxis mode: Wavelengths
Number of Pixels in Spectrum: 2048
>>>>>Begin Spectral Data<<<<<
223.165	-17.69
223.4	-17.69
223.635	-17.69
223.869	-23.69
224.104	-13.69
224.338	-10.69
224.573	-24.69
224.808	-10.69
225.042	-5.69
225.277	-6.69
225.511	-1.69
225.746	8.31
225.98	8.31
226.215	17.31
226.449	20.31
226.683	16.31
226.918	20.31
227.152	24.31
227.387	38.31
227.621	35.31
227.856	42.31
228.09	41.31
228.324	50.31
228.559	54.31
228.793	71.31
229.027	90.31
229.262	103.31
229.496	122.31
229.73	128.31
229.964	137.31
230.199	115.31
230.433	110.31
230.667	116.31
230.901	116.31
231.136	111.31
231.37	102.31
231.604	121.31
231.838	111.31
232.072	110.31
232.306	95.31
232.541	119.31
232.775	123.31
233.009	135.31
233.243	107.31
233.477	111.31
233.711	121.31
233.945	110.31
234.179	115.31
234.413	123.31
234.647	101.31
234.881	108.31
235.115	126.31
235.349	119.31
235.583	127.31
235.817	110.31
236.051	126.31
236.285	123.31
236.519	121.31
236.753	133.31
236.987	153.31
237.221	170.31
237.455	214.31
237.689	190.31
237.922	139.31
238.156	136.31
238.39	142.31
238.624	137.31
238.858	133.31
239.091	121.31
239.325	127.31
239.559	135.31
239.793	138.31
240.027	131.31
240.26	140.31
240.494	159.31
240.728	150.31
240.961	165.31
241.195	153.31
241.429	146.31
241.662	152.31
241.896	128.31
242.13	133.31
242.363	132.31
242.597	161.31
242.83	127.31
243.064	140.31
243.298	135.31
243.531	133.31
243.765	147.31
243.998	152.31
244.232	141.31
244.465	145.31
244.699	152.31
244.932	160.31
245.166	162.31
245.399	146.31
245.633	146.31
245.866	145.31
246.099	161.31
246.333	161.31
246.566	148.31
246.8	155.31
247.033	150.31
247.266	154.31
247.5	167.31
247.733	180.31
247.966	175.31
248.2	182.31
248.433	182.31
248.666	178.31
248.899	185.31
249.133	198.31
249.366	205.31
249.599	191.31
249.832	180.31
250.066	185.31
250.299	191.31
250.532	192.31
250.765	221.31
250.998	219.31
251.231	222.31
251.465	205.31
251.698	209.31
251.931	198.31
252.164	189.31
252.397	202.31
252.63	203.31
252.863	221.31
253.096	215.31
253.329	224.31
253.562	228.31
253.795	205.31
254.028	223.31
254.261	216.31
254.494	214.31
254.727	236.31
254.96	262.31
255.193	259.31
255.426	248.31
255.659	218.31
255.892	236.31
256.124	261.31
256.357	236.31
256.59	234.31
256.823	230.31
257.056	215.31
257.289	219.31
257.521	214.31
257.754	208.31
257.987	210.31
258.22	217.31
258.452	228.31
258.685	217.31
258.918	215.31
259.151	216.31
259.383	229.31
259.616	213.31
259.849	239.31
260.081	239.31
260.314	242.31
260.547	264.31
260.779	242.31
261.012	231.31
261.244	242.31
261.477	226.31
261.71	214.31
261.942	222.31
262.175	225.31
262.407	226.31
262.64	221.31
262.872	231.31
263.105	205.31
263.337	231.31
263.57	235.31
263.802	220.31
264.035	216.31
264.267	221.31
264.499	224.31
264.732	211.31
264.964	224.31
265.197	212.31
265.429	214.31
265.661	222.31
265.894	227.31
266.126	223.31
266.358	244.31
266.591	224.31
266.823	230.31
267.055	208.31
267.287	236.31
267.52	209.31
267.752	229.31
267.984	246.31
268.216	244.31
268.448	240.31
268.681	241.31
268.913	244.31
269.145	270.31
269.377	283.31
269.609	271.31
269.841	265.31
270.073	279.31
270.306	279.31
270.538	316.31
270.77	323.31
271.002	302.31
271.234	296.31
271.466	301.31
271.698	300.31
271.93	296.31
272.162	311.31
272.394	311.31
272.626	320.31
272.858	278.31
273.09	265.31
273.322	305.31
273.553	286.31
273.785	251.31
274.017	260.31
274.249	262.31
274.481	250.31
274.713	260.31
274.945	274.31
275.176	276.31
275.408	283.31
275.64	282.31
275.872	265.31
276.104	292.31
276.335	261.31
276.567	281.31
276.799	289.31
277.031	301.31
277.262	329.31
277.494	317.31
277.726	302.31
277.957	298.31
278.189	269.31
278.421	283.31
278.652	278.31
278.884	280.31
279.115	281.31
279.347	290.31
279.579	285.31
279.81	300.31
280.042	282.31
280.273	271.31
280.505	279.31
280.736	281.31
280.968	290.31
281.199	291.31
281.431	282.31
281.662	293.31
281.894	282.31
282.125	279.31
282.356	308.31
282.588	304.31
282.819	298.31
283.051	290.31
283.282	291.31
283.513	272.31
283.745	295.31
283.976	294.31
284.207	298.31
284.439	286.31
284.67	306.31
284.901	294.31
285.132	302.31
285.364	297.31
285.595	288.31
285.826	276.31
286.057	293.31
286.288	287.31
286.52	298.31
286.751	291.31
286.982	298.31
287.213	294.31
287.444	301.31
287.675	297.31
287.906	315.31
288.138	299.31
288.369	308.31
288.6	304.31
288.831	318.31
289.062	318.31
289.293	316.31
289.524	301.31
289.755	295.31
289.986	322.31
290.217	296.31
290.448	296.31
290.679	309.31
290.91	311.31
291.141	314.31
291.371	284.31
291.602	299.31
291.833	312.31
292.064	310.31
292.295	290.31
292.526	305.31
292.757	298.31
292.987	314.31
293.218	303.31
293.449	306.31
293.68	315.31
293.91	298.31
294.141	302.31
294.372	292.31
294.603	302.31
294.833	308.31
295.064	315.31
295.295	307.31
295.525	309.31
295.756	307.31
295.987	325.31
296.217	318.31
296.448	350.31
296.679	307.31
296.909	303.31
297.14	299.31
297.37	316.31
297.601	315.31
297.831	306.31
298.062	323.31
298.292	331.31
298.523	319.31
298.753	319.31
298.984	304.31
299.214	331.31
299.445	319.31
299.675	333.31
299.905	318.31
300.136	326.31
300.366	320.31
300.597	331.31
300.827	339.31
301.057	327.31
301.288	329.31
301.518	330.31
301.748	340.31
301.979	341.31
302.209	351.31
302.439	333.31
302.669	347.31
302.9	331.31
303.13	342.31
303.36	344.31
303.59	352.31
303.82	347.31
304.051	361.31
304.281	365.31
304.511	346.31
304.741	346.31
304.971	362.31
305.201	343.31
305.431	361.31
305.661	357.31
305.891	342.31
306.121	342.31
306.352	348.31
306.582	341.31
306.812	331.31
307.042	342.31
307.272	343.31
307.502	345.31
307.731	343.31
307.961	332.31
308.191	339.31
308.421	363.31
308.651	362.31
308.881	324.31
309.111	359.31
309.341	332.31
309.571	360.31
309.8	360.31
310.03	349.31
310.26	366.31
310.49	355.31
310.72	370.31
310.949	388.31
311.179	394.31
311.409	379.31
311.639	377.31
311.868	371.31
312.098	388.31
312.328	393.31
312.557	383.31
312.787	390.31
313.017	402.31
313.246	380.31
313.476	390.31
313.706	383.31
313.935	391.31
314.165	391.31
314.394	392.31
314.624	392.31
314.853	396.31
315.083	392.31
315.312	390.31
315.542	383.31
315.771	385.31
316.001	372.31
316.23	382.31
316.46	375.31
316.689	397.31
316.919	395.31
317.148	399.31
317.377	392.31
317.607	379.31
317.836	370.31
318.065	396.31
318.295	377.31
318.524	372.31
318.753	386.31
318.983	373.31
319.212	382.31
319.441	390.31
319.67	380.31
319.9	379.31
320.129	382.31
320.358	375.31
320.587	381.31
320.816	403.31
321.046	391.31
321.275	412.31
321.504	381.31
321.733	395.31
321.962	404.31
322.191	422.31
322.42	417.31
322.649	395.31
322.878	420.31
323.108	423.31
323.337	454.31
323.566	451.31
323.795	502.31
324.024	502.31
324.253	571.31
324.482	778.31
324.71	1160.31
324.939	1704.31
325.168	1496.31
325.397	757.31
325.626	535.31
325.855	504.31
326.084	473.31
326.313	456.31
326.542	461.31
326.77	490.31
326.999	554.31
327.228	740.31
327.457	1098.31
327.686	1340.31
327.914	902.31
328.143	622.31
328.372	547.31
328.6	525.31
328.829	523.31
329.058	518.31
329.287	529.31
329.515	517.31
329.744	473.31
329.972	485.31
330.201	496.31
330.43	521.31
330.658	535.31
330.887	559.31
331.115	527.31
331.344	498.31
331.572	471.31
331.801	470.31
332.03	476.31
332.258	470.31
332.486	467.31
332.715	476.31
332.943	459.31
333.172	478.31
333.4	491.31
333.629	516.31
333.857	516.31
334.085	496.31
334.314	506.31
334.542	548.31
334.771	551.31
334.999	511.31
335.227	476.31
335.455	478.31
335.684	486.31
335.912	484.31
336.14	466.31
336.369	482.31
336.597	459.31
336.825	471.31
337.053	473.31
337.281	452.31
337.51	445.31
337.738	450.31
337.966	442.31
338.194	470.31
338.422	466.31
338.65	449.31
338.878	452.31
339.106	432.31
339.334	457.31
339.562	456.31
339.79	444.31
340.018	453.31
340.246	436.31
340.474	452.31
340.702	459.31
340.93	444.31
341.158	451.31
341.386	438.31
341.614	441.31
341.842	451.31
342.07	439.31
342.298	428.31
342.526	435.31
342.754	422.31
342.981	429.31
343.209	413.31
343.437	442.31
343.665	447.31
343.893	462.31
344.12	472.31
344.348	482.31
344.576	461.31
344.804	454.31
345.031	498.31
345.259	464.31
345.487	447.31
345.714	438.31
345.942	424.31
346.17	435.31
346.397	418.31
346.625	404.31
346.853	429.31
347.08	431.31
347.308	422.31
347.535	423.31
347.763	442.31
347.99	430.31
348.218	441.31
348.445	428.31
348.673	446.31
348.9	412.31
349.128	421.31
349.355	404.31
349.583	429.31
349.81	404.31
350.037	390.31
350.265	431.31
350.492	414.31
350.72	393.31
350.947	424.31
351.174	421.31
351.402	445.31
351.629	432.31
351.856	447.31
352.083	421.31
352.311	416.31
352.538	424.31
352.765	438.31
352.992	440.31
353.22	422.31
353.447	432.31
353.674	418.31
353.901	396.31
354.128	392.31
354.355	400.31
354.583	406.31
354.81	411.31
355.037	405.31
355.264	393.31
355.491	364.31
355.718	399.31
355.945	405.31
356.172	418.31
356.399	412.31
356.626	414.31
356.853	391.31
357.08	403.31
357.307	390.31
357.534	416.31
357.761	399.31
357.988	420.31
358.215	392.31
358.441	418.31
358.668	408.31
358.895	426.31
359.122	414.31
359.349	415.31
359.576	429.31
359.802	445.31
360.029	463.31
360.256	465.31
360.483	452.31
360.709	427.31
360.936	406.31
361.163	403.31
361.39	441.31
361.616	441.31
361.843	426.31
362.07	429.31
362.296	412.31
362.523	410.31
362.749	432.31
362.976	418.31
363.203	408.31
363.429	391.31
363.656	434.31
363.882	416.31
364.109	404.31
364.335	403.31
364.562	411.31
364.788	414.31
365.015	423.31
365.241	410.31
365.468	412.31
365.694	399.31
365.92	406.31
366.147	397.31
366.373	414.31
366.599	415.31
366.826	426.31
367.052	420.31
367.278	415.31
367.505	420.31
367.731	435.31
367.957	406.31
368.184	427.31
368.41	411.31
368.636	437.31
368.862	443.31
369.089	435.31
369.315	426.31
369.541	411.31
369.767	408.31
369.993	430.31
370.219	419.31
370.445	420.31
370.672	405.31
370.898	442.31
371.124	427.31
371.35	422.31
371.576	438.31
371.802	435.31
372.028	420.31
372.254	414.31
372.48	430.31
372.706	430.31
372.932	456.31
373.158	440.31
373.384	443.31
373.61	431.31
373.835	427.31
374.061	406.31
374.287	451.31
374.513	449.31
374.739	418.31
374.965	418.31
375.191	432.31
375.416	453.31
375.642	442.31
375.868	452.31
376.094	439.31
376.319	413.31
376.545	438.31
376.771	441.31
376.997	432.31
377.222	422.31
377.448	432.31
377.674	428.31
377.899	415.31
378.125	430.31
378.35	429.31
378.576	421.31
378.802	440.31
379.027	418.31
379.253	413.31
379.478	434.31
379.704	443.31
379.929	410.31
380.155	439.31
380.38	412.31
380.606	436.31
380.831	426.31
381.057	426.31
381.282	425.31
381.507	419.31
381.733	442.31
381.958	432.31
382.184	419.31
382.409	412.31
382.634	445.31
382.86	435.31
383.085	444.31
383.31	437.31
383.535	454.31
383.761	460.31
383.986	448.31
384.211	459.31
384.436	475.31
384.662	446.31
384.887	444.31
385.112	444.31
385.337	482.31
385.562	440.31
385.787	470.31
386.013	489.31
386.238	488.31
386.463	476.31
386.688	499.31
386.913	475.31
387.138	468.31
387.363	477.31
387.588	482.31
387.813	485.31
388.038	469.31
388.263	454.31
388.488	479.31
388.713	469.31
388.938	488.31
389.163	471.31
389.387	469.31
389.612	468.31
389.837	502.31
390.062	468.31
390.287	465.31
390.512	447.31
390.736	485.31
390.961	486.31
391.186	487.31
391.411	489.31
391.636	497.31
391.86	494.31
392.085	516.31
392.31	502.31
392.534	504.31
392.759	505.31
392.984	489.31
393.208	495.31
393.433	489.31
393.658	469.31
393.882	504.31
394.107	482.31
394.331	478.31
394.556	476.31
394.78	508.31
395.005	493.31
395.229	490.31
395.454	483.31
395.678	502.31
395.903	514.31
396.127	520.31
396.352	543.31
396.576	510.31
396.801	511.31
397.025	501.31
397.249	507.31
397.474	511.31
397.698	526.31
397.922	534.31
398.147	555.31
398.371	571.31
398.595	547.31
398.82	548.31
399.044	563.31
399.268	603.31
399.492	627.31
399.717	683.31
399.941	700.31
400.165	705.31
400.389	716.31
400.613	624.31
400.837	616.31
401.062	584.31
401.286	573.31
401.51	542.31
401.734	550.31
401.958	567.31
402.182	558.31
402.406	556.31
402.63	578.31
402.854	566.31
403.078	577.31
403.302	596.31
403.526	597.31
403.75	571.31
403.974	603.31
404.198	583.31
404.422	590.31
404.645	590.31
404.869	616.31
405.093	637.31
405.317	692.31
405.541	708.31
405.765	653.31
405.988	620.31
406.212	610.31
406.436	622.31
406.66	640.31
406.883	611.31
407.107	648.31
407.331	702.31
407.555	772.31
407.778	772.31
408.002	702.31
408.226	658.31
408.449	644.31
408.673	623.31
408.896	650.31
409.12	698.31
409.344	670.31
409.567	606.31
409.791	584.31
410.014	586.31
410.238	590.31
410.461	572.31
410.685	613.31
410.908	596.31
411.132	640.31
411.355	670.31
411.578	634.31
411.802	587.31
412.025	579.31
412.249	622.31
412.472	615.31
412.695	654.31
412.919	615.31
413.142	583.31
413.365	600.31
413.589	575.31
413.812	538.31
414.035	560.31
414.258	547.31
414.482	560.31
414.705	572.31
414.928	554.31
415.151	546.31
415.374	572.31
415.597	546.31
415.821	542.31
416.044	566.31
416.267	539.31
416.49	562.31
416.713	532.31
416.936	532.31
417.159	535.31
417.382	557.31
417.605	560.31
417.828	548.31
418.051	572.31
418.274	581.31
418.497	558.31
418.72	538.31
418.943	555.31
419.166	584.31
419.389	603.31
419.611	593.31
419.834	593.31
420.057	590.31
420.28	604.31
420.503	596.31
420.726	544.31
420.948	568.31
421.171	617.31
421.394	651.31
421.617	576.31
421.839	570.31
422.062	583.31
422.285	583.31
422.507	646.31
422.73	721.31
422.953	696.31
423.175	621.31
423.398	606.31
423.621	609.31
423.843	640.31
424.066	610.31
424.288	618.31
424.511	612.31
424.733	685.31
424.956	725.31
425.178	707.31
425.401	722.31
425.623	738.31
425.846	618.31
426.068	598.31
426.291	590.31
426.513	592.31
426.735	588.31
426.958	656.31
427.18	694.31
427.402	858.31
427.625	934.31
427.847	775.31
428.069	696.31
428.292	643.31
428.514	580.31
428.736	569.31
428.958	573.31
429.181	548.31
429.403	529.31
429.625	553.31
429.847	595.31
430.069	655.31
430.292	652.31
430.514	593.31
430.736	578.31
430.958	559.31
431.18	548.31
431.402	536.31
431.624	526.31
431.846	527.31
432.068	536.31
432.29	554.31
432.512	540.31
432.734	528.31
432.956	540.31
433.178	551.31
433.4	542.31
433.622	552.31
433.844	532.31
434.066	534.31
434.287	532.31
434.509	556.31
434.731	548.31
434.953	559.31
435.175	570.31
435.397	599.31
435.618	572.31
435.84	639.31
436.062	710.31
436.284	785.31
436.505	674.31
436.727	614.31
436.949	552.31
437.17	571.31
437.392	547.31
437.614	562.31
437.835	596.31
438.057	665.31
438.278	772.31
438.5	782.31
438.721	874.31
438.943	823.31
439.165	652.31
439.386	608.31
439.608	598.31
439.829	596.31
440.05	588.31
440.272	646.31
440.493	637.31
440.715	577.31
440.936	574.31
441.158	567.31
441.379	558.31
441.6	558.31
441.822	587.31
442.043	628.31
442.264	718.31
442.486	783.31
442.707	664.31
442.928	630.31
443.149	618.31
443.371	634.31
443.592	671.31
443.813	767.31
444.034	823.31
444.255	685.31
444.476	651.31
444.698	631.31
444.919	638.31
445.14	734.31
445.361	676.31
445.582	637.31
445.803	713.31
446.024	777.31
446.245	804.31
446.466	727.31
446.687	640.31
446.908	596.31
447.129	549.31
447.35	566.31
447.571	535.31
447.792	536.31
448.013	528.31
448.234	557.31
448.455	578.31
448.675	725.31
448.896	832.31
449.117	720.31
449.338	659.31
449.559	778.31
449.779	898.31
450	703.31
450.221	589.31
450.442	548.31
450.662	512.31
450.883	525.31
451.104	517.31
451.324	528.31
451.545	505.31
451.766	512.31
451.986	485.31
452.207	482.31
452.428	486.31
452.648	489.31
452.869	526.31
453.089	503.31
453.31	517.31
453.53	493.31
453.751	485.31
453.971	499.31
454.192	522.31
454.412	496.31
454.633	495.31
454.853	486.31
455.073	472.31
455.294	507.31
455.514	576.31
455.734	561.31
455.955	496.31
456.175	476.31
456.395	450.31
456.616	456.31
456.836	467.31
457.056	455.31
457.276	463.31
457.497	468.31
457.717	458.31
457.937	476.31
458.157	481.31
458.377	472.31
458.598	506.31
458.818	536.31
459.038	614.31
459.258	633.31
459.478	546.31
459.698	544.31
459.918	543.31
460.138	542.31
460.358	546.31
460.578	540.31
460.798	566.31
461.018	560.31
461.238	540.31
461.458	558.31
461.678	510.31
461.898	551.31
462.118	566.31
462.338	583.31
462.558	589.31
462.777	595.31
462.997	616.31
463.217	645.31
463.437	628.31
463.657	619.31
463.876	610.31
464.096	628.31
464.316	590.31
464.536	615.31
464.755	597.31
464.975	616.31
465.195	630.31
465.414	642.31
465.634	589.31
465.854	545.31
466.073	543.31
466.293	532.31
466.512	522.31
466.732	506.31
466.951	534.31
467.171	499.31
467.391	505.31
467.61	512.31
467.829	503.31
468.049	535.31
468.268	495.31
468.488	494.31
468.707	502.31
468.927	507.31
469.146	483.31
469.365	506.31
469.585	495.31
469.804	491.31
470.023	523.31
470.243	506.31
470.462	533.31
470.681	542.31
470.901	520.31
471.12	486.31
471.339	502.31
471.558	527.31
471.777	540.31
471.997	522.31
472.216	522.31
472.435	534.31
472.654	539.31
472.873	499.31
473.092	498.31
473.311	493.31
473.53	518.31
473.749	541.31
473.968	549.31
474.187	655.31
474.406	676.31
474.625	546.31
474.844	526.31
475.063	510.31
475.282	513.31
475.501	503.31
475.72	536.31
475.939	516.31
476.158	536.31
476.377	515.31
476.596	510.31
476.814	522.31
477.033	534.31
477.252	546.31
477.471	539.31
477.69	554.31
477.908	575.31
478.127	573.31
478.346	557.31
478.564	581.31
478.783	576.31
479.002	600.31
479.22	622.31
479.439	603.31
479.658	610.31
479.876	630.31
480.095	617.31
480.313	649.31
480.532	646.31
480.751	629.31
480.969	664.31
481.188	684.31
481.406	736.31
481.624	652.31
481.843	631.31
482.061	620.31
482.28	616.31
482.498	603.31
482.717	613.31
482.935	594.31
483.153	602.31
483.372	612.31
483.59	603.31
483.808	610.31
484.027	594.31
484.245	591.31
484.463	594.31
484.681	605.31
484.9	617.31
485.118	610.31
485.336	605.31
485.554	622.31
485.772	622.31
485.99	648.31
486.209	614.31
486.427	631.31
486.645	630.31
486.863	656.31
487.081	664.31
487.299	623.31
487.517	622.31
487.735	647.31
487.953	643.31
488.171	663.31
488.389	646.31
488.607	639.31
488.825	654.31
489.043	663.31
489.261	651.31
489.479	670.31
489.696	648.31
489.914	651.31
490.132	655.31
490.35	708.31
490.568	698.31
490.786	696.31
491.003	722.31
491.221	708.31
491.439	721.31
491.657	724.31
491.874	748.31
492.092	737.31
492.31	744.31
492.527	736.31
492.745	753.31
492.963	772.31
493.18	760.31
493.398	772.31
493.615	761.31
493.833	784.31
494.05	766.31
494.268	752.31
494.485	759.31
494.703	734.31
494.92	782.31
495.138	775.31
495.355	790.31
495.573	775.31
495.79	766.31
496.008	784.31
496.225	746.31
496.442	768.31
496.66	772.31
496.877	768.31
497.094	786.31
497.312	782.31
497.529	791.31
497.746	803.31
497.963	807.31
498.181	825.31
498.398	847.31
498.615	854.31
498.832	900.31
499.049	918.31
499.267	932.31
499.484	963.31
499.701	1021.31
499.918	1107.31
500.135	1155.31
500.352	1235.31
500.569	1232.31
500.786	1264.31
501.003	1235.31
501.22	1160.31
501.437	1138.31
501.654	1079.31
