Data from 1975.PennyLincolnUp.Lamp.En5.5.200Scan.071719.P1.Changed Mount._HRD10591_15-57-42-859.txt Node
Date: Thu Jul 18 15:57:42 EDT 2019
User: cochatt
Spectrometer: HR+D1059
Trigger mode: 1
Integration Time (sec): 1.000000E-1
Scans to average: 1
Electric dark correction enabled: true
Nonlinearity correction enabled: false
Boxcar width: 0
XAxis mode: Wavelengths
Number of Pixels in Spectrum: 2048
>>>>>Begin Spectral Data<<<<<
223.165	-17.75
223.4	-17.75
223.635	-17.75
223.869	-12.75
224.104	-18.75
224.338	-11.75
224.573	-3.75
224.808	-5.75
225.042	-8.75
225.277	-5.75
225.511	-7.75
225.746	0.25
225.98	7.25
226.215	11.25
226.449	17.25
226.683	16.25
226.918	17.25
227.152	23.25
227.387	53.25
227.621	49.25
227.856	37.25
228.09	37.25
228.324	44.25
228.559	60.25
228.793	78.25
229.027	89.25
229.262	115.25
229.496	96.25
229.73	137.25
229.964	140.25
230.199	134.25
230.433	131.25
230.667	120.25
230.901	123.25
231.136	125.25
231.37	108.25
231.604	105.25
231.838	123.25
232.072	117.25
232.306	120.25
232.541	112.25
232.775	129.25
233.009	97.25
233.243	115.25
233.477	130.25
233.711	120.25
233.945	134.25
234.179	124.25
234.413	135.25
234.647	134.25
234.881	115.25
235.115	143.25
235.349	130.25
235.583	113.25
235.817	118.25
236.051	124.25
236.285	122.25
236.519	126.25
236.753	144.25
236.987	141.25
237.221	175.25
237.455	214.25
237.689	179.25
237.922	138.25
238.156	147.25
238.39	147.25
238.624	130.25
238.858	128.25
239.091	124.25
239.325	141.25
239.559	116.25
239.793	122.25
240.027	137.25
240.26	160.25
240.494	165.25
240.728	163.25
240.961	158.25
241.195	137.25
241.429	145.25
241.662	133.25
241.896	127.25
242.13	142.25
242.363	128.25
242.597	136.25
242.83	145.25
243.064	128.25
243.298	137.25
243.531	155.25
243.765	155.25
243.998	140.25
244.232	149.25
244.465	149.25
244.699	148.25
244.932	160.25
245.166	151.25
245.399	160.25
245.633	160.25
245.866	159.25
246.099	151.25
246.333	159.25
246.566	163.25
246.8	141.25
247.033	147.25
247.266	154.25
247.5	168.25
247.733	167.25
247.966	175.25
248.2	179.25
248.433	185.25
248.666	183.25
248.899	192.25
249.133	198.25
249.366	209.25
249.599	203.25
249.832	193.25
250.066	191.25
250.299	186.25
250.532	192.25
250.765	220.25
250.998	218.25
251.231	239.25
251.465	239.25
251.698	201.25
251.931	201.25
252.164	195.25
252.397	191.25
252.63	200.25
252.863	219.25
253.096	211.25
253.329	234.25
253.562	222.25
253.795	223.25
254.028	216.25
254.261	222.25
254.494	235.25
254.727	249.25
254.96	261.25
255.193	281.25
255.426	257.25
255.659	227.25
255.892	229.25
256.124	229.25
256.357	248.25
256.59	245.25
256.823	207.25
257.056	209.25
257.289	205.25
257.521	217.25
257.754	207.25
257.987	209.25
258.22	214.25
258.452	201.25
258.685	224.25
258.918	228.25
259.151	229.25
259.383	219.25
259.616	229.25
259.849	221.25
260.081	229.25
260.314	255.25
260.547	255.25
260.779	244.25
261.012	249.25
261.244	243.25
261.477	223.25
261.71	219.25
261.942	223.25
262.175	244.25
262.407	238.25
262.64	226.25
262.872	221.25
263.105	221.25
263.337	216.25
263.57	225.25
263.802	231.25
264.035	227.25
264.267	227.25
264.499	227.25
264.732	219.25
264.964	222.25
265.197	226.25
265.429	219.25
265.661	222.25
265.894	215.25
266.126	230.25
266.358	235.25
266.591	246.25
266.823	233.25
267.055	231.25
267.287	243.25
267.52	228.25
267.752	236.25
267.984	243.25
268.216	231.25
268.448	250.25
268.681	230.25
268.913	265.25
269.145	264.25
269.377	280.25
269.609	289.25
269.841	283.25
270.073	281.25
270.306	283.25
270.538	326.25
270.77	326.25
271.002	309.25
271.234	302.25
271.466	289.25
271.698	321.25
271.93	324.25
272.162	328.25
272.394	318.25
272.626	314.25
272.858	291.25
273.09	282.25
273.322	276.25
273.553	286.25
273.785	290.25
274.017	295.25
274.249	277.25
274.481	264.25
274.713	279.25
274.945	281.25
275.176	291.25
275.408	271.25
275.64	276.25
275.872	283.25
276.104	277.25
276.335	283.25
276.567	280.25
276.799	311.25
277.031	323.25
277.262	314.25
277.494	324.25
277.726	347.25
277.957	301.25
278.189	312.25
278.421	276.25
278.652	275.25
278.884	304.25
279.115	296.25
279.347	287.25
279.579	273.25
279.81	293.25
280.042	284.25
280.273	281.25
280.505	288.25
280.736	281.25
280.968	272.25
281.199	278.25
281.431	271.25
281.662	280.25
281.894	304.25
282.125	287.25
282.356	313.25
282.588	300.25
282.819	295.25
283.051	279.25
283.282	293.25
283.513	295.25
283.745	293.25
283.976	294.25
284.207	294.25
284.439	297.25
284.67	291.25
284.901	278.25
285.132	294.25
285.364	273.25
285.595	294.25
285.826	297.25
286.057	298.25
286.288	297.25
286.52	307.25
286.751	294.25
286.982	312.25
287.213	292.25
287.444	307.25
287.675	319.25
287.906	328.25
288.138	321.25
288.369	317.25
288.6	318.25
288.831	332.25
289.062	328.25
289.293	315.25
289.524	309.25
289.755	324.25
289.986	309.25
290.217	310.25
290.448	317.25
290.679	294.25
290.91	299.25
291.141	319.25
291.371	323.25
291.602	319.25
291.833	297.25
292.064	292.25
292.295	327.25
292.526	323.25
292.757	312.25
292.987	303.25
293.218	318.25
293.449	329.25
293.68	329.25
293.91	303.25
294.141	333.25
294.372	315.25
294.603	327.25
294.833	320.25
295.064	304.25
295.295	340.25
295.525	329.25
295.756	322.25
295.987	336.25
296.217	352.25
296.448	363.25
296.679	344.25
296.909	338.25
297.14	324.25
297.37	328.25
297.601	324.25
297.831	327.25
298.062	319.25
298.292	331.25
298.523	339.25
298.753	325.25
298.984	336.25
299.214	321.25
299.445	334.25
299.675	315.25
299.905	330.25
300.136	335.25
300.366	319.25
300.597	330.25
300.827	333.25
301.057	340.25
301.288	349.25
301.518	358.25
301.748	330.25
301.979	350.25
302.209	347.25
302.439	357.25
302.669	342.25
302.9	357.25
303.13	350.25
303.36	368.25
303.59	359.25
303.82	357.25
304.051	351.25
304.281	327.25
304.511	375.25
304.741	344.25
304.971	363.25
305.201	335.25
305.431	354.25
305.661	361.25
305.891	356.25
306.121	346.25
306.352	346.25
306.582	354.25
306.812	355.25
307.042	366.25
307.272	339.25
307.502	380.25
307.731	351.25
307.961	350.25
308.191	351.25
308.421	359.25
308.651	358.25
308.881	346.25
309.111	358.25
309.341	347.25
309.571	360.25
309.8	367.25
310.03	378.25
310.26	367.25
310.49	380.25
310.72	378.25
310.949	397.25
311.179	408.25
311.409	390.25
311.639	382.25
311.868	388.25
312.098	391.25
312.328	391.25
312.557	400.25
312.787	430.25
313.017	418.25
313.246	389.25
313.476	395.25
313.706	408.25
313.935	394.25
314.165	399.25
314.394	417.25
314.624	441.25
314.853	394.25
315.083	415.25
315.312	399.25
315.542	402.25
315.771	389.25
316.001	391.25
316.23	386.25
316.46	392.25
316.689	395.25
316.919	401.25
317.148	402.25
317.377	407.25
317.607	401.25
317.836	400.25
318.065	386.25
318.295	383.25
318.524	390.25
318.753	404.25
318.983	385.25
319.212	392.25
319.441	383.25
319.67	399.25
319.9	404.25
320.129	409.25
320.358	396.25
320.587	405.25
320.816	395.25
321.046	412.25
321.275	399.25
321.504	408.25
321.733	395.25
321.962	416.25
322.191	427.25
322.42	430.25
322.649	442.25
322.878	447.25
323.108	453.25
323.337	471.25
323.566	484.25
323.795	515.25
324.024	539.25
324.253	620.25
324.482	812.25
324.71	1283.25
324.939	1871.25
325.168	1663.25
325.397	853.25
325.626	600.25
325.855	529.25
326.084	497.25
326.313	480.25
326.542	484.25
326.77	521.25
326.999	579.25
327.228	789.25
327.457	1147.25
327.686	1423.25
327.914	969.25
328.143	647.25
328.372	593.25
328.6	561.25
328.829	542.25
329.058	543.25
329.287	543.25
329.515	544.25
329.744	505.25
329.972	520.25
330.201	501.25
330.43	561.25
330.658	558.25
330.887	572.25
331.115	551.25
331.344	524.25
331.572	489.25
331.801	474.25
332.03	485.25
332.258	489.25
332.486	476.25
332.715	472.25
332.943	489.25
333.172	475.25
333.4	485.25
333.629	502.25
333.857	513.25
334.085	522.25
334.314	527.25
334.542	570.25
334.771	580.25
334.999	571.25
335.227	494.25
335.455	488.25
335.684	490.25
335.912	509.25
336.14	479.25
336.369	483.25
336.597	473.25
336.825	485.25
337.053	488.25
337.281	457.25
337.51	473.25
337.738	451.25
337.966	461.25
338.194	464.25
338.422	476.25
338.65	461.25
338.878	460.25
339.106	468.25
339.334	479.25
339.562	451.25
339.79	469.25
340.018	436.25
340.246	460.25
340.474	449.25
340.702	451.25
340.93	456.25
341.158	447.25
341.386	458.25
341.614	459.25
341.842	451.25
342.07	428.25
342.298	442.25
342.526	448.25
342.754	454.25
342.981	451.25
343.209	442.25
343.437	457.25
343.665	451.25
343.893	490.25
344.12	466.25
344.348	470.25
344.576	472.25
344.804	482.25
345.031	476.25
345.259	475.25
345.487	463.25
345.714	471.25
345.942	442.25
346.17	445.25
346.397	444.25
346.625	429.25
346.853	429.25
347.08	441.25
347.308	426.25
347.535	430.25
347.763	467.25
347.99	458.25
348.218	445.25
348.445	432.25
348.673	436.25
348.9	427.25
349.128	440.25
349.355	434.25
349.583	419.25
349.81	426.25
350.037	402.25
350.265	423.25
350.492	428.25
350.72	426.25
350.947	432.25
351.174	430.25
351.402	460.25
351.629	459.25
351.856	449.25
352.083	444.25
352.311	440.25
352.538	426.25
352.765	449.25
352.992	430.25
353.22	446.25
353.447	445.25
353.674	417.25
353.901	435.25
354.128	397.25
354.355	417.25
354.583	421.25
354.81	426.25
355.037	437.25
355.264	435.25
355.491	427.25
355.718	428.25
355.945	418.25
356.172	404.25
356.399	419.25
356.626	407.25
356.853	416.25
357.08	430.25
357.307	397.25
357.534	407.25
357.761	409.25
357.988	428.25
358.215	413.25
358.441	409.25
358.668	409.25
358.895	429.25
359.122	417.25
359.349	437.25
359.576	440.25
359.802	444.25
360.029	478.25
360.256	485.25
360.483	473.25
360.709	433.25
360.936	438.25
361.163	437.25
361.39	439.25
361.616	462.25
361.843	442.25
362.07	432.25
362.296	433.25
362.523	460.25
362.749	435.25
362.976	420.25
363.203	427.25
363.429	425.25
363.656	428.25
363.882	451.25
364.109	437.25
364.335	428.25
364.562	439.25
364.788	425.25
365.015	409.25
365.241	417.25
365.468	435.25
365.694	448.25
365.92	425.25
366.147	407.25
366.373	413.25
366.599	440.25
366.826	439.25
367.052	424.25
367.278	445.25
367.505	418.25
367.731	430.25
367.957	424.25
368.184	437.25
368.41	430.25
368.636	427.25
368.862	465.25
369.089	440.25
369.315	436.25
369.541	427.25
369.767	429.25
369.993	423.25
370.219	427.25
370.445	409.25
370.672	415.25
370.898	439.25
371.124	432.25
371.35	429.25
371.576	423.25
371.802	440.25
372.028	416.25
372.254	419.25
372.48	420.25
372.706	461.25
372.932	435.25
373.158	426.25
373.384	453.25
373.61	447.25
373.835	435.25
374.061	429.25
374.287	445.25
374.513	428.25
374.739	456.25
374.965	462.25
375.191	430.25
375.416	471.25
375.642	454.25
375.868	444.25
376.094	455.25
376.319	429.25
376.545	441.25
376.771	429.25
376.997	425.25
377.222	441.25
377.448	416.25
377.674	437.25
377.899	421.25
378.125	427.25
378.35	447.25
378.576	428.25
378.802	416.25
379.027	423.25
379.253	418.25
379.478	443.25
379.704	433.25
379.929	435.25
380.155	440.25
380.38	431.25
380.606	428.25
380.831	428.25
381.057	443.25
381.282	439.25
381.507	446.25
381.733	435.25
381.958	454.25
382.184	455.25
382.409	449.25
382.634	438.25
382.86	442.25
383.085	430.25
383.31	429.25
383.535	448.25
383.761	461.25
383.986	468.25
384.211	475.25
384.436	466.25
384.662	478.25
384.887	487.25
385.112	477.25
385.337	470.25
385.562	475.25
385.787	496.25
386.013	481.25
386.238	505.25
386.463	493.25
386.688	488.25
386.913	485.25
387.138	475.25
387.363	484.25
387.588	450.25
387.813	501.25
388.038	485.25
388.263	472.25
388.488	500.25
388.713	482.25
388.938	501.25
389.163	498.25
389.387	498.25
389.612	486.25
389.837	477.25
390.062	479.25
390.287	477.25
390.512	479.25
390.736	495.25
390.961	486.25
391.186	495.25
391.411	495.25
391.636	491.25
391.86	520.25
392.085	519.25
392.31	510.25
392.534	532.25
392.759	502.25
392.984	486.25
393.208	482.25
393.433	496.25
393.658	475.25
393.882	492.25
394.107	516.25
394.331	482.25
394.556	471.25
394.78	487.25
395.005	511.25
395.229	496.25
395.454	511.25
395.678	508.25
395.903	540.25
396.127	532.25
396.352	564.25
396.576	494.25
396.801	519.25
397.025	519.25
397.249	515.25
397.474	520.25
397.698	524.25
397.922	537.25
398.147	539.25
398.371	549.25
398.595	561.25
398.82	557.25
399.044	586.25
399.268	587.25
399.492	631.25
399.717	687.25
399.941	713.25
400.165	694.25
400.389	699.25
400.613	643.25
400.837	605.25
401.062	580.25
401.286	587.25
401.51	571.25
401.734	571.25
401.958	575.25
402.182	579.25
402.406	599.25
402.63	587.25
402.854	566.25
403.078	599.25
403.302	598.25
403.526	612.25
403.75	620.25
403.974	604.25
404.198	598.25
404.422	627.25
404.645	610.25
404.869	609.25
405.093	633.25
405.317	673.25
405.541	722.25
405.765	651.25
405.988	632.25
406.212	616.25
406.436	652.25
406.66	652.25
406.883	647.25
407.107	672.25
407.331	723.25
407.555	771.25
407.778	802.25
408.002	713.25
408.226	655.25
408.449	655.25
408.673	646.25
408.896	654.25
409.12	718.25
409.344	673.25
409.567	650.25
409.791	593.25
410.014	583.25
410.238	587.25
410.461	589.25
410.685	590.25
410.908	627.25
411.132	641.25
411.355	684.25
411.578	612.25
411.802	591.25
412.025	588.25
412.249	601.25
412.472	609.25
412.695	641.25
412.919	658.25
413.142	641.25
413.365	598.25
413.589	597.25
413.812	572.25
414.035	577.25
414.258	567.25
414.482	556.25
414.705	562.25
414.928	565.25
415.151	576.25
415.374	568.25
415.597	576.25
415.821	557.25
416.044	553.25
416.267	552.25
416.49	564.25
416.713	536.25
416.936	576.25
417.159	536.25
417.382	563.25
417.605	576.25
417.828	574.25
418.051	578.25
418.274	593.25
418.497	565.25
418.72	579.25
418.943	565.25
419.166	619.25
419.389	613.25
419.611	627.25
419.834	597.25
420.057	594.25
420.28	596.25
420.503	589.25
420.726	593.25
420.948	598.25
421.171	626.25
421.394	676.25
421.617	621.25
421.839	597.25
422.062	578.25
422.285	596.25
422.507	639.25
422.73	715.25
422.953	715.25
423.175	617.25
423.398	593.25
423.621	624.25
423.843	638.25
424.066	635.25
424.288	620.25
424.511	625.25
424.733	702.25
424.956	755.25
425.178	745.25
425.401	732.25
425.623	767.25
425.846	655.25
426.068	601.25
426.291	591.25
426.513	627.25
426.735	597.25
426.958	653.25
427.18	728.25
427.402	885.25
427.625	948.25
427.847	812.25
428.069	715.25
428.292	655.25
428.514	613.25
428.736	578.25
428.958	583.25
429.181	556.25
429.403	545.25
429.625	567.25
429.847	587.25
430.069	657.25
430.292	672.25
430.514	587.25
430.736	565.25
430.958	575.25
431.18	544.25
431.402	547.25
431.624	544.25
431.846	539.25
432.068	533.25
432.29	538.25
432.512	538.25
432.734	553.25
432.956	547.25
433.178	556.25
433.4	558.25
433.622	543.25
433.844	549.25
434.066	546.25
434.287	556.25
434.509	543.25
434.731	561.25
434.953	565.25
435.175	567.25
435.397	605.25
435.618	625.25
435.84	644.25
436.062	739.25
436.284	802.25
436.505	690.25
436.727	628.25
436.949	598.25
437.17	556.25
437.392	536.25
437.614	566.25
437.835	576.25
438.057	676.25
438.278	785.25
438.5	801.25
438.721	859.25
438.943	844.25
439.165	659.25
439.386	613.25
439.608	611.25
439.829	604.25
440.05	633.25
440.272	689.25
440.493	631.25
440.715	599.25
440.936	583.25
441.158	592.25
441.379	574.25
441.6	576.25
441.822	601.25
442.043	671.25
442.264	721.25
442.486	779.25
442.707	679.25
442.928	627.25
443.149	642.25
443.371	651.25
443.592	671.25
443.813	793.25
444.034	863.25
444.255	688.25
444.476	650.25
444.698	629.25
444.919	643.25
445.14	749.25
445.361	701.25
445.582	679.25
445.803	733.25
446.024	831.25
446.245	832.25
446.466	768.25
446.687	669.25
446.908	623.25
447.129	571.25
447.35	559.25
447.571	555.25
447.792	536.25
448.013	565.25
448.234	567.25
448.455	613.25
448.675	734.25
448.896	873.25
449.117	727.25
449.338	663.25
449.559	822.25
449.779	905.25
450	715.25
450.221	600.25
450.442	569.25
450.662	551.25
450.883	545.25
451.104	556.25
451.324	543.25
451.545	528.25
451.766	516.25
451.986	488.25
452.207	484.25
452.428	489.25
452.648	502.25
452.869	506.25
453.089	502.25
453.31	518.25
453.53	509.25
453.751	493.25
453.971	502.25
454.192	488.25
454.412	493.25
454.633	498.25
454.853	496.25
455.073	485.25
455.294	520.25
455.514	577.25
455.734	586.25
455.955	502.25
456.175	479.25
456.395	473.25
456.616	473.25
456.836	484.25
457.056	463.25
457.276	484.25
457.497	491.25
457.717	467.25
457.937	492.25
458.157	482.25
458.377	499.25
458.598	497.25
458.818	547.25
459.038	615.25
459.258	661.25
459.478	563.25
459.698	542.25
459.918	532.25
460.138	533.25
460.358	556.25
460.578	565.25
460.798	589.25
461.018	588.25
461.238	578.25
461.458	560.25
461.678	545.25
461.898	559.25
462.118	556.25
462.338	574.25
462.558	599.25
462.777	609.25
462.997	618.25
463.217	611.25
463.437	662.25
463.657	623.25
463.876	629.25
464.096	610.25
464.316	635.25
464.536	604.25
464.755	623.25
464.975	605.25
465.195	631.25
465.414	673.25
465.634	608.25
465.854	563.25
466.073	553.25
466.293	539.25
466.512	523.25
466.732	525.25
466.951	517.25
467.171	517.25
467.391	541.25
467.61	529.25
467.829	540.25
468.049	518.25
468.268	512.25
468.488	515.25
468.707	499.25
468.927	520.25
469.146	499.25
469.365	523.25
469.585	497.25
469.804	509.25
470.023	523.25
470.243	546.25
470.462	551.25
470.681	541.25
470.901	523.25
471.12	542.25
471.339	521.25
471.558	530.25
471.777	519.25
471.997	520.25
472.216	534.25
472.435	569.25
472.654	560.25
472.873	524.25
473.092	532.25
473.311	530.25
473.53	520.25
473.749	531.25
473.968	567.25
474.187	669.25
474.406	673.25
474.625	581.25
474.844	556.25
475.063	524.25
475.282	533.25
475.501	552.25
475.72	530.25
475.939	557.25
476.158	521.25
476.377	548.25
476.596	533.25
476.814	530.25
477.033	568.25
477.252	535.25
477.471	569.25
477.69	545.25
477.908	579.25
478.127	576.25
478.346	580.25
478.564	603.25
478.783	605.25
479.002	615.25
479.22	607.25
479.439	610.25
479.658	624.25
479.876	640.25
480.095	620.25
480.313	657.25
480.532	656.25
480.751	664.25
480.969	675.25
481.188	711.25
481.406	747.25
481.624	688.25
481.843	645.25
482.061	654.25
482.28	623.25
482.498	613.25
482.717	601.25
482.935	626.25
483.153	633.25
483.372	609.25
483.59	604.25
483.808	607.25
484.027	620.25
484.245	617.25
484.463	630.25
484.681	608.25
484.9	648.25
485.118	614.25
485.336	617.25
485.554	629.25
485.772	635.25
485.99	624.25
486.209	653.25
486.427	638.25
486.645	653.25
486.863	677.25
487.081	655.25
487.299	658.25
487.517	658.25
487.735	639.25
487.953	647.25
488.171	646.25
488.389	645.25
488.607	665.25
488.825	657.25
489.043	647.25
489.261	673.25
489.479	674.25
489.696	667.25
489.914	675.25
490.132	689.25
490.35	687.25
490.568	696.25
490.786	697.25
491.003	700.25
491.221	724.25
491.439	732.25
491.657	718.25
491.874	735.25
492.092	744.25
492.31	746.25
492.527	768.25
492.745	748.25
492.963	751.25
493.18	771.25
493.398	755.25
493.615	785.25
493.833	782.25
494.05	772.25
494.268	762.25
494.485	788.25
494.703	771.25
494.92	765.25
495.138	779.25
495.355	802.25
495.573	775.25
495.79	755.25
496.008	789.25
496.225	799.25
496.442	774.25
496.66	783.25
496.877	769.25
497.094	791.25
497.312	811.25
497.529	806.25
497.746	823.25
497.963	826.25
498.181	862.25
498.398	870.25
498.615	886.25
498.832	906.25
499.049	904.25
499.267	936.25
499.484	1011.25
499.701	1080.25
499.918	1121.25
500.135	1184.25
500.352	1238.25
500.569	1267.25
500.786	1271.25
501.003	1249.25
501.22	1216.25
501.437	1150.25
501.654	1083.25
