Data from 1975.PennyLincolnUp.Lamp.En5.5.200Scan.071719.P1.Changed Mount._HRD10591_15-56-56-859.txt Node
Date: Thu Jul 18 15:56:56 EDT 2019
User: cochatt
Spectrometer: HR+D1059
Trigger mode: 1
Integration Time (sec): 1.000000E-1
Scans to average: 1
Electric dark correction enabled: true
Nonlinearity correction enabled: false
Boxcar width: 0
XAxis mode: Wavelengths
Number of Pixels in Spectrum: 2048
>>>>>Begin Spectral Data<<<<<
223.165	-21.88
223.4	-21.88
223.635	-21.88
223.869	-17.88
224.104	-17.88
224.338	-20.88
224.573	-9.88
224.808	-4.88
225.042	-4.88
225.277	-12.88
225.511	-9.88
225.746	5.12
225.98	7.12
226.215	12.12
226.449	18.12
226.683	33.12
226.918	21.12
227.152	24.12
227.387	28.12
227.621	44.12
227.856	44.12
228.09	55.12
228.324	53.12
228.559	58.12
228.793	72.12
229.027	97.12
229.262	106.12
229.496	113.12
229.73	119.12
229.964	159.12
230.199	115.12
230.433	104.12
230.667	105.12
230.901	117.12
231.136	120.12
231.37	113.12
231.604	119.12
231.838	115.12
232.072	126.12
232.306	108.12
232.541	110.12
232.775	117.12
233.009	105.12
233.243	97.12
233.477	124.12
233.711	113.12
233.945	117.12
234.179	108.12
234.413	120.12
234.647	103.12
234.881	121.12
235.115	116.12
235.349	114.12
235.583	122.12
235.817	113.12
236.051	126.12
236.285	139.12
236.519	111.12
236.753	132.12
236.987	149.12
237.221	170.12
237.455	203.12
237.689	186.12
237.922	153.12
238.156	131.12
238.39	130.12
238.624	139.12
238.858	140.12
239.091	126.12
239.325	129.12
239.559	125.12
239.793	128.12
240.027	133.12
240.26	142.12
240.494	165.12
240.728	137.12
240.961	147.12
241.195	139.12
241.429	142.12
241.662	136.12
241.896	135.12
242.13	125.12
242.363	134.12
242.597	138.12
242.83	151.12
243.064	143.12
243.298	140.12
243.531	161.12
243.765	134.12
243.998	133.12
244.232	157.12
244.465	159.12
244.699	132.12
244.932	155.12
245.166	159.12
245.399	157.12
245.633	149.12
245.866	152.12
246.099	158.12
246.333	159.12
246.566	159.12
246.8	157.12
247.033	143.12
247.266	149.12
247.5	163.12
247.733	163.12
247.966	164.12
248.2	151.12
248.433	167.12
248.666	146.12
248.899	168.12
249.133	194.12
249.366	207.12
249.599	193.12
249.832	186.12
250.066	191.12
250.299	182.12
250.532	189.12
250.765	218.12
250.998	225.12
251.231	229.12
251.465	210.12
251.698	204.12
251.931	200.12
252.164	190.12
252.397	187.12
252.63	195.12
252.863	216.12
253.096	217.12
253.329	236.12
253.562	215.12
253.795	219.12
254.028	225.12
254.261	230.12
254.494	233.12
254.727	261.12
254.96	273.12
255.193	261.12
255.426	238.12
255.659	245.12
255.892	218.12
256.124	217.12
256.357	235.12
256.59	227.12
256.823	218.12
257.056	209.12
257.289	210.12
257.521	223.12
257.754	222.12
257.987	201.12
258.22	211.12
258.452	191.12
258.685	218.12
258.918	208.12
259.151	204.12
259.383	228.12
259.616	219.12
259.849	221.12
260.081	227.12
260.314	253.12
260.547	261.12
260.779	241.12
261.012	222.12
261.244	221.12
261.477	223.12
261.71	221.12
261.942	219.12
262.175	238.12
262.407	228.12
262.64	211.12
262.872	214.12
263.105	199.12
263.337	221.12
263.57	210.12
263.802	213.12
264.035	227.12
264.267	223.12
264.499	213.12
264.732	225.12
264.964	215.12
265.197	208.12
265.429	226.12
265.661	215.12
265.894	222.12
266.126	217.12
266.358	218.12
266.591	234.12
266.823	218.12
267.055	232.12
267.287	217.12
267.52	236.12
267.752	252.12
267.984	222.12
268.216	225.12
268.448	226.12
268.681	232.12
268.913	238.12
269.145	252.12
269.377	276.12
269.609	262.12
269.841	249.12
270.073	266.12
270.306	299.12
270.538	320.12
270.77	309.12
271.002	300.12
271.234	289.12
271.466	308.12
271.698	326.12
271.93	303.12
272.162	303.12
272.394	322.12
272.626	297.12
272.858	288.12
273.09	286.12
273.322	276.12
273.553	274.12
273.785	251.12
274.017	257.12
274.249	255.12
274.481	259.12
274.713	280.12
274.945	276.12
275.176	278.12
275.408	275.12
275.64	271.12
275.872	279.12
276.104	277.12
276.335	262.12
276.567	263.12
276.799	293.12
277.031	301.12
277.262	313.12
277.494	311.12
277.726	310.12
277.957	315.12
278.189	292.12
278.421	287.12
278.652	269.12
278.884	273.12
279.115	275.12
279.347	275.12
279.579	286.12
279.81	278.12
280.042	257.12
280.273	300.12
280.505	286.12
280.736	285.12
280.968	257.12
281.199	271.12
281.431	275.12
281.662	265.12
281.894	272.12
282.125	283.12
282.356	286.12
282.588	307.12
282.819	312.12
283.051	288.12
283.282	272.12
283.513	282.12
283.745	283.12
283.976	283.12
284.207	298.12
284.439	289.12
284.67	280.12
284.901	272.12
285.132	296.12
285.364	291.12
285.595	283.12
285.826	282.12
286.057	290.12
286.288	290.12
286.52	269.12
286.751	282.12
286.982	300.12
287.213	285.12
287.444	299.12
287.675	297.12
287.906	300.12
288.138	329.12
288.369	300.12
288.6	318.12
288.831	283.12
289.062	300.12
289.293	308.12
289.524	299.12
289.755	298.12
289.986	297.12
290.217	296.12
290.448	290.12
290.679	286.12
290.91	296.12
291.141	294.12
291.371	305.12
291.602	298.12
291.833	311.12
292.064	275.12
292.295	296.12
292.526	319.12
292.757	301.12
292.987	312.12
293.218	316.12
293.449	314.12
293.68	288.12
293.91	289.12
294.141	317.12
294.372	292.12
294.603	294.12
294.833	318.12
295.064	289.12
295.295	296.12
295.525	299.12
295.756	306.12
295.987	306.12
296.217	309.12
296.448	325.12
296.679	314.12
296.909	315.12
297.14	298.12
297.37	304.12
297.601	333.12
297.831	329.12
298.062	318.12
298.292	315.12
298.523	322.12
298.753	299.12
298.984	325.12
299.214	305.12
299.445	312.12
299.675	327.12
299.905	313.12
300.136	325.12
300.366	329.12
300.597	327.12
300.827	339.12
301.057	339.12
301.288	341.12
301.518	319.12
301.748	348.12
301.979	348.12
302.209	344.12
302.439	329.12
302.669	344.12
302.9	341.12
303.13	310.12
303.36	334.12
303.59	349.12
303.82	332.12
304.051	329.12
304.281	350.12
304.511	346.12
304.741	323.12
304.971	338.12
305.201	345.12
305.431	326.12
305.661	331.12
305.891	317.12
306.121	315.12
306.352	339.12
306.582	337.12
306.812	333.12
307.042	338.12
307.272	334.12
307.502	345.12
307.731	345.12
307.961	343.12
308.191	337.12
308.421	327.12
308.651	344.12
308.881	334.12
309.111	368.12
309.341	337.12
309.571	363.12
309.8	359.12
310.03	372.12
310.26	385.12
310.49	360.12
310.72	386.12
310.949	391.12
311.179	394.12
311.409	371.12
311.639	372.12
311.868	371.12
312.098	386.12
312.328	365.12
312.557	395.12
312.787	411.12
313.017	395.12
313.246	381.12
313.476	377.12
313.706	385.12
313.935	384.12
314.165	376.12
314.394	424.12
314.624	405.12
314.853	401.12
315.083	379.12
315.312	379.12
315.542	390.12
315.771	377.12
316.001	388.12
316.23	367.12
316.46	366.12
316.689	385.12
316.919	383.12
317.148	404.12
317.377	374.12
317.607	384.12
317.836	389.12
318.065	381.12
318.295	380.12
318.524	364.12
318.753	379.12
318.983	375.12
319.212	394.12
319.441	387.12
319.67	378.12
319.9	397.12
320.129	377.12
320.358	363.12
320.587	385.12
320.816	383.12
321.046	400.12
321.275	408.12
321.504	392.12
321.733	385.12
321.962	398.12
322.191	424.12
322.42	424.12
322.649	428.12
322.878	445.12
323.108	441.12
323.337	456.12
323.566	469.12
323.795	498.12
324.024	521.12
324.253	570.12
324.482	811.12
324.71	1222.12
324.939	1833.12
325.168	1616.12
325.397	789.12
325.626	596.12
325.855	493.12
326.084	485.12
326.313	458.12
326.542	466.12
326.77	509.12
326.999	563.12
327.228	758.12
327.457	1097.12
327.686	1393.12
327.914	920.12
328.143	625.12
328.372	553.12
328.6	537.12
328.829	509.12
329.058	525.12
329.287	537.12
329.515	515.12
329.744	493.12
329.972	483.12
330.201	490.12
330.43	514.12
330.658	559.12
330.887	571.12
331.115	563.12
331.344	504.12
331.572	482.12
331.801	465.12
332.03	473.12
332.258	473.12
332.486	448.12
332.715	449.12
332.943	454.12
333.172	458.12
333.4	451.12
333.629	479.12
333.857	483.12
334.085	480.12
334.314	521.12
334.542	520.12
334.771	551.12
334.999	502.12
335.227	477.12
335.455	483.12
335.684	463.12
335.912	462.12
336.14	454.12
336.369	468.12
336.597	467.12
336.825	460.12
337.053	462.12
337.281	460.12
337.51	451.12
337.738	457.12
337.966	457.12
338.194	461.12
338.422	458.12
338.65	446.12
338.878	438.12
339.106	442.12
339.334	431.12
339.562	433.12
339.79	442.12
340.018	440.12
340.246	436.12
340.474	436.12
340.702	439.12
340.93	437.12
341.158	450.12
341.386	435.12
341.614	427.12
341.842	437.12
342.07	442.12
342.298	417.12
342.526	427.12
342.754	431.12
342.981	438.12
343.209	444.12
343.437	435.12
343.665	415.12
343.893	443.12
344.12	437.12
344.348	456.12
344.576	449.12
344.804	453.12
345.031	441.12
345.259	459.12
345.487	471.12
345.714	420.12
345.942	435.12
346.17	436.12
346.397	414.12
346.625	425.12
346.853	429.12
347.08	418.12
347.308	422.12
347.535	432.12
347.763	409.12
347.99	444.12
348.218	420.12
348.445	440.12
348.673	404.12
348.9	416.12
349.128	394.12
349.355	407.12
349.583	406.12
349.81	428.12
350.037	408.12
350.265	416.12
350.492	405.12
350.72	421.12
350.947	402.12
351.174	435.12
351.402	427.12
351.629	431.12
351.856	428.12
352.083	430.12
352.311	413.12
352.538	441.12
352.765	440.12
352.992	425.12
353.22	417.12
353.447	421.12
353.674	414.12
353.901	410.12
354.128	399.12
354.355	391.12
354.583	423.12
354.81	391.12
355.037	406.12
355.264	411.12
355.491	391.12
355.718	421.12
355.945	398.12
356.172	390.12
356.399	396.12
356.626	406.12
356.853	409.12
357.08	386.12
357.307	393.12
357.534	398.12
357.761	396.12
357.988	383.12
358.215	400.12
358.441	401.12
358.668	404.12
358.895	395.12
359.122	417.12
359.349	397.12
359.576	421.12
359.802	429.12
360.029	447.12
360.256	460.12
360.483	448.12
360.709	435.12
360.936	416.12
361.163	409.12
361.39	433.12
361.616	426.12
361.843	417.12
362.07	422.12
362.296	423.12
362.523	428.12
362.749	413.12
362.976	410.12
363.203	410.12
363.429	417.12
363.656	392.12
363.882	409.12
364.109	430.12
364.335	426.12
364.562	411.12
364.788	404.12
365.015	423.12
365.241	421.12
365.468	408.12
365.694	422.12
365.92	408.12
366.147	413.12
366.373	419.12
366.599	407.12
366.826	391.12
367.052	398.12
367.278	393.12
367.505	412.12
367.731	423.12
367.957	415.12
368.184	404.12
368.41	444.12
368.636	432.12
368.862	426.12
369.089	443.12
369.315	417.12
369.541	417.12
369.767	404.12
369.993	413.12
370.219	427.12
370.445	416.12
370.672	403.12
370.898	423.12
371.124	414.12
371.35	423.12
371.576	394.12
371.802	426.12
372.028	400.12
372.254	407.12
372.48	402.12
372.706	415.12
372.932	433.12
373.158	423.12
373.384	438.12
373.61	427.12
373.835	428.12
374.061	426.12
374.287	426.12
374.513	458.12
374.739	430.12
374.965	429.12
375.191	406.12
375.416	419.12
375.642	418.12
375.868	410.12
376.094	434.12
376.319	422.12
376.545	425.12
376.771	415.12
376.997	426.12
377.222	437.12
377.448	427.12
377.674	413.12
377.899	399.12
378.125	418.12
378.35	404.12
378.576	409.12
378.802	414.12
379.027	411.12
379.253	397.12
379.478	403.12
379.704	414.12
379.929	440.12
380.155	428.12
380.38	409.12
380.606	419.12
380.831	428.12
381.057	423.12
381.282	422.12
381.507	420.12
381.733	421.12
381.958	427.12
382.184	441.12
382.409	443.12
382.634	434.12
382.86	444.12
383.085	431.12
383.31	441.12
383.535	451.12
383.761	465.12
383.986	446.12
384.211	424.12
384.436	456.12
384.662	447.12
384.887	475.12
385.112	439.12
385.337	462.12
385.562	461.12
385.787	464.12
386.013	453.12
386.238	468.12
386.463	467.12
386.688	498.12
386.913	443.12
387.138	446.12
387.363	461.12
387.588	458.12
387.813	476.12
388.038	474.12
388.263	443.12
388.488	478.12
388.713	475.12
388.938	486.12
389.163	468.12
389.387	463.12
389.612	467.12
389.837	460.12
390.062	430.12
390.287	470.12
390.512	459.12
390.736	449.12
390.961	452.12
391.186	451.12
391.411	483.12
391.636	482.12
391.86	472.12
392.085	489.12
392.31	490.12
392.534	477.12
392.759	474.12
392.984	494.12
393.208	477.12
393.433	489.12
393.658	457.12
393.882	472.12
394.107	488.12
394.331	485.12
394.556	459.12
394.78	509.12
395.005	476.12
395.229	470.12
395.454	508.12
395.678	504.12
395.903	488.12
396.127	491.12
396.352	518.12
396.576	491.12
396.801	483.12
397.025	484.12
397.249	475.12
397.474	502.12
397.698	530.12
397.922	536.12
398.147	513.12
398.371	537.12
398.595	537.12
398.82	525.12
399.044	568.12
399.268	591.12
399.492	631.12
399.717	649.12
399.941	713.12
400.165	682.12
400.389	683.12
400.613	634.12
400.837	591.12
401.062	561.12
401.286	517.12
401.51	555.12
401.734	538.12
401.958	539.12
402.182	554.12
402.406	549.12
402.63	557.12
402.854	542.12
403.078	547.12
403.302	558.12
403.526	574.12
403.75	589.12
403.974	574.12
404.198	579.12
404.422	577.12
404.645	587.12
404.869	587.12
405.093	600.12
405.317	634.12
405.541	681.12
405.765	633.12
405.988	589.12
406.212	584.12
406.436	609.12
406.66	653.12
406.883	611.12
407.107	643.12
407.331	675.12
407.555	757.12
407.778	747.12
408.002	685.12
408.226	642.12
408.449	649.12
408.673	630.12
408.896	666.12
409.12	686.12
409.344	648.12
409.567	621.12
409.791	581.12
410.014	582.12
410.238	574.12
410.461	582.12
410.685	597.12
410.908	577.12
411.132	615.12
411.355	651.12
411.578	629.12
411.802	586.12
412.025	589.12
412.249	595.12
412.472	611.12
412.695	634.12
412.919	637.12
413.142	575.12
413.365	558.12
413.589	560.12
413.812	551.12
414.035	549.12
414.258	526.12
414.482	556.12
414.705	562.12
414.928	553.12
415.151	536.12
415.374	561.12
415.597	531.12
415.821	539.12
416.044	554.12
416.267	544.12
416.49	535.12
416.713	547.12
416.936	547.12
417.159	543.12
417.382	564.12
417.605	559.12
417.828	541.12
418.051	580.12
418.274	561.12
418.497	569.12
418.72	540.12
418.943	543.12
419.166	570.12
419.389	598.12
419.611	601.12
419.834	593.12
420.057	584.12
420.28	579.12
420.503	581.12
420.726	562.12
420.948	582.12
421.171	609.12
421.394	627.12
421.617	584.12
421.839	565.12
422.062	572.12
422.285	562.12
422.507	636.12
422.73	694.12
422.953	673.12
423.175	598.12
423.398	596.12
423.621	600.12
423.843	617.12
424.066	587.12
424.288	603.12
424.511	631.12
424.733	663.12
424.956	754.12
425.178	710.12
425.401	723.12
425.623	722.12
425.846	653.12
426.068	606.12
426.291	575.12
426.513	594.12
426.735	608.12
426.958	607.12
427.18	715.12
427.402	833.12
427.625	934.12
427.847	809.12
428.069	695.12
428.292	637.12
428.514	587.12
428.736	563.12
428.958	551.12
429.181	526.12
429.403	537.12
429.625	556.12
429.847	599.12
430.069	655.12
430.292	659.12
430.514	577.12
430.736	555.12
430.958	549.12
431.18	520.12
431.402	548.12
431.624	505.12
431.846	523.12
432.068	523.12
432.29	531.12
432.512	540.12
432.734	514.12
432.956	527.12
433.178	539.12
433.4	513.12
433.622	548.12
433.844	522.12
434.066	536.12
434.287	516.12
434.509	541.12
434.731	541.12
434.953	548.12
435.175	570.12
435.397	611.12
435.618	585.12
435.84	634.12
436.062	714.12
436.284	814.12
436.505	670.12
436.727	596.12
436.949	552.12
437.17	556.12
437.392	538.12
437.614	572.12
437.835	601.12
438.057	676.12
438.278	766.12
438.5	766.12
438.721	876.12
438.943	844.12
439.165	685.12
439.386	604.12
439.608	600.12
439.829	596.12
440.05	619.12
440.272	667.12
440.493	632.12
440.715	592.12
440.936	559.12
441.158	538.12
441.379	550.12
441.6	561.12
441.822	592.12
442.043	645.12
442.264	709.12
442.486	753.12
442.707	662.12
442.928	586.12
443.149	607.12
443.371	649.12
443.592	681.12
443.813	771.12
444.034	822.12
444.255	698.12
444.476	638.12
444.698	632.12
444.919	626.12
445.14	723.12
445.361	667.12
445.582	641.12
445.803	696.12
446.024	775.12
446.245	822.12
446.466	728.12
446.687	635.12
446.908	562.12
447.129	557.12
447.35	538.12
447.571	523.12
447.792	526.12
448.013	537.12
448.234	539.12
448.455	595.12
448.675	729.12
448.896	848.12
449.117	720.12
449.338	663.12
449.559	773.12
449.779	883.12
450	714.12
450.221	588.12
450.442	564.12
450.662	517.12
450.883	530.12
451.104	537.12
451.324	532.12
451.545	502.12
451.766	515.12
451.986	477.12
452.207	471.12
452.428	476.12
452.648	468.12
452.869	481.12
453.089	491.12
453.31	513.12
453.53	477.12
453.751	484.12
453.971	481.12
454.192	515.12
454.412	477.12
454.633	482.12
454.853	474.12
455.073	473.12
455.294	503.12
455.514	586.12
455.734	585.12
455.955	484.12
456.175	483.12
456.395	473.12
456.616	452.12
456.836	456.12
457.056	464.12
457.276	456.12
457.497	451.12
457.717	456.12
457.937	456.12
458.157	462.12
458.377	484.12
458.598	484.12
458.818	527.12
459.038	607.12
459.258	655.12
459.478	575.12
459.698	525.12
459.918	531.12
460.138	510.12
460.358	539.12
460.578	544.12
460.798	551.12
461.018	561.12
461.238	567.12
461.458	546.12
461.678	537.12
461.898	550.12
462.118	545.12
462.338	550.12
462.558	581.12
462.777	596.12
462.997	599.12
463.217	600.12
463.437	616.12
463.657	594.12
463.876	600.12
464.096	591.12
464.316	601.12
464.536	565.12
464.755	588.12
464.975	571.12
465.195	592.12
465.414	660.12
465.634	583.12
465.854	537.12
466.073	534.12
466.293	516.12
466.512	493.12
466.732	511.12
466.951	509.12
467.171	498.12
467.391	523.12
467.61	499.12
467.829	514.12
468.049	512.12
468.268	503.12
468.488	476.12
468.707	485.12
468.927	499.12
469.146	489.12
469.365	495.12
469.585	482.12
469.804	507.12
470.023	510.12
470.243	499.12
470.462	517.12
470.681	528.12
470.901	524.12
471.12	524.12
471.339	505.12
471.558	511.12
471.777	536.12
471.997	505.12
472.216	504.12
472.435	525.12
472.654	532.12
472.873	508.12
473.092	491.12
473.311	508.12
473.53	507.12
473.749	514.12
473.968	533.12
474.187	659.12
474.406	652.12
474.625	544.12
474.844	507.12
475.063	503.12
475.282	520.12
475.501	524.12
475.72	518.12
475.939	508.12
476.158	515.12
476.377	520.12
476.596	535.12
476.814	546.12
477.033	533.12
477.252	546.12
477.471	535.12
477.69	550.12
477.908	566.12
478.127	575.12
478.346	547.12
478.564	573.12
478.783	557.12
479.002	583.12
479.22	578.12
479.439	617.12
479.658	608.12
479.876	585.12
480.095	596.12
480.313	622.12
480.532	618.12
480.751	631.12
480.969	621.12
481.188	666.12
481.406	723.12
481.624	642.12
481.843	603.12
482.061	607.12
482.28	605.12
482.498	613.12
482.717	591.12
482.935	595.12
483.153	595.12
483.372	596.12
483.59	583.12
483.808	605.12
484.027	586.12
484.245	591.12
484.463	597.12
484.681	594.12
484.9	603.12
485.118	606.12
485.336	622.12
485.554	638.12
485.772	617.12
485.99	638.12
486.209	631.12
486.427	617.12
486.645	635.12
486.863	671.12
487.081	629.12
487.299	618.12
487.517	610.12
487.735	654.12
487.953	635.12
488.171	629.12
488.389	647.12
488.607	627.12
488.825	616.12
489.043	624.12
489.261	655.12
489.479	655.12
489.696	663.12
489.914	660.12
490.132	659.12
490.35	671.12
490.568	648.12
490.786	677.12
491.003	689.12
491.221	701.12
491.439	715.12
491.657	731.12
491.874	701.12
492.092	723.12
492.31	733.12
492.527	739.12
492.745	719.12
492.963	739.12
493.18	756.12
493.398	762.12
493.615	769.12
493.833	758.12
494.05	775.12
494.268	778.12
494.485	759.12
494.703	714.12
494.92	737.12
495.138	750.12
495.355	782.12
495.573	761.12
495.79	759.12
496.008	767.12
496.225	756.12
496.442	751.12
496.66	801.12
496.877	747.12
497.094	776.12
497.312	770.12
497.529	793.12
497.746	798.12
497.963	823.12
498.181	839.12
498.398	837.12
498.615	860.12
498.832	887.12
499.049	893.12
499.267	939.12
499.484	989.12
499.701	992.12
499.918	1048.12
500.135	1143.12
500.352	1174.12
500.569	1187.12
500.786	1221.12
501.003	1195.12
501.22	1122.12
501.437	1077.12
501.654	1033.12
