Data from 1975.PennyLincolnUp.Lamp.En5.5.200Scan.071719.P1.Changed Mount._HRD10591_15-55-46-858.txt Node
Date: Thu Jul 18 15:55:46 EDT 2019
User: cochatt
Spectrometer: HR+D1059
Trigger mode: 1
Integration Time (sec): 1.000000E-1
Scans to average: 1
Electric dark correction enabled: true
Nonlinearity correction enabled: false
Boxcar width: 0
XAxis mode: Wavelengths
Number of Pixels in Spectrum: 2048
>>>>>Begin Spectral Data<<<<<
223.165	-3.94
223.4	-3.94
223.635	-3.94
223.869	-14.94
224.104	-17.94
224.338	-6.94
224.573	-13.94
224.808	-13.94
225.042	-13.94
225.277	-8.94
225.511	-3.94
225.746	-9.94
225.98	14.06
226.215	24.06
226.449	14.06
226.683	5.06
226.918	18.06
227.152	33.06
227.387	39.06
227.621	49.06
227.856	42.06
228.09	42.06
228.324	44.06
228.559	54.06
228.793	70.06
229.027	78.06
229.262	92.06
229.496	89.06
229.73	108.06
229.964	150.06
230.199	120.06
230.433	96.06
230.667	96.06
230.901	118.06
231.136	107.06
231.37	116.06
231.604	114.06
231.838	114.06
232.072	108.06
232.306	98.06
232.541	97.06
232.775	113.06
233.009	109.06
233.243	116.06
233.477	114.06
233.711	104.06
233.945	105.06
234.179	105.06
234.413	110.06
234.647	113.06
234.881	114.06
235.115	118.06
235.349	112.06
235.583	120.06
235.817	107.06
236.051	128.06
236.285	105.06
236.519	121.06
236.753	112.06
236.987	136.06
237.221	153.06
237.455	206.06
237.689	163.06
237.922	130.06
238.156	123.06
238.39	114.06
238.624	115.06
238.858	131.06
239.091	105.06
239.325	130.06
239.559	124.06
239.793	124.06
240.027	127.06
240.26	140.06
240.494	141.06
240.728	147.06
240.961	147.06
241.195	139.06
241.429	125.06
241.662	132.06
241.896	134.06
242.13	145.06
242.363	130.06
242.597	116.06
242.83	123.06
243.064	125.06
243.298	136.06
243.531	131.06
243.765	135.06
243.998	132.06
244.232	148.06
244.465	141.06
244.699	147.06
244.932	142.06
245.166	152.06
245.399	142.06
245.633	124.06
245.866	138.06
246.099	165.06
246.333	133.06
246.566	143.06
246.8	158.06
247.033	141.06
247.266	142.06
247.5	153.06
247.733	160.06
247.966	157.06
248.2	157.06
248.433	157.06
248.666	163.06
248.899	170.06
249.133	166.06
249.366	199.06
249.599	178.06
249.832	170.06
250.066	151.06
250.299	171.06
250.532	170.06
250.765	213.06
250.998	223.06
251.231	213.06
251.465	209.06
251.698	176.06
251.931	189.06
252.164	183.06
252.397	186.06
252.63	181.06
252.863	192.06
253.096	197.06
253.329	205.06
253.562	192.06
253.795	190.06
254.028	193.06
254.261	196.06
254.494	197.06
254.727	228.06
254.96	228.06
255.193	239.06
255.426	228.06
255.659	205.06
255.892	218.06
256.124	216.06
256.357	227.06
256.59	209.06
256.823	214.06
257.056	203.06
257.289	191.06
257.521	198.06
257.754	203.06
257.987	200.06
258.22	209.06
258.452	187.06
258.685	216.06
258.918	211.06
259.151	189.06
259.383	186.06
259.616	209.06
259.849	200.06
260.081	207.06
260.314	230.06
260.547	236.06
260.779	227.06
261.012	224.06
261.244	216.06
261.477	229.06
261.71	207.06
261.942	216.06
262.175	204.06
262.407	212.06
262.64	201.06
262.872	202.06
263.105	203.06
263.337	207.06
263.57	214.06
263.802	206.06
264.035	205.06
264.267	196.06
264.499	224.06
264.732	202.06
264.964	194.06
265.197	201.06
265.429	221.06
265.661	204.06
265.894	194.06
266.126	196.06
266.358	216.06
266.591	198.06
266.823	213.06
267.055	225.06
267.287	209.06
267.52	212.06
267.752	220.06
267.984	227.06
268.216	212.06
268.448	197.06
268.681	217.06
268.913	224.06
269.145	252.06
269.377	257.06
269.609	266.06
269.841	257.06
270.073	242.06
270.306	273.06
270.538	283.06
270.77	277.06
271.002	264.06
271.234	260.06
271.466	269.06
271.698	283.06
271.93	291.06
272.162	270.06
272.394	276.06
272.626	268.06
272.858	262.06
273.09	258.06
273.322	242.06
273.553	261.06
273.785	267.06
274.017	241.06
274.249	235.06
274.481	249.06
274.713	247.06
274.945	244.06
275.176	243.06
275.408	253.06
275.64	238.06
275.872	245.06
276.104	256.06
276.335	238.06
276.567	259.06
276.799	261.06
277.031	278.06
277.262	280.06
277.494	288.06
277.726	271.06
277.957	267.06
278.189	222.06
278.421	248.06
278.652	259.06
278.884	243.06
279.115	243.06
279.347	267.06
279.579	260.06
279.81	261.06
280.042	256.06
280.273	243.06
280.505	242.06
280.736	268.06
280.968	249.06
281.199	261.06
281.431	257.06
281.662	265.06
281.894	260.06
282.125	244.06
282.356	277.06
282.588	279.06
282.819	271.06
283.051	252.06
283.282	247.06
283.513	251.06
283.745	260.06
283.976	262.06
284.207	277.06
284.439	270.06
284.67	280.06
284.901	275.06
285.132	244.06
285.364	260.06
285.595	266.06
285.826	277.06
286.057	286.06
286.288	285.06
286.52	261.06
286.751	272.06
286.982	278.06
287.213	280.06
287.444	277.06
287.675	291.06
287.906	286.06
288.138	300.06
288.369	271.06
288.6	274.06
288.831	302.06
289.062	290.06
289.293	290.06
289.524	280.06
289.755	287.06
289.986	288.06
290.217	272.06
290.448	288.06
290.679	291.06
290.91	273.06
291.141	285.06
291.371	281.06
291.602	275.06
291.833	265.06
292.064	272.06
292.295	288.06
292.526	284.06
292.757	278.06
292.987	271.06
293.218	268.06
293.449	283.06
293.68	284.06
293.91	293.06
294.141	288.06
294.372	294.06
294.603	270.06
294.833	295.06
295.064	252.06
295.295	294.06
295.525	300.06
295.756	279.06
295.987	300.06
296.217	305.06
296.448	315.06
296.679	290.06
296.909	299.06
297.14	281.06
297.37	299.06
297.601	293.06
297.831	292.06
298.062	265.06
298.292	274.06
298.523	291.06
298.753	283.06
298.984	296.06
299.214	283.06
299.445	282.06
299.675	288.06
299.905	303.06
300.136	300.06
300.366	312.06
300.597	314.06
300.827	308.06
301.057	325.06
301.288	306.06
301.518	313.06
301.748	309.06
301.979	321.06
302.209	312.06
302.439	323.06
302.669	316.06
302.9	305.06
303.13	300.06
303.36	310.06
303.59	310.06
303.82	328.06
304.051	322.06
304.281	314.06
304.511	323.06
304.741	322.06
304.971	310.06
305.201	301.06
305.431	304.06
305.661	320.06
305.891	316.06
306.121	301.06
306.352	305.06
306.582	318.06
306.812	316.06
307.042	306.06
307.272	320.06
307.502	324.06
307.731	300.06
307.961	332.06
308.191	307.06
308.421	308.06
308.651	323.06
308.881	311.06
309.111	293.06
309.341	312.06
309.571	300.06
309.8	329.06
310.03	347.06
310.26	340.06
310.49	345.06
310.72	342.06
310.949	348.06
311.179	349.06
311.409	337.06
311.639	355.06
311.868	346.06
312.098	344.06
312.328	357.06
312.557	350.06
312.787	356.06
313.017	359.06
313.246	358.06
313.476	352.06
313.706	328.06
313.935	341.06
314.165	339.06
314.394	373.06
314.624	372.06
314.853	363.06
315.083	351.06
315.312	337.06
315.542	354.06
315.771	345.06
316.001	359.06
316.23	338.06
316.46	355.06
316.689	327.06
316.919	357.06
317.148	366.06
317.377	349.06
317.607	359.06
317.836	333.06
318.065	337.06
318.295	341.06
318.524	352.06
318.753	343.06
318.983	349.06
319.212	351.06
319.441	367.06
319.67	361.06
319.9	372.06
320.129	356.06
320.358	362.06
320.587	344.06
320.816	357.06
321.046	355.06
321.275	351.06
321.504	356.06
321.733	382.06
321.962	353.06
322.191	359.06
322.42	365.06
322.649	393.06
322.878	408.06
323.108	387.06
323.337	396.06
323.566	432.06
323.795	412.06
324.024	477.06
324.253	520.06
324.482	701.06
324.71	1062.06
324.939	1534.06
325.168	1359.06
325.397	672.06
325.626	482.06
325.855	423.06
326.084	420.06
326.313	406.06
326.542	427.06
326.77	439.06
326.999	504.06
327.228	646.06
327.457	970.06
327.686	1205.06
327.914	794.06
328.143	548.06
328.372	493.06
328.6	446.06
328.829	437.06
329.058	446.06
329.287	453.06
329.515	426.06
329.744	427.06
329.972	440.06
330.201	447.06
330.43	468.06
330.658	458.06
330.887	468.06
331.115	460.06
331.344	442.06
331.572	434.06
331.801	427.06
332.03	424.06
332.258	424.06
332.486	449.06
332.715	436.06
332.943	416.06
333.172	424.06
333.4	420.06
333.629	440.06
333.857	456.06
334.085	438.06
334.314	438.06
334.542	438.06
334.771	497.06
334.999	449.06
335.227	452.06
335.455	450.06
335.684	428.06
335.912	426.06
336.14	420.06
336.369	409.06
336.597	441.06
336.825	413.06
337.053	420.06
337.281	400.06
337.51	416.06
337.738	412.06
337.966	434.06
338.194	420.06
338.422	409.06
338.65	416.06
338.878	396.06
339.106	398.06
339.334	379.06
339.562	395.06
339.79	387.06
340.018	407.06
340.246	397.06
340.474	396.06
340.702	392.06
340.93	424.06
341.158	394.06
341.386	407.06
341.614	390.06
341.842	388.06
342.07	371.06
342.298	393.06
342.526	386.06
342.754	379.06
342.981	388.06
343.209	394.06
343.437	389.06
343.665	401.06
343.893	416.06
344.12	428.06
344.348	424.06
344.576	418.06
344.804	412.06
345.031	416.06
345.259	417.06
345.487	414.06
345.714	388.06
345.942	393.06
346.17	399.06
346.397	380.06
346.625	402.06
346.853	392.06
347.08	381.06
347.308	388.06
347.535	387.06
347.763	391.06
347.99	396.06
348.218	373.06
348.445	383.06
348.673	391.06
348.9	373.06
349.128	380.06
349.355	363.06
349.583	363.06
349.81	377.06
350.037	370.06
350.265	374.06
350.492	388.06
350.72	379.06
350.947	364.06
351.174	368.06
351.402	393.06
351.629	397.06
351.856	380.06
352.083	409.06
352.311	400.06
352.538	380.06
352.765	403.06
352.992	402.06
353.22	383.06
353.447	393.06
353.674	384.06
353.901	381.06
354.128	363.06
354.355	380.06
354.583	361.06
354.81	378.06
355.037	364.06
355.264	367.06
355.491	380.06
355.718	362.06
355.945	359.06
356.172	374.06
356.399	357.06
356.626	362.06
356.853	375.06
357.08	369.06
357.307	360.06
357.534	368.06
357.761	364.06
357.988	376.06
358.215	364.06
358.441	379.06
358.668	382.06
358.895	355.06
359.122	376.06
359.349	378.06
359.576	363.06
359.802	396.06
360.029	415.06
360.256	413.06
360.483	412.06
360.709	387.06
360.936	382.06
361.163	399.06
361.39	406.06
361.616	399.06
361.843	412.06
362.07	388.06
362.296	387.06
362.523	378.06
362.749	363.06
362.976	372.06
363.203	382.06
363.429	366.06
363.656	384.06
363.882	375.06
364.109	385.06
364.335	364.06
364.562	378.06
364.788	402.06
365.015	360.06
365.241	390.06
365.468	372.06
365.694	375.06
365.92	381.06
366.147	382.06
366.373	392.06
366.599	384.06
366.826	373.06
367.052	380.06
367.278	385.06
367.505	392.06
367.731	401.06
367.957	382.06
368.184	382.06
368.41	398.06
368.636	375.06
368.862	384.06
369.089	370.06
369.315	401.06
369.541	379.06
369.767	390.06
369.993	397.06
370.219	394.06
370.445	392.06
370.672	389.06
370.898	378.06
371.124	378.06
371.35	377.06
371.576	393.06
371.802	401.06
372.028	389.06
372.254	362.06
372.48	400.06
372.706	402.06
372.932	373.06
373.158	392.06
373.384	401.06
373.61	401.06
373.835	380.06
374.061	404.06
374.287	394.06
374.513	399.06
374.739	414.06
374.965	409.06
375.191	406.06
375.416	389.06
375.642	385.06
375.868	398.06
376.094	406.06
376.319	403.06
376.545	397.06
376.771	373.06
376.997	395.06
377.222	394.06
377.448	381.06
377.674	376.06
377.899	384.06
378.125	379.06
378.35	405.06
378.576	406.06
378.802	380.06
379.027	391.06
379.253	386.06
379.478	398.06
379.704	399.06
379.929	401.06
380.155	395.06
380.38	401.06
380.606	390.06
380.831	390.06
381.057	397.06
381.282	380.06
381.507	386.06
381.733	396.06
381.958	428.06
382.184	408.06
382.409	406.06
382.634	419.06
382.86	394.06
383.085	395.06
383.31	420.06
383.535	424.06
383.761	434.06
383.986	421.06
384.211	413.06
384.436	421.06
384.662	417.06
384.887	433.06
385.112	434.06
385.337	436.06
385.562	428.06
385.787	447.06
386.013	449.06
386.238	441.06
386.463	463.06
386.688	438.06
386.913	412.06
387.138	450.06
387.363	455.06
387.588	430.06
387.813	422.06
388.038	428.06
388.263	441.06
388.488	442.06
388.713	434.06
388.938	448.06
389.163	437.06
389.387	425.06
389.612	441.06
389.837	442.06
390.062	419.06
390.287	417.06
390.512	430.06
390.736	449.06
390.961	448.06
391.186	450.06
391.411	466.06
391.636	433.06
391.86	446.06
392.085	456.06
392.31	449.06
392.534	446.06
392.759	448.06
392.984	430.06
393.208	448.06
393.433	476.06
393.658	452.06
393.882	446.06
394.107	469.06
394.331	453.06
394.556	434.06
394.78	432.06
395.005	456.06
395.229	475.06
395.454	475.06
395.678	471.06
395.903	481.06
396.127	479.06
396.352	488.06
396.576	464.06
396.801	455.06
397.025	466.06
397.249	445.06
397.474	476.06
397.698	470.06
397.922	481.06
398.147	484.06
398.371	493.06
398.595	499.06
398.82	499.06
399.044	519.06
399.268	519.06
399.492	562.06
399.717	605.06
399.941	642.06
400.165	640.06
400.389	634.06
400.613	594.06
400.837	560.06
401.062	516.06
401.286	499.06
401.51	514.06
401.734	520.06
401.958	498.06
402.182	520.06
402.406	508.06
402.63	517.06
402.854	512.06
403.078	520.06
403.302	515.06
403.526	527.06
403.75	532.06
403.974	533.06
404.198	520.06
404.422	543.06
404.645	562.06
404.869	562.06
405.093	572.06
405.317	587.06
405.541	636.06
405.765	586.06
405.988	547.06
406.212	577.06
406.436	562.06
406.66	565.06
406.883	571.06
407.107	607.06
407.331	626.06
407.555	678.06
407.778	693.06
408.002	652.06
408.226	582.06
408.449	584.06
408.673	569.06
408.896	584.06
409.12	658.06
409.344	605.06
409.567	534.06
409.791	533.06
410.014	540.06
410.238	530.06
410.461	524.06
410.685	560.06
410.908	563.06
411.132	561.06
411.355	588.06
411.578	591.06
411.802	532.06
412.025	540.06
412.249	545.06
412.472	565.06
412.695	612.06
412.919	588.06
413.142	552.06
413.365	502.06
413.589	515.06
413.812	501.06
414.035	505.06
414.258	491.06
414.482	517.06
414.705	518.06
414.928	512.06
415.151	515.06
415.374	509.06
415.597	500.06
415.821	462.06
416.044	484.06
416.267	501.06
416.49	502.06
416.713	482.06
416.936	488.06
417.159	490.06
417.382	497.06
417.605	508.06
417.828	516.06
418.051	520.06
418.274	546.06
418.497	521.06
418.72	508.06
418.943	509.06
419.166	514.06
419.389	566.06
419.611	554.06
419.834	532.06
420.057	545.06
420.28	541.06
420.503	546.06
420.726	518.06
420.948	531.06
421.171	562.06
421.394	577.06
421.617	524.06
421.839	514.06
422.062	516.06
422.285	541.06
422.507	583.06
422.73	651.06
422.953	652.06
423.175	547.06
423.398	532.06
423.621	522.06
423.843	557.06
424.066	540.06
424.288	563.06
424.511	572.06
424.733	625.06
424.956	694.06
425.178	664.06
425.401	669.06
425.623	676.06
425.846	568.06
426.068	549.06
426.291	533.06
426.513	551.06
426.735	553.06
426.958	586.06
427.18	671.06
427.402	790.06
427.625	850.06
427.847	700.06
428.069	641.06
428.292	562.06
428.514	523.06
428.736	536.06
428.958	518.06
429.181	500.06
429.403	497.06
429.625	506.06
429.847	530.06
430.069	584.06
430.292	582.06
430.514	527.06
430.736	488.06
430.958	485.06
431.18	507.06
431.402	498.06
431.624	486.06
431.846	481.06
432.068	508.06
432.29	491.06
432.512	500.06
432.734	466.06
432.956	491.06
433.178	508.06
433.4	514.06
433.622	475.06
433.844	474.06
434.066	480.06
434.287	481.06
434.509	475.06
434.731	498.06
434.953	526.06
435.175	536.06
435.397	542.06
435.618	524.06
435.84	572.06
436.062	654.06
436.284	742.06
436.505	602.06
436.727	554.06
436.949	538.06
437.17	511.06
437.392	519.06
437.614	485.06
437.835	536.06
438.057	597.06
438.278	703.06
438.5	712.06
438.721	769.06
438.943	774.06
439.165	597.06
439.386	534.06
439.608	540.06
439.829	545.06
440.05	576.06
440.272	602.06
440.493	585.06
440.715	515.06
440.936	521.06
441.158	504.06
441.379	505.06
441.6	507.06
441.822	523.06
442.043	567.06
442.264	650.06
442.486	704.06
442.707	586.06
442.928	565.06
443.149	543.06
443.371	566.06
443.592	633.06
443.813	708.06
444.034	789.06
444.255	649.06
444.476	577.06
444.698	592.06
444.919	589.06
445.14	688.06
445.361	634.06
445.582	595.06
445.803	629.06
446.024	745.06
446.245	713.06
446.466	665.06
446.687	579.06
446.908	533.06
447.129	533.06
447.35	503.06
447.571	510.06
447.792	505.06
448.013	498.06
448.234	487.06
448.455	559.06
448.675	640.06
448.896	768.06
449.117	666.06
449.338	602.06
449.559	704.06
449.779	790.06
450	664.06
450.221	528.06
450.442	501.06
450.662	472.06
450.883	469.06
451.104	480.06
451.324	492.06
451.545	483.06
451.766	455.06
451.986	432.06
452.207	445.06
452.428	434.06
452.648	442.06
452.869	429.06
453.089	448.06
453.31	461.06
453.53	455.06
453.751	453.06
453.971	442.06
454.192	451.06
454.412	443.06
454.633	437.06
454.853	434.06
455.073	443.06
455.294	457.06
455.514	513.06
455.734	504.06
455.955	440.06
456.175	446.06
456.395	420.06
456.616	426.06
456.836	415.06
457.056	430.06
457.276	430.06
457.497	429.06
457.717	426.06
457.937	428.06
458.157	435.06
458.377	468.06
458.598	450.06
458.818	484.06
459.038	539.06
459.258	576.06
459.478	523.06
459.698	480.06
459.918	504.06
460.138	507.06
460.358	475.06
460.578	502.06
460.798	493.06
461.018	527.06
461.238	524.06
461.458	509.06
461.678	514.06
461.898	513.06
462.118	508.06
462.338	522.06
462.558	549.06
462.777	560.06
462.997	570.06
463.217	573.06
463.437	567.06
463.657	551.06
463.876	564.06
464.096	566.06
464.316	541.06
464.536	567.06
464.755	528.06
464.975	524.06
465.195	554.06
465.414	587.06
465.634	549.06
465.854	487.06
466.073	499.06
466.293	480.06
466.512	469.06
466.732	472.06
466.951	464.06
467.171	460.06
467.391	469.06
467.61	468.06
467.829	484.06
468.049	482.06
468.268	460.06
468.488	461.06
468.707	442.06
468.927	453.06
469.146	442.06
469.365	463.06
469.585	449.06
469.804	464.06
470.023	467.06
470.243	465.06
470.462	463.06
470.681	472.06
470.901	484.06
471.12	478.06
471.339	466.06
471.558	475.06
471.777	474.06
471.997	453.06
472.216	450.06
472.435	480.06
472.654	473.06
472.873	453.06
473.092	458.06
473.311	475.06
473.53	476.06
473.749	467.06
473.968	490.06
474.187	596.06
474.406	626.06
474.625	525.06
474.844	498.06
475.063	486.06
475.282	478.06
475.501	485.06
475.72	496.06
475.939	466.06
476.158	504.06
476.377	509.06
476.596	482.06
476.814	500.06
477.033	504.06
477.252	500.06
477.471	507.06
477.69	517.06
477.908	537.06
478.127	525.06
478.346	520.06
478.564	524.06
478.783	540.06
479.002	557.06
479.22	529.06
479.439	560.06
479.658	563.06
479.876	557.06
480.095	581.06
480.313	612.06
480.532	584.06
480.751	577.06
480.969	585.06
481.188	621.06
481.406	643.06
481.624	586.06
481.843	553.06
482.061	537.06
482.28	542.06
482.498	553.06
482.717	550.06
482.935	545.06
483.153	536.06
483.372	550.06
483.59	543.06
483.808	556.06
484.027	532.06
484.245	544.06
484.463	557.06
484.681	543.06
484.9	553.06
485.118	573.06
485.336	550.06
485.554	566.06
485.772	578.06
485.99	570.06
486.209	570.06
486.427	586.06
486.645	574.06
486.863	618.06
487.081	609.06
487.299	598.06
487.517	602.06
487.735	596.06
487.953	600.06
488.171	580.06
488.389	584.06
488.607	582.06
488.825	582.06
489.043	570.06
489.261	585.06
489.479	582.06
489.696	599.06
489.914	591.06
490.132	590.06
490.35	613.06
490.568	625.06
490.786	620.06
491.003	616.06
491.221	669.06
491.439	656.06
491.657	674.06
491.874	671.06
492.092	676.06
492.31	686.06
492.527	704.06
492.745	671.06
492.963	694.06
493.18	688.06
493.398	676.06
493.615	683.06
493.833	714.06
494.05	685.06
494.268	682.06
494.485	693.06
494.703	668.06
494.92	695.06
495.138	690.06
495.355	699.06
495.573	700.06
495.79	724.06
496.008	701.06
496.225	693.06
496.442	681.06
496.66	692.06
496.877	711.06
497.094	712.06
497.312	714.06
497.529	712.06
497.746	739.06
497.963	730.06
498.181	775.06
498.398	778.06
498.615	774.06
498.832	804.06
499.049	829.06
499.267	856.06
499.484	888.06
499.701	936.06
499.918	967.06
500.135	1052.06
500.352	1098.06
500.569	1148.06
500.786	1130.06
501.003	1100.06
501.22	1040.06
501.437	1011.06
501.654	947.06
501.871	913.06
