Data from 1975.PennyLincolnUp.Lamp.En5.5.200Scan.071719.P1.Changed Mount._HRD10591_15-57-17-860.txt Node
Date: Thu Jul 18 15:57:17 EDT 2019
User: cochatt
Spectrometer: HR+D1059
Trigger mode: 1
Integration Time (sec): 1.000000E-1
Scans to average: 1
Electric dark correction enabled: true
Nonlinearity correction enabled: false
Boxcar width: 0
XAxis mode: Wavelengths
Number of Pixels in Spectrum: 2048
>>>>>Begin Spectral Data<<<<<
223.165	-14.75
223.4	-14.75
223.635	-14.75
223.869	-20.75
224.104	-16.75
224.338	-15.75
224.573	0.25
224.808	0.25
225.042	-12.75
225.277	-10.75
225.511	-8.75
225.746	-2.75
225.98	6.25
226.215	5.25
226.449	11.25
226.683	19.25
226.918	30.25
227.152	30.25
227.387	34.25
227.621	34.25
227.856	48.25
228.09	39.25
228.324	39.25
228.559	55.25
228.793	55.25
229.027	84.25
229.262	100.25
229.496	119.25
229.73	139.25
229.964	169.25
230.199	109.25
230.433	108.25
230.667	117.25
230.901	112.25
231.136	110.25
231.37	116.25
231.604	105.25
231.838	114.25
232.072	114.25
232.306	115.25
232.541	99.25
232.775	114.25
233.009	121.25
233.243	129.25
233.477	108.25
233.711	108.25
233.945	107.25
234.179	119.25
234.413	119.25
234.647	119.25
234.881	114.25
235.115	110.25
235.349	118.25
235.583	119.25
235.817	111.25
236.051	131.25
236.285	116.25
236.519	130.25
236.753	122.25
236.987	147.25
237.221	168.25
237.455	245.25
237.689	192.25
237.922	140.25
238.156	138.25
238.39	134.25
238.624	120.25
238.858	123.25
239.091	116.25
239.325	125.25
239.559	128.25
239.793	107.25
240.027	132.25
240.26	146.25
240.494	154.25
240.728	147.25
240.961	158.25
241.195	138.25
241.429	147.25
241.662	142.25
241.896	143.25
242.13	146.25
242.363	126.25
242.597	137.25
242.83	147.25
243.064	151.25
243.298	151.25
243.531	151.25
243.765	136.25
243.998	135.25
244.232	150.25
244.465	147.25
244.699	142.25
244.932	162.25
245.166	140.25
245.399	149.25
245.633	152.25
245.866	149.25
246.099	140.25
246.333	147.25
246.566	139.25
246.8	155.25
247.033	154.25
247.266	168.25
247.5	169.25
247.733	170.25
247.966	154.25
248.2	159.25
248.433	162.25
248.666	166.25
248.899	178.25
249.133	200.25
249.366	214.25
249.599	200.25
249.832	205.25
250.066	205.25
250.299	189.25
250.532	181.25
250.765	219.25
250.998	230.25
251.231	241.25
251.465	233.25
251.698	203.25
251.931	202.25
252.164	215.25
252.397	191.25
252.63	205.25
252.863	209.25
253.096	222.25
253.329	215.25
253.562	220.25
253.795	233.25
254.028	226.25
254.261	214.25
254.494	249.25
254.727	250.25
254.96	283.25
255.193	270.25
255.426	245.25
255.659	246.25
255.892	231.25
256.124	234.25
256.357	233.25
256.59	230.25
256.823	219.25
257.056	210.25
257.289	212.25
257.521	219.25
257.754	211.25
257.987	229.25
258.22	211.25
258.452	231.25
258.685	226.25
258.918	209.25
259.151	225.25
259.383	237.25
259.616	226.25
259.849	224.25
260.081	253.25
260.314	279.25
260.547	256.25
260.779	257.25
261.012	253.25
261.244	239.25
261.477	229.25
261.71	236.25
261.942	222.25
262.175	250.25
262.407	234.25
262.64	220.25
262.872	220.25
263.105	216.25
263.337	238.25
263.57	215.25
263.802	213.25
264.035	217.25
264.267	213.25
264.499	229.25
264.732	216.25
264.964	218.25
265.197	219.25
265.429	233.25
265.661	217.25
265.894	226.25
266.126	216.25
266.358	239.25
266.591	240.25
266.823	248.25
267.055	233.25
267.287	239.25
267.52	236.25
267.752	233.25
267.984	240.25
268.216	242.25
268.448	256.25
268.681	259.25
268.913	256.25
269.145	264.25
269.377	285.25
269.609	252.25
269.841	267.25
270.073	267.25
270.306	291.25
270.538	336.25
270.77	321.25
271.002	309.25
271.234	299.25
271.466	317.25
271.698	328.25
271.93	338.25
272.162	324.25
272.394	325.25
272.626	310.25
272.858	295.25
273.09	278.25
273.322	275.25
273.553	265.25
273.785	286.25
274.017	274.25
274.249	274.25
274.481	274.25
274.713	277.25
274.945	277.25
275.176	296.25
275.408	278.25
275.64	293.25
275.872	266.25
276.104	290.25
276.335	268.25
276.567	271.25
276.799	296.25
277.031	310.25
277.262	332.25
277.494	336.25
277.726	328.25
277.957	310.25
278.189	305.25
278.421	278.25
278.652	267.25
278.884	298.25
279.115	288.25
279.347	280.25
279.579	276.25
279.81	276.25
280.042	282.25
280.273	287.25
280.505	295.25
280.736	287.25
280.968	291.25
281.199	279.25
281.431	272.25
281.662	306.25
281.894	294.25
282.125	303.25
282.356	306.25
282.588	330.25
282.819	318.25
283.051	306.25
283.282	308.25
283.513	312.25
283.745	299.25
283.976	298.25
284.207	303.25
284.439	293.25
284.67	302.25
284.901	302.25
285.132	300.25
285.364	291.25
285.595	311.25
285.826	292.25
286.057	299.25
286.288	287.25
286.52	314.25
286.751	307.25
286.982	298.25
287.213	302.25
287.444	291.25
287.675	291.25
287.906	312.25
288.138	329.25
288.369	310.25
288.6	322.25
288.831	334.25
289.062	318.25
289.293	316.25
289.524	304.25
289.755	329.25
289.986	328.25
290.217	309.25
290.448	290.25
290.679	316.25
290.91	309.25
291.141	309.25
291.371	316.25
291.602	326.25
291.833	310.25
292.064	316.25
292.295	320.25
292.526	304.25
292.757	322.25
292.987	303.25
293.218	312.25
293.449	325.25
293.68	304.25
293.91	304.25
294.141	298.25
294.372	305.25
294.603	322.25
294.833	313.25
295.064	323.25
295.295	311.25
295.525	321.25
295.756	320.25
295.987	308.25
296.217	345.25
296.448	359.25
296.679	334.25
296.909	316.25
297.14	333.25
297.37	313.25
297.601	346.25
297.831	334.25
298.062	342.25
298.292	322.25
298.523	339.25
298.753	348.25
298.984	348.25
299.214	303.25
299.445	335.25
299.675	338.25
299.905	335.25
300.136	320.25
300.366	329.25
300.597	341.25
300.827	328.25
301.057	324.25
301.288	355.25
301.518	345.25
301.748	336.25
301.979	359.25
302.209	340.25
302.439	348.25
302.669	353.25
302.9	350.25
303.13	353.25
303.36	355.25
303.59	350.25
303.82	351.25
304.051	355.25
304.281	353.25
304.511	338.25
304.741	347.25
304.971	354.25
305.201	350.25
305.431	351.25
305.661	343.25
305.891	345.25
306.121	348.25
306.352	361.25
306.582	375.25
306.812	342.25
307.042	356.25
307.272	359.25
307.502	344.25
307.731	355.25
307.961	355.25
308.191	354.25
308.421	348.25
308.651	356.25
308.881	364.25
309.111	358.25
309.341	350.25
309.571	342.25
309.8	407.25
310.03	392.25
310.26	370.25
310.49	398.25
310.72	392.25
310.949	411.25
311.179	396.25
311.409	395.25
311.639	378.25
311.868	385.25
312.098	408.25
312.328	388.25
312.557	380.25
312.787	411.25
313.017	416.25
313.246	412.25
313.476	373.25
313.706	391.25
313.935	390.25
314.165	386.25
314.394	392.25
314.624	417.25
314.853	405.25
315.083	400.25
315.312	397.25
315.542	390.25
315.771	389.25
316.001	394.25
316.23	395.25
316.46	400.25
316.689	421.25
316.919	411.25
317.148	419.25
317.377	400.25
317.607	388.25
317.836	406.25
318.065	384.25
318.295	396.25
318.524	403.25
318.753	374.25
318.983	405.25
319.212	401.25
319.441	396.25
319.67	402.25
319.9	409.25
320.129	409.25
320.358	388.25
320.587	402.25
320.816	398.25
321.046	408.25
321.275	410.25
321.504	415.25
321.733	419.25
321.962	432.25
322.191	404.25
322.42	408.25
322.649	439.25
322.878	459.25
323.108	453.25
323.337	458.25
323.566	472.25
323.795	501.25
324.024	536.25
324.253	610.25
324.482	852.25
324.71	1295.25
324.939	1877.25
325.168	1697.25
325.397	851.25
325.626	589.25
325.855	520.25
326.084	502.25
326.313	491.25
326.542	482.25
326.77	535.25
326.999	577.25
327.228	790.25
327.457	1128.25
327.686	1408.25
327.914	981.25
328.143	666.25
328.372	588.25
328.6	571.25
328.829	534.25
329.058	545.25
329.287	555.25
329.515	544.25
329.744	509.25
329.972	519.25
330.201	533.25
330.43	538.25
330.658	577.25
330.887	584.25
331.115	570.25
331.344	513.25
331.572	491.25
331.801	511.25
332.03	498.25
332.258	508.25
332.486	498.25
332.715	483.25
332.943	467.25
333.172	459.25
333.4	509.25
333.629	524.25
333.857	520.25
334.085	522.25
334.314	542.25
334.542	572.25
334.771	601.25
334.999	539.25
335.227	512.25
335.455	505.25
335.684	491.25
335.912	500.25
336.14	467.25
336.369	466.25
336.597	486.25
336.825	489.25
337.053	468.25
337.281	468.25
337.51	461.25
337.738	465.25
337.966	456.25
338.194	464.25
338.422	460.25
338.65	453.25
338.878	473.25
339.106	463.25
339.334	449.25
339.562	456.25
339.79	461.25
340.018	437.25
340.246	434.25
340.474	432.25
340.702	426.25
340.93	458.25
341.158	462.25
341.386	455.25
341.614	458.25
341.842	453.25
342.07	458.25
342.298	434.25
342.526	441.25
342.754	446.25
342.981	458.25
343.209	424.25
343.437	465.25
343.665	482.25
343.893	479.25
344.12	483.25
344.348	470.25
344.576	473.25
344.804	478.25
345.031	471.25
345.259	498.25
345.487	457.25
345.714	452.25
345.942	437.25
346.17	438.25
346.397	441.25
346.625	431.25
346.853	435.25
347.08	415.25
347.308	455.25
347.535	427.25
347.763	449.25
347.99	452.25
348.218	451.25
348.445	443.25
348.673	444.25
348.9	442.25
349.128	415.25
349.355	422.25
349.583	426.25
349.81	427.25
350.037	434.25
350.265	432.25
350.492	418.25
350.72	432.25
350.947	406.25
351.174	444.25
351.402	453.25
351.629	438.25
351.856	425.25
352.083	466.25
352.311	460.25
352.538	441.25
352.765	452.25
352.992	431.25
353.22	442.25
353.447	435.25
353.674	412.25
353.901	409.25
354.128	428.25
354.355	413.25
354.583	407.25
354.81	418.25
355.037	407.25
355.264	414.25
355.491	411.25
355.718	400.25
355.945	406.25
356.172	415.25
356.399	427.25
356.626	425.25
356.853	430.25
357.08	418.25
357.307	406.25
357.534	407.25
357.761	435.25
357.988	415.25
358.215	420.25
358.441	431.25
358.668	423.25
358.895	420.25
359.122	411.25
359.349	438.25
359.576	410.25
359.802	446.25
360.029	454.25
360.256	483.25
360.483	462.25
360.709	427.25
360.936	434.25
361.163	448.25
361.39	446.25
361.616	437.25
361.843	420.25
362.07	446.25
362.296	434.25
362.523	427.25
362.749	430.25
362.976	421.25
363.203	436.25
363.429	438.25
363.656	427.25
363.882	406.25
364.109	416.25
364.335	434.25
364.562	397.25
364.788	413.25
365.015	434.25
365.241	416.25
365.468	433.25
365.694	444.25
365.92	420.25
366.147	417.25
366.373	425.25
366.599	431.25
366.826	440.25
367.052	422.25
367.278	430.25
367.505	426.25
367.731	422.25
367.957	407.25
368.184	422.25
368.41	434.25
368.636	441.25
368.862	463.25
369.089	440.25
369.315	419.25
369.541	440.25
369.767	437.25
369.993	436.25
370.219	439.25
370.445	434.25
370.672	445.25
370.898	414.25
371.124	438.25
371.35	426.25
371.576	445.25
371.802	442.25
372.028	424.25
372.254	432.25
372.48	438.25
372.706	451.25
372.932	443.25
373.158	448.25
373.384	462.25
373.61	427.25
373.835	438.25
374.061	445.25
374.287	426.25
374.513	422.25
374.739	451.25
374.965	458.25
375.191	458.25
375.416	442.25
375.642	443.25
375.868	444.25
376.094	436.25
376.319	438.25
376.545	438.25
376.771	443.25
376.997	421.25
377.222	435.25
377.448	435.25
377.674	426.25
377.899	437.25
378.125	426.25
378.35	420.25
378.576	442.25
378.802	446.25
379.027	443.25
379.253	442.25
379.478	436.25
379.704	434.25
379.929	438.25
380.155	447.25
380.38	452.25
380.606	427.25
380.831	418.25
381.057	430.25
381.282	417.25
381.507	431.25
381.733	444.25
381.958	441.25
382.184	458.25
382.409	463.25
382.634	453.25
382.86	422.25
383.085	482.25
383.31	473.25
383.535	443.25
383.761	470.25
383.986	472.25
384.211	473.25
384.436	459.25
384.662	482.25
384.887	491.25
385.112	474.25
385.337	516.25
385.562	474.25
385.787	476.25
386.013	495.25
386.238	508.25
386.463	523.25
386.688	491.25
386.913	484.25
387.138	485.25
387.363	480.25
387.588	501.25
387.813	497.25
388.038	489.25
388.263	482.25
388.488	486.25
388.713	475.25
388.938	480.25
389.163	482.25
389.387	501.25
389.612	508.25
389.837	466.25
390.062	464.25
390.287	512.25
390.512	500.25
390.736	481.25
390.961	488.25
391.186	497.25
391.411	512.25
391.636	502.25
391.86	500.25
392.085	532.25
392.31	507.25
392.534	528.25
392.759	502.25
392.984	508.25
393.208	505.25
393.433	496.25
393.658	479.25
393.882	510.25
394.107	478.25
394.331	512.25
394.556	484.25
394.78	498.25
395.005	514.25
395.229	499.25
395.454	490.25
395.678	532.25
395.903	539.25
396.127	538.25
396.352	514.25
396.576	514.25
396.801	529.25
397.025	535.25
397.249	528.25
397.474	520.25
397.698	516.25
397.922	524.25
398.147	543.25
398.371	596.25
398.595	570.25
398.82	580.25
399.044	583.25
399.268	604.25
399.492	649.25
399.717	680.25
399.941	704.25
400.165	726.25
400.389	710.25
400.613	647.25
400.837	624.25
401.062	600.25
401.286	599.25
401.51	587.25
401.734	566.25
401.958	574.25
402.182	582.25
402.406	615.25
402.63	590.25
402.854	595.25
403.078	582.25
403.302	590.25
403.526	597.25
403.75	611.25
403.974	609.25
404.198	578.25
404.422	624.25
404.645	616.25
404.869	627.25
405.093	655.25
405.317	713.25
405.541	710.25
405.765	666.25
405.988	627.25
406.212	622.25
406.436	672.25
406.66	657.25
406.883	624.25
407.107	672.25
407.331	714.25
407.555	799.25
407.778	772.25
408.002	724.25
408.226	702.25
408.449	642.25
408.673	664.25
408.896	692.25
409.12	739.25
409.344	686.25
409.567	609.25
409.791	627.25
410.014	585.25
410.238	587.25
410.461	606.25
410.685	591.25
410.908	622.25
411.132	658.25
411.355	704.25
411.578	653.25
411.802	580.25
412.025	599.25
412.249	617.25
412.472	651.25
412.695	661.25
412.919	678.25
413.142	629.25
413.365	618.25
413.589	576.25
413.812	579.25
414.035	562.25
414.258	563.25
414.482	562.25
414.705	557.25
414.928	562.25
415.151	584.25
415.374	573.25
415.597	568.25
415.821	541.25
416.044	556.25
416.267	584.25
416.49	561.25
416.713	567.25
416.936	568.25
417.159	553.25
417.382	542.25
417.605	592.25
417.828	574.25
418.051	583.25
418.274	567.25
418.497	554.25
418.72	595.25
418.943	556.25
419.166	594.25
419.389	612.25
419.611	610.25
419.834	633.25
420.057	612.25
420.28	601.25
420.503	598.25
420.726	606.25
420.948	592.25
421.171	635.25
421.394	677.25
421.617	616.25
421.839	612.25
422.062	572.25
422.285	604.25
422.507	658.25
422.73	756.25
422.953	730.25
423.175	649.25
423.398	609.25
423.621	626.25
423.843	638.25
424.066	647.25
424.288	624.25
424.511	630.25
424.733	707.25
424.956	783.25
425.178	712.25
425.401	751.25
425.623	802.25
425.846	672.25
426.068	628.25
426.291	600.25
426.513	619.25
426.735	636.25
426.958	675.25
427.18	735.25
427.402	888.25
427.625	953.25
427.847	837.25
428.069	719.25
428.292	667.25
428.514	614.25
428.736	574.25
428.958	573.25
429.181	581.25
429.403	559.25
429.625	586.25
429.847	624.25
430.069	670.25
430.292	669.25
430.514	593.25
430.736	567.25
430.958	584.25
431.18	545.25
431.402	532.25
431.624	560.25
431.846	554.25
432.068	534.25
432.29	564.25
432.512	567.25
432.734	543.25
432.956	548.25
433.178	572.25
433.4	572.25
433.622	545.25
433.844	548.25
434.066	535.25
434.287	549.25
434.509	562.25
434.731	536.25
434.953	580.25
435.175	601.25
435.397	615.25
435.618	640.25
435.84	631.25
436.062	758.25
436.284	836.25
436.505	698.25
436.727	624.25
436.949	603.25
437.17	579.25
437.392	576.25
437.614	582.25
437.835	608.25
438.057	678.25
438.278	806.25
438.5	799.25
438.721	884.25
438.943	878.25
439.165	694.25
439.386	631.25
439.608	635.25
439.829	641.25
440.05	653.25
440.272	677.25
440.493	652.25
440.715	610.25
440.936	585.25
441.158	572.25
441.379	579.25
441.6	601.25
441.822	633.25
442.043	648.25
442.264	730.25
442.486	802.25
442.707	718.25
442.928	645.25
443.149	653.25
443.371	647.25
443.592	692.25
443.813	774.25
444.034	870.25
444.255	734.25
444.476	643.25
444.698	666.25
444.919	639.25
445.14	786.25
445.361	684.25
445.582	643.25
445.803	739.25
446.024	820.25
446.245	840.25
446.466	762.25
446.687	670.25
446.908	611.25
447.129	592.25
447.35	591.25
447.571	568.25
447.792	570.25
448.013	564.25
448.234	587.25
448.455	644.25
448.675	766.25
448.896	840.25
449.117	730.25
449.338	702.25
449.559	787.25
449.779	915.25
450	712.25
450.221	624.25
450.442	552.25
450.662	528.25
450.883	538.25
451.104	548.25
451.324	531.25
451.545	534.25
451.766	507.25
451.986	511.25
452.207	517.25
452.428	543.25
452.648	509.25
452.869	495.25
453.089	504.25
453.31	514.25
453.53	500.25
453.751	489.25
453.971	496.25
454.192	531.25
454.412	508.25
454.633	494.25
454.853	489.25
455.073	505.25
455.294	547.25
455.514	596.25
455.734	607.25
455.955	491.25
456.175	499.25
456.395	456.25
456.616	475.25
456.836	491.25
457.056	460.25
457.276	471.25
457.497	476.25
457.717	465.25
457.937	488.25
458.157	484.25
458.377	486.25
458.598	512.25
458.818	543.25
459.038	653.25
459.258	659.25
459.478	605.25
459.698	539.25
459.918	559.25
460.138	547.25
460.358	548.25
460.578	579.25
460.798	571.25
461.018	560.25
461.238	575.25
461.458	564.25
461.678	551.25
461.898	575.25
462.118	566.25
462.338	602.25
462.558	615.25
462.777	604.25
462.997	642.25
463.217	666.25
463.437	646.25
463.657	619.25
463.876	606.25
464.096	623.25
464.316	601.25
464.536	608.25
464.755	614.25
464.975	605.25
465.195	618.25
465.414	662.25
465.634	606.25
465.854	579.25
466.073	564.25
466.293	560.25
466.512	532.25
466.732	544.25
466.951	538.25
467.171	516.25
467.391	506.25
467.61	535.25
467.829	524.25
468.049	546.25
468.268	518.25
468.488	518.25
468.707	510.25
468.927	492.25
469.146	494.25
469.365	530.25
469.585	507.25
469.804	519.25
470.023	535.25
470.243	531.25
470.462	539.25
470.681	547.25
470.901	539.25
471.12	533.25
471.339	525.25
471.558	543.25
471.777	528.25
471.997	526.25
472.216	517.25
472.435	574.25
472.654	565.25
472.873	538.25
473.092	552.25
473.311	525.25
473.53	549.25
473.749	549.25
473.968	548.25
474.187	643.25
474.406	676.25
474.625	575.25
474.844	546.25
475.063	518.25
475.282	512.25
475.501	531.25
475.72	553.25
475.939	521.25
476.158	566.25
476.377	538.25
476.596	540.25
476.814	549.25
477.033	561.25
477.252	558.25
477.471	560.25
477.69	575.25
477.908	582.25
478.127	584.25
478.346	600.25
478.564	608.25
478.783	604.25
479.002	591.25
479.22	609.25
479.439	621.25
479.658	638.25
479.876	638.25
480.095	643.25
480.313	679.25
480.532	679.25
480.751	673.25
480.969	660.25
481.188	690.25
481.406	771.25
481.624	688.25
481.843	644.25
482.061	639.25
482.28	633.25
482.498	623.25
482.717	606.25
482.935	611.25
483.153	615.25
483.372	607.25
483.59	602.25
483.808	595.25
484.027	615.25
484.245	622.25
484.463	616.25
484.681	638.25
484.9	634.25
485.118	634.25
485.336	649.25
485.554	634.25
485.772	646.25
485.99	651.25
486.209	642.25
486.427	634.25
486.645	648.25
486.863	680.25
487.081	678.25
487.299	658.25
487.517	666.25
487.735	675.25
487.953	669.25
488.171	662.25
488.389	678.25
488.607	666.25
488.825	659.25
489.043	648.25
489.261	683.25
489.479	658.25
489.696	665.25
489.914	667.25
490.132	675.25
490.35	697.25
490.568	726.25
490.786	717.25
491.003	749.25
491.221	750.25
491.439	736.25
491.657	792.25
491.874	775.25
492.092	759.25
492.31	763.25
492.527	769.25
492.745	794.25
492.963	780.25
493.18	809.25
493.398	811.25
493.615	820.25
493.833	801.25
494.05	816.25
494.268	802.25
494.485	785.25
494.703	792.25
494.92	792.25
495.138	789.25
495.355	778.25
495.573	796.25
495.79	794.25
496.008	821.25
496.225	789.25
496.442	800.25
496.66	815.25
496.877	822.25
497.094	790.25
497.312	834.25
497.529	824.25
497.746	838.25
497.963	840.25
498.181	906.25
498.398	910.25
498.615	888.25
498.832	902.25
499.049	947.25
499.267	984.25
499.484	1027.25
499.701	1070.25
499.918	1113.25
500.135	1176.25
500.352	1234.25
500.569	1278.25
500.786	1307.25
501.003	1235.25
501.22	1232.25
501.437	1175.25
501.654	1072.25
