Data from 1975.PennyLincolnUp.Lamp.En5.5.200Scan.071719.P1.Changed Mount._HRD10591_15-57-52-860.txt Node
Date: Thu Jul 18 15:57:52 EDT 2019
User: cochatt
Spectrometer: HR+D1059
Trigger mode: 1
Integration Time (sec): 1.000000E-1
Scans to average: 1
Electric dark correction enabled: true
Nonlinearity correction enabled: false
Boxcar width: 0
XAxis mode: Wavelengths
Number of Pixels in Spectrum: 2048
>>>>>Begin Spectral Data<<<<<
223.165	-21.19
223.4	-21.19
223.635	-21.19
223.869	-17.19
224.104	-23.19
224.338	-7.19
224.573	-19.19
224.808	-4.19
225.042	-7.19
225.277	-9.19
225.511	5.81
225.746	2.81
225.98	8.81
226.215	8.81
226.449	20.81
226.683	9.81
226.918	28.81
227.152	22.81
227.387	28.81
227.621	29.81
227.856	53.81
228.09	42.81
228.324	48.81
228.559	37.81
228.793	51.81
229.027	88.81
229.262	95.81
229.496	115.81
229.73	120.81
229.964	142.81
230.199	118.81
230.433	102.81
230.667	114.81
230.901	105.81
231.136	110.81
231.37	102.81
231.604	114.81
231.838	102.81
232.072	105.81
232.306	105.81
232.541	110.81
232.775	113.81
233.009	110.81
233.243	105.81
233.477	120.81
233.711	120.81
233.945	104.81
234.179	103.81
234.413	105.81
234.647	115.81
234.881	111.81
235.115	120.81
235.349	110.81
235.583	121.81
235.817	132.81
236.051	136.81
236.285	139.81
236.519	128.81
236.753	128.81
236.987	146.81
237.221	182.81
237.455	224.81
237.689	179.81
237.922	133.81
238.156	144.81
238.39	128.81
238.624	125.81
238.858	132.81
239.091	122.81
239.325	132.81
239.559	133.81
239.793	127.81
240.027	127.81
240.26	133.81
240.494	142.81
240.728	148.81
240.961	148.81
241.195	136.81
241.429	144.81
241.662	130.81
241.896	140.81
242.13	130.81
242.363	126.81
242.597	132.81
242.83	144.81
243.064	128.81
243.298	154.81
243.531	138.81
243.765	130.81
243.998	145.81
244.232	136.81
244.465	148.81
244.699	128.81
244.932	132.81
245.166	145.81
245.399	148.81
245.633	157.81
245.866	158.81
246.099	141.81
246.333	173.81
246.566	160.81
246.8	154.81
247.033	168.81
247.266	163.81
247.5	168.81
247.733	184.81
247.966	168.81
248.2	175.81
248.433	178.81
248.666	183.81
248.899	185.81
249.133	178.81
249.366	196.81
249.599	202.81
249.832	175.81
250.066	177.81
250.299	183.81
250.532	192.81
250.765	197.81
250.998	231.81
251.231	226.81
251.465	224.81
251.698	189.81
251.931	212.81
252.164	221.81
252.397	202.81
252.63	207.81
252.863	186.81
253.096	199.81
253.329	216.81
253.562	212.81
253.795	231.81
254.028	213.81
254.261	215.81
254.494	215.81
254.727	255.81
254.96	281.81
255.193	270.81
255.426	256.81
255.659	231.81
255.892	213.81
256.124	220.81
256.357	239.81
256.59	228.81
256.823	218.81
257.056	240.81
257.289	212.81
257.521	220.81
257.754	209.81
257.987	188.81
258.22	204.81
258.452	211.81
258.685	212.81
258.918	212.81
259.151	215.81
259.383	229.81
259.616	217.81
259.849	218.81
260.081	229.81
260.314	255.81
260.547	260.81
260.779	247.81
261.012	247.81
261.244	224.81
261.477	229.81
261.71	217.81
261.942	221.81
262.175	250.81
262.407	230.81
262.64	214.81
262.872	227.81
263.105	224.81
263.337	241.81
263.57	215.81
263.802	211.81
264.035	202.81
264.267	211.81
264.499	217.81
264.732	233.81
264.964	209.81
265.197	208.81
265.429	209.81
265.661	226.81
265.894	236.81
266.126	216.81
266.358	225.81
266.591	229.81
266.823	213.81
267.055	234.81
267.287	232.81
267.52	222.81
267.752	233.81
267.984	237.81
268.216	242.81
268.448	250.81
268.681	237.81
268.913	237.81
269.145	260.81
269.377	280.81
269.609	288.81
269.841	286.81
270.073	272.81
270.306	283.81
270.538	313.81
270.77	304.81
271.002	308.81
271.234	306.81
271.466	306.81
271.698	321.81
271.93	318.81
272.162	303.81
272.394	314.81
272.626	291.81
272.858	269.81
273.09	284.81
273.322	267.81
273.553	277.81
273.785	282.81
274.017	277.81
274.249	284.81
274.481	274.81
274.713	260.81
274.945	277.81
275.176	286.81
275.408	295.81
275.64	280.81
275.872	269.81
276.104	293.81
276.335	258.81
276.567	285.81
276.799	284.81
277.031	305.81
277.262	320.81
277.494	318.81
277.726	314.81
277.957	295.81
278.189	293.81
278.421	288.81
278.652	284.81
278.884	278.81
279.115	282.81
279.347	276.81
279.579	279.81
279.81	272.81
280.042	263.81
280.273	288.81
280.505	284.81
280.736	271.81
280.968	269.81
281.199	272.81
281.431	292.81
281.662	282.81
281.894	287.81
282.125	265.81
282.356	312.81
282.588	304.81
282.819	320.81
283.051	295.81
283.282	279.81
283.513	275.81
283.745	308.81
283.976	308.81
284.207	296.81
284.439	299.81
284.67	285.81
284.901	278.81
285.132	296.81
285.364	302.81
285.595	296.81
285.826	285.81
286.057	305.81
286.288	296.81
286.52	304.81
286.751	294.81
286.982	300.81
287.213	325.81
287.444	288.81
287.675	312.81
287.906	309.81
288.138	308.81
288.369	326.81
288.6	320.81
288.831	309.81
289.062	306.81
289.293	306.81
289.524	312.81
289.755	317.81
289.986	288.81
290.217	315.81
290.448	319.81
290.679	285.81
290.91	291.81
291.141	317.81
291.371	309.81
291.602	304.81
291.833	316.81
292.064	313.81
292.295	312.81
292.526	312.81
292.757	305.81
292.987	305.81
293.218	306.81
293.449	314.81
293.68	312.81
293.91	290.81
294.141	292.81
294.372	298.81
294.603	321.81
294.833	306.81
295.064	308.81
295.295	298.81
295.525	312.81
295.756	300.81
295.987	312.81
296.217	332.81
296.448	336.81
296.679	313.81
296.909	316.81
297.14	317.81
297.37	322.81
297.601	323.81
297.831	323.81
298.062	338.81
298.292	320.81
298.523	337.81
298.753	319.81
298.984	316.81
299.214	348.81
299.445	323.81
299.675	327.81
299.905	321.81
300.136	341.81
300.366	330.81
300.597	338.81
300.827	329.81
301.057	342.81
301.288	341.81
301.518	352.81
301.748	338.81
301.979	351.81
302.209	335.81
302.439	353.81
302.669	352.81
302.9	359.81
303.13	338.81
303.36	345.81
303.59	330.81
303.82	333.81
304.051	342.81
304.281	349.81
304.511	344.81
304.741	354.81
304.971	348.81
305.201	341.81
305.431	327.81
305.661	345.81
305.891	338.81
306.121	334.81
306.352	361.81
306.582	359.81
306.812	351.81
307.042	354.81
307.272	343.81
307.502	348.81
307.731	351.81
307.961	353.81
308.191	337.81
308.421	368.81
308.651	371.81
308.881	332.81
309.111	366.81
309.341	361.81
309.571	362.81
309.8	369.81
310.03	372.81
310.26	386.81
310.49	378.81
310.72	390.81
310.949	402.81
311.179	376.81
311.409	395.81
311.639	390.81
311.868	368.81
312.098	376.81
312.328	374.81
312.557	394.81
312.787	392.81
313.017	413.81
313.246	398.81
313.476	385.81
313.706	367.81
313.935	379.81
314.165	406.81
314.394	398.81
314.624	385.81
314.853	397.81
315.083	393.81
315.312	399.81
315.542	368.81
315.771	383.81
316.001	369.81
316.23	386.81
316.46	358.81
316.689	388.81
316.919	394.81
317.148	392.81
317.377	397.81
317.607	397.81
317.836	397.81
318.065	395.81
318.295	381.81
318.524	400.81
318.753	392.81
318.983	375.81
319.212	406.81
319.441	405.81
319.67	401.81
319.9	387.81
320.129	371.81
320.358	403.81
320.587	393.81
320.816	396.81
321.046	407.81
321.275	412.81
321.504	404.81
321.733	405.81
321.962	420.81
322.191	401.81
322.42	429.81
322.649	424.81
322.878	450.81
323.108	412.81
323.337	452.81
323.566	479.81
323.795	506.81
324.024	553.81
324.253	604.81
324.482	862.81
324.71	1257.81
324.939	1865.81
325.168	1652.81
325.397	877.81
325.626	596.81
325.855	518.81
326.084	509.81
326.313	479.81
326.542	486.81
326.77	521.81
326.999	578.81
327.228	791.81
327.457	1146.81
327.686	1442.81
327.914	974.81
328.143	656.81
328.372	593.81
328.6	550.81
328.829	528.81
329.058	538.81
329.287	538.81
329.515	524.81
329.744	487.81
329.972	494.81
330.201	514.81
330.43	543.81
330.658	571.81
330.887	563.81
331.115	574.81
331.344	520.81
331.572	494.81
331.801	516.81
332.03	486.81
332.258	505.81
332.486	500.81
332.715	474.81
332.943	464.81
333.172	491.81
333.4	488.81
333.629	507.81
333.857	512.81
334.085	525.81
334.314	515.81
334.542	550.81
334.771	583.81
334.999	530.81
335.227	504.81
335.455	485.81
335.684	480.81
335.912	483.81
336.14	471.81
336.369	452.81
336.597	492.81
336.825	480.81
337.053	452.81
337.281	471.81
337.51	444.81
337.738	465.81
337.966	470.81
338.194	458.81
338.422	456.81
338.65	471.81
338.878	448.81
339.106	455.81
339.334	457.81
339.562	459.81
339.79	462.81
340.018	440.81
340.246	439.81
340.474	462.81
340.702	471.81
340.93	450.81
341.158	460.81
341.386	442.81
341.614	449.81
341.842	458.81
342.07	446.81
342.298	445.81
342.526	428.81
342.754	432.81
342.981	440.81
343.209	429.81
343.437	449.81
343.665	474.81
343.893	472.81
344.12	483.81
344.348	467.81
344.576	464.81
344.804	465.81
345.031	470.81
345.259	469.81
345.487	471.81
345.714	452.81
345.942	452.81
346.17	437.81
346.397	424.81
346.625	438.81
346.853	438.81
347.08	435.81
347.308	445.81
347.535	432.81
347.763	446.81
347.99	429.81
348.218	431.81
348.445	422.81
348.673	444.81
348.9	432.81
349.128	424.81
349.355	414.81
349.583	417.81
349.81	431.81
350.037	419.81
350.265	441.81
350.492	425.81
350.72	415.81
350.947	437.81
351.174	437.81
351.402	436.81
351.629	420.81
351.856	414.81
352.083	445.81
352.311	450.81
352.538	454.81
352.765	458.81
352.992	442.81
353.22	445.81
353.447	416.81
353.674	427.81
353.901	428.81
354.128	413.81
354.355	401.81
354.583	429.81
354.81	416.81
355.037	424.81
355.264	406.81
355.491	401.81
355.718	414.81
355.945	420.81
356.172	384.81
356.399	402.81
356.626	391.81
356.853	413.81
357.08	423.81
357.307	428.81
357.534	411.81
357.761	390.81
357.988	415.81
358.215	409.81
358.441	414.81
358.668	402.81
358.895	404.81
359.122	433.81
359.349	436.81
359.576	437.81
359.802	439.81
360.029	476.81
360.256	468.81
360.483	450.81
360.709	426.81
360.936	418.81
361.163	437.81
361.39	442.81
361.616	429.81
361.843	434.81
362.07	438.81
362.296	428.81
362.523	439.81
362.749	424.81
362.976	409.81
363.203	438.81
363.429	389.81
363.656	417.81
363.882	400.81
364.109	438.81
364.335	442.81
364.562	435.81
364.788	407.81
365.015	435.81
365.241	431.81
365.468	435.81
365.694	417.81
365.92	418.81
366.147	432.81
366.373	433.81
366.599	403.81
366.826	414.81
367.052	399.81
367.278	402.81
367.505	411.81
367.731	425.81
367.957	407.81
368.184	410.81
368.41	435.81
368.636	422.81
368.862	438.81
369.089	419.81
369.315	423.81
369.541	419.81
369.767	445.81
369.993	430.81
370.219	418.81
370.445	432.81
370.672	422.81
370.898	434.81
371.124	405.81
371.35	442.81
371.576	430.81
371.802	400.81
372.028	422.81
372.254	416.81
372.48	432.81
372.706	409.81
372.932	451.81
373.158	452.81
373.384	447.81
373.61	432.81
373.835	417.81
374.061	425.81
374.287	457.81
374.513	462.81
374.739	449.81
374.965	438.81
375.191	446.81
375.416	421.81
375.642	438.81
375.868	442.81
376.094	433.81
376.319	450.81
376.545	436.81
376.771	444.81
376.997	426.81
377.222	447.81
377.448	421.81
377.674	436.81
377.899	420.81
378.125	428.81
378.35	453.81
378.576	430.81
378.802	424.81
379.027	433.81
379.253	419.81
379.478	435.81
379.704	431.81
379.929	429.81
380.155	424.81
380.38	425.81
380.606	432.81
380.831	418.81
381.057	428.81
381.282	430.81
381.507	417.81
381.733	430.81
381.958	406.81
382.184	440.81
382.409	434.81
382.634	454.81
382.86	473.81
383.085	465.81
383.31	460.81
383.535	455.81
383.761	467.81
383.986	467.81
384.211	458.81
384.436	438.81
384.662	441.81
384.887	483.81
385.112	506.81
385.337	456.81
385.562	467.81
385.787	474.81
386.013	494.81
386.238	491.81
386.463	485.81
386.688	475.81
386.913	479.81
387.138	488.81
387.363	487.81
387.588	497.81
387.813	483.81
388.038	495.81
388.263	485.81
388.488	481.81
388.713	499.81
388.938	475.81
389.163	468.81
389.387	479.81
389.612	469.81
389.837	503.81
390.062	486.81
390.287	495.81
390.512	480.81
390.736	473.81
390.961	499.81
391.186	512.81
391.411	484.81
391.636	512.81
391.86	513.81
392.085	505.81
392.31	495.81
392.534	483.81
392.759	506.81
392.984	480.81
393.208	508.81
393.433	487.81
393.658	499.81
393.882	483.81
394.107	500.81
394.331	476.81
394.556	500.81
394.78	513.81
395.005	501.81
395.229	522.81
395.454	508.81
395.678	504.81
395.903	532.81
396.127	549.81
396.352	537.81
396.576	526.81
396.801	487.81
397.025	498.81
397.249	513.81
397.474	513.81
397.698	514.81
397.922	553.81
398.147	557.81
398.371	556.81
398.595	541.81
398.82	545.81
399.044	570.81
399.268	599.81
399.492	628.81
399.717	678.81
399.941	697.81
400.165	733.81
400.389	718.81
400.613	659.81
400.837	595.81
401.062	606.81
401.286	572.81
401.51	582.81
401.734	562.81
401.958	580.81
402.182	587.81
402.406	567.81
402.63	580.81
402.854	565.81
403.078	595.81
403.302	591.81
403.526	589.81
403.75	601.81
403.974	612.81
404.198	594.81
404.422	614.81
404.645	629.81
404.869	620.81
405.093	631.81
405.317	680.81
405.541	708.81
405.765	653.81
405.988	633.81
406.212	627.81
406.436	634.81
406.66	654.81
406.883	627.81
407.107	664.81
407.331	687.81
407.555	755.81
407.778	794.81
408.002	712.81
408.226	658.81
408.449	665.81
408.673	641.81
408.896	670.81
409.12	692.81
409.344	690.81
409.567	640.81
409.791	595.81
410.014	613.81
410.238	596.81
410.461	568.81
410.685	582.81
410.908	615.81
411.132	636.81
411.355	656.81
411.578	630.81
411.802	622.81
412.025	585.81
412.249	597.81
412.472	591.81
412.695	662.81
412.919	638.81
413.142	600.81
413.365	589.81
413.589	592.81
413.812	566.81
414.035	526.81
414.258	573.81
414.482	566.81
414.705	571.81
414.928	551.81
415.151	561.81
415.374	584.81
415.597	545.81
415.821	575.81
416.044	550.81
416.267	579.81
416.49	566.81
416.713	576.81
416.936	546.81
417.159	546.81
417.382	554.81
417.605	558.81
417.828	560.81
418.051	580.81
418.274	600.81
418.497	562.81
418.72	563.81
418.943	569.81
419.166	593.81
419.389	648.81
419.611	606.81
419.834	607.81
420.057	611.81
420.28	590.81
420.503	602.81
420.726	593.81
420.948	602.81
421.171	633.81
421.394	669.81
421.617	610.81
421.839	583.81
422.062	577.81
422.285	599.81
422.507	664.81
422.73	706.81
422.953	701.81
423.175	618.81
423.398	583.81
423.621	620.81
423.843	640.81
424.066	623.81
424.288	598.81
424.511	605.81
424.733	708.81
424.956	784.81
425.178	733.81
425.401	764.81
425.623	757.81
425.846	667.81
426.068	636.81
426.291	628.81
426.513	606.81
426.735	630.81
426.958	648.81
427.18	705.81
427.402	852.81
427.625	966.81
427.847	802.81
428.069	724.81
428.292	649.81
428.514	625.81
428.736	567.81
428.958	568.81
429.181	561.81
429.403	549.81
429.625	541.81
429.847	595.81
430.069	665.81
430.292	660.81
430.514	580.81
430.736	565.81
430.958	555.81
431.18	538.81
431.402	538.81
431.624	541.81
431.846	527.81
432.068	526.81
432.29	557.81
432.512	563.81
432.734	563.81
432.956	536.81
433.178	557.81
433.4	553.81
433.622	521.81
433.844	541.81
434.066	529.81
434.287	520.81
434.509	561.81
434.731	568.81
434.953	581.81
435.175	592.81
435.397	608.81
435.618	627.81
435.84	632.81
436.062	714.81
436.284	828.81
436.505	678.81
436.727	595.81
436.949	583.81
437.17	575.81
437.392	540.81
437.614	579.81
437.835	604.81
438.057	674.81
438.278	784.81
438.5	804.81
438.721	892.81
438.943	858.81
439.165	669.81
439.386	602.81
439.608	620.81
439.829	609.81
440.05	624.81
440.272	689.81
440.493	634.81
440.715	597.81
440.936	588.81
441.158	591.81
441.379	590.81
441.6	610.81
441.822	613.81
442.043	643.81
442.264	726.81
442.486	788.81
442.707	666.81
442.928	621.81
443.149	634.81
443.371	639.81
443.592	686.81
443.813	768.81
444.034	855.81
444.255	726.81
444.476	651.81
444.698	614.81
444.919	646.81
445.14	769.81
445.361	695.81
445.582	651.81
445.803	706.81
446.024	828.81
446.245	816.81
446.466	755.81
446.687	668.81
446.908	589.81
447.129	577.81
447.35	557.81
447.571	550.81
447.792	569.81
448.013	553.81
448.234	564.81
448.455	627.81
448.675	723.81
448.896	869.81
449.117	708.81
449.338	677.81
449.559	786.81
449.779	887.81
450	716.81
450.221	597.81
450.442	562.81
450.662	544.81
450.883	532.81
451.104	532.81
451.324	526.81
451.545	531.81
451.766	509.81
451.986	503.81
452.207	466.81
452.428	508.81
452.648	505.81
452.869	489.81
453.089	514.81
453.31	528.81
453.53	481.81
453.751	495.81
453.971	503.81
454.192	496.81
454.412	480.81
454.633	484.81
454.853	480.81
455.073	482.81
455.294	525.81
455.514	562.81
455.734	571.81
455.955	493.81
456.175	491.81
456.395	474.81
456.616	465.81
456.836	485.81
457.056	476.81
457.276	477.81
457.497	478.81
457.717	483.81
457.937	482.81
458.157	488.81
458.377	469.81
458.598	515.81
458.818	561.81
459.038	609.81
459.258	661.81
459.478	573.81
459.698	562.81
459.918	543.81
460.138	542.81
460.358	540.81
460.578	546.81
460.798	551.81
461.018	580.81
461.238	560.81
461.458	570.81
461.678	579.81
461.898	560.81
462.118	576.81
462.338	579.81
462.558	588.81
462.777	622.81
462.997	599.81
463.217	624.81
463.437	645.81
463.657	642.81
463.876	624.81
464.096	639.81
464.316	609.81
464.536	594.81
464.755	615.81
464.975	604.81
465.195	623.81
465.414	670.81
465.634	601.81
465.854	570.81
466.073	527.81
466.293	522.81
466.512	523.81
466.732	512.81
466.951	530.81
467.171	515.81
467.391	517.81
467.61	548.81
467.829	538.81
468.049	535.81
468.268	538.81
468.488	521.81
468.707	483.81
468.927	505.81
469.146	481.81
469.365	485.81
469.585	503.81
469.804	500.81
470.023	519.81
470.243	536.81
470.462	519.81
470.681	562.81
470.901	532.81
471.12	529.81
471.339	524.81
471.558	520.81
471.777	510.81
471.997	526.81
472.216	517.81
472.435	560.81
472.654	548.81
472.873	514.81
473.092	523.81
473.311	533.81
473.53	524.81
473.749	532.81
473.968	558.81
474.187	648.81
474.406	693.81
474.625	589.81
474.844	520.81
475.063	532.81
475.282	536.81
475.501	530.81
475.72	545.81
475.939	520.81
476.158	531.81
476.377	534.81
476.596	540.81
476.814	550.81
477.033	579.81
477.252	553.81
477.471	540.81
477.69	605.81
477.908	583.81
478.127	588.81
478.346	572.81
478.564	577.81
478.783	569.81
479.002	613.81
479.22	604.81
479.439	612.81
479.658	642.81
479.876	634.81
480.095	631.81
480.313	668.81
480.532	673.81
480.751	664.81
480.969	652.81
481.188	702.81
481.406	726.81
481.624	668.81
481.843	632.81
482.061	630.81
482.28	615.81
482.498	611.81
482.717	607.81
482.935	628.81
483.153	610.81
483.372	593.81
483.59	600.81
483.808	621.81
484.027	622.81
484.245	602.81
484.463	636.81
484.681	616.81
484.9	604.81
485.118	642.81
485.336	636.81
485.554	637.81
485.772	610.81
485.99	638.81
486.209	661.81
486.427	649.81
486.645	643.81
486.863	664.81
487.081	688.81
487.299	650.81
487.517	647.81
487.735	636.81
487.953	676.81
488.171	661.81
488.389	636.81
488.607	662.81
488.825	669.81
489.043	656.81
489.261	654.81
489.479	672.81
489.696	677.81
489.914	673.81
490.132	674.81
490.35	704.81
490.568	697.81
490.786	720.81
491.003	706.81
491.221	697.81
491.439	714.81
491.657	736.81
491.874	744.81
492.092	766.81
492.31	756.81
492.527	764.81
492.745	744.81
492.963	772.81
493.18	762.81
493.398	761.81
493.615	764.81
493.833	755.81
494.05	782.81
494.268	769.81
494.485	766.81
494.703	795.81
494.92	746.81
495.138	784.81
495.355	774.81
495.573	767.81
495.79	780.81
496.008	770.81
496.225	768.81
496.442	778.81
496.66	800.81
496.877	794.81
497.094	799.81
497.312	808.81
497.529	800.81
497.746	806.81
497.963	851.81
498.181	868.81
498.398	894.81
498.615	882.81
498.832	932.81
499.049	925.81
499.267	942.81
499.484	1016.81
499.701	1046.81
499.918	1111.81
500.135	1190.81
500.352	1241.81
500.569	1298.81
500.786	1258.81
501.003	1213.81
501.22	1227.81
501.437	1107.81
501.654	1044.81
