Data from 1975.PennyLincolnUp.Lamp.En5.5.200Scan.071719.P1.Changed Mount._HRD10591_15-58-09-859.txt Node
Date: Thu Jul 18 15:58:09 EDT 2019
User: cochatt
Spectrometer: HR+D1059
Trigger mode: 1
Integration Time (sec): 1.000000E-1
Scans to average: 1
Electric dark correction enabled: true
Nonlinearity correction enabled: false
Boxcar width: 0
XAxis mode: Wavelengths
Number of Pixels in Spectrum: 2048
>>>>>Begin Spectral Data<<<<<
223.165	-17.44
223.4	-17.44
223.635	-17.44
223.869	-19.44
224.104	-18.44
224.338	-8.44
224.573	-11.44
224.808	-5.44
225.042	-8.44
225.277	1.56
225.511	-12.44
225.746	0.56
225.98	1.56
226.215	9.56
226.449	13.56
226.683	17.56
226.918	25.56
227.152	31.56
227.387	48.56
227.621	31.56
227.856	52.56
228.09	52.56
228.324	47.56
228.559	52.56
228.793	71.56
229.027	105.56
229.262	104.56
229.496	111.56
229.73	126.56
229.964	168.56
230.199	132.56
230.433	105.56
230.667	110.56
230.901	114.56
231.136	122.56
231.37	111.56
231.604	123.56
231.838	130.56
232.072	106.56
232.306	119.56
232.541	110.56
232.775	112.56
233.009	122.56
233.243	108.56
233.477	118.56
233.711	113.56
233.945	122.56
234.179	119.56
234.413	124.56
234.647	130.56
234.881	126.56
235.115	129.56
235.349	117.56
235.583	121.56
235.817	139.56
236.051	136.56
236.285	136.56
236.519	135.56
236.753	123.56
236.987	130.56
237.221	183.56
237.455	232.56
237.689	180.56
237.922	157.56
238.156	131.56
238.39	144.56
238.624	132.56
238.858	135.56
239.091	133.56
239.325	138.56
239.559	117.56
239.793	152.56
240.027	150.56
240.26	116.56
240.494	155.56
240.728	151.56
240.961	158.56
241.195	144.56
241.429	160.56
241.662	144.56
241.896	138.56
242.13	166.56
242.363	139.56
242.597	148.56
242.83	144.56
243.064	147.56
243.298	151.56
243.531	163.56
243.765	144.56
243.998	147.56
244.232	150.56
244.465	159.56
244.699	146.56
244.932	160.56
245.166	161.56
245.399	142.56
245.633	150.56
245.866	157.56
246.099	151.56
246.333	147.56
246.566	138.56
246.8	158.56
247.033	163.56
247.266	166.56
247.5	180.56
247.733	175.56
247.966	189.56
248.2	183.56
248.433	169.56
248.666	179.56
248.899	186.56
249.133	203.56
249.366	208.56
249.599	188.56
249.832	205.56
250.066	188.56
250.299	189.56
250.532	206.56
250.765	209.56
250.998	230.56
251.231	228.56
251.465	217.56
251.698	207.56
251.931	189.56
252.164	208.56
252.397	190.56
252.63	206.56
252.863	206.56
253.096	220.56
253.329	232.56
253.562	235.56
253.795	236.56
254.028	211.56
254.261	215.56
254.494	234.56
254.727	232.56
254.96	285.56
255.193	279.56
255.426	262.56
255.659	239.56
255.892	236.56
256.124	243.56
256.357	235.56
256.59	234.56
256.823	228.56
257.056	222.56
257.289	220.56
257.521	204.56
257.754	220.56
257.987	216.56
258.22	236.56
258.452	240.56
258.685	222.56
258.918	203.56
259.151	217.56
259.383	208.56
259.616	213.56
259.849	214.56
260.081	244.56
260.314	263.56
260.547	270.56
260.779	243.56
261.012	255.56
261.244	244.56
261.477	246.56
261.71	223.56
261.942	226.56
262.175	231.56
262.407	235.56
262.64	230.56
262.872	222.56
263.105	237.56
263.337	237.56
263.57	234.56
263.802	204.56
264.035	231.56
264.267	228.56
264.499	223.56
264.732	229.56
264.964	236.56
265.197	211.56
265.429	226.56
265.661	210.56
265.894	220.56
266.126	211.56
266.358	235.56
266.591	216.56
266.823	254.56
267.055	222.56
267.287	234.56
267.52	231.56
267.752	240.56
267.984	239.56
268.216	250.56
268.448	258.56
268.681	265.56
268.913	254.56
269.145	258.56
269.377	281.56
269.609	282.56
269.841	263.56
270.073	310.56
270.306	292.56
270.538	320.56
270.77	325.56
271.002	303.56
271.234	294.56
271.466	324.56
271.698	325.56
271.93	329.56
272.162	317.56
272.394	316.56
272.626	311.56
272.858	294.56
273.09	290.56
273.322	283.56
273.553	258.56
273.785	272.56
274.017	281.56
274.249	272.56
274.481	271.56
274.713	283.56
274.945	264.56
275.176	278.56
275.408	287.56
275.64	284.56
275.872	270.56
276.104	280.56
276.335	284.56
276.567	283.56
276.799	292.56
277.031	314.56
277.262	324.56
277.494	333.56
277.726	324.56
277.957	295.56
278.189	290.56
278.421	286.56
278.652	293.56
278.884	279.56
279.115	286.56
279.347	267.56
279.579	284.56
279.81	291.56
280.042	269.56
280.273	275.56
280.505	286.56
280.736	279.56
280.968	284.56
281.199	278.56
281.431	295.56
281.662	285.56
281.894	286.56
282.125	289.56
282.356	302.56
282.588	329.56
282.819	303.56
283.051	288.56
283.282	311.56
283.513	287.56
283.745	309.56
283.976	316.56
284.207	299.56
284.439	306.56
284.67	296.56
284.901	289.56
285.132	308.56
285.364	310.56
285.595	293.56
285.826	281.56
286.057	287.56
286.288	316.56
286.52	299.56
286.751	305.56
286.982	290.56
287.213	328.56
287.444	314.56
287.675	317.56
287.906	304.56
288.138	313.56
288.369	310.56
288.6	322.56
288.831	320.56
289.062	321.56
289.293	322.56
289.524	318.56
289.755	311.56
289.986	310.56
290.217	295.56
290.448	303.56
290.679	300.56
290.91	314.56
291.141	306.56
291.371	309.56
291.602	303.56
291.833	306.56
292.064	308.56
292.295	311.56
292.526	298.56
292.757	319.56
292.987	311.56
293.218	320.56
293.449	320.56
293.68	314.56
293.91	305.56
294.141	311.56
294.372	312.56
294.603	335.56
294.833	314.56
295.064	325.56
295.295	333.56
295.525	320.56
295.756	331.56
295.987	299.56
296.217	338.56
296.448	341.56
296.679	350.56
296.909	320.56
297.14	326.56
297.37	328.56
297.601	312.56
297.831	331.56
298.062	311.56
298.292	320.56
298.523	330.56
298.753	333.56
298.984	334.56
299.214	328.56
299.445	339.56
299.675	338.56
299.905	327.56
300.136	339.56
300.366	338.56
300.597	336.56
300.827	331.56
301.057	342.56
301.288	327.56
301.518	342.56
301.748	351.56
301.979	359.56
302.209	333.56
302.439	349.56
302.669	361.56
302.9	346.56
303.13	320.56
303.36	346.56
303.59	342.56
303.82	343.56
304.051	351.56
304.281	355.56
304.511	335.56
304.741	347.56
304.971	373.56
305.201	348.56
305.431	358.56
305.661	350.56
305.891	349.56
306.121	358.56
306.352	342.56
306.582	325.56
306.812	339.56
307.042	344.56
307.272	352.56
307.502	348.56
307.731	360.56
307.961	337.56
308.191	340.56
308.421	341.56
308.651	340.56
308.881	347.56
309.111	358.56
309.341	346.56
309.571	360.56
309.8	352.56
310.03	367.56
310.26	372.56
310.49	380.56
310.72	396.56
310.949	393.56
311.179	403.56
311.409	401.56
311.639	382.56
311.868	394.56
312.098	394.56
312.328	378.56
312.557	375.56
312.787	414.56
313.017	436.56
313.246	384.56
313.476	401.56
313.706	380.56
313.935	394.56
314.165	401.56
314.394	391.56
314.624	405.56
314.853	425.56
315.083	396.56
315.312	377.56
315.542	390.56
315.771	381.56
316.001	387.56
316.23	380.56
316.46	406.56
316.689	395.56
316.919	386.56
317.148	416.56
317.377	404.56
317.607	387.56
317.836	403.56
318.065	379.56
318.295	385.56
318.524	395.56
318.753	387.56
318.983	399.56
319.212	387.56
319.441	390.56
319.67	398.56
319.9	389.56
320.129	363.56
320.358	419.56
320.587	399.56
320.816	419.56
321.046	418.56
321.275	400.56
321.504	413.56
321.733	394.56
321.962	400.56
322.191	415.56
322.42	438.56
322.649	431.56
322.878	464.56
323.108	458.56
323.337	462.56
323.566	489.56
323.795	515.56
324.024	533.56
324.253	628.56
324.482	866.56
324.71	1298.56
324.939	1967.56
325.168	1693.56
325.397	859.56
325.626	599.56
325.855	534.56
326.084	488.56
326.313	485.56
326.542	470.56
326.77	503.56
326.999	598.56
327.228	797.56
327.457	1177.56
327.686	1484.56
327.914	979.56
328.143	674.56
328.372	587.56
328.6	542.56
328.829	534.56
329.058	536.56
329.287	540.56
329.515	533.56
329.744	499.56
329.972	501.56
330.201	520.56
330.43	557.56
330.658	574.56
330.887	584.56
331.115	573.56
331.344	531.56
331.572	496.56
331.801	492.56
332.03	483.56
332.258	508.56
332.486	474.56
332.715	477.56
332.943	464.56
333.172	484.56
333.4	482.56
333.629	503.56
333.857	525.56
334.085	544.56
334.314	535.56
334.542	564.56
334.771	562.56
334.999	508.56
335.227	515.56
335.455	495.56
335.684	486.56
335.912	465.56
336.14	478.56
336.369	459.56
336.597	478.56
336.825	474.56
337.053	480.56
337.281	464.56
337.51	463.56
337.738	450.56
337.966	459.56
338.194	455.56
338.422	457.56
338.65	454.56
338.878	439.56
339.106	457.56
339.334	461.56
339.562	439.56
339.79	457.56
340.018	455.56
340.246	448.56
340.474	454.56
340.702	441.56
340.93	450.56
341.158	446.56
341.386	448.56
341.614	456.56
341.842	450.56
342.07	448.56
342.298	427.56
342.526	435.56
342.754	426.56
342.981	422.56
343.209	437.56
343.437	455.56
343.665	479.56
343.893	474.56
344.12	476.56
344.348	484.56
344.576	483.56
344.804	459.56
345.031	462.56
345.259	450.56
345.487	442.56
345.714	462.56
345.942	432.56
346.17	460.56
346.397	449.56
346.625	428.56
346.853	437.56
347.08	434.56
347.308	436.56
347.535	426.56
347.763	430.56
347.99	459.56
348.218	450.56
348.445	451.56
348.673	455.56
348.9	433.56
349.128	436.56
349.355	423.56
349.583	416.56
349.81	427.56
350.037	436.56
350.265	427.56
350.492	432.56
350.72	429.56
350.947	421.56
351.174	441.56
351.402	430.56
351.629	463.56
351.856	455.56
352.083	440.56
352.311	448.56
352.538	461.56
352.765	451.56
352.992	427.56
353.22	429.56
353.447	438.56
353.674	438.56
353.901	429.56
354.128	406.56
354.355	432.56
354.583	409.56
354.81	400.56
355.037	402.56
355.264	407.56
355.491	412.56
355.718	418.56
355.945	416.56
356.172	396.56
356.399	422.56
356.626	399.56
356.853	404.56
357.08	391.56
357.307	414.56
357.534	419.56
357.761	401.56
357.988	425.56
358.215	414.56
358.441	398.56
358.668	406.56
358.895	422.56
359.122	435.56
359.349	411.56
359.576	441.56
359.802	467.56
360.029	475.56
360.256	479.56
360.483	467.56
360.709	426.56
360.936	452.56
361.163	431.56
361.39	450.56
361.616	450.56
361.843	443.56
362.07	459.56
362.296	438.56
362.523	435.56
362.749	439.56
362.976	436.56
363.203	400.56
363.429	423.56
363.656	420.56
363.882	424.56
364.109	440.56
364.335	424.56
364.562	410.56
364.788	423.56
365.015	408.56
365.241	437.56
365.468	443.56
365.694	443.56
365.92	437.56
366.147	445.56
366.373	403.56
366.599	430.56
366.826	434.56
367.052	441.56
367.278	410.56
367.505	405.56
367.731	450.56
367.957	428.56
368.184	446.56
368.41	427.56
368.636	437.56
368.862	451.56
369.089	437.56
369.315	431.56
369.541	432.56
369.767	430.56
369.993	434.56
370.219	420.56
370.445	443.56
370.672	468.56
370.898	426.56
371.124	438.56
371.35	424.56
371.576	415.56
371.802	443.56
372.028	423.56
372.254	429.56
372.48	427.56
372.706	431.56
372.932	413.56
373.158	445.56
373.384	444.56
373.61	438.56
373.835	446.56
374.061	426.56
374.287	431.56
374.513	434.56
374.739	460.56
374.965	456.56
375.191	448.56
375.416	452.56
375.642	463.56
375.868	445.56
376.094	411.56
376.319	422.56
376.545	439.56
376.771	430.56
376.997	437.56
377.222	426.56
377.448	392.56
377.674	423.56
377.899	414.56
378.125	421.56
378.35	437.56
378.576	443.56
378.802	406.56
379.027	428.56
379.253	436.56
379.478	413.56
379.704	428.56
379.929	461.56
380.155	435.56
380.38	422.56
380.606	433.56
380.831	438.56
381.057	439.56
381.282	425.56
381.507	443.56
381.733	439.56
381.958	450.56
382.184	429.56
382.409	435.56
382.634	434.56
382.86	435.56
383.085	451.56
383.31	471.56
383.535	445.56
383.761	450.56
383.986	456.56
384.211	467.56
384.436	454.56
384.662	463.56
384.887	510.56
385.112	476.56
385.337	468.56
385.562	486.56
385.787	483.56
386.013	508.56
386.238	474.56
386.463	480.56
386.688	482.56
386.913	459.56
387.138	481.56
387.363	498.56
387.588	491.56
387.813	477.56
388.038	475.56
388.263	477.56
388.488	479.56
388.713	491.56
388.938	480.56
389.163	493.56
389.387	479.56
389.612	465.56
389.837	466.56
390.062	463.56
390.287	458.56
390.512	461.56
390.736	494.56
390.961	492.56
391.186	502.56
391.411	490.56
391.636	494.56
391.86	513.56
392.085	495.56
392.31	508.56
392.534	537.56
392.759	492.56
392.984	499.56
393.208	492.56
393.433	510.56
393.658	502.56
393.882	494.56
394.107	490.56
394.331	486.56
394.556	508.56
394.78	501.56
395.005	494.56
395.229	492.56
395.454	511.56
395.678	498.56
395.903	518.56
396.127	559.56
396.352	534.56
396.576	511.56
396.801	501.56
397.025	511.56
397.249	527.56
397.474	497.56
397.698	496.56
397.922	532.56
398.147	545.56
398.371	545.56
398.595	555.56
398.82	558.56
399.044	597.56
399.268	589.56
399.492	645.56
399.717	697.56
399.941	714.56
400.165	718.56
400.389	715.56
400.613	650.56
400.837	599.56
401.062	582.56
401.286	558.56
401.51	576.56
401.734	552.56
401.958	564.56
402.182	543.56
402.406	556.56
402.63	560.56
402.854	592.56
403.078	570.56
403.302	582.56
403.526	588.56
403.75	604.56
403.974	588.56
404.198	585.56
404.422	586.56
404.645	615.56
404.869	610.56
405.093	644.56
405.317	668.56
405.541	722.56
405.765	662.56
405.988	629.56
406.212	622.56
406.436	642.56
406.66	631.56
406.883	639.56
407.107	678.56
407.331	704.56
407.555	771.56
407.778	782.56
408.002	674.56
408.226	675.56
408.449	655.56
408.673	647.56
408.896	670.56
409.12	733.56
409.344	697.56
409.567	618.56
409.791	622.56
410.014	589.56
410.238	583.56
410.461	578.56
410.685	606.56
410.908	596.56
411.132	635.56
411.355	675.56
411.578	631.56
411.802	602.56
412.025	591.56
412.249	584.56
412.472	607.56
412.695	686.56
412.919	664.56
413.142	598.56
413.365	592.56
413.589	573.56
413.812	583.56
414.035	542.56
414.258	552.56
414.482	578.56
414.705	562.56
414.928	573.56
415.151	552.56
415.374	570.56
415.597	572.56
415.821	552.56
416.044	566.56
416.267	565.56
416.49	556.56
416.713	536.56
416.936	547.56
417.159	509.56
417.382	552.56
417.605	554.56
417.828	570.56
418.051	575.56
418.274	564.56
418.497	566.56
418.72	578.56
418.943	552.56
419.166	587.56
419.389	636.56
419.611	586.56
419.834	597.56
420.057	587.56
420.28	584.56
420.503	576.56
420.726	591.56
420.948	588.56
421.171	627.56
421.394	643.56
421.617	600.56
421.839	559.56
422.062	580.56
422.285	588.56
422.507	630.56
422.73	734.56
422.953	719.56
423.175	645.56
423.398	601.56
423.621	626.56
423.843	638.56
424.066	630.56
424.288	610.56
424.511	622.56
424.733	703.56
424.956	767.56
425.178	723.56
425.401	734.56
425.623	796.56
425.846	650.56
426.068	613.56
426.291	606.56
426.513	617.56
426.735	621.56
426.958	677.56
427.18	752.56
427.402	853.56
427.625	936.56
427.847	824.56
428.069	690.56
428.292	645.56
428.514	611.56
428.736	568.56
428.958	578.56
429.181	552.56
429.403	561.56
429.625	571.56
429.847	604.56
430.069	671.56
430.292	663.56
430.514	587.56
430.736	563.56
430.958	554.56
431.18	532.56
431.402	542.56
431.624	531.56
431.846	513.56
432.068	518.56
432.29	529.56
432.512	524.56
432.734	556.56
432.956	539.56
433.178	528.56
433.4	573.56
433.622	539.56
433.844	526.56
434.066	534.56
434.287	541.56
434.509	571.56
434.731	546.56
434.953	568.56
435.175	568.56
435.397	623.56
435.618	622.56
435.84	648.56
436.062	731.56
436.284	844.56
436.505	670.56
436.727	630.56
436.949	580.56
437.17	573.56
437.392	554.56
437.614	578.56
437.835	621.56
438.057	705.56
438.278	816.56
438.5	799.56
438.721	863.56
438.943	851.56
439.165	666.56
439.386	616.56
439.608	623.56
439.829	609.56
440.05	655.56
440.272	664.56
440.493	632.56
440.715	593.56
440.936	570.56
441.158	545.56
441.379	556.56
441.6	578.56
441.822	620.56
442.043	664.56
442.264	727.56
442.486	774.56
442.707	660.56
442.928	648.56
443.149	648.56
443.371	638.56
443.592	688.56
443.813	789.56
444.034	882.56
444.255	737.56
444.476	655.56
444.698	644.56
444.919	646.56
445.14	746.56
445.361	694.56
445.582	644.56
445.803	735.56
446.024	826.56
446.245	828.56
446.466	771.56
446.687	661.56
446.908	612.56
447.129	570.56
447.35	586.56
447.571	563.56
447.792	538.56
448.013	544.56
448.234	570.56
448.455	626.56
448.675	720.56
448.896	849.56
449.117	723.56
449.338	694.56
449.559	788.56
449.779	891.56
450	703.56
450.221	600.56
450.442	564.56
450.662	545.56
450.883	531.56
451.104	547.56
451.324	550.56
451.545	528.56
451.766	517.56
451.986	485.56
452.207	482.56
452.428	479.56
452.648	493.56
452.869	516.56
453.089	518.56
453.31	515.56
453.53	480.56
453.751	477.56
453.971	501.56
454.192	518.56
454.412	509.56
454.633	482.56
454.853	492.56
455.073	494.56
455.294	532.56
455.514	610.56
455.734	583.56
455.955	493.56
456.175	468.56
456.395	456.56
456.616	463.56
456.836	489.56
457.056	448.56
457.276	448.56
457.497	485.56
457.717	489.56
457.937	476.56
458.157	469.56
458.377	503.56
458.598	516.56
458.818	564.56
459.038	659.56
459.258	643.56
459.478	565.56
459.698	529.56
459.918	535.56
460.138	534.56
460.358	559.56
460.578	564.56
460.798	557.56
461.018	564.56
461.238	550.56
461.458	569.56
461.678	562.56
461.898	567.56
462.118	550.56
462.338	598.56
462.558	591.56
462.777	599.56
462.997	601.56
463.217	626.56
463.437	661.56
463.657	631.56
463.876	605.56
464.096	622.56
464.316	599.56
464.536	611.56
464.755	591.56
464.975	602.56
465.195	632.56
465.414	640.56
465.634	590.56
465.854	557.56
466.073	556.56
466.293	547.56
466.512	516.56
466.732	502.56
466.951	492.56
467.171	514.56
467.391	530.56
467.61	547.56
467.829	545.56
468.049	551.56
468.268	533.56
468.488	492.56
468.707	508.56
468.927	498.56
469.146	495.56
469.365	514.56
469.585	484.56
469.804	498.56
470.023	520.56
470.243	510.56
470.462	517.56
470.681	536.56
470.901	543.56
471.12	518.56
471.339	539.56
471.558	558.56
471.777	535.56
471.997	531.56
472.216	516.56
472.435	530.56
472.654	539.56
472.873	539.56
473.092	520.56
473.311	521.56
473.53	519.56
473.749	518.56
473.968	541.56
474.187	669.56
474.406	683.56
474.625	577.56
474.844	540.56
475.063	539.56
475.282	504.56
475.501	523.56
475.72	516.56
475.939	541.56
476.158	506.56
476.377	547.56
476.596	546.56
476.814	536.56
477.033	538.56
477.252	551.56
477.471	554.56
477.69	539.56
477.908	567.56
478.127	576.56
478.346	574.56
478.564	600.56
478.783	610.56
479.002	589.56
479.22	616.56
479.439	625.56
479.658	598.56
479.876	614.56
480.095	642.56
480.313	644.56
480.532	650.56
480.751	650.56
480.969	669.56
481.188	695.56
481.406	725.56
481.624	655.56
481.843	626.56
482.061	617.56
482.28	623.56
482.498	613.56
482.717	627.56
482.935	589.56
483.153	624.56
483.372	603.56
483.59	607.56
483.808	613.56
484.027	615.56
484.245	623.56
484.463	602.56
484.681	621.56
484.9	630.56
485.118	628.56
485.336	639.56
485.554	614.56
485.772	632.56
485.99	633.56
486.209	645.56
486.427	636.56
486.645	652.56
486.863	660.56
487.081	670.56
487.299	643.56
487.517	650.56
487.735	663.56
487.953	664.56
488.171	652.56
488.389	630.56
488.607	645.56
488.825	654.56
489.043	648.56
489.261	656.56
489.479	675.56
489.696	685.56
489.914	670.56
490.132	676.56
490.35	689.56
490.568	662.56
490.786	671.56
491.003	705.56
491.221	710.56
491.439	719.56
491.657	725.56
491.874	726.56
492.092	741.56
492.31	759.56
492.527	775.56
492.745	751.56
492.963	770.56
493.18	770.56
493.398	778.56
493.615	750.56
493.833	770.56
494.05	779.56
494.268	772.56
494.485	761.56
494.703	774.56
494.92	793.56
495.138	796.56
495.355	762.56
495.573	777.56
495.79	789.56
496.008	781.56
496.225	808.56
496.442	784.56
496.66	775.56
496.877	800.56
497.094	814.56
497.312	799.56
497.529	790.56
497.746	814.56
497.963	857.56
498.181	839.56
498.398	866.56
498.615	870.56
498.832	892.56
499.049	925.56
499.267	979.56
499.484	992.56
499.701	1053.56
499.918	1081.56
500.135	1146.56
500.352	1232.56
500.569	1261.56
500.786	1232.56
501.003	1260.56
501.22	1179.56
501.437	1143.56
501.654	1088.56
