Data from 1975.PennyLincolnUp.Lamp.En5.5.200Scan.071719.P1.Changed Mount._HRD10591_15-58-18-859.txt Node
Date: Thu Jul 18 15:58:18 EDT 2019
User: cochatt
Spectrometer: HR+D1059
Trigger mode: 1
Integration Time (sec): 1.000000E-1
Scans to average: 1
Electric dark correction enabled: true
Nonlinearity correction enabled: false
Boxcar width: 0
XAxis mode: Wavelengths
Number of Pixels in Spectrum: 2048
>>>>>Begin Spectral Data<<<<<
223.165	-21.25
223.4	-21.25
223.635	-21.25
223.869	-9.25
224.104	-18.25
224.338	-20.25
224.573	-12.25
224.808	-21.25
225.042	9.75
225.277	-10.25
225.511	3.75
225.746	-7.25
225.98	20.75
226.215	2.75
226.449	1.75
226.683	22.75
226.918	32.75
227.152	25.75
227.387	23.75
227.621	44.75
227.856	36.75
228.09	37.75
228.324	49.75
228.559	57.75
228.793	47.75
229.027	79.75
229.262	93.75
229.496	117.75
229.73	133.75
229.964	155.75
230.199	136.75
230.433	107.75
230.667	97.75
230.901	116.75
231.136	124.75
231.37	103.75
231.604	117.75
231.838	134.75
232.072	122.75
232.306	119.75
232.541	129.75
232.775	118.75
233.009	113.75
233.243	123.75
233.477	110.75
233.711	124.75
233.945	124.75
234.179	107.75
234.413	124.75
234.647	121.75
234.881	123.75
235.115	119.75
235.349	133.75
235.583	122.75
235.817	139.75
236.051	123.75
236.285	118.75
236.519	133.75
236.753	122.75
236.987	142.75
237.221	183.75
237.455	230.75
237.689	191.75
237.922	142.75
238.156	128.75
238.39	139.75
238.624	142.75
238.858	137.75
239.091	116.75
239.325	125.75
239.559	125.75
239.793	125.75
240.027	148.75
240.26	151.75
240.494	169.75
240.728	135.75
240.961	149.75
241.195	150.75
241.429	147.75
241.662	148.75
241.896	151.75
242.13	141.75
242.363	136.75
242.597	135.75
242.83	154.75
243.064	158.75
243.298	134.75
243.531	130.75
243.765	147.75
243.998	142.75
244.232	154.75
244.465	151.75
244.699	164.75
244.932	162.75
245.166	157.75
245.399	144.75
245.633	165.75
245.866	150.75
246.099	148.75
246.333	153.75
246.566	154.75
246.8	180.75
247.033	175.75
247.266	169.75
247.5	160.75
247.733	172.75
247.966	162.75
248.2	169.75
248.433	171.75
248.666	173.75
248.899	190.75
249.133	193.75
249.366	200.75
249.599	196.75
249.832	187.75
250.066	184.75
250.299	193.75
250.532	185.75
250.765	218.75
250.998	241.75
251.231	237.75
251.465	219.75
251.698	188.75
251.931	201.75
252.164	203.75
252.397	210.75
252.63	219.75
252.863	215.75
253.096	213.75
253.329	217.75
253.562	223.75
253.795	216.75
254.028	218.75
254.261	211.75
254.494	224.75
254.727	257.75
254.96	284.75
255.193	274.75
255.426	248.75
255.659	244.75
255.892	254.75
256.124	240.75
256.357	238.75
256.59	231.75
256.823	227.75
257.056	220.75
257.289	219.75
257.521	218.75
257.754	218.75
257.987	219.75
258.22	216.75
258.452	219.75
258.685	202.75
258.918	226.75
259.151	225.75
259.383	221.75
259.616	224.75
259.849	229.75
260.081	250.75
260.314	259.75
260.547	255.75
260.779	241.75
261.012	242.75
261.244	231.75
261.477	234.75
261.71	229.75
261.942	224.75
262.175	246.75
262.407	249.75
262.64	218.75
262.872	233.75
263.105	222.75
263.337	229.75
263.57	237.75
263.802	229.75
264.035	234.75
264.267	225.75
264.499	235.75
264.732	212.75
264.964	252.75
265.197	234.75
265.429	221.75
265.661	220.75
265.894	223.75
266.126	233.75
266.358	218.75
266.591	225.75
266.823	216.75
267.055	243.75
267.287	233.75
267.52	226.75
267.752	242.75
267.984	253.75
268.216	236.75
268.448	229.75
268.681	243.75
268.913	258.75
269.145	281.75
269.377	276.75
269.609	301.75
269.841	280.75
270.073	293.75
270.306	298.75
270.538	325.75
270.77	315.75
271.002	298.75
271.234	300.75
271.466	313.75
271.698	317.75
271.93	342.75
272.162	305.75
272.394	326.75
272.626	314.75
272.858	307.75
273.09	300.75
273.322	301.75
273.553	284.75
273.785	274.75
274.017	282.75
274.249	288.75
274.481	285.75
274.713	273.75
274.945	290.75
275.176	285.75
275.408	258.75
275.64	254.75
275.872	268.75
276.104	282.75
276.335	277.75
276.567	283.75
276.799	302.75
277.031	321.75
277.262	325.75
277.494	338.75
277.726	317.75
277.957	325.75
278.189	293.75
278.421	286.75
278.652	275.75
278.884	291.75
279.115	295.75
279.347	269.75
279.579	274.75
279.81	279.75
280.042	281.75
280.273	298.75
280.505	279.75
280.736	282.75
280.968	286.75
281.199	286.75
281.431	293.75
281.662	314.75
281.894	300.75
282.125	288.75
282.356	298.75
282.588	322.75
282.819	323.75
283.051	302.75
283.282	302.75
283.513	310.75
283.745	301.75
283.976	290.75
284.207	327.75
284.439	317.75
284.67	302.75
284.901	307.75
285.132	314.75
285.364	288.75
285.595	305.75
285.826	325.75
286.057	312.75
286.288	295.75
286.52	308.75
286.751	321.75
286.982	316.75
287.213	317.75
287.444	297.75
287.675	311.75
287.906	305.75
288.138	333.75
288.369	320.75
288.6	331.75
288.831	329.75
289.062	321.75
289.293	317.75
289.524	316.75
289.755	319.75
289.986	321.75
290.217	322.75
290.448	308.75
290.679	324.75
290.91	311.75
291.141	326.75
291.371	322.75
291.602	292.75
291.833	292.75
292.064	317.75
292.295	309.75
292.526	324.75
292.757	302.75
292.987	307.75
293.218	308.75
293.449	322.75
293.68	327.75
293.91	314.75
294.141	317.75
294.372	322.75
294.603	329.75
294.833	329.75
295.064	323.75
295.295	314.75
295.525	308.75
295.756	309.75
295.987	325.75
296.217	347.75
296.448	350.75
296.679	334.75
296.909	323.75
297.14	323.75
297.37	333.75
297.601	340.75
297.831	333.75
298.062	314.75
298.292	339.75
298.523	345.75
298.753	330.75
298.984	329.75
299.214	347.75
299.445	339.75
299.675	323.75
299.905	326.75
300.136	326.75
300.366	329.75
300.597	330.75
300.827	342.75
301.057	342.75
301.288	346.75
301.518	342.75
301.748	350.75
301.979	367.75
302.209	331.75
302.439	352.75
302.669	346.75
302.9	358.75
303.13	344.75
303.36	358.75
303.59	377.75
303.82	367.75
304.051	339.75
304.281	362.75
304.511	357.75
304.741	352.75
304.971	335.75
305.201	386.75
305.431	355.75
305.661	377.75
305.891	350.75
306.121	341.75
306.352	362.75
306.582	371.75
306.812	355.75
307.042	354.75
307.272	345.75
307.502	336.75
307.731	362.75
307.961	345.75
308.191	350.75
308.421	369.75
308.651	359.75
308.881	362.75
309.111	342.75
309.341	367.75
309.571	378.75
309.8	373.75
310.03	364.75
310.26	380.75
310.49	381.75
310.72	402.75
310.949	399.75
311.179	429.75
311.409	392.75
311.639	366.75
311.868	412.75
312.098	385.75
312.328	376.75
312.557	395.75
312.787	407.75
313.017	400.75
313.246	401.75
313.476	395.75
313.706	395.75
313.935	397.75
314.165	385.75
314.394	404.75
314.624	409.75
314.853	407.75
315.083	407.75
315.312	397.75
315.542	383.75
315.771	402.75
316.001	396.75
316.23	393.75
316.46	394.75
316.689	409.75
316.919	403.75
317.148	389.75
317.377	412.75
317.607	401.75
317.836	399.75
318.065	380.75
318.295	409.75
318.524	392.75
318.753	390.75
318.983	410.75
319.212	391.75
319.441	399.75
319.67	399.75
319.9	410.75
320.129	397.75
320.358	391.75
320.587	420.75
320.816	391.75
321.046	421.75
321.275	427.75
321.504	403.75
321.733	423.75
321.962	440.75
322.191	419.75
322.42	447.75
322.649	458.75
322.878	450.75
323.108	467.75
323.337	479.75
323.566	490.75
323.795	508.75
324.024	552.75
324.253	614.75
324.482	860.75
324.71	1288.75
324.939	1917.75
325.168	1713.75
325.397	877.75
325.626	630.75
325.855	513.75
326.084	494.75
326.313	466.75
326.542	531.75
326.77	525.75
326.999	589.75
327.228	792.75
327.457	1171.75
327.686	1524.75
327.914	977.75
328.143	660.75
328.372	611.75
328.6	571.75
328.829	551.75
329.058	534.75
329.287	564.75
329.515	539.75
329.744	511.75
329.972	511.75
330.201	513.75
330.43	566.75
330.658	573.75
330.887	580.75
331.115	575.75
331.344	533.75
331.572	507.75
331.801	511.75
332.03	509.75
332.258	490.75
332.486	474.75
332.715	479.75
332.943	474.75
333.172	497.75
333.4	496.75
333.629	488.75
333.857	545.75
334.085	531.75
334.314	538.75
334.542	543.75
334.771	591.75
334.999	530.75
335.227	497.75
335.455	498.75
335.684	502.75
335.912	490.75
336.14	492.75
336.369	465.75
336.597	460.75
336.825	466.75
337.053	450.75
337.281	459.75
337.51	478.75
337.738	474.75
337.966	473.75
338.194	470.75
338.422	463.75
338.65	481.75
338.878	488.75
339.106	449.75
339.334	462.75
339.562	457.75
339.79	451.75
340.018	442.75
340.246	460.75
340.474	454.75
340.702	485.75
340.93	447.75
341.158	469.75
341.386	465.75
341.614	446.75
341.842	448.75
342.07	451.75
342.298	437.75
342.526	443.75
342.754	446.75
342.981	453.75
343.209	453.75
343.437	456.75
343.665	466.75
343.893	467.75
344.12	492.75
344.348	509.75
344.576	467.75
344.804	487.75
345.031	449.75
345.259	487.75
345.487	458.75
345.714	471.75
345.942	453.75
346.17	446.75
346.397	452.75
346.625	444.75
346.853	443.75
347.08	445.75
347.308	447.75
347.535	434.75
347.763	442.75
347.99	429.75
348.218	439.75
348.445	449.75
348.673	447.75
348.9	443.75
349.128	436.75
349.355	437.75
349.583	439.75
349.81	438.75
350.037	429.75
350.265	415.75
350.492	442.75
350.72	453.75
350.947	433.75
351.174	452.75
351.402	460.75
351.629	443.75
351.856	438.75
352.083	452.75
352.311	441.75
352.538	455.75
352.765	445.75
352.992	433.75
353.22	445.75
353.447	421.75
353.674	450.75
353.901	444.75
354.128	441.75
354.355	411.75
354.583	419.75
354.81	426.75
355.037	436.75
355.264	413.75
355.491	424.75
355.718	417.75
355.945	419.75
356.172	422.75
356.399	426.75
356.626	424.75
356.853	428.75
357.08	406.75
357.307	424.75
357.534	414.75
357.761	413.75
357.988	413.75
358.215	407.75
358.441	407.75
358.668	429.75
358.895	417.75
359.122	419.75
359.349	429.75
359.576	452.75
359.802	456.75
360.029	464.75
360.256	486.75
360.483	472.75
360.709	462.75
360.936	429.75
361.163	436.75
361.39	460.75
361.616	434.75
361.843	449.75
362.07	434.75
362.296	447.75
362.523	451.75
362.749	443.75
362.976	421.75
363.203	418.75
363.429	425.75
363.656	419.75
363.882	428.75
364.109	428.75
364.335	433.75
364.562	415.75
364.788	406.75
365.015	426.75
365.241	440.75
365.468	430.75
365.694	443.75
365.92	413.75
366.147	423.75
366.373	426.75
366.599	421.75
366.826	421.75
367.052	425.75
367.278	403.75
367.505	419.75
367.731	428.75
367.957	427.75
368.184	436.75
368.41	431.75
368.636	454.75
368.862	458.75
369.089	438.75
369.315	444.75
369.541	438.75
369.767	418.75
369.993	438.75
370.219	428.75
370.445	444.75
370.672	447.75
370.898	418.75
371.124	427.75
371.35	439.75
371.576	436.75
371.802	453.75
372.028	435.75
372.254	445.75
372.48	426.75
372.706	445.75
372.932	459.75
373.158	467.75
373.384	457.75
373.61	453.75
373.835	443.75
374.061	427.75
374.287	433.75
374.513	437.75
374.739	453.75
374.965	455.75
375.191	477.75
375.416	426.75
375.642	440.75
375.868	442.75
376.094	441.75
376.319	443.75
376.545	444.75
376.771	427.75
376.997	428.75
377.222	419.75
377.448	440.75
377.674	444.75
377.899	438.75
378.125	457.75
378.35	434.75
378.576	431.75
378.802	439.75
379.027	444.75
379.253	419.75
379.478	424.75
379.704	423.75
379.929	447.75
380.155	425.75
380.38	434.75
380.606	435.75
380.831	450.75
381.057	440.75
381.282	430.75
381.507	456.75
381.733	449.75
381.958	442.75
382.184	460.75
382.409	452.75
382.634	467.75
382.86	457.75
383.085	453.75
383.31	469.75
383.535	447.75
383.761	466.75
383.986	454.75
384.211	471.75
384.436	459.75
384.662	471.75
384.887	486.75
385.112	484.75
385.337	476.75
385.562	495.75
385.787	484.75
386.013	498.75
386.238	503.75
386.463	478.75
386.688	494.75
386.913	510.75
387.138	478.75
387.363	505.75
387.588	499.75
387.813	498.75
388.038	507.75
388.263	513.75
388.488	493.75
388.713	482.75
388.938	494.75
389.163	494.75
389.387	496.75
389.612	479.75
389.837	511.75
390.062	477.75
390.287	473.75
390.512	492.75
390.736	478.75
390.961	487.75
391.186	489.75
391.411	513.75
391.636	524.75
391.86	516.75
392.085	519.75
392.31	510.75
392.534	503.75
392.759	538.75
392.984	515.75
393.208	509.75
393.433	489.75
393.658	499.75
393.882	499.75
394.107	522.75
394.331	487.75
394.556	490.75
394.78	501.75
395.005	489.75
395.229	500.75
395.454	511.75
395.678	518.75
395.903	538.75
396.127	553.75
396.352	539.75
396.576	538.75
396.801	523.75
397.025	547.75
397.249	517.75
397.474	518.75
397.698	527.75
397.922	540.75
398.147	579.75
398.371	574.75
398.595	559.75
398.82	575.75
399.044	581.75
399.268	630.75
399.492	665.75
399.717	708.75
399.941	733.75
400.165	734.75
400.389	693.75
400.613	632.75
400.837	629.75
401.062	588.75
401.286	579.75
401.51	598.75
401.734	538.75
401.958	592.75
402.182	595.75
402.406	598.75
402.63	595.75
402.854	591.75
403.078	602.75
403.302	625.75
403.526	625.75
403.75	600.75
403.974	593.75
404.198	575.75
404.422	620.75
404.645	633.75
404.869	599.75
405.093	633.75
405.317	697.75
405.541	742.75
405.765	685.75
405.988	660.75
406.212	649.75
406.436	613.75
406.66	650.75
406.883	654.75
407.107	653.75
407.331	725.75
407.555	795.75
407.778	803.75
408.002	726.75
408.226	674.75
408.449	646.75
408.673	649.75
408.896	669.75
409.12	724.75
409.344	672.75
409.567	631.75
409.791	628.75
410.014	611.75
410.238	582.75
410.461	599.75
410.685	611.75
410.908	614.75
411.132	667.75
411.355	673.75
411.578	687.75
411.802	603.75
412.025	597.75
412.249	604.75
412.472	628.75
412.695	696.75
412.919	681.75
413.142	603.75
413.365	605.75
413.589	599.75
413.812	575.75
414.035	574.75
414.258	553.75
414.482	577.75
414.705	599.75
414.928	561.75
415.151	564.75
415.374	566.75
415.597	557.75
415.821	562.75
416.044	587.75
416.267	572.75
416.49	563.75
416.713	561.75
416.936	565.75
417.159	567.75
417.382	569.75
417.605	563.75
417.828	577.75
418.051	570.75
418.274	597.75
418.497	574.75
418.72	579.75
418.943	578.75
419.166	588.75
419.389	631.75
419.611	639.75
419.834	610.75
420.057	630.75
420.28	625.75
420.503	596.75
420.726	579.75
420.948	631.75
421.171	637.75
421.394	663.75
421.617	637.75
421.839	604.75
422.062	578.75
422.285	579.75
422.507	676.75
422.73	705.75
422.953	713.75
423.175	632.75
423.398	638.75
423.621	621.75
423.843	629.75
424.066	645.75
424.288	649.75
424.511	648.75
424.733	690.75
424.956	795.75
425.178	753.75
425.401	730.75
425.623	780.75
425.846	678.75
426.068	648.75
426.291	616.75
426.513	641.75
426.735	626.75
426.958	669.75
427.18	736.75
427.402	881.75
427.625	993.75
427.847	843.75
428.069	735.75
428.292	647.75
428.514	613.75
428.736	589.75
428.958	574.75
429.181	564.75
429.403	590.75
429.625	589.75
429.847	620.75
430.069	693.75
430.292	697.75
430.514	596.75
430.736	577.75
430.958	565.75
431.18	538.75
431.402	555.75
431.624	533.75
431.846	548.75
432.068	561.75
432.29	547.75
432.512	545.75
432.734	570.75
432.956	550.75
433.178	575.75
433.4	555.75
433.622	556.75
433.844	571.75
434.066	556.75
434.287	571.75
434.509	539.75
434.731	589.75
434.953	601.75
435.175	580.75
435.397	639.75
435.618	622.75
435.84	632.75
436.062	733.75
436.284	821.75
436.505	703.75
436.727	654.75
436.949	594.75
437.17	585.75
437.392	578.75
437.614	600.75
437.835	602.75
438.057	712.75
438.278	780.75
438.5	789.75
438.721	917.75
438.943	870.75
439.165	685.75
439.386	633.75
439.608	599.75
439.829	658.75
440.05	639.75
440.272	683.75
440.493	657.75
440.715	614.75
440.936	573.75
441.158	581.75
441.379	597.75
441.6	607.75
441.822	625.75
442.043	663.75
442.264	748.75
442.486	787.75
442.707	673.75
442.928	649.75
443.149	656.75
443.371	665.75
443.592	693.75
443.813	781.75
444.034	881.75
444.255	757.75
444.476	647.75
444.698	634.75
444.919	630.75
445.14	786.75
445.361	689.75
445.582	679.75
445.803	718.75
446.024	853.75
446.245	834.75
446.466	779.75
446.687	691.75
446.908	611.75
447.129	594.75
447.35	579.75
447.571	557.75
447.792	555.75
448.013	558.75
448.234	592.75
448.455	645.75
448.675	753.75
448.896	871.75
449.117	726.75
449.338	670.75
449.559	813.75
449.779	900.75
450	739.75
450.221	612.75
450.442	589.75
450.662	566.75
450.883	555.75
451.104	557.75
451.324	535.75
451.545	530.75
451.766	524.75
451.986	522.75
452.207	518.75
452.428	515.75
452.648	513.75
452.869	509.75
453.089	526.75
453.31	525.75
453.53	531.75
453.751	520.75
453.971	513.75
454.192	522.75
454.412	508.75
454.633	513.75
454.853	486.75
455.073	505.75
455.294	521.75
455.514	583.75
455.734	571.75
455.955	512.75
456.175	490.75
456.395	481.75
456.616	461.75
456.836	487.75
457.056	479.75
457.276	457.75
457.497	456.75
457.717	471.75
457.937	495.75
458.157	507.75
458.377	524.75
458.598	505.75
458.818	548.75
459.038	634.75
459.258	684.75
459.478	588.75
459.698	543.75
459.918	553.75
460.138	571.75
460.358	569.75
460.578	556.75
460.798	559.75
461.018	560.75
461.238	577.75
461.458	563.75
461.678	574.75
461.898	592.75
462.118	580.75
462.338	621.75
462.558	582.75
462.777	618.75
462.997	614.75
463.217	670.75
463.437	668.75
463.657	633.75
463.876	625.75
464.096	626.75
464.316	617.75
464.536	615.75
464.755	622.75
464.975	617.75
465.195	645.75
465.414	689.75
465.634	621.75
465.854	573.75
466.073	565.75
466.293	533.75
466.512	544.75
466.732	516.75
466.951	539.75
467.171	513.75
467.391	553.75
467.61	547.75
467.829	552.75
468.049	546.75
468.268	551.75
468.488	528.75
468.707	538.75
468.927	502.75
469.146	526.75
469.365	521.75
469.585	499.75
469.804	525.75
470.023	531.75
470.243	545.75
470.462	525.75
470.681	566.75
470.901	556.75
471.12	547.75
471.339	535.75
471.558	532.75
471.777	547.75
471.997	526.75
472.216	537.75
472.435	547.75
472.654	548.75
472.873	545.75
473.092	522.75
473.311	537.75
473.53	538.75
473.749	524.75
473.968	583.75
474.187	663.75
474.406	691.75
474.625	592.75
474.844	541.75
475.063	535.75
475.282	535.75
475.501	542.75
475.72	523.75
475.939	537.75
476.158	533.75
476.377	546.75
476.596	537.75
476.814	555.75
477.033	567.75
477.252	556.75
477.471	561.75
477.69	561.75
477.908	577.75
478.127	583.75
478.346	579.75
478.564	602.75
478.783	596.75
479.002	630.75
479.22	635.75
479.439	630.75
479.658	633.75
479.876	634.75
480.095	618.75
480.313	678.75
480.532	665.75
480.751	649.75
480.969	674.75
481.188	706.75
481.406	749.75
481.624	684.75
481.843	651.75
482.061	663.75
482.28	638.75
482.498	599.75
482.717	612.75
482.935	643.75
483.153	622.75
483.372	612.75
483.59	605.75
483.808	640.75
484.027	634.75
484.245	623.75
484.463	614.75
484.681	658.75
484.9	625.75
485.118	632.75
485.336	632.75
485.554	645.75
485.772	645.75
485.99	641.75
486.209	645.75
486.427	664.75
486.645	677.75
486.863	668.75
487.081	654.75
487.299	666.75
487.517	661.75
487.735	675.75
487.953	668.75
488.171	678.75
488.389	673.75
488.607	675.75
488.825	686.75
489.043	666.75
489.261	670.75
489.479	694.75
489.696	679.75
489.914	675.75
490.132	726.75
490.35	692.75
490.568	682.75
490.786	719.75
491.003	726.75
491.221	738.75
491.439	742.75
491.657	748.75
491.874	778.75
492.092	751.75
492.31	789.75
492.527	761.75
492.745	784.75
492.963	772.75
493.18	757.75
493.398	803.75
493.615	802.75
493.833	799.75
494.05	801.75
494.268	764.75
494.485	787.75
494.703	785.75
494.92	764.75
495.138	780.75
495.355	799.75
495.573	795.75
495.79	798.75
496.008	821.75
496.225	789.75
496.442	781.75
496.66	790.75
496.877	801.75
497.094	817.75
497.312	842.75
497.529	862.75
497.746	838.75
497.963	833.75
498.181	876.75
498.398	875.75
498.615	903.75
498.832	929.75
499.049	957.75
499.267	961.75
499.484	1004.75
499.701	1066.75
499.918	1124.75
500.135	1191.75
500.352	1289.75
500.569	1256.75
500.786	1269.75
501.003	1222.75
501.22	1216.75
501.437	1163.75
501.654	1116.75
