Data from 1975.PennyLincolnUp.Lamp.En5.5.200Scan.071719.P1.Changed Mount._HRD10591_15-56-27-859.txt Node
Date: Thu Jul 18 15:56:27 EDT 2019
User: cochatt
Spectrometer: HR+D1059
Trigger mode: 1
Integration Time (sec): 1.000000E-1
Scans to average: 1
Electric dark correction enabled: true
Nonlinearity correction enabled: false
Boxcar width: 0
XAxis mode: Wavelengths
Number of Pixels in Spectrum: 2048
>>>>>Begin Spectral Data<<<<<
223.165	-16.88
223.4	-16.88
223.635	-16.88
223.869	-5.88
224.104	-22.88
224.338	-10.88
224.573	-20.88
224.808	-17.88
225.042	6.12
225.277	-29.88
225.511	5.12
225.746	-5.88
225.98	7.12
226.215	8.12
226.449	15.12
226.683	18.12
226.918	31.12
227.152	40.12
227.387	33.12
227.621	38.12
227.856	35.12
228.09	29.12
228.324	47.12
228.559	60.12
228.793	66.12
229.027	79.12
229.262	105.12
229.496	106.12
229.73	127.12
229.964	151.12
230.199	134.12
230.433	116.12
230.667	103.12
230.901	125.12
231.136	105.12
231.37	117.12
231.604	110.12
231.838	113.12
232.072	113.12
232.306	120.12
232.541	121.12
232.775	135.12
233.009	118.12
233.243	109.12
233.477	109.12
233.711	119.12
233.945	119.12
234.179	116.12
234.413	105.12
234.647	111.12
234.881	118.12
235.115	121.12
235.349	133.12
235.583	124.12
235.817	122.12
236.051	119.12
236.285	123.12
236.519	110.12
236.753	131.12
236.987	153.12
237.221	167.12
237.455	236.12
237.689	182.12
237.922	146.12
238.156	137.12
238.39	137.12
238.624	117.12
238.858	126.12
239.091	127.12
239.325	129.12
239.559	126.12
239.793	130.12
240.027	137.12
240.26	149.12
240.494	150.12
240.728	152.12
240.961	150.12
241.195	155.12
241.429	153.12
241.662	127.12
241.896	139.12
242.13	151.12
242.363	141.12
242.597	131.12
242.83	152.12
243.064	138.12
243.298	139.12
243.531	135.12
243.765	146.12
243.998	149.12
244.232	152.12
244.465	143.12
244.699	153.12
244.932	151.12
245.166	155.12
245.399	149.12
245.633	151.12
245.866	167.12
246.099	135.12
246.333	151.12
246.566	149.12
246.8	141.12
247.033	168.12
247.266	159.12
247.5	171.12
247.733	164.12
247.966	184.12
248.2	188.12
248.433	176.12
248.666	180.12
248.899	188.12
249.133	185.12
249.366	220.12
249.599	186.12
249.832	174.12
250.066	186.12
250.299	176.12
250.532	189.12
250.765	194.12
250.998	220.12
251.231	229.12
251.465	225.12
251.698	208.12
251.931	182.12
252.164	190.12
252.397	205.12
252.63	203.12
252.863	219.12
253.096	228.12
253.329	223.12
253.562	229.12
253.795	221.12
254.028	228.12
254.261	206.12
254.494	227.12
254.727	246.12
254.96	286.12
255.193	254.12
255.426	230.12
255.659	235.12
255.892	221.12
256.124	233.12
256.357	240.12
256.59	214.12
256.823	224.12
257.056	221.12
257.289	211.12
257.521	231.12
257.754	232.12
257.987	212.12
258.22	213.12
258.452	213.12
258.685	214.12
258.918	215.12
259.151	217.12
259.383	215.12
259.616	225.12
259.849	216.12
260.081	219.12
260.314	249.12
260.547	267.12
260.779	246.12
261.012	232.12
261.244	230.12
261.477	212.12
261.71	217.12
261.942	222.12
262.175	233.12
262.407	224.12
262.64	221.12
262.872	217.12
263.105	212.12
263.337	212.12
263.57	220.12
263.802	209.12
264.035	221.12
264.267	224.12
264.499	217.12
264.732	210.12
264.964	217.12
265.197	221.12
265.429	217.12
265.661	209.12
265.894	222.12
266.126	231.12
266.358	230.12
266.591	215.12
266.823	237.12
267.055	218.12
267.287	249.12
267.52	222.12
267.752	244.12
267.984	228.12
268.216	231.12
268.448	231.12
268.681	239.12
268.913	260.12
269.145	259.12
269.377	278.12
269.609	279.12
269.841	280.12
270.073	270.12
270.306	260.12
270.538	309.12
270.77	315.12
271.002	311.12
271.234	288.12
271.466	286.12
271.698	294.12
271.93	301.12
272.162	318.12
272.394	327.12
272.626	305.12
272.858	287.12
273.09	278.12
273.322	271.12
273.553	283.12
273.785	280.12
274.017	264.12
274.249	277.12
274.481	277.12
274.713	267.12
274.945	269.12
275.176	273.12
275.408	276.12
275.64	261.12
275.872	270.12
276.104	267.12
276.335	263.12
276.567	290.12
276.799	283.12
277.031	293.12
277.262	321.12
277.494	313.12
277.726	311.12
277.957	307.12
278.189	276.12
278.421	262.12
278.652	283.12
278.884	279.12
279.115	275.12
279.347	282.12
279.579	272.12
279.81	267.12
280.042	299.12
280.273	279.12
280.505	265.12
280.736	287.12
280.968	274.12
281.199	283.12
281.431	290.12
281.662	300.12
281.894	279.12
282.125	271.12
282.356	272.12
282.588	305.12
282.819	311.12
283.051	304.12
283.282	289.12
283.513	278.12
283.745	284.12
283.976	286.12
284.207	299.12
284.439	292.12
284.67	297.12
284.901	284.12
285.132	284.12
285.364	292.12
285.595	290.12
285.826	301.12
286.057	294.12
286.288	314.12
286.52	292.12
286.751	300.12
286.982	297.12
287.213	301.12
287.444	288.12
287.675	301.12
287.906	313.12
288.138	305.12
288.369	316.12
288.6	308.12
288.831	319.12
289.062	335.12
289.293	326.12
289.524	316.12
289.755	304.12
289.986	305.12
290.217	304.12
290.448	301.12
290.679	304.12
290.91	298.12
291.141	297.12
291.371	292.12
291.602	313.12
291.833	297.12
292.064	310.12
292.295	315.12
292.526	314.12
292.757	313.12
292.987	304.12
293.218	311.12
293.449	299.12
293.68	307.12
293.91	300.12
294.141	301.12
294.372	305.12
294.603	309.12
294.833	319.12
295.064	308.12
295.295	291.12
295.525	300.12
295.756	298.12
295.987	317.12
296.217	335.12
296.448	339.12
296.679	317.12
296.909	307.12
297.14	310.12
297.37	311.12
297.601	299.12
297.831	313.12
298.062	319.12
298.292	319.12
298.523	312.12
298.753	304.12
298.984	320.12
299.214	322.12
299.445	319.12
299.675	331.12
299.905	321.12
300.136	327.12
300.366	324.12
300.597	324.12
300.827	339.12
301.057	322.12
301.288	332.12
301.518	325.12
301.748	345.12
301.979	331.12
302.209	350.12
302.439	338.12
302.669	358.12
302.9	339.12
303.13	336.12
303.36	336.12
303.59	340.12
303.82	355.12
304.051	349.12
304.281	356.12
304.511	336.12
304.741	335.12
304.971	319.12
305.201	336.12
305.431	333.12
305.661	333.12
305.891	337.12
306.121	352.12
306.352	324.12
306.582	345.12
306.812	340.12
307.042	333.12
307.272	352.12
307.502	352.12
307.731	340.12
307.961	341.12
308.191	365.12
308.421	333.12
308.651	351.12
308.881	343.12
309.111	351.12
309.341	333.12
309.571	352.12
309.8	356.12
310.03	360.12
310.26	362.12
310.49	374.12
310.72	386.12
310.949	396.12
311.179	373.12
311.409	384.12
311.639	368.12
311.868	389.12
312.098	366.12
312.328	387.12
312.557	383.12
312.787	385.12
313.017	387.12
313.246	383.12
313.476	376.12
313.706	383.12
313.935	405.12
314.165	397.12
314.394	412.12
314.624	397.12
314.853	400.12
315.083	383.12
315.312	371.12
315.542	377.12
315.771	373.12
316.001	378.12
316.23	378.12
316.46	375.12
316.689	397.12
316.919	383.12
317.148	385.12
317.377	410.12
317.607	379.12
317.836	391.12
318.065	376.12
318.295	371.12
318.524	367.12
318.753	373.12
318.983	394.12
319.212	366.12
319.441	383.12
319.67	383.12
319.9	393.12
320.129	375.12
320.358	375.12
320.587	400.12
320.816	397.12
321.046	397.12
321.275	399.12
321.504	383.12
321.733	408.12
321.962	405.12
322.191	405.12
322.42	412.12
322.649	433.12
322.878	435.12
323.108	431.12
323.337	464.12
323.566	461.12
323.795	464.12
324.024	525.12
324.253	594.12
324.482	796.12
324.71	1201.12
324.939	1781.12
325.168	1555.12
325.397	779.12
325.626	560.12
325.855	512.12
326.084	474.12
326.313	474.12
326.542	453.12
326.77	496.12
326.999	573.12
327.228	729.12
327.457	1081.12
327.686	1366.12
327.914	919.12
328.143	631.12
328.372	561.12
328.6	524.12
328.829	499.12
329.058	520.12
329.287	531.12
329.515	493.12
329.744	469.12
329.972	488.12
330.201	486.12
330.43	549.12
330.658	534.12
330.887	555.12
331.115	541.12
331.344	480.12
331.572	471.12
331.801	491.12
332.03	486.12
332.258	475.12
332.486	458.12
332.715	465.12
332.943	465.12
333.172	476.12
333.4	484.12
333.629	489.12
333.857	502.12
334.085	523.12
334.314	528.12
334.542	545.12
334.771	573.12
334.999	514.12
335.227	496.12
335.455	464.12
335.684	476.12
335.912	465.12
336.14	469.12
336.369	470.12
336.597	466.12
336.825	461.12
337.053	470.12
337.281	473.12
337.51	450.12
337.738	445.12
337.966	450.12
338.194	435.12
338.422	461.12
338.65	455.12
338.878	460.12
339.106	429.12
339.334	455.12
339.562	451.12
339.79	431.12
340.018	441.12
340.246	435.12
340.474	424.12
340.702	433.12
340.93	435.12
341.158	430.12
341.386	421.12
341.614	442.12
341.842	443.12
342.07	420.12
342.298	431.12
342.526	423.12
342.754	422.12
342.981	432.12
343.209	412.12
343.437	435.12
343.665	446.12
343.893	447.12
344.12	478.12
344.348	463.12
344.576	457.12
344.804	464.12
345.031	439.12
345.259	452.12
345.487	449.12
345.714	441.12
345.942	425.12
346.17	423.12
346.397	407.12
346.625	412.12
346.853	420.12
347.08	396.12
347.308	426.12
347.535	439.12
347.763	404.12
347.99	430.12
348.218	415.12
348.445	425.12
348.673	422.12
348.9	412.12
349.128	393.12
349.355	419.12
349.583	427.12
349.81	404.12
350.037	432.12
350.265	417.12
350.492	428.12
350.72	414.12
350.947	420.12
351.174	412.12
351.402	415.12
351.629	446.12
351.856	422.12
352.083	449.12
352.311	432.12
352.538	436.12
352.765	422.12
352.992	431.12
353.22	423.12
353.447	421.12
353.674	402.12
353.901	419.12
354.128	408.12
354.355	414.12
354.583	421.12
354.81	419.12
355.037	390.12
355.264	415.12
355.491	409.12
355.718	390.12
355.945	391.12
356.172	356.12
356.399	383.12
356.626	403.12
356.853	396.12
357.08	405.12
357.307	424.12
357.534	405.12
357.761	395.12
357.988	407.12
358.215	391.12
358.441	418.12
358.668	435.12
358.895	422.12
359.122	433.12
359.349	422.12
359.576	407.12
359.802	450.12
360.029	451.12
360.256	459.12
360.483	434.12
360.709	444.12
360.936	422.12
361.163	424.12
361.39	420.12
361.616	423.12
361.843	431.12
362.07	415.12
362.296	446.12
362.523	414.12
362.749	432.12
362.976	416.12
363.203	433.12
363.429	414.12
363.656	414.12
363.882	409.12
364.109	421.12
364.335	426.12
364.562	419.12
364.788	425.12
365.015	416.12
365.241	417.12
365.468	383.12
365.694	413.12
365.92	436.12
366.147	412.12
366.373	415.12
366.599	394.12
366.826	415.12
367.052	387.12
367.278	432.12
367.505	420.12
367.731	438.12
367.957	413.12
368.184	412.12
368.41	436.12
368.636	421.12
368.862	427.12
369.089	414.12
369.315	409.12
369.541	413.12
369.767	394.12
369.993	419.12
370.219	428.12
370.445	413.12
370.672	427.12
370.898	417.12
371.124	422.12
371.35	428.12
371.576	410.12
371.802	412.12
372.028	392.12
372.254	454.12
372.48	402.12
372.706	422.12
372.932	427.12
373.158	425.12
373.384	421.12
373.61	425.12
373.835	419.12
374.061	441.12
374.287	418.12
374.513	428.12
374.739	420.12
374.965	440.12
375.191	450.12
375.416	439.12
375.642	425.12
375.868	415.12
376.094	409.12
376.319	427.12
376.545	435.12
376.771	413.12
376.997	424.12
377.222	420.12
377.448	425.12
377.674	408.12
377.899	413.12
378.125	426.12
378.35	401.12
378.576	405.12
378.802	400.12
379.027	417.12
379.253	421.12
379.478	413.12
379.704	449.12
379.929	413.12
380.155	400.12
380.38	437.12
380.606	425.12
380.831	412.12
381.057	420.12
381.282	429.12
381.507	438.12
381.733	428.12
381.958	439.12
382.184	439.12
382.409	453.12
382.634	435.12
382.86	436.12
383.085	455.12
383.31	437.12
383.535	433.12
383.761	452.12
383.986	447.12
384.211	449.12
384.436	452.12
384.662	458.12
384.887	458.12
385.112	463.12
385.337	469.12
385.562	463.12
385.787	465.12
386.013	487.12
386.238	494.12
386.463	470.12
386.688	477.12
386.913	469.12
387.138	476.12
387.363	463.12
387.588	448.12
387.813	495.12
388.038	485.12
388.263	464.12
388.488	476.12
388.713	472.12
388.938	479.12
389.163	478.12
389.387	470.12
389.612	473.12
389.837	456.12
390.062	480.12
390.287	447.12
390.512	495.12
390.736	457.12
390.961	471.12
391.186	471.12
391.411	490.12
391.636	481.12
391.86	514.12
392.085	484.12
392.31	502.12
392.534	501.12
392.759	500.12
392.984	475.12
393.208	515.12
393.433	492.12
393.658	474.12
393.882	469.12
394.107	479.12
394.331	497.12
394.556	497.12
394.78	511.12
395.005	477.12
395.229	496.12
395.454	486.12
395.678	472.12
395.903	521.12
396.127	543.12
396.352	532.12
396.576	503.12
396.801	497.12
397.025	509.12
397.249	507.12
397.474	497.12
397.698	524.12
397.922	527.12
398.147	556.12
398.371	563.12
398.595	565.12
398.82	555.12
399.044	555.12
399.268	588.12
399.492	612.12
399.717	671.12
399.941	699.12
400.165	686.12
400.389	689.12
400.613	647.12
400.837	575.12
401.062	600.12
401.286	573.12
401.51	576.12
401.734	568.12
401.958	566.12
402.182	550.12
402.406	586.12
402.63	549.12
402.854	579.12
403.078	571.12
403.302	579.12
403.526	591.12
403.75	606.12
403.974	593.12
404.198	565.12
404.422	551.12
404.645	572.12
404.869	604.12
405.093	623.12
405.317	657.12
405.541	701.12
405.765	639.12
405.988	599.12
406.212	620.12
406.436	639.12
406.66	645.12
406.883	600.12
407.107	657.12
407.331	696.12
407.555	767.12
407.778	774.12
408.002	673.12
408.226	651.12
408.449	646.12
408.673	637.12
408.896	658.12
409.12	702.12
409.344	648.12
409.567	621.12
409.791	601.12
410.014	583.12
410.238	574.12
410.461	568.12
410.685	563.12
410.908	590.12
411.132	631.12
411.355	653.12
411.578	630.12
411.802	606.12
412.025	591.12
412.249	597.12
412.472	636.12
412.695	669.12
412.919	636.12
413.142	586.12
413.365	558.12
413.589	576.12
413.812	541.12
414.035	556.12
414.258	546.12
414.482	557.12
414.705	551.12
414.928	541.12
415.151	537.12
415.374	565.12
415.597	557.12
415.821	557.12
416.044	550.12
416.267	560.12
416.49	519.12
416.713	547.12
416.936	538.12
417.159	539.12
417.382	545.12
417.605	543.12
417.828	551.12
418.051	600.12
418.274	563.12
418.497	579.12
418.72	559.12
418.943	553.12
419.166	575.12
419.389	596.12
419.611	590.12
419.834	596.12
420.057	599.12
420.28	588.12
420.503	592.12
420.726	558.12
420.948	587.12
421.171	645.12
421.394	663.12
421.617	594.12
421.839	556.12
422.062	548.12
422.285	567.12
422.507	637.12
422.73	740.12
422.953	695.12
423.175	606.12
423.398	599.12
423.621	603.12
423.843	644.12
424.066	610.12
424.288	603.12
424.511	613.12
424.733	675.12
424.956	757.12
425.178	724.12
425.401	731.12
425.623	734.12
425.846	663.12
426.068	604.12
426.291	594.12
426.513	601.12
426.735	599.12
426.958	661.12
427.18	724.12
427.402	860.12
427.625	931.12
427.847	757.12
428.069	684.12
428.292	628.12
428.514	596.12
428.736	579.12
428.958	574.12
429.181	573.12
429.403	533.12
429.625	551.12
429.847	586.12
430.069	657.12
430.292	657.12
430.514	572.12
430.736	564.12
430.958	546.12
431.18	523.12
431.402	517.12
431.624	520.12
431.846	529.12
432.068	520.12
432.29	536.12
432.512	533.12
432.734	528.12
432.956	528.12
433.178	531.12
433.4	529.12
433.622	535.12
433.844	532.12
434.066	542.12
434.287	525.12
434.509	538.12
434.731	565.12
434.953	575.12
435.175	571.12
435.397	582.12
435.618	590.12
435.84	627.12
436.062	703.12
436.284	791.12
436.505	685.12
436.727	587.12
436.949	556.12
437.17	550.12
437.392	568.12
437.614	568.12
437.835	593.12
438.057	669.12
438.278	773.12
438.5	805.12
438.721	876.12
438.943	830.12
439.165	663.12
439.386	589.12
439.608	623.12
439.829	586.12
440.05	622.12
440.272	665.12
440.493	635.12
440.715	583.12
440.936	567.12
441.158	559.12
441.379	567.12
441.6	565.12
441.822	587.12
442.043	627.12
442.264	701.12
442.486	770.12
442.707	664.12
442.928	588.12
443.149	588.12
443.371	643.12
443.592	678.12
443.813	771.12
444.034	853.12
444.255	676.12
444.476	645.12
444.698	598.12
444.919	616.12
445.14	739.12
445.361	672.12
445.582	628.12
445.803	677.12
446.024	790.12
446.245	813.12
446.466	735.12
446.687	633.12
446.908	601.12
447.129	556.12
447.35	525.12
447.571	533.12
447.792	537.12
448.013	526.12
448.234	557.12
448.455	603.12
448.675	701.12
448.896	847.12
449.117	717.12
449.338	678.12
449.559	784.12
449.779	876.12
450	701.12
450.221	567.12
450.442	536.12
450.662	527.12
450.883	519.12
451.104	547.12
451.324	515.12
451.545	521.12
451.766	502.12
451.986	512.12
452.207	495.12
452.428	496.12
452.648	488.12
452.869	488.12
453.089	482.12
453.31	502.12
453.53	496.12
453.751	501.12
453.971	491.12
454.192	505.12
454.412	481.12
454.633	470.12
454.853	465.12
455.073	477.12
455.294	512.12
455.514	566.12
455.734	567.12
455.955	478.12
456.175	478.12
456.395	452.12
456.616	457.12
456.836	468.12
457.056	456.12
457.276	459.12
457.497	486.12
457.717	455.12
457.937	479.12
458.157	456.12
458.377	489.12
458.598	505.12
458.818	543.12
459.038	603.12
459.258	645.12
459.478	555.12
459.698	527.12
459.918	521.12
460.138	551.12
460.358	556.12
460.578	564.12
460.798	545.12
461.018	540.12
461.238	539.12
461.458	537.12
461.678	539.12
461.898	560.12
462.118	561.12
462.338	576.12
462.558	591.12
462.777	582.12
462.997	588.12
463.217	633.12
463.437	618.12
463.657	595.12
463.876	605.12
464.096	590.12
464.316	569.12
464.536	609.12
464.755	611.12
464.975	587.12
465.195	605.12
465.414	632.12
465.634	591.12
465.854	533.12
466.073	513.12
466.293	512.12
466.512	489.12
466.732	502.12
466.951	497.12
467.171	510.12
467.391	508.12
467.61	514.12
467.829	525.12
468.049	532.12
468.268	506.12
468.488	518.12
468.707	503.12
468.927	493.12
469.146	505.12
469.365	503.12
469.585	472.12
469.804	527.12
470.023	514.12
470.243	528.12
470.462	506.12
470.681	545.12
470.901	527.12
471.12	505.12
471.339	532.12
471.558	502.12
471.777	527.12
471.997	502.12
472.216	505.12
472.435	548.12
472.654	523.12
472.873	498.12
473.092	504.12
473.311	517.12
473.53	489.12
473.749	526.12
473.968	558.12
474.187	640.12
474.406	675.12
474.625	555.12
474.844	503.12
475.063	520.12
475.282	492.12
475.501	519.12
475.72	521.12
475.939	520.12
476.158	524.12
476.377	527.12
476.596	537.12
476.814	539.12
477.033	528.12
477.252	521.12
477.471	548.12
477.69	551.12
477.908	582.12
478.127	554.12
478.346	573.12
478.564	567.12
478.783	585.12
479.002	596.12
479.22	593.12
479.439	602.12
479.658	624.12
479.876	619.12
480.095	611.12
480.313	647.12
480.532	641.12
480.751	632.12
480.969	616.12
481.188	684.12
481.406	711.12
481.624	646.12
481.843	617.12
482.061	586.12
482.28	610.12
482.498	596.12
482.717	593.12
482.935	603.12
483.153	622.12
483.372	589.12
483.59	603.12
483.808	584.12
484.027	583.12
484.245	613.12
484.463	623.12
484.681	595.12
484.9	617.12
485.118	604.12
485.336	614.12
485.554	629.12
485.772	620.12
485.99	601.12
486.209	630.12
486.427	619.12
486.645	615.12
486.863	656.12
487.081	639.12
487.299	623.12
487.517	644.12
487.735	677.12
487.953	637.12
488.171	620.12
488.389	620.12
488.607	636.12
488.825	620.12
489.043	642.12
489.261	648.12
489.479	628.12
489.696	651.12
489.914	629.12
490.132	667.12
490.35	645.12
490.568	643.12
490.786	680.12
491.003	689.12
491.221	733.12
491.439	709.12
491.657	738.12
491.874	746.12
492.092	735.12
492.31	746.12
492.527	768.12
492.745	755.12
492.963	748.12
493.18	748.12
493.398	740.12
493.615	780.12
493.833	778.12
494.05	773.12
494.268	752.12
494.485	740.12
494.703	716.12
494.92	757.12
495.138	741.12
495.355	757.12
495.573	770.12
495.79	780.12
496.008	779.12
496.225	742.12
496.442	765.12
496.66	781.12
496.877	794.12
497.094	765.12
497.312	803.12
497.529	771.12
497.746	802.12
497.963	822.12
498.181	849.12
498.398	844.12
498.615	863.12
498.832	892.12
499.049	877.12
499.267	924.12
499.484	988.12
499.701	1024.12
499.918	1061.12
500.135	1114.12
500.352	1186.12
500.569	1217.12
500.786	1230.12
501.003	1194.12
501.22	1168.12
501.437	1080.12
501.654	1035.12
