Data from 1975.PennyLincolnUp.Lamp.En5.5.200Scan.071719.P1.Changed Mount._HRD10591_15-56-05-858.txt Node
Date: Thu Jul 18 15:56:05 EDT 2019
User: cochatt
Spectrometer: HR+D1059
Trigger mode: 1
Integration Time (sec): 1.000000E-1
Scans to average: 1
Electric dark correction enabled: true
Nonlinearity correction enabled: false
Boxcar width: 0
XAxis mode: Wavelengths
Number of Pixels in Spectrum: 2048
>>>>>Begin Spectral Data<<<<<
223.165	-17.69
223.4	-17.69
223.635	-17.69
223.869	-19.69
224.104	-18.69
224.338	-18.69
224.573	-7.69
224.808	-7.69
225.042	-2.69
225.277	-9.69
225.511	2.31
225.746	9.31
225.98	-8.69
226.215	11.31
226.449	22.31
226.683	2.31
226.918	31.31
227.152	32.31
227.387	41.31
227.621	44.31
227.856	43.31
228.09	27.31
228.324	41.31
228.559	54.31
228.793	62.31
229.027	84.31
229.262	96.31
229.496	106.31
229.73	119.31
229.964	150.31
230.199	109.31
230.433	108.31
230.667	116.31
230.901	125.31
231.136	142.31
231.37	115.31
231.604	97.31
231.838	111.31
232.072	111.31
232.306	108.31
232.541	108.31
232.775	113.31
233.009	113.31
233.243	116.31
233.477	109.31
233.711	119.31
233.945	108.31
234.179	101.31
234.413	111.31
234.647	114.31
234.881	102.31
235.115	129.31
235.349	112.31
235.583	122.31
235.817	124.31
236.051	114.31
236.285	129.31
236.519	115.31
236.753	128.31
236.987	139.31
237.221	160.31
237.455	198.31
237.689	168.31
237.922	127.31
238.156	130.31
238.39	130.31
238.624	117.31
238.858	134.31
239.091	125.31
239.325	111.31
239.559	109.31
239.793	135.31
240.027	140.31
240.26	129.31
240.494	134.31
240.728	153.31
240.961	154.31
241.195	134.31
241.429	132.31
241.662	127.31
241.896	131.31
242.13	126.31
242.363	126.31
242.597	120.31
242.83	132.31
243.064	134.31
243.298	130.31
243.531	141.31
243.765	136.31
243.998	151.31
244.232	134.31
244.465	139.31
244.699	140.31
244.932	141.31
245.166	167.31
245.399	138.31
245.633	151.31
245.866	151.31
246.099	143.31
246.333	146.31
246.566	141.31
246.8	147.31
247.033	161.31
247.266	148.31
247.5	138.31
247.733	160.31
247.966	151.31
248.2	162.31
248.433	174.31
248.666	157.31
248.899	177.31
249.133	199.31
249.366	183.31
249.599	198.31
249.832	185.31
250.066	165.31
250.299	182.31
250.532	186.31
250.765	196.31
250.998	209.31
251.231	224.31
251.465	199.31
251.698	214.31
251.931	181.31
252.164	194.31
252.397	197.31
252.63	192.31
252.863	197.31
253.096	202.31
253.329	205.31
253.562	200.31
253.795	207.31
254.028	201.31
254.261	196.31
254.494	212.31
254.727	243.31
254.96	236.31
255.193	244.31
255.426	226.31
255.659	205.31
255.892	220.31
256.124	248.31
256.357	248.31
256.59	206.31
256.823	208.31
257.056	216.31
257.289	222.31
257.521	206.31
257.754	203.31
257.987	208.31
258.22	182.31
258.452	209.31
258.685	212.31
258.918	222.31
259.151	189.31
259.383	196.31
259.616	210.31
259.849	218.31
260.081	220.31
260.314	227.31
260.547	249.31
260.779	233.31
261.012	222.31
261.244	222.31
261.477	202.31
261.71	200.31
261.942	222.31
262.175	204.31
262.407	214.31
262.64	204.31
262.872	221.31
263.105	197.31
263.337	212.31
263.57	210.31
263.802	200.31
264.035	219.31
264.267	188.31
264.499	211.31
264.732	217.31
264.964	208.31
265.197	202.31
265.429	198.31
265.661	226.31
265.894	213.31
266.126	218.31
266.358	223.31
266.591	218.31
266.823	234.31
267.055	210.31
267.287	236.31
267.52	246.31
267.752	222.31
267.984	226.31
268.216	210.31
268.448	212.31
268.681	219.31
268.913	246.31
269.145	248.31
269.377	252.31
269.609	259.31
269.841	270.31
270.073	252.31
270.306	271.31
270.538	310.31
270.77	282.31
271.002	303.31
271.234	273.31
271.466	270.31
271.698	295.31
271.93	296.31
272.162	292.31
272.394	279.31
272.626	286.31
272.858	268.31
273.09	271.31
273.322	264.31
273.553	254.31
273.785	233.31
274.017	254.31
274.249	253.31
274.481	260.31
274.713	260.31
274.945	233.31
275.176	272.31
275.408	234.31
275.64	266.31
275.872	238.31
276.104	243.31
276.335	268.31
276.567	253.31
276.799	249.31
277.031	282.31
277.262	296.31
277.494	306.31
277.726	290.31
277.957	271.31
278.189	273.31
278.421	256.31
278.652	260.31
278.884	251.31
279.115	254.31
279.347	266.31
279.579	258.31
279.81	253.31
280.042	238.31
280.273	272.31
280.505	259.31
280.736	261.31
280.968	255.31
281.199	269.31
281.431	273.31
281.662	267.31
281.894	260.31
282.125	278.31
282.356	262.31
282.588	292.31
282.819	265.31
283.051	270.31
283.282	278.31
283.513	277.31
283.745	262.31
283.976	281.31
284.207	264.31
284.439	292.31
284.67	286.31
284.901	280.31
285.132	269.31
285.364	267.31
285.595	273.31
285.826	292.31
286.057	279.31
286.288	260.31
286.52	277.31
286.751	291.31
286.982	292.31
287.213	280.31
287.444	264.31
287.675	282.31
287.906	285.31
288.138	286.31
288.369	292.31
288.6	297.31
288.831	275.31
289.062	291.31
289.293	283.31
289.524	298.31
289.755	303.31
289.986	280.31
290.217	275.31
290.448	298.31
290.679	286.31
290.91	288.31
291.141	277.31
291.371	286.31
291.602	297.31
291.833	306.31
292.064	287.31
292.295	283.31
292.526	295.31
292.757	279.31
292.987	286.31
293.218	287.31
293.449	290.31
293.68	272.31
293.91	279.31
294.141	294.31
294.372	275.31
294.603	284.31
294.833	306.31
295.064	293.31
295.295	292.31
295.525	294.31
295.756	290.31
295.987	299.31
296.217	314.31
296.448	302.31
296.679	307.31
296.909	297.31
297.14	311.31
297.37	306.31
297.601	311.31
297.831	302.31
298.062	282.31
298.292	307.31
298.523	290.31
298.753	291.31
298.984	298.31
299.214	313.31
299.445	300.31
299.675	318.31
299.905	306.31
300.136	309.31
300.366	293.31
300.597	292.31
300.827	310.31
301.057	315.31
301.288	329.31
301.518	335.31
301.748	322.31
301.979	300.31
302.209	330.31
302.439	353.31
302.669	319.31
302.9	333.31
303.13	302.31
303.36	319.31
303.59	310.31
303.82	329.31
304.051	345.31
304.281	326.31
304.511	306.31
304.741	319.31
304.971	318.31
305.201	320.31
305.431	328.31
305.661	318.31
305.891	324.31
306.121	321.31
306.352	332.31
306.582	314.31
306.812	307.31
307.042	324.31
307.272	319.31
307.502	336.31
307.731	318.31
307.961	327.31
308.191	332.31
308.421	328.31
308.651	336.31
308.881	316.31
309.111	313.31
309.341	306.31
309.571	315.31
309.8	326.31
310.03	352.31
310.26	335.31
310.49	349.31
310.72	331.31
310.949	347.31
311.179	375.31
311.409	362.31
311.639	343.31
311.868	335.31
312.098	348.31
312.328	351.31
312.557	374.31
312.787	372.31
313.017	368.31
313.246	358.31
313.476	347.31
313.706	357.31
313.935	371.31
314.165	358.31
314.394	354.31
314.624	365.31
314.853	357.31
315.083	358.31
315.312	344.31
315.542	343.31
315.771	342.31
316.001	342.31
316.23	340.31
316.46	355.31
316.689	368.31
316.919	356.31
317.148	382.31
317.377	360.31
317.607	357.31
317.836	354.31
318.065	345.31
318.295	351.31
318.524	348.31
318.753	349.31
318.983	362.31
319.212	356.31
319.441	346.31
319.67	346.31
319.9	356.31
320.129	356.31
320.358	363.31
320.587	351.31
320.816	363.31
321.046	340.31
321.275	351.31
321.504	378.31
321.733	378.31
321.962	384.31
322.191	377.31
322.42	392.31
322.649	394.31
322.878	394.31
323.108	403.31
323.337	420.31
323.566	432.31
323.795	454.31
324.024	470.31
324.253	550.31
324.482	726.31
324.71	1100.31
324.939	1634.31
325.168	1387.31
325.397	695.31
325.626	504.31
325.855	442.31
326.084	445.31
326.313	437.31
326.542	425.31
326.77	472.31
326.999	518.31
327.228	662.31
327.457	971.31
327.686	1238.31
327.914	841.31
328.143	568.31
328.372	517.31
328.6	496.31
328.829	447.31
329.058	466.31
329.287	469.31
329.515	463.31
329.744	426.31
329.972	457.31
330.201	461.31
330.43	500.31
330.658	510.31
330.887	521.31
331.115	509.31
331.344	468.31
331.572	436.31
331.801	443.31
332.03	443.31
332.258	444.31
332.486	428.31
332.715	413.31
332.943	441.31
333.172	437.31
333.4	437.31
333.629	442.31
333.857	438.31
334.085	460.31
334.314	489.31
334.542	491.31
334.771	510.31
334.999	459.31
335.227	456.31
335.455	458.31
335.684	438.31
335.912	428.31
336.14	430.31
336.369	423.31
336.597	423.31
336.825	433.31
337.053	425.31
337.281	419.31
337.51	416.31
337.738	418.31
337.966	408.31
338.194	412.31
338.422	424.31
338.65	414.31
338.878	431.31
339.106	422.31
339.334	394.31
339.562	432.31
339.79	419.31
340.018	417.31
340.246	413.31
340.474	425.31
340.702	422.31
340.93	412.31
341.158	412.31
341.386	417.31
341.614	398.31
341.842	435.31
342.07	399.31
342.298	406.31
342.526	399.31
342.754	392.31
342.981	415.31
343.209	427.31
343.437	410.31
343.665	436.31
343.893	418.31
344.12	440.31
344.348	425.31
344.576	436.31
344.804	421.31
345.031	416.31
345.259	432.31
345.487	434.31
345.714	412.31
345.942	400.31
346.17	410.31
346.397	405.31
346.625	389.31
346.853	398.31
347.08	388.31
347.308	394.31
347.535	422.31
347.763	392.31
347.99	411.31
348.218	396.31
348.445	375.31
348.673	405.31
348.9	399.31
349.128	398.31
349.355	382.31
349.583	406.31
349.81	381.31
350.037	362.31
350.265	386.31
350.492	394.31
350.72	383.31
350.947	407.31
351.174	382.31
351.402	405.31
351.629	384.31
351.856	393.31
352.083	404.31
352.311	401.31
352.538	418.31
352.765	420.31
352.992	402.31
353.22	405.31
353.447	409.31
353.674	383.31
353.901	383.31
354.128	376.31
354.355	374.31
354.583	368.31
354.81	381.31
355.037	384.31
355.264	385.31
355.491	366.31
355.718	385.31
355.945	370.31
356.172	374.31
356.399	381.31
356.626	399.31
356.853	358.31
357.08	367.31
357.307	361.31
357.534	378.31
357.761	388.31
357.988	380.31
358.215	386.31
358.441	380.31
358.668	362.31
358.895	394.31
359.122	395.31
359.349	407.31
359.576	402.31
359.802	420.31
360.029	417.31
360.256	428.31
360.483	412.31
360.709	412.31
360.936	416.31
361.163	408.31
361.39	402.31
361.616	401.31
361.843	412.31
362.07	409.31
362.296	414.31
362.523	384.31
362.749	400.31
362.976	393.31
363.203	368.31
363.429	372.31
363.656	389.31
363.882	383.31
364.109	390.31
364.335	396.31
364.562	379.31
364.788	395.31
365.015	407.31
365.241	398.31
365.468	381.31
365.694	391.31
365.92	398.31
366.147	388.31
366.373	393.31
366.599	388.31
366.826	408.31
367.052	381.31
367.278	403.31
367.505	387.31
367.731	386.31
367.957	388.31
368.184	392.31
368.41	394.31
368.636	387.31
368.862	407.31
369.089	399.31
369.315	414.31
369.541	384.31
369.767	392.31
369.993	372.31
370.219	387.31
370.445	376.31
370.672	402.31
370.898	405.31
371.124	411.31
371.35	388.31
371.576	385.31
371.802	387.31
372.028	407.31
372.254	401.31
372.48	399.31
372.706	406.31
372.932	409.31
373.158	408.31
373.384	408.31
373.61	419.31
373.835	419.31
374.061	418.31
374.287	406.31
374.513	396.31
374.739	400.31
374.965	421.31
375.191	402.31
375.416	414.31
375.642	419.31
375.868	399.31
376.094	412.31
376.319	391.31
376.545	382.31
376.771	394.31
376.997	392.31
377.222	413.31
377.448	393.31
377.674	419.31
377.899	400.31
378.125	396.31
378.35	386.31
378.576	396.31
378.802	393.31
379.027	393.31
379.253	410.31
379.478	362.31
379.704	406.31
379.929	406.31
380.155	415.31
380.38	401.31
380.606	422.31
380.831	404.31
381.057	415.31
381.282	404.31
381.507	419.31
381.733	410.31
381.958	404.31
382.184	434.31
382.409	425.31
382.634	430.31
382.86	411.31
383.085	407.31
383.31	415.31
383.535	425.31
383.761	397.31
383.986	419.31
384.211	455.31
384.436	430.31
384.662	434.31
384.887	443.31
385.112	440.31
385.337	447.31
385.562	428.31
385.787	438.31
386.013	442.31
386.238	456.31
386.463	452.31
386.688	451.31
386.913	428.31
387.138	437.31
387.363	448.31
387.588	455.31
387.813	431.31
388.038	439.31
388.263	446.31
388.488	449.31
388.713	459.31
388.938	461.31
389.163	438.31
389.387	426.31
389.612	442.31
389.837	418.31
390.062	434.31
390.287	418.31
390.512	444.31
390.736	436.31
390.961	442.31
391.186	454.31
391.411	453.31
391.636	447.31
391.86	461.31
392.085	472.31
392.31	474.31
392.534	474.31
392.759	473.31
392.984	452.31
393.208	438.31
393.433	458.31
393.658	471.31
393.882	445.31
394.107	454.31
394.331	448.31
394.556	462.31
394.78	460.31
395.005	470.31
395.229	474.31
395.454	481.31
395.678	471.31
395.903	481.31
396.127	456.31
396.352	488.31
396.576	477.31
396.801	451.31
397.025	468.31
397.249	468.31
397.474	489.31
397.698	484.31
397.922	509.31
398.147	510.31
398.371	510.31
398.595	501.31
398.82	517.31
399.044	521.31
399.268	573.31
399.492	598.31
399.717	634.31
399.941	630.31
400.165	644.31
400.389	632.31
400.613	613.31
400.837	570.31
401.062	543.31
401.286	528.31
401.51	531.31
401.734	535.31
401.958	516.31
402.182	535.31
402.406	546.31
402.63	547.31
402.854	532.31
403.078	535.31
403.302	541.31
403.526	534.31
403.75	541.31
403.974	554.31
404.198	561.31
404.422	554.31
404.645	561.31
404.869	554.31
405.093	589.31
405.317	623.31
405.541	644.31
405.765	615.31
405.988	574.31
406.212	576.31
406.436	609.31
406.66	590.31
406.883	581.31
407.107	607.31
407.331	630.31
407.555	696.31
407.778	683.31
408.002	646.31
408.226	607.31
408.449	606.31
408.673	604.31
408.896	627.31
409.12	666.31
409.344	613.31
409.567	563.31
409.791	556.31
410.014	556.31
410.238	517.31
410.461	542.31
410.685	563.31
410.908	562.31
411.132	604.31
411.355	636.31
411.578	596.31
411.802	549.31
412.025	532.31
412.249	550.31
412.472	554.31
412.695	614.31
412.919	593.31
413.142	551.31
413.365	545.31
413.589	540.31
413.812	524.31
414.035	515.31
414.258	518.31
414.482	514.31
414.705	515.31
414.928	514.31
415.151	500.31
415.374	521.31
415.597	516.31
415.821	536.31
416.044	521.31
416.267	501.31
416.49	497.31
416.713	503.31
416.936	515.31
417.159	499.31
417.382	513.31
417.605	532.31
417.828	521.31
418.051	541.31
418.274	529.31
418.497	522.31
418.72	534.31
418.943	509.31
419.166	511.31
419.389	555.31
419.611	561.31
419.834	556.31
420.057	552.31
420.28	534.31
420.503	531.31
420.726	537.31
420.948	541.31
421.171	587.31
421.394	611.31
421.617	516.31
421.839	518.31
422.062	525.31
422.285	534.31
422.507	603.31
422.73	683.31
422.953	665.31
423.175	552.31
423.398	554.31
423.621	555.31
423.843	580.31
424.066	557.31
424.288	574.31
424.511	573.31
424.733	627.31
424.956	714.31
425.178	679.31
425.401	678.31
425.623	693.31
425.846	583.31
426.068	558.31
426.291	547.31
426.513	554.31
426.735	567.31
426.958	596.31
427.18	646.31
427.402	806.31
427.625	880.31
427.847	756.31
428.069	648.31
428.292	594.31
428.514	546.31
428.736	531.31
428.958	540.31
429.181	518.31
429.403	527.31
429.625	517.31
429.847	543.31
430.069	605.31
430.292	606.31
430.514	525.31
430.736	514.31
430.958	510.31
431.18	498.31
431.402	486.31
431.624	493.31
431.846	494.31
432.068	500.31
432.29	492.31
432.512	510.31
432.734	516.31
432.956	509.31
433.178	523.31
433.4	498.31
433.622	504.31
433.844	515.31
434.066	504.31
434.287	486.31
434.509	509.31
434.731	526.31
434.953	523.31
435.175	526.31
435.397	538.31
435.618	555.31
435.84	576.31
436.062	652.31
436.284	734.31
436.505	600.31
436.727	545.31
436.949	538.31
437.17	532.31
437.392	510.31
437.614	528.31
437.835	544.31
438.057	653.31
438.278	723.31
438.5	714.31
438.721	822.31
438.943	780.31
439.165	608.31
439.386	575.31
439.608	556.31
439.829	564.31
440.05	576.31
440.272	594.31
440.493	588.31
440.715	548.31
440.936	520.31
441.158	535.31
441.379	541.31
441.6	549.31
441.822	557.31
442.043	578.31
442.264	655.31
442.486	681.31
442.707	630.31
442.928	580.31
443.149	590.31
443.371	595.31
443.592	658.31
443.813	731.31
444.034	806.31
444.255	652.31
444.476	602.31
444.698	586.31
444.919	585.31
445.14	648.31
445.361	618.31
445.582	576.31
445.803	633.31
446.024	724.31
446.245	742.31
446.466	673.31
446.687	606.31
446.908	557.31
447.129	543.31
447.35	502.31
447.571	515.31
447.792	481.31
448.013	527.31
448.234	519.31
448.455	555.31
448.675	682.31
448.896	775.31
449.117	650.31
449.338	616.31
449.559	731.31
449.779	818.31
450	653.31
450.221	536.31
450.442	504.31
450.662	505.31
450.883	489.31
451.104	495.31
451.324	482.31
451.545	480.31
451.766	469.31
451.986	449.31
452.207	452.31
452.428	467.31
452.648	459.31
452.869	453.31
453.089	461.31
453.31	479.31
453.53	465.31
453.751	438.31
453.971	461.31
454.192	456.31
454.412	448.31
454.633	419.31
454.853	452.31
455.073	462.31
455.294	470.31
455.514	529.31
455.734	502.31
455.955	453.31
456.175	462.31
456.395	432.31
456.616	422.31
456.836	446.31
457.056	434.31
457.276	419.31
457.497	439.31
457.717	425.31
457.937	456.31
458.157	462.31
458.377	459.31
458.598	442.31
458.818	517.31
459.038	575.31
459.258	591.31
459.478	535.31
459.698	500.31
459.918	478.31
460.138	498.31
460.358	504.31
460.578	511.31
460.798	527.31
461.018	523.31
461.238	505.31
461.458	499.31
461.678	502.31
461.898	526.31
462.118	524.31
462.338	535.31
462.558	536.31
462.777	548.31
462.997	559.31
463.217	591.31
463.437	589.31
463.657	571.31
463.876	559.31
464.096	568.31
464.316	546.31
464.536	556.31
464.755	548.31
464.975	538.31
465.195	556.31
465.414	582.31
465.634	532.31
465.854	521.31
466.073	500.31
466.293	493.31
466.512	479.31
466.732	498.31
466.951	494.31
467.171	461.31
467.391	481.31
467.61	488.31
467.829	450.31
468.049	473.31
468.268	472.31
468.488	460.31
468.707	460.31
468.927	476.31
469.146	449.31
469.365	462.31
469.585	454.31
469.804	464.31
470.023	478.31
470.243	468.31
470.462	473.31
470.681	477.31
470.901	483.31
471.12	492.31
471.339	463.31
471.558	487.31
471.777	480.31
471.997	485.31
472.216	453.31
472.435	520.31
472.654	486.31
472.873	488.31
473.092	489.31
473.311	468.31
473.53	466.31
473.749	478.31
473.968	486.31
474.187	603.31
474.406	635.31
474.625	536.31
474.844	474.31
475.063	493.31
475.282	514.31
475.501	500.31
475.72	495.31
475.939	493.31
476.158	512.31
476.377	488.31
476.596	487.31
476.814	474.31
477.033	493.31
477.252	498.31
477.471	520.31
477.69	532.31
477.908	524.31
478.127	535.31
478.346	565.31
478.564	530.31
478.783	539.31
479.002	550.31
479.22	552.31
479.439	548.31
479.658	573.31
479.876	562.31
480.095	568.31
480.313	605.31
480.532	586.31
480.751	595.31
480.969	588.31
481.188	644.31
481.406	671.31
481.624	618.31
481.843	562.31
482.061	578.31
482.28	553.31
482.498	540.31
482.717	557.31
482.935	539.31
483.153	552.31
483.372	564.31
483.59	560.31
483.808	548.31
484.027	540.31
484.245	558.31
484.463	566.31
484.681	590.31
484.9	565.31
485.118	586.31
485.336	562.31
485.554	566.31
485.772	579.31
485.99	590.31
486.209	581.31
486.427	570.31
486.645	578.31
486.863	630.31
487.081	605.31
487.299	591.31
487.517	599.31
487.735	590.31
487.953	596.31
488.171	597.31
488.389	613.31
488.607	579.31
488.825	584.31
489.043	581.31
489.261	597.31
489.479	613.31
489.696	598.31
489.914	604.31
490.132	623.31
490.35	632.31
490.568	636.31
490.786	650.31
491.003	664.31
491.221	631.31
491.439	660.31
491.657	679.31
491.874	662.31
492.092	698.31
492.31	658.31
492.527	696.31
492.745	704.31
492.963	695.31
493.18	696.31
493.398	714.31
493.615	708.31
493.833	688.31
494.05	710.31
494.268	710.31
494.485	712.31
494.703	720.31
494.92	703.31
495.138	739.31
495.355	711.31
495.573	716.31
495.79	730.31
496.008	696.31
496.225	714.31
496.442	693.31
496.66	706.31
496.877	719.31
497.094	739.31
497.312	748.31
497.529	740.31
497.746	751.31
497.963	765.31
498.181	774.31
498.398	806.31
498.615	837.31
498.832	847.31
499.049	870.31
499.267	891.31
499.484	905.31
499.701	959.31
499.918	980.31
500.135	1048.31
500.352	1101.31
500.569	1169.31
500.786	1142.31
501.003	1105.31
501.22	1080.31
501.437	991.31
501.654	946.31
