Data from 1975.PennyLincolnUp.Lamp.En5.5.200Scan.071719.P1.Changed Mount._HRD10591_15-56-53-858.txt Node
Date: Thu Jul 18 15:56:53 EDT 2019
User: cochatt
Spectrometer: HR+D1059
Trigger mode: 1
Integration Time (sec): 1.000000E-1
Scans to average: 1
Electric dark correction enabled: true
Nonlinearity correction enabled: false
Boxcar width: 0
XAxis mode: Wavelengths
Number of Pixels in Spectrum: 2048
>>>>>Begin Spectral Data<<<<<
223.165	-4.75
223.4	-4.75
223.635	-4.75
223.869	-27.75
224.104	-23.75
224.338	-7.75
224.573	-19.75
224.808	-10.75
225.042	1.25
225.277	-5.75
225.511	11.25
225.746	-4.75
225.98	5.25
226.215	4.25
226.449	19.25
226.683	24.25
226.918	13.25
227.152	26.25
227.387	38.25
227.621	49.25
227.856	36.25
228.09	32.25
228.324	56.25
228.559	60.25
228.793	74.25
229.027	93.25
229.262	96.25
229.496	118.25
229.73	117.25
229.964	148.25
230.199	109.25
230.433	126.25
230.667	108.25
230.901	116.25
231.136	111.25
231.37	112.25
231.604	113.25
231.838	105.25
232.072	104.25
232.306	104.25
232.541	124.25
232.775	94.25
233.009	125.25
233.243	118.25
233.477	112.25
233.711	127.25
233.945	132.25
234.179	116.25
234.413	127.25
234.647	111.25
234.881	124.25
235.115	130.25
235.349	117.25
235.583	116.25
235.817	141.25
236.051	124.25
236.285	135.25
236.519	121.25
236.753	121.25
236.987	139.25
237.221	172.25
237.455	210.25
237.689	192.25
237.922	132.25
238.156	136.25
238.39	126.25
238.624	121.25
238.858	135.25
239.091	117.25
239.325	131.25
239.559	134.25
239.793	130.25
240.027	152.25
240.26	139.25
240.494	151.25
240.728	147.25
240.961	135.25
241.195	148.25
241.429	135.25
241.662	155.25
241.896	138.25
242.13	130.25
242.363	137.25
242.597	141.25
242.83	130.25
243.064	141.25
243.298	152.25
243.531	159.25
243.765	139.25
243.998	146.25
244.232	135.25
244.465	166.25
244.699	130.25
244.932	152.25
245.166	142.25
245.399	140.25
245.633	148.25
245.866	160.25
246.099	164.25
246.333	142.25
246.566	148.25
246.8	159.25
247.033	160.25
247.266	158.25
247.5	157.25
247.733	178.25
247.966	178.25
248.2	163.25
248.433	171.25
248.666	180.25
248.899	189.25
249.133	205.25
249.366	209.25
249.599	216.25
249.832	179.25
250.066	184.25
250.299	184.25
250.532	190.25
250.765	216.25
250.998	224.25
251.231	227.25
251.465	205.25
251.698	214.25
251.931	200.25
252.164	196.25
252.397	199.25
252.63	200.25
252.863	201.25
253.096	204.25
253.329	235.25
253.562	232.25
253.795	229.25
254.028	219.25
254.261	225.25
254.494	228.25
254.727	260.25
254.96	289.25
255.193	262.25
255.426	240.25
255.659	235.25
255.892	237.25
256.124	239.25
256.357	226.25
256.59	235.25
256.823	225.25
257.056	212.25
257.289	207.25
257.521	216.25
257.754	228.25
257.987	224.25
258.22	212.25
258.452	213.25
258.685	212.25
258.918	207.25
259.151	231.25
259.383	215.25
259.616	225.25
259.849	241.25
260.081	238.25
260.314	253.25
260.547	270.25
260.779	253.25
261.012	244.25
261.244	241.25
261.477	224.25
261.71	218.25
261.942	225.25
262.175	223.25
262.407	231.25
262.64	214.25
262.872	211.25
263.105	221.25
263.337	210.25
263.57	207.25
263.802	212.25
264.035	220.25
264.267	230.25
264.499	221.25
264.732	224.25
264.964	228.25
265.197	219.25
265.429	223.25
265.661	226.25
265.894	237.25
266.126	241.25
266.358	214.25
266.591	220.25
266.823	230.25
267.055	232.25
267.287	231.25
267.52	247.25
267.752	223.25
267.984	248.25
268.216	224.25
268.448	225.25
268.681	235.25
268.913	265.25
269.145	280.25
269.377	289.25
269.609	257.25
269.841	261.25
270.073	278.25
270.306	295.25
270.538	301.25
270.77	318.25
271.002	306.25
271.234	315.25
271.466	304.25
271.698	310.25
271.93	295.25
272.162	316.25
272.394	315.25
272.626	297.25
272.858	288.25
273.09	270.25
273.322	289.25
273.553	269.25
273.785	283.25
274.017	249.25
274.249	259.25
274.481	280.25
274.713	262.25
274.945	289.25
275.176	273.25
275.408	282.25
275.64	266.25
275.872	259.25
276.104	279.25
276.335	262.25
276.567	296.25
276.799	277.25
277.031	313.25
277.262	319.25
277.494	328.25
277.726	325.25
277.957	287.25
278.189	275.25
278.421	274.25
278.652	287.25
278.884	253.25
279.115	304.25
279.347	276.25
279.579	284.25
279.81	277.25
280.042	297.25
280.273	276.25
280.505	286.25
280.736	285.25
280.968	267.25
281.199	271.25
281.431	264.25
281.662	272.25
281.894	282.25
282.125	269.25
282.356	299.25
282.588	311.25
282.819	298.25
283.051	294.25
283.282	279.25
283.513	276.25
283.745	296.25
283.976	274.25
284.207	287.25
284.439	280.25
284.67	286.25
284.901	290.25
285.132	282.25
285.364	294.25
285.595	285.25
285.826	293.25
286.057	290.25
286.288	292.25
286.52	290.25
286.751	294.25
286.982	275.25
287.213	304.25
287.444	312.25
287.675	316.25
287.906	313.25
288.138	305.25
288.369	324.25
288.6	325.25
288.831	310.25
289.062	306.25
289.293	298.25
289.524	302.25
289.755	307.25
289.986	303.25
290.217	296.25
290.448	299.25
290.679	296.25
290.91	304.25
291.141	294.25
291.371	299.25
291.602	294.25
291.833	302.25
292.064	285.25
292.295	311.25
292.526	291.25
292.757	314.25
292.987	300.25
293.218	276.25
293.449	303.25
293.68	316.25
293.91	306.25
294.141	315.25
294.372	286.25
294.603	302.25
294.833	305.25
295.064	309.25
295.295	316.25
295.525	296.25
295.756	315.25
295.987	323.25
296.217	318.25
296.448	349.25
296.679	320.25
296.909	318.25
297.14	297.25
297.37	308.25
297.601	312.25
297.831	322.25
298.062	315.25
298.292	315.25
298.523	318.25
298.753	312.25
298.984	314.25
299.214	338.25
299.445	317.25
299.675	331.25
299.905	324.25
300.136	332.25
300.366	314.25
300.597	336.25
300.827	348.25
301.057	341.25
301.288	328.25
301.518	338.25
301.748	340.25
301.979	360.25
302.209	348.25
302.439	346.25
302.669	335.25
302.9	344.25
303.13	329.25
303.36	337.25
303.59	344.25
303.82	339.25
304.051	337.25
304.281	349.25
304.511	326.25
304.741	328.25
304.971	346.25
305.201	336.25
305.431	331.25
305.661	336.25
305.891	325.25
306.121	339.25
306.352	346.25
306.582	351.25
306.812	341.25
307.042	334.25
307.272	343.25
307.502	338.25
307.731	345.25
307.961	347.25
308.191	332.25
308.421	347.25
308.651	353.25
308.881	358.25
309.111	354.25
309.341	330.25
309.571	353.25
309.8	374.25
310.03	372.25
310.26	371.25
310.49	361.25
310.72	378.25
310.949	380.25
311.179	384.25
311.409	379.25
311.639	361.25
311.868	376.25
312.098	383.25
312.328	387.25
312.557	382.25
312.787	398.25
313.017	391.25
313.246	374.25
313.476	370.25
313.706	390.25
313.935	366.25
314.165	396.25
314.394	399.25
314.624	401.25
314.853	380.25
315.083	372.25
315.312	391.25
315.542	381.25
315.771	356.25
316.001	385.25
316.23	382.25
316.46	365.25
316.689	396.25
316.919	396.25
317.148	387.25
317.377	385.25
317.607	385.25
317.836	381.25
318.065	387.25
318.295	403.25
318.524	376.25
318.753	370.25
318.983	381.25
319.212	382.25
319.441	381.25
319.67	382.25
319.9	377.25
320.129	368.25
320.358	372.25
320.587	394.25
320.816	406.25
321.046	392.25
321.275	371.25
321.504	388.25
321.733	408.25
321.962	400.25
322.191	420.25
322.42	401.25
322.649	414.25
322.878	437.25
323.108	452.25
323.337	440.25
323.566	482.25
323.795	470.25
324.024	518.25
324.253	594.25
324.482	821.25
324.71	1262.25
324.939	1839.25
325.168	1616.25
325.397	844.25
325.626	574.25
325.855	537.25
326.084	472.25
326.313	475.25
326.542	471.25
326.77	518.25
326.999	590.25
327.228	763.25
327.457	1142.25
327.686	1423.25
327.914	988.25
328.143	638.25
328.372	551.25
328.6	534.25
328.829	550.25
329.058	525.25
329.287	525.25
329.515	525.25
329.744	494.25
329.972	489.25
330.201	521.25
330.43	538.25
330.658	540.25
330.887	583.25
331.115	577.25
331.344	492.25
331.572	484.25
331.801	489.25
332.03	493.25
332.258	455.25
332.486	450.25
332.715	474.25
332.943	471.25
333.172	448.25
333.4	478.25
333.629	494.25
333.857	490.25
334.085	500.25
334.314	536.25
334.542	532.25
334.771	561.25
334.999	521.25
335.227	501.25
335.455	487.25
335.684	466.25
335.912	473.25
336.14	468.25
336.369	457.25
336.597	459.25
336.825	466.25
337.053	488.25
337.281	469.25
337.51	445.25
337.738	446.25
337.966	449.25
338.194	446.25
338.422	446.25
338.65	460.25
338.878	439.25
339.106	447.25
339.334	442.25
339.562	427.25
339.79	452.25
340.018	451.25
340.246	433.25
340.474	454.25
340.702	454.25
340.93	445.25
341.158	434.25
341.386	427.25
341.614	446.25
341.842	440.25
342.07	420.25
342.298	419.25
342.526	422.25
342.754	444.25
342.981	428.25
343.209	423.25
343.437	447.25
343.665	423.25
343.893	456.25
344.12	473.25
344.348	460.25
344.576	450.25
344.804	449.25
345.031	452.25
345.259	444.25
345.487	425.25
345.714	434.25
345.942	426.25
346.17	446.25
346.397	433.25
346.625	419.25
346.853	433.25
347.08	434.25
347.308	436.25
347.535	432.25
347.763	427.25
347.99	422.25
348.218	412.25
348.445	430.25
348.673	433.25
348.9	420.25
349.128	428.25
349.355	417.25
349.583	423.25
349.81	422.25
350.037	388.25
350.265	412.25
350.492	409.25
350.72	409.25
350.947	397.25
351.174	418.25
351.402	444.25
351.629	411.25
351.856	434.25
352.083	444.25
352.311	441.25
352.538	460.25
352.765	438.25
352.992	423.25
353.22	412.25
353.447	436.25
353.674	408.25
353.901	411.25
354.128	392.25
354.355	410.25
354.583	416.25
354.81	418.25
355.037	408.25
355.264	405.25
355.491	404.25
355.718	380.25
355.945	395.25
356.172	386.25
356.399	412.25
356.626	408.25
356.853	397.25
357.08	400.25
357.307	402.25
357.534	395.25
357.761	380.25
357.988	421.25
358.215	420.25
358.441	401.25
358.668	417.25
358.895	400.25
359.122	419.25
359.349	416.25
359.576	414.25
359.802	430.25
360.029	444.25
360.256	478.25
360.483	443.25
360.709	434.25
360.936	426.25
361.163	439.25
361.39	428.25
361.616	429.25
361.843	413.25
362.07	428.25
362.296	418.25
362.523	408.25
362.749	429.25
362.976	417.25
363.203	427.25
363.429	432.25
363.656	429.25
363.882	421.25
364.109	438.25
364.335	424.25
364.562	424.25
364.788	425.25
365.015	428.25
365.241	416.25
365.468	409.25
365.694	418.25
365.92	413.25
366.147	418.25
366.373	410.25
366.599	405.25
366.826	430.25
367.052	401.25
367.278	410.25
367.505	421.25
367.731	421.25
367.957	425.25
368.184	413.25
368.41	423.25
368.636	439.25
368.862	448.25
369.089	419.25
369.315	414.25
369.541	418.25
369.767	415.25
369.993	401.25
370.219	430.25
370.445	424.25
370.672	423.25
370.898	416.25
371.124	433.25
371.35	429.25
371.576	407.25
371.802	416.25
372.028	415.25
372.254	429.25
372.48	414.25
372.706	420.25
372.932	429.25
373.158	426.25
373.384	423.25
373.61	433.25
373.835	425.25
374.061	430.25
374.287	437.25
374.513	427.25
374.739	428.25
374.965	413.25
375.191	425.25
375.416	442.25
375.642	427.25
375.868	438.25
376.094	428.25
376.319	429.25
376.545	419.25
376.771	423.25
376.997	425.25
377.222	426.25
377.448	407.25
377.674	428.25
377.899	417.25
378.125	425.25
378.35	425.25
378.576	409.25
378.802	423.25
379.027	419.25
379.253	431.25
379.478	429.25
379.704	433.25
379.929	402.25
380.155	431.25
380.38	432.25
380.606	434.25
380.831	437.25
381.057	418.25
381.282	432.25
381.507	443.25
381.733	438.25
381.958	449.25
382.184	450.25
382.409	442.25
382.634	433.25
382.86	427.25
383.085	442.25
383.31	444.25
383.535	456.25
383.761	453.25
383.986	436.25
384.211	449.25
384.436	449.25
384.662	446.25
384.887	470.25
385.112	470.25
385.337	493.25
385.562	453.25
385.787	472.25
386.013	477.25
386.238	473.25
386.463	493.25
386.688	466.25
386.913	465.25
387.138	456.25
387.363	479.25
387.588	489.25
387.813	467.25
388.038	485.25
388.263	475.25
388.488	479.25
388.713	464.25
388.938	501.25
389.163	473.25
389.387	464.25
389.612	471.25
389.837	472.25
390.062	470.25
390.287	479.25
390.512	474.25
390.736	480.25
390.961	489.25
391.186	496.25
391.411	476.25
391.636	473.25
391.86	472.25
392.085	507.25
392.31	520.25
392.534	475.25
392.759	504.25
392.984	496.25
393.208	498.25
393.433	477.25
393.658	479.25
393.882	488.25
394.107	494.25
394.331	470.25
394.556	471.25
394.78	471.25
395.005	476.25
395.229	485.25
395.454	500.25
395.678	514.25
395.903	534.25
396.127	536.25
396.352	522.25
396.576	518.25
396.801	489.25
397.025	477.25
397.249	514.25
397.474	508.25
397.698	516.25
397.922	538.25
398.147	516.25
398.371	552.25
398.595	522.25
398.82	536.25
399.044	575.25
399.268	595.25
399.492	618.25
399.717	670.25
399.941	691.25
400.165	706.25
400.389	687.25
400.613	618.25
400.837	590.25
401.062	569.25
401.286	558.25
401.51	549.25
401.734	545.25
401.958	550.25
402.182	555.25
402.406	566.25
402.63	575.25
402.854	548.25
403.078	552.25
403.302	564.25
403.526	598.25
403.75	589.25
403.974	571.25
404.198	573.25
404.422	588.25
404.645	587.25
404.869	591.25
405.093	631.25
405.317	669.25
405.541	713.25
405.765	629.25
405.988	608.25
406.212	608.25
406.436	646.25
406.66	626.25
406.883	628.25
407.107	648.25
407.331	677.25
407.555	756.25
407.778	768.25
408.002	708.25
408.226	645.25
408.449	644.25
408.673	649.25
408.896	668.25
409.12	685.25
409.344	662.25
409.567	593.25
409.791	590.25
410.014	599.25
410.238	576.25
410.461	594.25
410.685	605.25
410.908	593.25
411.132	637.25
411.355	656.25
411.578	633.25
411.802	598.25
412.025	564.25
412.249	593.25
412.472	623.25
412.695	642.25
412.919	644.25
413.142	588.25
413.365	580.25
413.589	572.25
413.812	551.25
414.035	536.25
414.258	538.25
414.482	545.25
414.705	549.25
414.928	530.25
415.151	588.25
415.374	550.25
415.597	555.25
415.821	539.25
416.044	545.25
416.267	568.25
416.49	557.25
416.713	530.25
416.936	548.25
417.159	560.25
417.382	551.25
417.605	555.25
417.828	573.25
418.051	575.25
418.274	582.25
418.497	553.25
418.72	544.25
418.943	534.25
419.166	582.25
419.389	608.25
419.611	589.25
419.834	572.25
420.057	560.25
420.28	568.25
420.503	554.25
420.726	579.25
420.948	573.25
421.171	608.25
421.394	672.25
421.617	610.25
421.839	572.25
422.062	595.25
422.285	568.25
422.507	664.25
422.73	713.25
422.953	680.25
423.175	619.25
423.398	587.25
423.621	581.25
423.843	603.25
424.066	607.25
424.288	592.25
424.511	625.25
424.733	657.25
424.956	744.25
425.178	719.25
425.401	723.25
425.623	752.25
425.846	646.25
426.068	600.25
426.291	577.25
426.513	604.25
426.735	597.25
426.958	632.25
427.18	726.25
427.402	866.25
427.625	942.25
427.847	804.25
428.069	675.25
428.292	636.25
428.514	611.25
428.736	560.25
428.958	547.25
429.181	530.25
429.403	550.25
429.625	590.25
429.847	617.25
430.069	664.25
430.292	642.25
430.514	583.25
430.736	552.25
430.958	541.25
431.18	519.25
431.402	525.25
431.624	533.25
431.846	541.25
432.068	519.25
432.29	526.25
432.512	516.25
432.734	551.25
432.956	542.25
433.178	542.25
433.4	544.25
433.622	550.25
433.844	526.25
434.066	535.25
434.287	540.25
434.509	552.25
434.731	550.25
434.953	567.25
435.175	584.25
435.397	604.25
435.618	593.25
435.84	620.25
436.062	734.25
436.284	788.25
436.505	662.25
436.727	614.25
436.949	588.25
437.17	554.25
437.392	567.25
437.614	562.25
437.835	599.25
438.057	697.25
438.278	777.25
438.5	801.25
438.721	846.25
438.943	838.25
439.165	665.25
439.386	599.25
439.608	609.25
439.829	585.25
440.05	598.25
440.272	637.25
440.493	614.25
440.715	580.25
440.936	559.25
441.158	568.25
441.379	565.25
441.6	570.25
441.822	598.25
442.043	625.25
442.264	706.25
442.486	748.25
442.707	664.25
442.928	625.25
443.149	608.25
443.371	636.25
443.592	673.25
443.813	787.25
444.034	849.25
444.255	690.25
444.476	631.25
444.698	628.25
444.919	641.25
445.14	748.25
445.361	685.25
445.582	642.25
445.803	715.25
446.024	788.25
446.245	808.25
446.466	734.25
446.687	612.25
446.908	592.25
447.129	564.25
447.35	560.25
447.571	553.25
447.792	537.25
448.013	533.25
448.234	555.25
448.455	611.25
448.675	722.25
448.896	834.25
449.117	727.25
449.338	658.25
449.559	763.25
449.779	868.25
450	711.25
450.221	610.25
450.442	544.25
450.662	529.25
450.883	543.25
451.104	545.25
451.324	533.25
451.545	491.25
451.766	512.25
451.986	501.25
452.207	490.25
452.428	488.25
452.648	489.25
452.869	513.25
453.089	484.25
453.31	489.25
453.53	503.25
453.751	494.25
453.971	471.25
454.192	502.25
454.412	488.25
454.633	491.25
454.853	484.25
455.073	477.25
455.294	508.25
455.514	576.25
455.734	553.25
455.955	496.25
456.175	488.25
456.395	473.25
456.616	458.25
456.836	470.25
457.056	461.25
457.276	469.25
457.497	467.25
457.717	458.25
457.937	485.25
458.157	483.25
458.377	492.25
458.598	483.25
458.818	545.25
459.038	614.25
459.258	660.25
459.478	592.25
459.698	538.25
459.918	528.25
460.138	522.25
460.358	542.25
460.578	564.25
460.798	545.25
461.018	542.25
461.238	574.25
461.458	541.25
461.678	528.25
461.898	554.25
462.118	545.25
462.338	579.25
462.558	590.25
462.777	560.25
462.997	617.25
463.217	622.25
463.437	635.25
463.657	602.25
463.876	600.25
464.096	580.25
464.316	595.25
464.536	609.25
464.755	593.25
464.975	582.25
465.195	618.25
465.414	664.25
465.634	594.25
465.854	549.25
466.073	551.25
466.293	528.25
466.512	512.25
466.732	522.25
466.951	500.25
467.171	525.25
467.391	497.25
467.61	502.25
467.829	538.25
468.049	524.25
468.268	510.25
468.488	485.25
468.707	506.25
468.927	485.25
469.146	499.25
469.365	501.25
469.585	492.25
469.804	500.25
470.023	542.25
470.243	508.25
470.462	518.25
470.681	499.25
470.901	550.25
471.12	546.25
471.339	522.25
471.558	526.25
471.777	541.25
471.997	504.25
472.216	528.25
472.435	560.25
472.654	557.25
472.873	531.25
473.092	517.25
473.311	510.25
473.53	528.25
473.749	524.25
473.968	536.25
474.187	647.25
474.406	665.25
474.625	593.25
474.844	531.25
475.063	514.25
475.282	528.25
475.501	499.25
475.72	536.25
475.939	522.25
476.158	535.25
476.377	512.25
476.596	520.25
476.814	541.25
477.033	534.25
477.252	550.25
477.471	550.25
477.69	551.25
477.908	541.25
478.127	572.25
478.346	562.25
478.564	576.25
478.783	601.25
479.002	590.25
479.22	586.25
479.439	562.25
479.658	607.25
479.876	613.25
480.095	607.25
480.313	649.25
480.532	649.25
480.751	625.25
480.969	642.25
481.188	682.25
481.406	740.25
481.624	662.25
481.843	610.25
482.061	612.25
482.28	600.25
482.498	569.25
482.717	569.25
482.935	575.25
483.153	604.25
483.372	594.25
483.59	601.25
483.808	603.25
484.027	605.25
484.245	596.25
484.463	596.25
484.681	604.25
484.9	615.25
485.118	622.25
485.336	622.25
485.554	631.25
485.772	609.25
485.99	620.25
486.209	601.25
486.427	646.25
486.645	630.25
486.863	633.25
487.081	629.25
487.299	661.25
487.517	643.25
487.735	636.25
487.953	642.25
488.171	662.25
488.389	647.25
488.607	634.25
488.825	656.25
489.043	628.25
489.261	643.25
489.479	658.25
489.696	659.25
489.914	680.25
490.132	685.25
490.35	648.25
490.568	652.25
490.786	693.25
491.003	721.25
491.221	720.25
491.439	704.25
491.657	733.25
491.874	736.25
492.092	750.25
492.31	738.25
492.527	760.25
492.745	748.25
492.963	724.25
493.18	747.25
493.398	783.25
493.615	793.25
493.833	781.25
494.05	763.25
494.268	765.25
494.485	749.25
494.703	745.25
494.92	743.25
495.138	748.25
495.355	759.25
495.573	764.25
495.79	747.25
496.008	780.25
496.225	774.25
496.442	733.25
496.66	745.25
496.877	758.25
497.094	764.25
497.312	770.25
497.529	794.25
497.746	815.25
497.963	817.25
498.181	861.25
498.398	840.25
498.615	862.25
498.832	880.25
499.049	913.25
499.267	933.25
499.484	984.25
499.701	997.25
499.918	1049.25
500.135	1142.25
500.352	1223.25
500.569	1219.25
500.786	1219.25
501.003	1207.25
501.22	1146.25
501.437	1080.25
501.654	1053.25
