Data from 1976.PennyLincolnUp.Lamp.En5.5.200Scan.071719.P1.Changed Mount._HRD10591_16-02-22-863.txt Node
Date: Thu Jul 18 16:02:22 EDT 2019
User: cochatt
Spectrometer: HR+D1059
Trigger mode: 1
Integration Time (sec): 1.000000E-1
Scans to average: 1
Electric dark correction enabled: true
Nonlinearity correction enabled: false
Boxcar width: 0
XAxis mode: Wavelengths
Number of Pixels in Spectrum: 2048
>>>>>Begin Spectral Data<<<<<
223.165	-24.62
223.4	-24.62
223.635	-24.62
223.869	-16.62
224.104	-22.62
224.338	-23.62
224.573	-25.62
224.808	-13.62
225.042	-14.62
225.277	-3.62
225.511	-1.62
225.746	10.38
225.98	26.38
226.215	16.38
226.449	18.38
226.683	19.38
226.918	14.38
227.152	41.38
227.387	32.38
227.621	21.38
227.856	33.38
228.09	44.38
228.324	48.38
228.559	57.38
228.793	63.38
229.027	78.38
229.262	104.38
229.496	104.38
229.73	133.38
229.964	175.38
230.199	131.38
230.433	118.38
230.667	94.38
230.901	126.38
231.136	120.38
231.37	127.38
231.604	107.38
231.838	108.38
232.072	127.38
232.306	107.38
232.541	110.38
232.775	112.38
233.009	113.38
233.243	108.38
233.477	124.38
233.711	138.38
233.945	101.38
234.179	114.38
234.413	116.38
234.647	137.38
234.881	121.38
235.115	118.38
235.349	125.38
235.583	119.38
235.817	108.38
236.051	126.38
236.285	135.38
236.519	117.38
236.753	117.38
236.987	135.38
237.221	185.38
237.455	234.38
237.689	181.38
237.922	154.38
238.156	143.38
238.39	138.38
238.624	126.38
238.858	122.38
239.091	115.38
239.325	124.38
239.559	122.38
239.793	129.38
240.027	135.38
240.26	127.38
240.494	143.38
240.728	162.38
240.961	154.38
241.195	151.38
241.429	156.38
241.662	143.38
241.896	124.38
242.13	140.38
242.363	132.38
242.597	128.38
242.83	132.38
243.064	149.38
243.298	150.38
243.531	141.38
243.765	153.38
243.998	154.38
244.232	139.38
244.465	154.38
244.699	143.38
244.932	171.38
245.166	147.38
245.399	158.38
245.633	158.38
245.866	151.38
246.099	155.38
246.333	167.38
246.566	146.38
246.8	159.38
247.033	148.38
247.266	161.38
247.5	165.38
247.733	158.38
247.966	178.38
248.2	176.38
248.433	167.38
248.666	185.38
248.899	188.38
249.133	228.38
249.366	213.38
249.599	217.38
249.832	198.38
250.066	198.38
250.299	203.38
250.532	186.38
250.765	213.38
250.998	231.38
251.231	225.38
251.465	218.38
251.698	189.38
251.931	193.38
252.164	199.38
252.397	199.38
252.63	200.38
252.863	204.38
253.096	197.38
253.329	238.38
253.562	222.38
253.795	224.38
254.028	228.38
254.261	245.38
254.494	239.38
254.727	261.38
254.96	283.38
255.193	276.38
255.426	251.38
255.659	228.38
255.892	247.38
256.124	242.38
256.357	241.38
256.59	244.38
256.823	210.38
257.056	213.38
257.289	222.38
257.521	211.38
257.754	224.38
257.987	227.38
258.22	216.38
258.452	216.38
258.685	217.38
258.918	218.38
259.151	223.38
259.383	219.38
259.616	227.38
259.849	247.38
260.081	250.38
260.314	271.38
260.547	262.38
260.779	245.38
261.012	247.38
261.244	254.38
261.477	230.38
261.71	235.38
261.942	235.38
262.175	239.38
262.407	240.38
262.64	237.38
262.872	217.38
263.105	225.38
263.337	239.38
263.57	222.38
263.802	226.38
264.035	216.38
264.267	225.38
264.499	238.38
264.732	238.38
264.964	222.38
265.197	210.38
265.429	258.38
265.661	231.38
265.894	220.38
266.126	219.38
266.358	246.38
266.591	227.38
266.823	246.38
267.055	254.38
267.287	232.38
267.52	242.38
267.752	244.38
267.984	249.38
268.216	247.38
268.448	257.38
268.681	254.38
268.913	272.38
269.145	282.38
269.377	284.38
269.609	283.38
269.841	273.38
270.073	288.38
270.306	288.38
270.538	324.38
270.77	326.38
271.002	339.38
271.234	313.38
271.466	314.38
271.698	330.38
271.93	352.38
272.162	345.38
272.394	327.38
272.626	312.38
272.858	305.38
273.09	291.38
273.322	303.38
273.553	297.38
273.785	279.38
274.017	268.38
274.249	288.38
274.481	272.38
274.713	280.38
274.945	292.38
275.176	274.38
275.408	283.38
275.64	280.38
275.872	280.38
276.104	304.38
276.335	292.38
276.567	277.38
276.799	294.38
277.031	322.38
277.262	328.38
277.494	325.38
277.726	326.38
277.957	324.38
278.189	286.38
278.421	286.38
278.652	313.38
278.884	276.38
279.115	292.38
279.347	288.38
279.579	294.38
279.81	288.38
280.042	294.38
280.273	299.38
280.505	290.38
280.736	286.38
280.968	272.38
281.199	280.38
281.431	283.38
281.662	274.38
281.894	291.38
282.125	291.38
282.356	304.38
282.588	318.38
282.819	318.38
283.051	310.38
283.282	304.38
283.513	312.38
283.745	315.38
283.976	306.38
284.207	306.38
284.439	300.38
284.67	304.38
284.901	312.38
285.132	298.38
285.364	311.38
285.595	304.38
285.826	321.38
286.057	311.38
286.288	311.38
286.52	304.38
286.751	295.38
286.982	310.38
287.213	288.38
287.444	312.38
287.675	312.38
287.906	327.38
288.138	338.38
288.369	334.38
288.6	328.38
288.831	348.38
289.062	328.38
289.293	328.38
289.524	322.38
289.755	326.38
289.986	319.38
290.217	324.38
290.448	312.38
290.679	310.38
290.91	320.38
291.141	328.38
291.371	327.38
291.602	325.38
291.833	313.38
292.064	318.38
292.295	318.38
292.526	323.38
292.757	316.38
292.987	313.38
293.218	320.38
293.449	310.38
293.68	330.38
293.91	325.38
294.141	328.38
294.372	343.38
294.603	319.38
294.833	312.38
295.064	314.38
295.295	318.38
295.525	326.38
295.756	322.38
295.987	321.38
296.217	337.38
296.448	352.38
296.679	353.38
296.909	328.38
297.14	319.38
297.37	318.38
297.601	334.38
297.831	336.38
298.062	322.38
298.292	335.38
298.523	340.38
298.753	339.38
298.984	345.38
299.214	328.38
299.445	335.38
299.675	337.38
299.905	350.38
300.136	354.38
300.366	343.38
300.597	363.38
300.827	375.38
301.057	338.38
301.288	363.38
301.518	358.38
301.748	344.38
301.979	373.38
302.209	351.38
302.439	356.38
302.669	353.38
302.9	340.38
303.13	362.38
303.36	352.38
303.59	361.38
303.82	379.38
304.051	382.38
304.281	379.38
304.511	352.38
304.741	354.38
304.971	358.38
305.201	351.38
305.431	366.38
305.661	359.38
305.891	363.38
306.121	358.38
306.352	360.38
306.582	362.38
306.812	367.38
307.042	362.38
307.272	347.38
307.502	351.38
307.731	368.38
307.961	357.38
308.191	357.38
308.421	359.38
308.651	364.38
308.881	355.38
309.111	367.38
309.341	370.38
309.571	350.38
309.8	373.38
310.03	391.38
310.26	385.38
310.49	404.38
310.72	409.38
310.949	396.38
311.179	420.38
311.409	385.38
311.639	393.38
311.868	415.38
312.098	404.38
312.328	417.38
312.557	410.38
312.787	419.38
313.017	436.38
313.246	419.38
313.476	409.38
313.706	396.38
313.935	408.38
314.165	422.38
314.394	417.38
314.624	440.38
314.853	409.38
315.083	418.38
315.312	398.38
315.542	399.38
315.771	401.38
316.001	384.38
316.23	398.38
316.46	406.38
316.689	416.38
316.919	396.38
317.148	413.38
317.377	417.38
317.607	407.38
317.836	394.38
318.065	416.38
318.295	400.38
318.524	397.38
318.753	390.38
318.983	388.38
319.212	399.38
319.441	397.38
319.67	394.38
319.9	407.38
320.129	402.38
320.358	422.38
320.587	396.38
320.816	424.38
321.046	423.38
321.275	417.38
321.504	437.38
321.733	428.38
321.962	417.38
322.191	432.38
322.42	468.38
322.649	453.38
322.878	471.38
323.108	473.38
323.337	483.38
323.566	504.38
323.795	530.38
324.024	567.38
324.253	668.38
324.482	923.38
324.71	1412.38
324.939	2145.38
325.168	1867.38
325.397	926.38
325.626	626.38
325.855	538.38
326.084	533.38
326.313	520.38
326.542	506.38
326.77	561.38
326.999	660.38
327.228	856.38
327.457	1331.38
327.686	1592.38
327.914	1090.38
328.143	705.38
328.372	626.38
328.6	609.38
328.829	584.38
329.058	535.38
329.287	596.38
329.515	578.38
329.744	561.38
329.972	514.38
330.201	523.38
330.43	582.38
330.658	612.38
330.887	623.38
331.115	574.38
331.344	525.38
331.572	512.38
331.801	527.38
332.03	510.38
332.258	510.38
332.486	484.38
332.715	480.38
332.943	500.38
333.172	491.38
333.4	489.38
333.629	523.38
333.857	523.38
334.085	537.38
334.314	528.38
334.542	579.38
334.771	588.38
334.999	533.38
335.227	512.38
335.455	514.38
335.684	500.38
335.912	480.38
336.14	494.38
336.369	485.38
336.597	495.38
336.825	491.38
337.053	472.38
337.281	483.38
337.51	480.38
337.738	491.38
337.966	458.38
338.194	485.38
338.422	468.38
338.65	486.38
338.878	481.38
339.106	473.38
339.334	456.38
339.562	450.38
339.79	484.38
340.018	460.38
340.246	461.38
340.474	467.38
340.702	476.38
340.93	457.38
341.158	465.38
341.386	442.38
341.614	471.38
341.842	476.38
342.07	455.38
342.298	442.38
342.526	444.38
342.754	420.38
342.981	435.38
343.209	450.38
343.437	463.38
343.665	466.38
343.893	495.38
344.12	480.38
344.348	481.38
344.576	474.38
344.804	478.38
345.031	461.38
345.259	479.38
345.487	472.38
345.714	442.38
345.942	454.38
346.17	442.38
346.397	436.38
346.625	433.38
346.853	445.38
347.08	433.38
347.308	450.38
347.535	467.38
347.763	463.38
347.99	458.38
348.218	444.38
348.445	446.38
348.673	471.38
348.9	450.38
349.128	458.38
349.355	408.38
349.583	418.38
349.81	442.38
350.037	407.38
350.265	442.38
350.492	432.38
350.72	409.38
350.947	441.38
351.174	446.38
351.402	444.38
351.629	466.38
351.856	438.38
352.083	440.38
352.311	450.38
352.538	468.38
352.765	449.38
352.992	451.38
353.22	461.38
353.447	439.38
353.674	453.38
353.901	451.38
354.128	421.38
354.355	403.38
354.583	418.38
354.81	420.38
355.037	407.38
355.264	404.38
355.491	410.38
355.718	410.38
355.945	404.38
356.172	417.38
356.399	414.38
356.626	407.38
356.853	419.38
357.08	414.38
357.307	406.38
357.534	402.38
357.761	405.38
357.988	395.38
358.215	433.38
358.441	410.38
358.668	417.38
358.895	404.38
359.122	394.38
359.349	436.38
359.576	431.38
359.802	453.38
360.029	489.38
360.256	495.38
360.483	464.38
360.709	447.38
360.936	446.38
361.163	450.38
361.39	439.38
361.616	446.38
361.843	454.38
362.07	451.38
362.296	436.38
362.523	457.38
362.749	435.38
362.976	421.38
363.203	435.38
363.429	422.38
363.656	410.38
363.882	431.38
364.109	426.38
364.335	417.38
364.562	420.38
364.788	424.38
365.015	416.38
365.241	419.38
365.468	428.38
365.694	424.38
365.92	437.38
366.147	430.38
366.373	427.38
366.599	425.38
366.826	403.38
367.052	419.38
367.278	422.38
367.505	406.38
367.731	411.38
367.957	404.38
368.184	423.38
368.41	427.38
368.636	450.38
368.862	444.38
369.089	426.38
369.315	432.38
369.541	412.38
369.767	440.38
369.993	438.38
370.219	427.38
370.445	438.38
370.672	406.38
370.898	438.38
371.124	443.38
371.35	426.38
371.576	431.38
371.802	434.38
372.028	408.38
372.254	435.38
372.48	434.38
372.706	428.38
372.932	417.38
373.158	428.38
373.384	444.38
373.61	422.38
373.835	424.38
374.061	415.38
374.287	440.38
374.513	431.38
374.739	456.38
374.965	444.38
375.191	423.38
375.416	447.38
375.642	456.38
375.868	451.38
376.094	443.38
376.319	440.38
376.545	419.38
376.771	432.38
376.997	426.38
377.222	418.38
377.448	427.38
377.674	422.38
377.899	440.38
378.125	408.38
378.35	429.38
378.576	416.38
378.802	445.38
379.027	406.38
379.253	404.38
379.478	436.38
379.704	420.38
379.929	416.38
380.155	441.38
380.38	438.38
380.606	424.38
380.831	440.38
381.057	423.38
381.282	439.38
381.507	431.38
381.733	443.38
381.958	428.38
382.184	425.38
382.409	447.38
382.634	432.38
382.86	468.38
383.085	474.38
383.31	445.38
383.535	459.38
383.761	445.38
383.986	461.38
384.211	441.38
384.436	457.38
384.662	455.38
384.887	462.38
385.112	459.38
385.337	485.38
385.562	481.38
385.787	471.38
386.013	476.38
386.238	472.38
386.463	497.38
386.688	474.38
386.913	492.38
387.138	480.38
387.363	479.38
387.588	469.38
387.813	476.38
388.038	473.38
388.263	480.38
388.488	465.38
388.713	492.38
388.938	481.38
389.163	483.38
389.387	464.38
389.612	461.38
389.837	466.38
390.062	469.38
390.287	450.38
390.512	464.38
390.736	464.38
390.961	458.38
391.186	468.38
391.411	473.38
391.636	471.38
391.86	481.38
392.085	498.38
392.31	528.38
392.534	497.38
392.759	491.38
392.984	485.38
393.208	491.38
393.433	484.38
393.658	490.38
393.882	467.38
394.107	491.38
394.331	467.38
394.556	474.38
394.78	481.38
395.005	477.38
395.229	479.38
395.454	500.38
395.678	502.38
395.903	490.38
396.127	512.38
396.352	530.38
396.576	507.38
396.801	482.38
397.025	496.38
397.249	511.38
397.474	513.38
397.698	527.38
397.922	528.38
398.147	560.38
398.371	581.38
398.595	536.38
398.82	562.38
399.044	572.38
399.268	616.38
399.492	630.38
399.717	676.38
399.941	704.38
400.165	709.38
400.389	713.38
400.613	631.38
400.837	564.38
401.062	585.38
401.286	558.38
401.51	570.38
401.734	549.38
401.958	574.38
402.182	570.38
402.406	576.38
402.63	568.38
402.854	556.38
403.078	574.38
403.302	598.38
403.526	573.38
403.75	566.38
403.974	578.38
404.198	585.38
404.422	597.38
404.645	587.38
404.869	613.38
405.093	617.38
405.317	655.38
405.541	696.38
405.765	634.38
405.988	607.38
406.212	622.38
406.436	627.38
406.66	649.38
406.883	644.38
407.107	662.38
407.331	711.38
407.555	764.38
407.778	771.38
408.002	715.38
408.226	671.38
408.449	650.38
408.673	632.38
408.896	660.38
409.12	722.38
409.344	678.38
409.567	608.38
409.791	586.38
410.014	578.38
410.238	574.38
410.461	579.38
410.685	582.38
410.908	597.38
411.132	621.38
411.355	652.38
411.578	645.38
411.802	594.38
412.025	569.38
412.249	602.38
412.472	625.38
412.695	618.38
412.919	640.38
413.142	586.38
413.365	549.38
413.589	565.38
413.812	565.38
414.035	545.38
414.258	555.38
414.482	542.38
414.705	523.38
414.928	531.38
415.151	515.38
415.374	560.38
415.597	548.38
415.821	542.38
416.044	553.38
416.267	536.38
416.49	535.38
416.713	537.38
416.936	539.38
417.159	546.38
417.382	560.38
417.605	560.38
417.828	569.38
418.051	571.38
418.274	565.38
418.497	550.38
418.72	551.38
418.943	528.38
419.166	581.38
419.389	575.38
419.611	583.38
419.834	584.38
420.057	584.38
420.28	578.38
420.503	578.38
420.726	575.38
420.948	577.38
421.171	617.38
421.394	662.38
421.617	591.38
421.839	566.38
422.062	578.38
422.285	585.38
422.507	642.38
422.73	715.38
422.953	715.38
423.175	623.38
423.398	616.38
423.621	589.38
423.843	608.38
424.066	624.38
424.288	603.38
424.511	662.38
424.733	663.38
424.956	747.38
425.178	721.38
425.401	728.38
425.623	773.38
425.846	633.38
426.068	601.38
426.291	589.38
426.513	598.38
426.735	584.38
426.958	630.38
427.18	740.38
427.402	868.38
427.625	956.38
427.847	816.38
428.069	726.38
428.292	630.38
428.514	575.38
428.736	572.38
428.958	561.38
429.181	558.38
429.403	547.38
429.625	566.38
429.847	566.38
430.069	665.38
430.292	678.38
430.514	562.38
430.736	564.38
430.958	561.38
431.18	536.38
431.402	500.38
431.624	500.38
431.846	527.38
432.068	542.38
432.29	530.38
432.512	530.38
432.734	532.38
432.956	518.38
433.178	545.38
433.4	528.38
433.622	537.38
433.844	542.38
434.066	532.38
434.287	516.38
434.509	518.38
434.731	575.38
434.953	553.38
435.175	583.38
435.397	607.38
435.618	619.38
435.84	650.38
436.062	738.38
436.284	821.38
436.505	664.38
436.727	622.38
436.949	558.38
437.17	536.38
437.392	540.38
437.614	556.38
437.835	585.38
438.057	684.38
438.278	815.38
438.5	812.38
438.721	884.38
438.943	857.38
439.165	692.38
439.386	606.38
439.608	606.38
439.829	631.38
440.05	619.38
440.272	698.38
440.493	642.38
440.715	594.38
440.936	584.38
441.158	583.38
441.379	545.38
441.6	579.38
441.822	624.38
442.043	646.38
442.264	733.38
442.486	766.38
442.707	654.38
442.928	612.38
443.149	616.38
443.371	656.38
443.592	683.38
443.813	788.38
444.034	874.38
444.255	719.38
444.476	659.38
444.698	629.38
444.919	629.38
445.14	726.38
445.361	670.38
445.582	667.38
445.803	714.38
446.024	814.38
446.245	839.38
446.466	746.38
446.687	642.38
446.908	591.38
447.129	586.38
447.35	560.38
447.571	568.38
447.792	552.38
448.013	547.38
448.234	569.38
448.455	614.38
448.675	753.38
448.896	868.38
449.117	731.38
449.338	687.38
449.559	810.38
449.779	930.38
450	732.38
450.221	615.38
450.442	567.38
450.662	543.38
450.883	544.38
451.104	551.38
451.324	535.38
451.545	523.38
451.766	536.38
451.986	489.38
452.207	486.38
452.428	499.38
452.648	475.38
452.869	488.38
453.089	504.38
453.31	505.38
453.53	485.38
453.751	503.38
453.971	480.38
454.192	498.38
454.412	487.38
454.633	477.38
454.853	499.38
455.073	474.38
455.294	529.38
455.514	580.38
455.734	582.38
455.955	502.38
456.175	483.38
456.395	457.38
456.616	457.38
456.836	449.38
457.056	470.38
457.276	450.38
457.497	488.38
457.717	457.38
457.937	477.38
458.157	466.38
458.377	500.38
458.598	519.38
458.818	539.38
459.038	639.38
459.258	678.38
459.478	588.38
459.698	548.38
459.918	528.38
460.138	517.38
460.358	562.38
460.578	552.38
460.798	556.38
461.018	555.38
461.238	549.38
461.458	536.38
461.678	527.38
461.898	555.38
462.118	530.38
462.338	573.38
462.558	584.38
462.777	618.38
462.997	606.38
463.217	618.38
463.437	617.38
463.657	592.38
463.876	607.38
464.096	604.38
464.316	606.38
464.536	608.38
464.755	593.38
464.975	594.38
465.195	629.38
465.414	632.38
465.634	591.38
465.854	557.38
466.073	528.38
466.293	532.38
466.512	495.38
466.732	512.38
466.951	502.38
467.171	500.38
467.391	488.38
467.61	516.38
467.829	503.38
468.049	510.38
468.268	507.38
468.488	496.38
468.707	510.38
468.927	532.38
469.146	492.38
469.365	480.38
469.585	492.38
469.804	501.38
470.023	520.38
470.243	520.38
470.462	528.38
470.681	539.38
470.901	520.38
471.12	514.38
471.339	496.38
471.558	510.38
471.777	488.38
471.997	513.38
472.216	512.38
472.435	547.38
472.654	505.38
472.873	514.38
473.092	510.38
473.311	527.38
473.53	487.38
473.749	516.38
473.968	522.38
474.187	652.38
474.406	676.38
474.625	559.38
474.844	520.38
475.063	500.38
475.282	496.38
475.501	498.38
475.72	533.38
475.939	534.38
476.158	520.38
476.377	523.38
476.596	518.38
476.814	546.38
477.033	538.38
477.252	538.38
477.471	547.38
477.69	542.38
477.908	572.38
478.127	569.38
478.346	573.38
478.564	570.38
478.783	562.38
479.002	596.38
479.22	586.38
479.439	618.38
479.658	598.38
479.876	607.38
480.095	620.38
480.313	629.38
480.532	652.38
480.751	650.38
480.969	607.38
481.188	676.38
481.406	704.38
481.624	648.38
481.843	602.38
482.061	606.38
482.28	586.38
482.498	566.38
482.717	586.38
482.935	601.38
483.153	604.38
483.372	601.38
483.59	594.38
483.808	609.38
484.027	578.38
484.245	598.38
484.463	585.38
484.681	616.38
484.9	585.38
485.118	596.38
485.336	620.38
485.554	620.38
485.772	622.38
485.99	613.38
486.209	614.38
486.427	627.38
486.645	629.38
486.863	641.38
487.081	642.38
487.299	648.38
487.517	637.38
487.735	630.38
487.953	622.38
488.171	639.38
488.389	635.38
488.607	651.38
488.825	629.38
489.043	636.38
489.261	646.38
489.479	618.38
489.696	653.38
489.914	632.38
490.132	661.38
490.35	662.38
490.568	660.38
490.786	684.38
491.003	695.38
491.221	674.38
491.439	704.38
491.657	699.38
491.874	710.38
492.092	698.38
492.31	736.38
492.527	750.38
492.745	727.38
492.963	739.38
493.18	716.38
493.398	741.38
493.615	761.38
493.833	778.38
494.05	756.38
494.268	750.38
494.485	727.38
494.703	733.38
494.92	758.38
495.138	754.38
495.355	780.38
495.573	756.38
495.79	766.38
496.008	760.38
496.225	753.38
496.442	747.38
496.66	729.38
496.877	745.38
497.094	757.38
497.312	806.38
497.529	779.38
497.746	791.38
497.963	806.38
498.181	828.38
498.398	858.38
498.615	882.38
498.832	890.38
499.049	891.38
499.267	955.38
499.484	986.38
499.701	1012.38
499.918	1034.38
500.135	1098.38
500.352	1186.38
500.569	1208.38
500.786	1204.38
501.003	1192.38
501.22	1148.38
501.437	1073.38
501.654	1045.38
