Data from 1976.PennyLincolnUp.Lamp.En5.5.200Scan.071719.P1.Changed Mount._HRD10591_15-59-57-860.txt Node
Date: Thu Jul 18 15:59:57 EDT 2019
User: cochatt
Spectrometer: HR+D1059
Trigger mode: 1
Integration Time (sec): 1.000000E-1
Scans to average: 1
Electric dark correction enabled: true
Nonlinearity correction enabled: false
Boxcar width: 0
XAxis mode: Wavelengths
Number of Pixels in Spectrum: 2048
>>>>>Begin Spectral Data<<<<<
223.165	-11.25
223.4	-11.25
223.635	-11.25
223.869	-16.25
224.104	-14.25
224.338	-11.25
224.573	-19.25
224.808	-19.25
225.042	-1.25
225.277	-4.25
225.511	-19.25
225.746	11.75
225.98	7.75
226.215	11.75
226.449	18.75
226.683	17.75
226.918	21.75
227.152	26.75
227.387	37.75
227.621	34.75
227.856	45.75
228.09	33.75
228.324	53.75
228.559	53.75
228.793	58.75
229.027	87.75
229.262	93.75
229.496	127.75
229.73	112.75
229.964	151.75
230.199	126.75
230.433	110.75
230.667	110.75
230.901	110.75
231.136	103.75
231.37	120.75
231.604	107.75
231.838	106.75
232.072	122.75
232.306	119.75
232.541	117.75
232.775	113.75
233.009	122.75
233.243	120.75
233.477	123.75
233.711	108.75
233.945	122.75
234.179	108.75
234.413	121.75
234.647	115.75
234.881	107.75
235.115	92.75
235.349	119.75
235.583	114.75
235.817	98.75
236.051	135.75
236.285	125.75
236.519	124.75
236.753	119.75
236.987	131.75
237.221	164.75
237.455	223.75
237.689	177.75
237.922	135.75
238.156	122.75
238.39	125.75
238.624	134.75
238.858	115.75
239.091	116.75
239.325	125.75
239.559	135.75
239.793	120.75
240.027	149.75
240.26	131.75
240.494	159.75
240.728	155.75
240.961	166.75
241.195	147.75
241.429	144.75
241.662	130.75
241.896	149.75
242.13	133.75
242.363	124.75
242.597	117.75
242.83	127.75
243.064	126.75
243.298	134.75
243.531	131.75
243.765	144.75
243.998	124.75
244.232	135.75
244.465	139.75
244.699	131.75
244.932	135.75
245.166	147.75
245.399	156.75
245.633	153.75
245.866	150.75
246.099	155.75
246.333	145.75
246.566	146.75
246.8	162.75
247.033	164.75
247.266	161.75
247.5	164.75
247.733	181.75
247.966	178.75
248.2	177.75
248.433	171.75
248.666	174.75
248.899	197.75
249.133	189.75
249.366	198.75
249.599	197.75
249.832	189.75
250.066	188.75
250.299	177.75
250.532	202.75
250.765	224.75
250.998	200.75
251.231	231.75
251.465	206.75
251.698	193.75
251.931	203.75
252.164	188.75
252.397	187.75
252.63	174.75
252.863	187.75
253.096	211.75
253.329	238.75
253.562	227.75
253.795	212.75
254.028	224.75
254.261	220.75
254.494	232.75
254.727	250.75
254.96	262.75
255.193	261.75
255.426	243.75
255.659	213.75
255.892	219.75
256.124	241.75
256.357	221.75
256.59	231.75
256.823	212.75
257.056	201.75
257.289	205.75
257.521	217.75
257.754	215.75
257.987	230.75
258.22	205.75
258.452	215.75
258.685	211.75
258.918	183.75
259.151	201.75
259.383	208.75
259.616	212.75
259.849	220.75
260.081	219.75
260.314	237.75
260.547	245.75
260.779	271.75
261.012	234.75
261.244	207.75
261.477	228.75
261.71	219.75
261.942	226.75
262.175	236.75
262.407	218.75
262.64	214.75
262.872	211.75
263.105	215.75
263.337	213.75
263.57	210.75
263.802	213.75
264.035	207.75
264.267	213.75
264.499	219.75
264.732	223.75
264.964	209.75
265.197	209.75
265.429	204.75
265.661	208.75
265.894	202.75
266.126	211.75
266.358	210.75
266.591	206.75
266.823	222.75
267.055	226.75
267.287	227.75
267.52	233.75
267.752	226.75
267.984	228.75
268.216	245.75
268.448	241.75
268.681	250.75
268.913	257.75
269.145	258.75
269.377	286.75
269.609	283.75
269.841	265.75
270.073	267.75
270.306	293.75
270.538	311.75
270.77	330.75
271.002	283.75
271.234	297.75
271.466	286.75
271.698	310.75
271.93	302.75
272.162	309.75
272.394	293.75
272.626	312.75
272.858	301.75
273.09	291.75
273.322	263.75
273.553	283.75
273.785	251.75
274.017	279.75
274.249	276.75
274.481	267.75
274.713	268.75
274.945	276.75
275.176	261.75
275.408	266.75
275.64	281.75
275.872	274.75
276.104	254.75
276.335	288.75
276.567	265.75
276.799	289.75
277.031	310.75
277.262	316.75
277.494	322.75
277.726	309.75
277.957	282.75
278.189	299.75
278.421	295.75
278.652	291.75
278.884	294.75
279.115	280.75
279.347	273.75
279.579	284.75
279.81	269.75
280.042	271.75
280.273	272.75
280.505	259.75
280.736	277.75
280.968	271.75
281.199	279.75
281.431	269.75
281.662	288.75
281.894	286.75
282.125	297.75
282.356	280.75
282.588	295.75
282.819	291.75
283.051	290.75
283.282	294.75
283.513	293.75
283.745	298.75
283.976	298.75
284.207	295.75
284.439	296.75
284.67	292.75
284.901	280.75
285.132	299.75
285.364	296.75
285.595	293.75
285.826	266.75
286.057	279.75
286.288	300.75
286.52	293.75
286.751	309.75
286.982	286.75
287.213	301.75
287.444	318.75
287.675	307.75
287.906	306.75
288.138	311.75
288.369	300.75
288.6	318.75
288.831	315.75
289.062	322.75
289.293	306.75
289.524	302.75
289.755	305.75
289.986	301.75
290.217	301.75
290.448	286.75
290.679	294.75
290.91	311.75
291.141	294.75
291.371	322.75
291.602	293.75
291.833	311.75
292.064	306.75
292.295	299.75
292.526	308.75
292.757	309.75
292.987	306.75
293.218	288.75
293.449	301.75
293.68	319.75
293.91	306.75
294.141	320.75
294.372	300.75
294.603	321.75
294.833	298.75
295.064	307.75
295.295	307.75
295.525	313.75
295.756	303.75
295.987	311.75
296.217	352.75
296.448	335.75
296.679	312.75
296.909	310.75
297.14	317.75
297.37	325.75
297.601	325.75
297.831	313.75
298.062	326.75
298.292	313.75
298.523	330.75
298.753	321.75
298.984	324.75
299.214	325.75
299.445	327.75
299.675	326.75
299.905	322.75
300.136	307.75
300.366	333.75
300.597	327.75
300.827	324.75
301.057	327.75
301.288	351.75
301.518	338.75
301.748	334.75
301.979	338.75
302.209	348.75
302.439	349.75
302.669	332.75
302.9	332.75
303.13	329.75
303.36	341.75
303.59	373.75
303.82	348.75
304.051	339.75
304.281	352.75
304.511	346.75
304.741	346.75
304.971	329.75
305.201	361.75
305.431	354.75
305.661	339.75
305.891	343.75
306.121	335.75
306.352	334.75
306.582	351.75
306.812	343.75
307.042	340.75
307.272	340.75
307.502	329.75
307.731	339.75
307.961	353.75
308.191	360.75
308.421	345.75
308.651	343.75
308.881	342.75
309.111	341.75
309.341	348.75
309.571	347.75
309.8	338.75
310.03	368.75
310.26	375.75
310.49	386.75
310.72	361.75
310.949	366.75
311.179	394.75
311.409	390.75
311.639	373.75
311.868	371.75
312.098	391.75
312.328	393.75
312.557	398.75
312.787	393.75
313.017	404.75
313.246	399.75
313.476	387.75
313.706	375.75
313.935	378.75
314.165	386.75
314.394	386.75
314.624	393.75
314.853	382.75
315.083	377.75
315.312	379.75
315.542	396.75
315.771	387.75
316.001	374.75
316.23	373.75
316.46	378.75
316.689	385.75
316.919	382.75
317.148	394.75
317.377	381.75
317.607	391.75
317.836	397.75
318.065	383.75
318.295	377.75
318.524	373.75
318.753	379.75
318.983	379.75
319.212	373.75
319.441	374.75
319.67	398.75
319.9	406.75
320.129	369.75
320.358	382.75
320.587	365.75
320.816	397.75
321.046	400.75
321.275	391.75
321.504	398.75
321.733	409.75
321.962	418.75
322.191	397.75
322.42	410.75
322.649	396.75
322.878	442.75
323.108	434.75
323.337	450.75
323.566	463.75
323.795	472.75
324.024	477.75
324.253	588.75
324.482	807.75
324.71	1197.75
324.939	1767.75
325.168	1546.75
325.397	807.75
325.626	549.75
325.855	469.75
326.084	460.75
326.313	469.75
326.542	451.75
326.77	492.75
326.999	552.75
327.228	725.75
327.457	1094.75
327.686	1348.75
327.914	922.75
328.143	620.75
328.372	552.75
328.6	545.75
328.829	505.75
329.058	514.75
329.287	517.75
329.515	505.75
329.744	485.75
329.972	468.75
330.201	474.75
330.43	510.75
330.658	523.75
330.887	525.75
331.115	539.75
331.344	475.75
331.572	453.75
331.801	485.75
332.03	482.75
332.258	475.75
332.486	468.75
332.715	469.75
332.943	484.75
333.172	468.75
333.4	469.75
333.629	499.75
333.857	494.75
334.085	509.75
334.314	498.75
334.542	522.75
334.771	530.75
334.999	519.75
335.227	488.75
335.455	470.75
335.684	475.75
335.912	471.75
336.14	452.75
336.369	458.75
336.597	472.75
336.825	453.75
337.053	448.75
337.281	445.75
337.51	445.75
337.738	431.75
337.966	442.75
338.194	458.75
338.422	427.75
338.65	443.75
338.878	461.75
339.106	465.75
339.334	442.75
339.562	419.75
339.79	403.75
340.018	433.75
340.246	422.75
340.474	451.75
340.702	434.75
340.93	440.75
341.158	429.75
341.386	453.75
341.614	438.75
341.842	435.75
342.07	422.75
342.298	419.75
342.526	417.75
342.754	404.75
342.981	425.75
343.209	438.75
343.437	437.75
343.665	460.75
343.893	458.75
344.12	470.75
344.348	452.75
344.576	460.75
344.804	475.75
345.031	451.75
345.259	429.75
345.487	433.75
345.714	450.75
345.942	429.75
346.17	407.75
346.397	441.75
346.625	422.75
346.853	419.75
347.08	422.75
347.308	423.75
347.535	422.75
347.763	427.75
347.99	433.75
348.218	443.75
348.445	415.75
348.673	430.75
348.9	436.75
349.128	418.75
349.355	413.75
349.583	410.75
349.81	406.75
350.037	415.75
350.265	391.75
350.492	395.75
350.72	402.75
350.947	417.75
351.174	433.75
351.402	419.75
351.629	396.75
351.856	414.75
352.083	427.75
352.311	412.75
352.538	430.75
352.765	422.75
352.992	418.75
353.22	418.75
353.447	418.75
353.674	424.75
353.901	413.75
354.128	402.75
354.355	386.75
354.583	390.75
354.81	396.75
355.037	402.75
355.264	390.75
355.491	396.75
355.718	386.75
355.945	400.75
356.172	397.75
356.399	396.75
356.626	382.75
356.853	409.75
357.08	400.75
357.307	380.75
357.534	393.75
357.761	384.75
357.988	398.75
358.215	409.75
358.441	386.75
358.668	399.75
358.895	400.75
359.122	418.75
359.349	418.75
359.576	402.75
359.802	438.75
360.029	442.75
360.256	446.75
360.483	436.75
360.709	421.75
360.936	426.75
361.163	413.75
361.39	410.75
361.616	414.75
361.843	395.75
362.07	409.75
362.296	424.75
362.523	411.75
362.749	414.75
362.976	392.75
363.203	407.75
363.429	397.75
363.656	400.75
363.882	385.75
364.109	402.75
364.335	424.75
364.562	397.75
364.788	389.75
365.015	413.75
365.241	389.75
365.468	407.75
365.694	431.75
365.92	406.75
366.147	404.75
366.373	397.75
366.599	397.75
366.826	413.75
367.052	394.75
367.278	407.75
367.505	425.75
367.731	417.75
367.957	390.75
368.184	396.75
368.41	412.75
368.636	421.75
368.862	427.75
369.089	410.75
369.315	411.75
369.541	405.75
369.767	398.75
369.993	395.75
370.219	401.75
370.445	413.75
370.672	399.75
370.898	409.75
371.124	419.75
371.35	429.75
371.576	423.75
371.802	408.75
372.028	416.75
372.254	419.75
372.48	409.75
372.706	405.75
372.932	410.75
373.158	425.75
373.384	403.75
373.61	419.75
373.835	422.75
374.061	407.75
374.287	418.75
374.513	409.75
374.739	419.75
374.965	434.75
375.191	417.75
375.416	437.75
375.642	397.75
375.868	456.75
376.094	421.75
376.319	415.75
376.545	411.75
376.771	405.75
376.997	401.75
377.222	423.75
377.448	423.75
377.674	418.75
377.899	424.75
378.125	405.75
378.35	398.75
378.576	409.75
378.802	410.75
379.027	400.75
379.253	419.75
379.478	419.75
379.704	394.75
379.929	402.75
380.155	405.75
380.38	397.75
380.606	414.75
380.831	404.75
381.057	413.75
381.282	417.75
381.507	412.75
381.733	410.75
381.958	420.75
382.184	401.75
382.409	417.75
382.634	422.75
382.86	415.75
383.085	434.75
383.31	446.75
383.535	434.75
383.761	435.75
383.986	425.75
384.211	433.75
384.436	435.75
384.662	459.75
384.887	450.75
385.112	462.75
385.337	444.75
385.562	450.75
385.787	455.75
386.013	469.75
386.238	454.75
386.463	467.75
386.688	467.75
386.913	442.75
387.138	448.75
387.363	476.75
387.588	478.75
387.813	454.75
388.038	468.75
388.263	479.75
388.488	464.75
388.713	443.75
388.938	457.75
389.163	468.75
389.387	453.75
389.612	454.75
389.837	451.75
390.062	458.75
390.287	450.75
390.512	445.75
390.736	462.75
390.961	450.75
391.186	450.75
391.411	450.75
391.636	461.75
391.86	476.75
392.085	477.75
392.31	467.75
392.534	479.75
392.759	468.75
392.984	450.75
393.208	460.75
393.433	455.75
393.658	450.75
393.882	448.75
394.107	460.75
394.331	447.75
394.556	441.75
394.78	467.75
395.005	468.75
395.229	460.75
395.454	462.75
395.678	501.75
395.903	475.75
396.127	518.75
396.352	513.75
396.576	480.75
396.801	490.75
397.025	494.75
397.249	481.75
397.474	480.75
397.698	511.75
397.922	534.75
398.147	533.75
398.371	527.75
398.595	510.75
398.82	527.75
399.044	534.75
399.268	582.75
399.492	589.75
399.717	647.75
399.941	662.75
400.165	681.75
400.389	673.75
400.613	597.75
400.837	570.75
401.062	552.75
401.286	536.75
401.51	543.75
401.734	542.75
401.958	545.75
402.182	532.75
402.406	565.75
402.63	550.75
402.854	538.75
403.078	551.75
403.302	556.75
403.526	558.75
403.75	556.75
403.974	562.75
404.198	574.75
404.422	580.75
404.645	558.75
404.869	577.75
405.093	585.75
405.317	620.75
405.541	639.75
405.765	622.75
405.988	585.75
406.212	578.75
406.436	595.75
406.66	611.75
406.883	595.75
407.107	616.75
407.331	650.75
407.555	740.75
407.778	703.75
408.002	644.75
408.226	603.75
408.449	623.75
408.673	576.75
408.896	627.75
409.12	675.75
409.344	633.75
409.567	582.75
409.791	558.75
410.014	554.75
410.238	547.75
410.461	583.75
410.685	564.75
410.908	582.75
411.132	598.75
411.355	638.75
411.578	614.75
411.802	567.75
412.025	561.75
412.249	555.75
412.472	563.75
412.695	613.75
412.919	591.75
413.142	571.75
413.365	532.75
413.589	555.75
413.812	531.75
414.035	527.75
414.258	531.75
414.482	543.75
414.705	524.75
414.928	527.75
415.151	531.75
415.374	516.75
415.597	520.75
415.821	519.75
416.044	514.75
416.267	528.75
416.49	526.75
416.713	509.75
416.936	516.75
417.159	501.75
417.382	532.75
417.605	531.75
417.828	533.75
418.051	546.75
418.274	534.75
418.497	516.75
418.72	547.75
418.943	539.75
419.166	554.75
419.389	575.75
419.611	557.75
419.834	549.75
420.057	556.75
420.28	545.75
420.503	531.75
420.726	542.75
420.948	556.75
421.171	622.75
421.394	619.75
421.617	558.75
421.839	529.75
422.062	540.75
422.285	545.75
422.507	614.75
422.73	675.75
422.953	675.75
423.175	572.75
423.398	565.75
423.621	577.75
423.843	568.75
424.066	586.75
424.288	584.75
424.511	602.75
424.733	625.75
424.956	726.75
425.178	695.75
425.401	690.75
425.623	719.75
425.846	611.75
426.068	585.75
426.291	574.75
426.513	583.75
426.735	591.75
426.958	623.75
427.18	679.75
427.402	817.75
427.625	899.75
427.847	773.75
428.069	666.75
428.292	605.75
428.514	562.75
428.736	535.75
428.958	532.75
429.181	525.75
429.403	499.75
429.625	532.75
429.847	567.75
430.069	638.75
430.292	620.75
430.514	527.75
430.736	523.75
430.958	514.75
431.18	510.75
431.402	494.75
431.624	495.75
431.846	483.75
432.068	499.75
432.29	486.75
432.512	509.75
432.734	498.75
432.956	483.75
433.178	533.75
433.4	513.75
433.622	496.75
433.844	519.75
434.066	482.75
434.287	490.75
434.509	495.75
434.731	533.75
434.953	528.75
435.175	545.75
435.397	587.75
435.618	591.75
435.84	609.75
436.062	689.75
436.284	755.75
436.505	629.75
436.727	565.75
436.949	539.75
437.17	529.75
437.392	522.75
437.614	536.75
437.835	561.75
438.057	656.75
438.278	754.75
438.5	744.75
438.721	828.75
438.943	785.75
439.165	621.75
439.386	597.75
439.608	550.75
439.829	574.75
440.05	586.75
440.272	636.75
440.493	587.75
440.715	557.75
440.936	542.75
441.158	523.75
441.379	546.75
441.6	545.75
441.822	572.75
442.043	600.75
442.264	675.75
442.486	719.75
442.707	617.75
442.928	599.75
443.149	604.75
443.371	602.75
443.592	643.75
443.813	721.75
444.034	828.75
444.255	673.75
444.476	598.75
444.698	611.75
444.919	596.75
445.14	725.75
445.361	671.75
445.582	621.75
445.803	682.75
446.024	746.75
446.245	777.75
446.466	716.75
446.687	588.75
446.908	575.75
447.129	526.75
447.35	518.75
447.571	509.75
447.792	503.75
448.013	491.75
448.234	545.75
448.455	590.75
448.675	689.75
448.896	825.75
449.117	673.75
449.338	620.75
449.559	734.75
449.779	862.75
450	657.75
450.221	553.75
450.442	519.75
450.662	524.75
450.883	495.75
451.104	537.75
451.324	492.75
451.545	481.75
451.766	474.75
451.986	448.75
452.207	463.75
452.428	474.75
452.648	473.75
452.869	470.75
453.089	482.75
453.31	490.75
453.53	483.75
453.751	468.75
453.971	462.75
454.192	467.75
454.412	479.75
454.633	455.75
454.853	470.75
455.073	465.75
455.294	494.75
455.514	540.75
455.734	526.75
455.955	463.75
456.175	454.75
456.395	435.75
456.616	411.75
456.836	443.75
457.056	439.75
457.276	442.75
457.497	448.75
457.717	428.75
457.937	456.75
458.157	438.75
458.377	449.75
458.598	467.75
458.818	534.75
459.038	585.75
459.258	596.75
459.478	545.75
459.698	521.75
459.918	493.75
460.138	513.75
460.358	533.75
460.578	507.75
460.798	506.75
461.018	503.75
461.238	534.75
461.458	510.75
461.678	531.75
461.898	531.75
462.118	519.75
462.338	535.75
462.558	542.75
462.777	573.75
462.997	555.75
463.217	590.75
463.437	611.75
463.657	561.75
463.876	566.75
464.096	570.75
464.316	565.75
464.536	558.75
464.755	557.75
464.975	545.75
465.195	570.75
465.414	612.75
465.634	556.75
465.854	535.75
466.073	526.75
466.293	488.75
466.512	498.75
466.732	482.75
466.951	502.75
467.171	490.75
467.391	487.75
467.61	508.75
467.829	503.75
468.049	498.75
468.268	482.75
468.488	480.75
468.707	474.75
468.927	479.75
469.146	462.75
469.365	487.75
469.585	475.75
469.804	490.75
470.023	492.75
470.243	490.75
470.462	492.75
470.681	513.75
470.901	498.75
471.12	497.75
471.339	491.75
471.558	500.75
471.777	485.75
471.997	483.75
472.216	482.75
472.435	508.75
472.654	501.75
472.873	464.75
473.092	455.75
473.311	464.75
473.53	494.75
473.749	491.75
473.968	538.75
474.187	615.75
474.406	633.75
474.625	561.75
474.844	523.75
475.063	519.75
475.282	484.75
475.501	501.75
475.72	507.75
475.939	501.75
476.158	501.75
476.377	507.75
476.596	516.75
476.814	525.75
477.033	499.75
477.252	497.75
477.471	518.75
477.69	508.75
477.908	540.75
478.127	535.75
478.346	545.75
478.564	566.75
478.783	567.75
479.002	596.75
479.22	559.75
479.439	569.75
479.658	568.75
479.876	590.75
480.095	587.75
480.313	619.75
480.532	604.75
480.751	602.75
480.969	602.75
481.188	622.75
481.406	632.75
481.624	601.75
481.843	595.75
482.061	557.75
482.28	555.75
482.498	559.75
482.717	551.75
482.935	546.75
483.153	551.75
483.372	571.75
483.59	588.75
483.808	569.75
484.027	570.75
484.245	569.75
484.463	577.75
484.681	575.75
484.9	582.75
485.118	573.75
485.336	573.75
485.554	566.75
485.772	583.75
485.99	601.75
486.209	575.75
486.427	555.75
486.645	587.75
486.863	600.75
487.081	620.75
487.299	616.75
487.517	616.75
487.735	601.75
487.953	603.75
488.171	609.75
488.389	609.75
488.607	607.75
488.825	609.75
489.043	621.75
489.261	607.75
489.479	609.75
489.696	593.75
489.914	620.75
490.132	609.75
490.35	629.75
490.568	637.75
490.786	631.75
491.003	654.75
491.221	665.75
491.439	674.75
491.657	696.75
491.874	699.75
492.092	669.75
492.31	689.75
492.527	695.75
492.745	716.75
492.963	693.75
493.18	695.75
493.398	709.75
493.615	718.75
493.833	693.75
494.05	682.75
494.268	708.75
494.485	711.75
494.703	723.75
494.92	717.75
495.138	705.75
495.355	728.75
495.573	740.75
495.79	696.75
496.008	689.75
496.225	701.75
496.442	712.75
496.66	721.75
496.877	702.75
497.094	713.75
497.312	717.75
497.529	721.75
497.746	732.75
497.963	779.75
498.181	775.75
498.398	789.75
498.615	819.75
498.832	847.75
499.049	856.75
499.267	895.75
499.484	929.75
499.701	969.75
499.918	1013.75
500.135	1091.75
500.352	1150.75
500.569	1137.75
500.786	1163.75
501.003	1115.75
501.22	1101.75
501.437	1012.75
501.654	992.75
