Data from 1976.PennyLincolnUp.Lamp.En5.5.200Scan.071719.P1.Changed Mount._HRD10591_16-01-50-862.txt Node
Date: Thu Jul 18 16:01:50 EDT 2019
User: cochatt
Spectrometer: HR+D1059
Trigger mode: 1
Integration Time (sec): 1.000000E-1
Scans to average: 1
Electric dark correction enabled: true
Nonlinearity correction enabled: false
Boxcar width: 0
XAxis mode: Wavelengths
Number of Pixels in Spectrum: 2048
>>>>>Begin Spectral Data<<<<<
223.165	-19.06
223.4	-19.06
223.635	-19.06
223.869	-16.06
224.104	-26.06
224.338	-8.06
224.573	-8.06
224.808	-6.06
225.042	-5.06
225.277	-6.06
225.511	-8.06
225.746	-0.06
225.98	0.94
226.215	5.94
226.449	26.94
226.683	14.94
226.918	22.94
227.152	30.94
227.387	21.94
227.621	32.94
227.856	25.94
228.09	61.94
228.324	48.94
228.559	46.94
228.793	60.94
229.027	98.94
229.262	105.94
229.496	108.94
229.73	119.94
229.964	153.94
230.199	132.94
230.433	128.94
230.667	126.94
230.901	107.94
231.136	113.94
231.37	103.94
231.604	111.94
231.838	106.94
232.072	125.94
232.306	103.94
232.541	106.94
232.775	126.94
233.009	111.94
233.243	120.94
233.477	123.94
233.711	128.94
233.945	123.94
234.179	123.94
234.413	110.94
234.647	137.94
234.881	100.94
235.115	115.94
235.349	119.94
235.583	131.94
235.817	138.94
236.051	133.94
236.285	129.94
236.519	118.94
236.753	129.94
236.987	154.94
237.221	178.94
237.455	242.94
237.689	188.94
237.922	168.94
238.156	132.94
238.39	123.94
238.624	125.94
238.858	123.94
239.091	131.94
239.325	128.94
239.559	122.94
239.793	131.94
240.027	141.94
240.26	156.94
240.494	171.94
240.728	147.94
240.961	155.94
241.195	142.94
241.429	141.94
241.662	149.94
241.896	138.94
242.13	139.94
242.363	151.94
242.597	139.94
242.83	146.94
243.064	155.94
243.298	141.94
243.531	150.94
243.765	157.94
243.998	135.94
244.232	153.94
244.465	151.94
244.699	156.94
244.932	151.94
245.166	148.94
245.399	167.94
245.633	158.94
245.866	148.94
246.099	147.94
246.333	167.94
246.566	154.94
246.8	154.94
247.033	163.94
247.266	173.94
247.5	164.94
247.733	184.94
247.966	177.94
248.2	175.94
248.433	179.94
248.666	169.94
248.899	196.94
249.133	206.94
249.366	209.94
249.599	202.94
249.832	180.94
250.066	183.94
250.299	174.94
250.532	184.94
250.765	210.94
250.998	233.94
251.231	235.94
251.465	222.94
251.698	211.94
251.931	214.94
252.164	186.94
252.397	203.94
252.63	199.94
252.863	198.94
253.096	227.94
253.329	233.94
253.562	246.94
253.795	238.94
254.028	234.94
254.261	231.94
254.494	222.94
254.727	274.94
254.96	301.94
255.193	269.94
255.426	268.94
255.659	235.94
255.892	239.94
256.124	231.94
256.357	247.94
256.59	252.94
256.823	243.94
257.056	221.94
257.289	220.94
257.521	230.94
257.754	221.94
257.987	207.94
258.22	209.94
258.452	211.94
258.685	225.94
258.918	213.94
259.151	229.94
259.383	233.94
259.616	228.94
259.849	236.94
260.081	245.94
260.314	273.94
260.547	275.94
260.779	250.94
261.012	246.94
261.244	237.94
261.477	233.94
261.71	243.94
261.942	242.94
262.175	241.94
262.407	245.94
262.64	222.94
262.872	232.94
263.105	225.94
263.337	234.94
263.57	236.94
263.802	219.94
264.035	220.94
264.267	221.94
264.499	220.94
264.732	248.94
264.964	248.94
265.197	234.94
265.429	226.94
265.661	223.94
265.894	246.94
266.126	237.94
266.358	233.94
266.591	233.94
266.823	244.94
267.055	247.94
267.287	230.94
267.52	247.94
267.752	224.94
267.984	229.94
268.216	231.94
268.448	252.94
268.681	255.94
268.913	270.94
269.145	281.94
269.377	306.94
269.609	289.94
269.841	285.94
270.073	286.94
270.306	333.94
270.538	341.94
270.77	345.94
271.002	316.94
271.234	331.94
271.466	305.94
271.698	324.94
271.93	339.94
272.162	353.94
272.394	326.94
272.626	334.94
272.858	305.94
273.09	315.94
273.322	281.94
273.553	291.94
273.785	298.94
274.017	289.94
274.249	274.94
274.481	278.94
274.713	285.94
274.945	285.94
275.176	278.94
275.408	289.94
275.64	303.94
275.872	286.94
276.104	309.94
276.335	300.94
276.567	280.94
276.799	334.94
277.031	325.94
277.262	341.94
277.494	350.94
277.726	325.94
277.957	298.94
278.189	302.94
278.421	299.94
278.652	298.94
278.884	309.94
279.115	303.94
279.347	318.94
279.579	300.94
279.81	289.94
280.042	278.94
280.273	271.94
280.505	289.94
280.736	296.94
280.968	301.94
281.199	292.94
281.431	294.94
281.662	315.94
281.894	309.94
282.125	318.94
282.356	307.94
282.588	334.94
282.819	329.94
283.051	305.94
283.282	299.94
283.513	315.94
283.745	279.94
283.976	301.94
284.207	321.94
284.439	321.94
284.67	321.94
284.901	308.94
285.132	291.94
285.364	316.94
285.595	304.94
285.826	308.94
286.057	297.94
286.288	307.94
286.52	307.94
286.751	297.94
286.982	324.94
287.213	313.94
287.444	316.94
287.675	318.94
287.906	323.94
288.138	318.94
288.369	335.94
288.6	333.94
288.831	332.94
289.062	324.94
289.293	339.94
289.524	320.94
289.755	314.94
289.986	325.94
290.217	320.94
290.448	320.94
290.679	318.94
290.91	327.94
291.141	317.94
291.371	329.94
291.602	324.94
291.833	295.94
292.064	322.94
292.295	323.94
292.526	323.94
292.757	319.94
292.987	324.94
293.218	310.94
293.449	333.94
293.68	325.94
293.91	323.94
294.141	313.94
294.372	343.94
294.603	334.94
294.833	326.94
295.064	345.94
295.295	327.94
295.525	334.94
295.756	340.94
295.987	330.94
296.217	342.94
296.448	369.94
296.679	345.94
296.909	336.94
297.14	337.94
297.37	351.94
297.601	335.94
297.831	324.94
298.062	353.94
298.292	357.94
298.523	339.94
298.753	330.94
298.984	338.94
299.214	350.94
299.445	350.94
299.675	345.94
299.905	358.94
300.136	377.94
300.366	344.94
300.597	362.94
300.827	346.94
301.057	332.94
301.288	354.94
301.518	355.94
301.748	363.94
301.979	368.94
302.209	378.94
302.439	379.94
302.669	348.94
302.9	350.94
303.13	347.94
303.36	369.94
303.59	346.94
303.82	354.94
304.051	353.94
304.281	365.94
304.511	374.94
304.741	360.94
304.971	358.94
305.201	362.94
305.431	354.94
305.661	347.94
305.891	364.94
306.121	377.94
306.352	352.94
306.582	373.94
306.812	362.94
307.042	356.94
307.272	377.94
307.502	373.94
307.731	390.94
307.961	363.94
308.191	362.94
308.421	366.94
308.651	395.94
308.881	358.94
309.111	386.94
309.341	391.94
309.571	375.94
309.8	383.94
310.03	381.94
310.26	385.94
310.49	409.94
310.72	414.94
310.949	411.94
311.179	422.94
311.409	421.94
311.639	397.94
311.868	400.94
312.098	410.94
312.328	392.94
312.557	439.94
312.787	420.94
313.017	435.94
313.246	430.94
313.476	401.94
313.706	410.94
313.935	429.94
314.165	428.94
314.394	428.94
314.624	433.94
314.853	421.94
315.083	410.94
315.312	417.94
315.542	402.94
315.771	411.94
316.001	416.94
316.23	408.94
316.46	404.94
316.689	398.94
316.919	416.94
317.148	433.94
317.377	413.94
317.607	410.94
317.836	420.94
318.065	421.94
318.295	398.94
318.524	406.94
318.753	408.94
318.983	410.94
319.212	395.94
319.441	427.94
319.67	418.94
319.9	418.94
320.129	421.94
320.358	439.94
320.587	441.94
320.816	422.94
321.046	437.94
321.275	409.94
321.504	425.94
321.733	423.94
321.962	418.94
322.191	450.94
322.42	447.94
322.649	477.94
322.878	474.94
323.108	487.94
323.337	487.94
323.566	499.94
323.795	542.94
324.024	549.94
324.253	661.94
324.482	899.94
324.71	1415.94
324.939	2129.94
325.168	1849.94
325.397	915.94
325.626	630.94
325.855	541.94
326.084	504.94
326.313	501.94
326.542	515.94
326.77	575.94
326.999	635.94
327.228	862.94
327.457	1266.94
327.686	1593.94
327.914	1075.94
328.143	684.94
328.372	628.94
328.6	588.94
328.829	565.94
329.058	577.94
329.287	572.94
329.515	567.94
329.744	535.94
329.972	504.94
330.201	527.94
330.43	567.94
330.658	606.94
330.887	631.94
331.115	613.94
331.344	544.94
331.572	533.94
331.801	505.94
332.03	517.94
332.258	517.94
332.486	481.94
332.715	495.94
332.943	497.94
333.172	459.94
333.4	511.94
333.629	535.94
333.857	531.94
334.085	526.94
334.314	567.94
334.542	575.94
334.771	591.94
334.999	551.94
335.227	551.94
335.455	523.94
335.684	516.94
335.912	495.94
336.14	497.94
336.369	497.94
336.597	509.94
336.825	476.94
337.053	486.94
337.281	464.94
337.51	478.94
337.738	480.94
337.966	492.94
338.194	493.94
338.422	501.94
338.65	470.94
338.878	464.94
339.106	454.94
339.334	447.94
339.562	465.94
339.79	471.94
340.018	487.94
340.246	471.94
340.474	469.94
340.702	473.94
340.93	441.94
341.158	472.94
341.386	478.94
341.614	459.94
341.842	464.94
342.07	478.94
342.298	480.94
342.526	467.94
342.754	453.94
342.981	459.94
343.209	446.94
343.437	461.94
343.665	466.94
343.893	500.94
344.12	494.94
344.348	479.94
344.576	503.94
344.804	498.94
345.031	490.94
345.259	501.94
345.487	491.94
345.714	469.94
345.942	446.94
346.17	464.94
346.397	452.94
346.625	456.94
346.853	450.94
347.08	440.94
347.308	467.94
347.535	449.94
347.763	467.94
347.99	467.94
348.218	464.94
348.445	473.94
348.673	467.94
348.9	441.94
349.128	425.94
349.355	445.94
349.583	443.94
349.81	425.94
350.037	435.94
350.265	414.94
350.492	417.94
350.72	430.94
350.947	421.94
351.174	455.94
351.402	465.94
351.629	476.94
351.856	443.94
352.083	466.94
352.311	459.94
352.538	452.94
352.765	449.94
352.992	463.94
353.22	437.94
353.447	449.94
353.674	417.94
353.901	441.94
354.128	411.94
354.355	429.94
354.583	427.94
354.81	408.94
355.037	433.94
355.264	411.94
355.491	442.94
355.718	426.94
355.945	420.94
356.172	420.94
356.399	442.94
356.626	432.94
356.853	421.94
357.08	401.94
357.307	423.94
357.534	427.94
357.761	415.94
357.988	424.94
358.215	433.94
358.441	429.94
358.668	411.94
358.895	415.94
359.122	442.94
359.349	440.94
359.576	429.94
359.802	453.94
360.029	498.94
360.256	502.94
360.483	469.94
360.709	459.94
360.936	452.94
361.163	455.94
361.39	455.94
361.616	455.94
361.843	447.94
362.07	447.94
362.296	419.94
362.523	422.94
362.749	431.94
362.976	441.94
363.203	433.94
363.429	422.94
363.656	445.94
363.882	443.94
364.109	447.94
364.335	419.94
364.562	426.94
364.788	430.94
365.015	427.94
365.241	418.94
365.468	436.94
365.694	439.94
365.92	429.94
366.147	431.94
366.373	400.94
366.599	409.94
366.826	422.94
367.052	428.94
367.278	434.94
367.505	439.94
367.731	421.94
367.957	428.94
368.184	429.94
368.41	437.94
368.636	439.94
368.862	455.94
369.089	442.94
369.315	435.94
369.541	423.94
369.767	413.94
369.993	420.94
370.219	425.94
370.445	435.94
370.672	435.94
370.898	429.94
371.124	422.94
371.35	446.94
371.576	452.94
371.802	422.94
372.028	406.94
372.254	425.94
372.48	437.94
372.706	433.94
372.932	443.94
373.158	453.94
373.384	437.94
373.61	421.94
373.835	421.94
374.061	440.94
374.287	442.94
374.513	439.94
374.739	461.94
374.965	455.94
375.191	445.94
375.416	424.94
375.642	453.94
375.868	450.94
376.094	439.94
376.319	433.94
376.545	425.94
376.771	429.94
376.997	435.94
377.222	455.94
377.448	445.94
377.674	426.94
377.899	415.94
378.125	423.94
378.35	430.94
378.576	425.94
378.802	429.94
379.027	428.94
379.253	436.94
379.478	438.94
379.704	442.94
379.929	443.94
380.155	442.94
380.38	441.94
380.606	427.94
380.831	439.94
381.057	449.94
381.282	430.94
381.507	433.94
381.733	419.94
381.958	430.94
382.184	425.94
382.409	451.94
382.634	435.94
382.86	440.94
383.085	468.94
383.31	463.94
383.535	467.94
383.761	460.94
383.986	475.94
384.211	478.94
384.436	453.94
384.662	464.94
384.887	477.94
385.112	454.94
385.337	481.94
385.562	463.94
385.787	458.94
386.013	498.94
386.238	489.94
386.463	475.94
386.688	486.94
386.913	500.94
387.138	489.94
387.363	476.94
387.588	477.94
387.813	478.94
388.038	495.94
388.263	494.94
388.488	469.94
388.713	476.94
388.938	490.94
389.163	473.94
389.387	483.94
389.612	485.94
389.837	479.94
390.062	514.94
390.287	479.94
390.512	469.94
390.736	480.94
390.961	472.94
391.186	464.94
391.411	496.94
391.636	492.94
391.86	499.94
392.085	493.94
392.31	495.94
392.534	535.94
392.759	496.94
392.984	487.94
393.208	510.94
393.433	478.94
393.658	481.94
393.882	498.94
394.107	497.94
394.331	505.94
394.556	470.94
394.78	505.94
395.005	486.94
395.229	481.94
395.454	487.94
395.678	515.94
395.903	526.94
396.127	546.94
396.352	551.94
396.576	515.94
396.801	478.94
397.025	505.94
397.249	507.94
397.474	519.94
397.698	538.94
397.922	541.94
398.147	543.94
398.371	579.94
398.595	574.94
398.82	563.94
399.044	588.94
399.268	611.94
399.492	657.94
399.717	676.94
399.941	706.94
400.165	747.94
400.389	718.94
400.613	644.94
400.837	602.94
401.062	595.94
401.286	570.94
401.51	566.94
401.734	573.94
401.958	568.94
402.182	558.94
402.406	578.94
402.63	562.94
402.854	569.94
403.078	579.94
403.302	590.94
403.526	607.94
403.75	604.94
403.974	597.94
404.198	594.94
404.422	613.94
404.645	618.94
404.869	591.94
405.093	641.94
405.317	675.94
405.541	715.94
405.765	641.94
405.988	614.94
406.212	629.94
406.436	649.94
406.66	650.94
406.883	637.94
407.107	665.94
407.331	717.94
407.555	814.94
407.778	791.94
408.002	708.94
408.226	651.94
408.449	665.94
408.673	655.94
408.896	667.94
409.12	693.94
409.344	690.94
409.567	594.94
409.791	592.94
410.014	585.94
410.238	606.94
410.461	590.94
410.685	574.94
410.908	628.94
411.132	648.94
411.355	676.94
411.578	625.94
411.802	589.94
412.025	584.94
412.249	577.94
412.472	630.94
412.695	683.94
412.919	629.94
413.142	621.94
413.365	579.94
413.589	585.94
413.812	575.94
414.035	564.94
414.258	546.94
414.482	541.94
414.705	551.94
414.928	555.94
415.151	555.94
415.374	562.94
415.597	547.94
415.821	567.94
416.044	551.94
416.267	572.94
416.49	575.94
416.713	556.94
416.936	545.94
417.159	548.94
417.382	556.94
417.605	575.94
417.828	583.94
418.051	574.94
418.274	567.94
418.497	538.94
418.72	557.94
418.943	547.94
419.166	571.94
419.389	588.94
419.611	604.94
419.834	573.94
420.057	617.94
420.28	588.94
420.503	579.94
420.726	588.94
420.948	583.94
421.171	635.94
421.394	689.94
421.617	614.94
421.839	582.94
422.062	561.94
422.285	567.94
422.507	655.94
422.73	717.94
422.953	708.94
423.175	613.94
423.398	584.94
423.621	608.94
423.843	611.94
424.066	625.94
424.288	604.94
424.511	635.94
424.733	663.94
424.956	774.94
425.178	732.94
425.401	717.94
425.623	749.94
425.846	648.94
426.068	602.94
426.291	610.94
426.513	590.94
426.735	614.94
426.958	658.94
427.18	713.94
427.402	888.94
427.625	976.94
427.847	838.94
428.069	711.94
428.292	650.94
428.514	606.94
428.736	586.94
428.958	562.94
429.181	557.94
429.403	545.94
429.625	589.94
429.847	618.94
430.069	669.94
430.292	689.94
430.514	587.94
430.736	530.94
430.958	552.94
431.18	539.94
431.402	537.94
431.624	525.94
431.846	545.94
432.068	521.94
432.29	551.94
432.512	543.94
432.734	556.94
432.956	539.94
433.178	548.94
433.4	561.94
433.622	521.94
433.844	545.94
434.066	527.94
434.287	518.94
434.509	556.94
434.731	562.94
434.953	541.94
435.175	589.94
435.397	587.94
435.618	613.94
435.84	631.94
436.062	745.94
436.284	818.94
436.505	685.94
436.727	594.94
436.949	576.94
437.17	552.94
437.392	540.94
437.614	562.94
437.835	616.94
438.057	675.94
438.278	808.94
438.5	791.94
438.721	899.94
438.943	859.94
439.165	682.94
439.386	636.94
439.608	599.94
439.829	605.94
440.05	619.94
440.272	673.94
440.493	641.94
440.715	585.94
440.936	548.94
441.158	572.94
441.379	568.94
441.6	610.94
441.822	635.94
442.043	638.94
442.264	745.94
442.486	801.94
442.707	656.94
442.928	628.94
443.149	648.94
443.371	661.94
443.592	704.94
443.813	797.94
444.034	864.94
444.255	731.94
444.476	670.94
444.698	612.94
444.919	651.94
445.14	737.94
445.361	709.94
445.582	658.94
445.803	703.94
446.024	819.94
446.245	822.94
446.466	749.94
446.687	667.94
446.908	580.94
447.129	584.94
447.35	605.94
447.571	583.94
447.792	543.94
448.013	571.94
448.234	574.94
448.455	613.94
448.675	742.94
448.896	845.94
449.117	725.94
449.338	700.94
449.559	797.94
449.779	910.94
450	739.94
450.221	602.94
450.442	570.94
450.662	541.94
450.883	536.94
451.104	557.94
451.324	538.94
451.545	527.94
451.766	509.94
451.986	501.94
452.207	523.94
452.428	507.94
452.648	502.94
452.869	502.94
453.089	531.94
453.31	505.94
453.53	508.94
453.751	502.94
453.971	502.94
454.192	515.94
454.412	506.94
454.633	486.94
454.853	482.94
455.073	480.94
455.294	541.94
455.514	581.94
455.734	579.94
455.955	514.94
456.175	486.94
456.395	487.94
456.616	456.94
456.836	462.94
457.056	442.94
457.276	442.94
457.497	482.94
457.717	463.94
457.937	477.94
458.157	489.94
458.377	490.94
458.598	512.94
458.818	549.94
459.038	629.94
459.258	661.94
459.478	572.94
459.698	533.94
459.918	534.94
460.138	538.94
460.358	553.94
460.578	549.94
460.798	556.94
461.018	572.94
461.238	561.94
461.458	573.94
461.678	575.94
461.898	579.94
462.118	556.94
462.338	567.94
462.558	585.94
462.777	601.94
462.997	633.94
463.217	624.94
463.437	630.94
463.657	597.94
463.876	616.94
464.096	603.94
464.316	606.94
464.536	603.94
464.755	619.94
464.975	618.94
465.195	595.94
465.414	666.94
465.634	605.94
465.854	573.94
466.073	533.94
466.293	521.94
466.512	499.94
466.732	501.94
466.951	507.94
467.171	512.94
467.391	486.94
467.61	520.94
467.829	543.94
468.049	524.94
468.268	532.94
468.488	510.94
468.707	492.94
468.927	484.94
469.146	487.94
469.365	501.94
469.585	492.94
469.804	512.94
470.023	507.94
470.243	529.94
470.462	518.94
470.681	543.94
470.901	533.94
471.12	535.94
471.339	501.94
471.558	502.94
471.777	524.94
471.997	511.94
472.216	519.94
472.435	555.94
472.654	535.94
472.873	517.94
473.092	495.94
473.311	517.94
473.53	525.94
473.749	521.94
473.968	552.94
474.187	658.94
474.406	689.94
474.625	584.94
474.844	548.94
475.063	528.94
475.282	498.94
475.501	501.94
475.72	523.94
475.939	516.94
476.158	532.94
476.377	531.94
476.596	535.94
476.814	546.94
477.033	553.94
477.252	539.94
477.471	558.94
477.69	541.94
477.908	577.94
478.127	569.94
478.346	580.94
478.564	569.94
478.783	579.94
479.002	571.94
479.22	590.94
479.439	579.94
479.658	617.94
479.876	605.94
480.095	640.94
480.313	657.94
480.532	665.94
480.751	658.94
480.969	662.94
481.188	673.94
481.406	742.94
481.624	647.94
481.843	627.94
482.061	625.94
482.28	600.94
482.498	615.94
482.717	606.94
482.935	585.94
483.153	601.94
483.372	600.94
483.59	609.94
483.808	593.94
484.027	588.94
484.245	585.94
484.463	601.94
484.681	609.94
484.9	614.94
485.118	584.94
485.336	616.94
485.554	618.94
485.772	614.94
485.99	621.94
486.209	614.94
486.427	615.94
486.645	625.94
486.863	647.94
487.081	661.94
487.299	630.94
487.517	636.94
487.735	633.94
487.953	622.94
488.171	651.94
488.389	634.94
488.607	633.94
488.825	674.94
489.043	665.94
489.261	661.94
489.479	629.94
489.696	670.94
489.914	658.94
490.132	676.94
490.35	661.94
490.568	671.94
490.786	702.94
491.003	683.94
491.221	712.94
491.439	743.94
491.657	749.94
491.874	736.94
492.092	733.94
492.31	761.94
492.527	740.94
492.745	715.94
492.963	737.94
493.18	764.94
493.398	755.94
493.615	757.94
493.833	740.94
494.05	757.94
494.268	765.94
494.485	780.94
494.703	766.94
494.92	766.94
495.138	763.94
495.355	792.94
495.573	781.94
495.79	760.94
496.008	760.94
496.225	746.94
496.442	705.94
496.66	770.94
496.877	755.94
497.094	767.94
497.312	805.94
497.529	777.94
497.746	806.94
497.963	822.94
498.181	853.94
498.398	852.94
498.615	892.94
498.832	893.94
499.049	917.94
499.267	948.94
499.484	958.94
499.701	1024.94
499.918	1033.94
500.135	1122.94
500.352	1184.94
500.569	1189.94
500.786	1227.94
501.003	1221.94
501.22	1117.94
501.437	1104.94
501.654	1050.94
