Data from 1976.PennyLincolnUp.Lamp.En5.5.200Scan.071719.P1.Changed Mount._HRD10591_16-00-00-861.txt Node
Date: Thu Jul 18 16:00:00 EDT 2019
User: cochatt
Spectrometer: HR+D1059
Trigger mode: 1
Integration Time (sec): 1.000000E-1
Scans to average: 1
Electric dark correction enabled: true
Nonlinearity correction enabled: false
Boxcar width: 0
XAxis mode: Wavelengths
Number of Pixels in Spectrum: 2048
>>>>>Begin Spectral Data<<<<<
223.165	-17.44
223.4	-17.44
223.635	-17.44
223.869	-7.44
224.104	-10.44
224.338	-10.44
224.573	-18.44
224.808	-14.44
225.042	-20.44
225.277	-8.44
225.511	-3.44
225.746	-3.44
225.98	25.56
226.215	0.56
226.449	10.56
226.683	18.56
226.918	23.56
227.152	35.56
227.387	42.56
227.621	37.56
227.856	50.56
228.09	49.56
228.324	67.56
228.559	57.56
228.793	76.56
229.027	91.56
229.262	111.56
229.496	118.56
229.73	127.56
229.964	141.56
230.199	132.56
230.433	128.56
230.667	126.56
230.901	117.56
231.136	108.56
231.37	122.56
231.604	113.56
231.838	121.56
232.072	109.56
232.306	111.56
232.541	103.56
232.775	110.56
233.009	106.56
233.243	116.56
233.477	113.56
233.711	113.56
233.945	111.56
234.179	113.56
234.413	112.56
234.647	104.56
234.881	118.56
235.115	124.56
235.349	116.56
235.583	119.56
235.817	111.56
236.051	131.56
236.285	121.56
236.519	107.56
236.753	137.56
236.987	144.56
237.221	175.56
237.455	214.56
237.689	177.56
237.922	132.56
238.156	145.56
238.39	116.56
238.624	126.56
238.858	111.56
239.091	120.56
239.325	136.56
239.559	120.56
239.793	127.56
240.027	131.56
240.26	145.56
240.494	155.56
240.728	140.56
240.961	154.56
241.195	146.56
241.429	142.56
241.662	131.56
241.896	136.56
242.13	137.56
242.363	124.56
242.597	129.56
242.83	151.56
243.064	131.56
243.298	132.56
243.531	130.56
243.765	134.56
243.998	150.56
244.232	142.56
244.465	131.56
244.699	147.56
244.932	143.56
245.166	151.56
245.399	151.56
245.633	151.56
245.866	148.56
246.099	144.56
246.333	140.56
246.566	163.56
246.8	161.56
247.033	154.56
247.266	155.56
247.5	173.56
247.733	168.56
247.966	173.56
248.2	166.56
248.433	166.56
248.666	169.56
248.899	173.56
249.133	179.56
249.366	204.56
249.599	209.56
249.832	179.56
250.066	185.56
250.299	175.56
250.532	180.56
250.765	198.56
250.998	215.56
251.231	218.56
251.465	183.56
251.698	192.56
251.931	207.56
252.164	198.56
252.397	184.56
252.63	209.56
252.863	209.56
253.096	215.56
253.329	219.56
253.562	212.56
253.795	219.56
254.028	189.56
254.261	205.56
254.494	219.56
254.727	241.56
254.96	284.56
255.193	250.56
255.426	243.56
255.659	225.56
255.892	236.56
256.124	236.56
256.357	236.56
256.59	210.56
256.823	208.56
257.056	197.56
257.289	198.56
257.521	213.56
257.754	201.56
257.987	220.56
258.22	215.56
258.452	202.56
258.685	195.56
258.918	203.56
259.151	198.56
259.383	201.56
259.616	232.56
259.849	220.56
260.081	225.56
260.314	265.56
260.547	252.56
260.779	247.56
261.012	230.56
261.244	207.56
261.477	231.56
261.71	235.56
261.942	227.56
262.175	215.56
262.407	213.56
262.64	216.56
262.872	217.56
263.105	223.56
263.337	207.56
263.57	207.56
263.802	199.56
264.035	216.56
264.267	218.56
264.499	218.56
264.732	222.56
264.964	229.56
265.197	225.56
265.429	233.56
265.661	228.56
265.894	216.56
266.126	203.56
266.358	231.56
266.591	237.56
266.823	218.56
267.055	221.56
267.287	220.56
267.52	231.56
267.752	243.56
267.984	238.56
268.216	247.56
268.448	218.56
268.681	232.56
268.913	253.56
269.145	263.56
269.377	287.56
269.609	278.56
269.841	260.56
270.073	280.56
270.306	295.56
270.538	304.56
270.77	311.56
271.002	293.56
271.234	279.56
271.466	292.56
271.698	317.56
271.93	321.56
272.162	304.56
272.394	314.56
272.626	286.56
272.858	271.56
273.09	272.56
273.322	260.56
273.553	262.56
273.785	250.56
274.017	264.56
274.249	272.56
274.481	260.56
274.713	256.56
274.945	259.56
275.176	275.56
275.408	271.56
275.64	263.56
275.872	258.56
276.104	249.56
276.335	262.56
276.567	263.56
276.799	283.56
277.031	288.56
277.262	322.56
277.494	300.56
277.726	294.56
277.957	283.56
278.189	282.56
278.421	272.56
278.652	267.56
278.884	273.56
279.115	271.56
279.347	265.56
279.579	273.56
279.81	280.56
280.042	272.56
280.273	269.56
280.505	276.56
280.736	274.56
280.968	269.56
281.199	275.56
281.431	268.56
281.662	277.56
281.894	266.56
282.125	287.56
282.356	291.56
282.588	295.56
282.819	308.56
283.051	263.56
283.282	277.56
283.513	276.56
283.745	294.56
283.976	297.56
284.207	289.56
284.439	308.56
284.67	276.56
284.901	295.56
285.132	284.56
285.364	295.56
285.595	301.56
285.826	288.56
286.057	307.56
286.288	293.56
286.52	301.56
286.751	295.56
286.982	298.56
287.213	287.56
287.444	302.56
287.675	300.56
287.906	300.56
288.138	315.56
288.369	303.56
288.6	310.56
288.831	323.56
289.062	307.56
289.293	300.56
289.524	299.56
289.755	321.56
289.986	302.56
290.217	320.56
290.448	326.56
290.679	291.56
290.91	303.56
291.141	299.56
291.371	314.56
291.602	296.56
291.833	288.56
292.064	289.56
292.295	295.56
292.526	284.56
292.757	313.56
292.987	299.56
293.218	295.56
293.449	292.56
293.68	289.56
293.91	307.56
294.141	299.56
294.372	315.56
294.603	297.56
294.833	320.56
295.064	318.56
295.295	307.56
295.525	304.56
295.756	301.56
295.987	316.56
296.217	323.56
296.448	325.56
296.679	302.56
296.909	309.56
297.14	328.56
297.37	331.56
297.601	309.56
297.831	313.56
298.062	304.56
298.292	305.56
298.523	323.56
298.753	318.56
298.984	325.56
299.214	333.56
299.445	336.56
299.675	312.56
299.905	345.56
300.136	323.56
300.366	304.56
300.597	336.56
300.827	325.56
301.057	317.56
301.288	333.56
301.518	342.56
301.748	331.56
301.979	339.56
302.209	360.56
302.439	340.56
302.669	329.56
302.9	336.56
303.13	324.56
303.36	355.56
303.59	335.56
303.82	337.56
304.051	343.56
304.281	349.56
304.511	348.56
304.741	334.56
304.971	335.56
305.201	325.56
305.431	320.56
305.661	353.56
305.891	320.56
306.121	335.56
306.352	345.56
306.582	359.56
306.812	362.56
307.042	332.56
307.272	346.56
307.502	334.56
307.731	350.56
307.961	355.56
308.191	350.56
308.421	339.56
308.651	342.56
308.881	347.56
309.111	336.56
309.341	344.56
309.571	345.56
309.8	375.56
310.03	368.56
310.26	364.56
310.49	360.56
310.72	384.56
310.949	379.56
311.179	368.56
311.409	377.56
311.639	375.56
311.868	367.56
312.098	378.56
312.328	368.56
312.557	389.56
312.787	413.56
313.017	417.56
313.246	381.56
313.476	373.56
313.706	349.56
313.935	385.56
314.165	384.56
314.394	389.56
314.624	375.56
314.853	373.56
315.083	366.56
315.312	379.56
315.542	364.56
315.771	383.56
316.001	364.56
316.23	381.56
316.46	373.56
316.689	364.56
316.919	383.56
317.148	367.56
317.377	390.56
317.607	393.56
317.836	393.56
318.065	396.56
318.295	397.56
318.524	384.56
318.753	381.56
318.983	376.56
319.212	377.56
319.441	397.56
319.67	389.56
319.9	373.56
320.129	395.56
320.358	364.56
320.587	372.56
320.816	378.56
321.046	384.56
321.275	398.56
321.504	395.56
321.733	383.56
321.962	397.56
322.191	387.56
322.42	421.56
322.649	420.56
322.878	430.56
323.108	438.56
323.337	447.56
323.566	451.56
323.795	489.56
324.024	496.56
324.253	580.56
324.482	798.56
324.71	1166.56
324.939	1720.56
325.168	1521.56
325.397	787.56
325.626	557.56
325.855	485.56
326.084	466.56
326.313	439.56
326.542	449.56
326.77	503.56
326.999	555.56
327.228	713.56
327.457	1088.56
327.686	1323.56
327.914	912.56
328.143	635.56
328.372	543.56
328.6	527.56
328.829	499.56
329.058	495.56
329.287	517.56
329.515	521.56
329.744	471.56
329.972	462.56
330.201	504.56
330.43	515.56
330.658	553.56
330.887	544.56
331.115	525.56
331.344	477.56
331.572	488.56
331.801	474.56
332.03	477.56
332.258	471.56
332.486	456.56
332.715	453.56
332.943	462.56
333.172	467.56
333.4	454.56
333.629	473.56
333.857	501.56
334.085	482.56
334.314	511.56
334.542	515.56
334.771	535.56
334.999	508.56
335.227	497.56
335.455	477.56
335.684	450.56
335.912	461.56
336.14	476.56
336.369	468.56
336.597	457.56
336.825	447.56
337.053	448.56
337.281	446.56
337.51	427.56
337.738	438.56
337.966	460.56
338.194	469.56
338.422	439.56
338.65	443.56
338.878	422.56
339.106	405.56
339.334	431.56
339.562	450.56
339.79	416.56
340.018	426.56
340.246	425.56
340.474	454.56
340.702	436.56
340.93	438.56
341.158	449.56
341.386	442.56
341.614	442.56
341.842	427.56
342.07	430.56
342.298	413.56
342.526	412.56
342.754	414.56
342.981	432.56
343.209	426.56
343.437	440.56
343.665	428.56
343.893	441.56
344.12	433.56
344.348	457.56
344.576	453.56
344.804	433.56
345.031	446.56
345.259	456.56
345.487	468.56
345.714	412.56
345.942	429.56
346.17	411.56
346.397	419.56
346.625	421.56
346.853	423.56
347.08	420.56
347.308	425.56
347.535	420.56
347.763	409.56
347.99	414.56
348.218	429.56
348.445	436.56
348.673	412.56
348.9	429.56
349.128	405.56
349.355	419.56
349.583	384.56
349.81	401.56
350.037	399.56
350.265	420.56
350.492	400.56
350.72	412.56
350.947	397.56
351.174	396.56
351.402	419.56
351.629	414.56
351.856	420.56
352.083	411.56
352.311	432.56
352.538	419.56
352.765	419.56
352.992	420.56
353.22	420.56
353.447	405.56
353.674	401.56
353.901	408.56
354.128	402.56
354.355	397.56
354.583	396.56
354.81	398.56
355.037	387.56
355.264	402.56
355.491	417.56
355.718	386.56
355.945	387.56
356.172	404.56
356.399	394.56
356.626	403.56
356.853	404.56
357.08	390.56
357.307	402.56
357.534	377.56
357.761	392.56
357.988	399.56
358.215	391.56
358.441	398.56
358.668	391.56
358.895	375.56
359.122	412.56
359.349	387.56
359.576	424.56
359.802	438.56
360.029	413.56
360.256	454.56
360.483	445.56
360.709	430.56
360.936	415.56
361.163	419.56
361.39	400.56
361.616	407.56
361.843	419.56
362.07	409.56
362.296	424.56
362.523	404.56
362.749	405.56
362.976	396.56
363.203	420.56
363.429	403.56
363.656	394.56
363.882	423.56
364.109	402.56
364.335	388.56
364.562	407.56
364.788	401.56
365.015	398.56
365.241	414.56
365.468	402.56
365.694	401.56
365.92	393.56
366.147	392.56
366.373	401.56
366.599	410.56
366.826	397.56
367.052	406.56
367.278	413.56
367.505	387.56
367.731	394.56
367.957	398.56
368.184	401.56
368.41	417.56
368.636	418.56
368.862	410.56
369.089	395.56
369.315	414.56
369.541	400.56
369.767	374.56
369.993	406.56
370.219	398.56
370.445	384.56
370.672	396.56
370.898	405.56
371.124	401.56
371.35	418.56
371.576	400.56
371.802	401.56
372.028	400.56
372.254	412.56
372.48	399.56
372.706	427.56
372.932	403.56
373.158	407.56
373.384	394.56
373.61	411.56
373.835	405.56
374.061	410.56
374.287	424.56
374.513	418.56
374.739	431.56
374.965	414.56
375.191	422.56
375.416	432.56
375.642	424.56
375.868	406.56
376.094	404.56
376.319	410.56
376.545	408.56
376.771	397.56
376.997	406.56
377.222	391.56
377.448	407.56
377.674	402.56
377.899	396.56
378.125	394.56
378.35	397.56
378.576	396.56
378.802	384.56
379.027	403.56
379.253	390.56
379.478	410.56
379.704	417.56
379.929	417.56
380.155	399.56
380.38	410.56
380.606	393.56
380.831	415.56
381.057	408.56
381.282	400.56
381.507	416.56
381.733	409.56
381.958	400.56
382.184	399.56
382.409	420.56
382.634	412.56
382.86	415.56
383.085	424.56
383.31	429.56
383.535	439.56
383.761	402.56
383.986	441.56
384.211	455.56
384.436	434.56
384.662	440.56
384.887	433.56
385.112	456.56
385.337	472.56
385.562	437.56
385.787	452.56
386.013	476.56
386.238	476.56
386.463	468.56
386.688	453.56
386.913	450.56
387.138	458.56
387.363	475.56
387.588	462.56
387.813	448.56
388.038	455.56
388.263	433.56
388.488	454.56
388.713	445.56
388.938	448.56
389.163	445.56
389.387	460.56
389.612	457.56
389.837	464.56
390.062	452.56
390.287	442.56
390.512	448.56
390.736	447.56
390.961	443.56
391.186	465.56
391.411	469.56
391.636	457.56
391.86	496.56
392.085	489.56
392.31	469.56
392.534	479.56
392.759	487.56
392.984	461.56
393.208	477.56
393.433	452.56
393.658	447.56
393.882	475.56
394.107	457.56
394.331	459.56
394.556	460.56
394.78	487.56
395.005	463.56
395.229	465.56
395.454	465.56
395.678	493.56
395.903	484.56
396.127	507.56
396.352	510.56
396.576	501.56
396.801	479.56
397.025	459.56
397.249	483.56
397.474	495.56
397.698	479.56
397.922	513.56
398.147	499.56
398.371	525.56
398.595	515.56
398.82	515.56
399.044	522.56
399.268	557.56
399.492	587.56
399.717	639.56
399.941	658.56
400.165	665.56
400.389	669.56
400.613	607.56
400.837	563.56
401.062	546.56
401.286	556.56
401.51	554.56
401.734	537.56
401.958	559.56
402.182	528.56
402.406	559.56
402.63	539.56
402.854	553.56
403.078	549.56
403.302	549.56
403.526	564.56
403.75	563.56
403.974	577.56
404.198	540.56
404.422	541.56
404.645	556.56
404.869	550.56
405.093	580.56
405.317	608.56
405.541	653.56
405.765	595.56
405.988	584.56
406.212	579.56
406.436	584.56
406.66	623.56
406.883	599.56
407.107	619.56
407.331	649.56
407.555	717.56
407.778	724.56
408.002	659.56
408.226	629.56
408.449	602.56
408.673	611.56
408.896	615.56
409.12	679.56
409.344	628.56
409.567	589.56
409.791	572.56
410.014	573.56
410.238	551.56
410.461	549.56
410.685	563.56
410.908	573.56
411.132	585.56
411.355	624.56
411.578	604.56
411.802	547.56
412.025	549.56
412.249	546.56
412.472	593.56
412.695	631.56
412.919	618.56
413.142	537.56
413.365	536.56
413.589	526.56
413.812	509.56
414.035	532.56
414.258	526.56
414.482	526.56
414.705	542.56
414.928	523.56
415.151	525.56
415.374	503.56
415.597	523.56
415.821	508.56
416.044	492.56
416.267	506.56
416.49	551.56
416.713	493.56
416.936	511.56
417.159	515.56
417.382	527.56
417.605	527.56
417.828	543.56
418.051	537.56
418.274	545.56
418.497	505.56
418.72	520.56
418.943	485.56
419.166	535.56
419.389	576.56
419.611	559.56
419.834	563.56
420.057	574.56
420.28	546.56
420.503	552.56
420.726	540.56
420.948	558.56
421.171	603.56
421.394	593.56
421.617	552.56
421.839	529.56
422.062	543.56
422.285	537.56
422.507	576.56
422.73	664.56
422.953	629.56
423.175	608.56
423.398	570.56
423.621	557.56
423.843	559.56
424.066	593.56
424.288	589.56
424.511	600.56
424.733	649.56
424.956	737.56
425.178	686.56
425.401	696.56
425.623	723.56
425.846	628.56
426.068	563.56
426.291	561.56
426.513	554.56
426.735	584.56
426.958	589.56
427.18	686.56
427.402	800.56
427.625	871.56
427.847	750.56
428.069	636.56
428.292	574.56
428.514	554.56
428.736	529.56
428.958	520.56
429.181	523.56
429.403	515.56
429.625	522.56
429.847	560.56
430.069	605.56
430.292	616.56
430.514	536.56
430.736	503.56
430.958	516.56
431.18	504.56
431.402	518.56
431.624	496.56
431.846	487.56
432.068	516.56
432.29	479.56
432.512	503.56
432.734	522.56
432.956	517.56
433.178	512.56
433.4	504.56
433.622	524.56
433.844	489.56
434.066	491.56
434.287	521.56
434.509	507.56
434.731	511.56
434.953	529.56
435.175	543.56
435.397	548.56
435.618	558.56
435.84	602.56
436.062	696.56
436.284	771.56
436.505	635.56
436.727	553.56
436.949	565.56
437.17	537.56
437.392	517.56
437.614	527.56
437.835	585.56
438.057	636.56
438.278	722.56
438.5	717.56
438.721	822.56
438.943	781.56
439.165	622.56
439.386	573.56
439.608	575.56
439.829	575.56
440.05	582.56
440.272	602.56
440.493	597.56
440.715	563.56
440.936	539.56
441.158	520.56
441.379	518.56
441.6	545.56
441.822	567.56
442.043	607.56
442.264	682.56
442.486	736.56
442.707	616.56
442.928	563.56
443.149	582.56
443.371	579.56
443.592	651.56
443.813	727.56
444.034	797.56
444.255	659.56
444.476	591.56
444.698	590.56
444.919	580.56
445.14	718.56
445.361	640.56
445.582	620.56
445.803	638.56
446.024	747.56
446.245	737.56
446.466	689.56
446.687	580.56
446.908	567.56
447.129	520.56
447.35	535.56
447.571	510.56
447.792	507.56
448.013	504.56
448.234	541.56
448.455	549.56
448.675	669.56
448.896	791.56
449.117	656.56
449.338	636.56
449.559	740.56
449.779	837.56
450	644.56
450.221	557.56
450.442	533.56
450.662	485.56
450.883	488.56
451.104	509.56
451.324	491.56
451.545	492.56
451.766	479.56
451.986	444.56
452.207	459.56
452.428	459.56
452.648	463.56
452.869	452.56
453.089	465.56
453.31	476.56
453.53	467.56
453.751	458.56
453.971	459.56
454.192	464.56
454.412	468.56
454.633	446.56
454.853	434.56
455.073	449.56
455.294	480.56
455.514	531.56
455.734	514.56
455.955	439.56
456.175	451.56
456.395	435.56
456.616	449.56
456.836	429.56
457.056	448.56
457.276	428.56
457.497	428.56
457.717	428.56
457.937	440.56
458.157	476.56
458.377	438.56
458.598	454.56
458.818	511.56
459.038	572.56
459.258	594.56
459.478	523.56
459.698	492.56
459.918	481.56
460.138	496.56
460.358	523.56
460.578	525.56
460.798	519.56
461.018	530.56
461.238	515.56
461.458	540.56
461.678	513.56
461.898	538.56
462.118	535.56
462.338	554.56
462.558	539.56
462.777	541.56
462.997	592.56
463.217	586.56
463.437	590.56
463.657	569.56
463.876	560.56
464.096	584.56
464.316	558.56
464.536	567.56
464.755	587.56
464.975	560.56
465.195	585.56
465.414	627.56
465.634	552.56
465.854	517.56
466.073	510.56
466.293	495.56
466.512	489.56
466.732	480.56
466.951	485.56
467.171	482.56
467.391	481.56
467.61	469.56
467.829	505.56
468.049	477.56
468.268	465.56
468.488	467.56
468.707	467.56
468.927	470.56
469.146	465.56
469.365	478.56
469.585	486.56
469.804	471.56
470.023	484.56
470.243	501.56
470.462	492.56
470.681	503.56
470.901	492.56
471.12	479.56
471.339	486.56
471.558	490.56
471.777	489.56
471.997	462.56
472.216	471.56
472.435	491.56
472.654	496.56
472.873	462.56
473.092	469.56
473.311	469.56
473.53	478.56
473.749	481.56
473.968	543.56
474.187	603.56
474.406	633.56
474.625	523.56
474.844	496.56
475.063	483.56
475.282	477.56
475.501	488.56
475.72	494.56
475.939	476.56
476.158	511.56
476.377	489.56
476.596	464.56
476.814	502.56
477.033	504.56
477.252	512.56
477.471	529.56
477.69	536.56
477.908	520.56
478.127	538.56
478.346	571.56
478.564	536.56
478.783	544.56
479.002	550.56
479.22	545.56
479.439	572.56
479.658	550.56
479.876	577.56
480.095	596.56
480.313	608.56
480.532	619.56
480.751	611.56
480.969	612.56
481.188	624.56
481.406	646.56
481.624	607.56
481.843	564.56
482.061	569.56
482.28	547.56
482.498	539.56
482.717	537.56
482.935	561.56
483.153	557.56
483.372	574.56
483.59	563.56
483.808	533.56
484.027	539.56
484.245	558.56
484.463	548.56
484.681	557.56
484.9	578.56
485.118	573.56
485.336	568.56
485.554	584.56
485.772	585.56
485.99	570.56
486.209	569.56
486.427	605.56
486.645	582.56
486.863	610.56
487.081	588.56
487.299	599.56
487.517	611.56
487.735	582.56
487.953	587.56
488.171	601.56
488.389	602.56
488.607	591.56
488.825	608.56
489.043	609.56
489.261	630.56
489.479	622.56
489.696	601.56
489.914	628.56
490.132	631.56
490.35	634.56
490.568	632.56
490.786	639.56
491.003	643.56
491.221	650.56
491.439	634.56
491.657	669.56
491.874	675.56
492.092	683.56
492.31	702.56
492.527	693.56
492.745	693.56
492.963	704.56
493.18	681.56
493.398	703.56
493.615	708.56
493.833	684.56
494.05	713.56
494.268	695.56
494.485	680.56
494.703	705.56
494.92	699.56
495.138	720.56
495.355	713.56
495.573	709.56
495.79	735.56
496.008	713.56
496.225	680.56
496.442	715.56
496.66	709.56
496.877	712.56
497.094	750.56
497.312	712.56
497.529	733.56
497.746	759.56
497.963	771.56
498.181	769.56
498.398	783.56
498.615	828.56
498.832	821.56
499.049	845.56
499.267	875.56
499.484	899.56
499.701	943.56
499.918	1031.56
500.135	1045.56
500.352	1087.56
500.569	1148.56
500.786	1149.56
501.003	1096.56
501.22	1063.56
501.437	1013.56
501.654	968.56
