Data from 1976.PennyLincolnUp.Lamp.En5.5.200Scan.071719.P1.Changed Mount._HRD10591_16-01-00-865.txt Node
Date: Thu Jul 18 16:01:00 EDT 2019
User: cochatt
Spectrometer: HR+D1059
Trigger mode: 1
Integration Time (sec): 1.000000E-1
Scans to average: 1
Electric dark correction enabled: true
Nonlinearity correction enabled: false
Boxcar width: 0
XAxis mode: Wavelengths
Number of Pixels in Spectrum: 2048
>>>>>Begin Spectral Data<<<<<
223.165	-12.38
223.4	-12.38
223.635	-12.38
223.869	-19.38
224.104	-23.38
224.338	-22.38
224.573	-10.38
224.808	-26.38
225.042	-6.38
225.277	-9.38
225.511	9.62
225.746	9.62
225.98	9.62
226.215	10.62
226.449	14.62
226.683	19.62
226.918	21.62
227.152	34.62
227.387	41.62
227.621	38.62
227.856	49.62
228.09	42.62
228.324	60.62
228.559	51.62
228.793	67.62
229.027	97.62
229.262	107.62
229.496	109.62
229.73	129.62
229.964	149.62
230.199	132.62
230.433	125.62
230.667	121.62
230.901	103.62
231.136	113.62
231.37	105.62
231.604	128.62
231.838	112.62
232.072	107.62
232.306	119.62
232.541	124.62
232.775	116.62
233.009	116.62
233.243	109.62
233.477	107.62
233.711	123.62
233.945	121.62
234.179	135.62
234.413	128.62
234.647	121.62
234.881	118.62
235.115	120.62
235.349	110.62
235.583	112.62
235.817	124.62
236.051	119.62
236.285	136.62
236.519	140.62
236.753	128.62
236.987	144.62
237.221	177.62
237.455	240.62
237.689	200.62
237.922	131.62
238.156	136.62
238.39	131.62
238.624	136.62
238.858	116.62
239.091	132.62
239.325	131.62
239.559	130.62
239.793	138.62
240.027	122.62
240.26	133.62
240.494	158.62
240.728	154.62
240.961	146.62
241.195	140.62
241.429	154.62
241.662	153.62
241.896	154.62
242.13	136.62
242.363	129.62
242.597	136.62
242.83	152.62
243.064	138.62
243.298	139.62
243.531	146.62
243.765	148.62
243.998	139.62
244.232	155.62
244.465	147.62
244.699	160.62
244.932	140.62
245.166	163.62
245.399	148.62
245.633	157.62
245.866	148.62
246.099	157.62
246.333	160.62
246.566	158.62
246.8	154.62
247.033	140.62
247.266	150.62
247.5	163.62
247.733	170.62
247.966	168.62
248.2	172.62
248.433	181.62
248.666	180.62
248.899	206.62
249.133	195.62
249.366	220.62
249.599	190.62
249.832	197.62
250.066	173.62
250.299	198.62
250.532	187.62
250.765	220.62
250.998	233.62
251.231	242.62
251.465	218.62
251.698	219.62
251.931	215.62
252.164	199.62
252.397	210.62
252.63	201.62
252.863	220.62
253.096	232.62
253.329	224.62
253.562	228.62
253.795	217.62
254.028	202.62
254.261	234.62
254.494	230.62
254.727	256.62
254.96	284.62
255.193	266.62
255.426	236.62
255.659	236.62
255.892	246.62
256.124	233.62
256.357	239.62
256.59	245.62
256.823	217.62
257.056	233.62
257.289	210.62
257.521	213.62
257.754	217.62
257.987	227.62
258.22	234.62
258.452	217.62
258.685	225.62
258.918	204.62
259.151	205.62
259.383	215.62
259.616	228.62
259.849	238.62
260.081	261.62
260.314	256.62
260.547	252.62
260.779	244.62
261.012	250.62
261.244	238.62
261.477	221.62
261.71	221.62
261.942	224.62
262.175	246.62
262.407	237.62
262.64	211.62
262.872	222.62
263.105	209.62
263.337	212.62
263.57	204.62
263.802	233.62
264.035	218.62
264.267	213.62
264.499	219.62
264.732	223.62
264.964	220.62
265.197	219.62
265.429	217.62
265.661	222.62
265.894	226.62
266.126	226.62
266.358	227.62
266.591	247.62
266.823	219.62
267.055	240.62
267.287	243.62
267.52	235.62
267.752	250.62
267.984	236.62
268.216	230.62
268.448	264.62
268.681	264.62
268.913	248.62
269.145	265.62
269.377	280.62
269.609	288.62
269.841	297.62
270.073	282.62
270.306	310.62
270.538	329.62
270.77	330.62
271.002	316.62
271.234	303.62
271.466	309.62
271.698	326.62
271.93	323.62
272.162	328.62
272.394	327.62
272.626	321.62
272.858	297.62
273.09	277.62
273.322	291.62
273.553	288.62
273.785	286.62
274.017	289.62
274.249	296.62
274.481	273.62
274.713	280.62
274.945	292.62
275.176	269.62
275.408	296.62
275.64	281.62
275.872	280.62
276.104	297.62
276.335	276.62
276.567	296.62
276.799	292.62
277.031	316.62
277.262	327.62
277.494	328.62
277.726	326.62
277.957	310.62
278.189	294.62
278.421	302.62
278.652	277.62
278.884	300.62
279.115	303.62
279.347	295.62
279.579	278.62
279.81	289.62
280.042	292.62
280.273	284.62
280.505	282.62
280.736	283.62
280.968	293.62
281.199	289.62
281.431	296.62
281.662	292.62
281.894	278.62
282.125	280.62
282.356	308.62
282.588	324.62
282.819	333.62
283.051	299.62
283.282	301.62
283.513	291.62
283.745	295.62
283.976	321.62
284.207	301.62
284.439	318.62
284.67	298.62
284.901	310.62
285.132	299.62
285.364	296.62
285.595	296.62
285.826	308.62
286.057	302.62
286.288	317.62
286.52	316.62
286.751	317.62
286.982	306.62
287.213	320.62
287.444	325.62
287.675	318.62
287.906	330.62
288.138	328.62
288.369	320.62
288.6	324.62
288.831	316.62
289.062	323.62
289.293	319.62
289.524	329.62
289.755	320.62
289.986	313.62
290.217	303.62
290.448	316.62
290.679	325.62
290.91	294.62
291.141	315.62
291.371	316.62
291.602	310.62
291.833	304.62
292.064	317.62
292.295	304.62
292.526	325.62
292.757	306.62
292.987	305.62
293.218	327.62
293.449	334.62
293.68	314.62
293.91	302.62
294.141	313.62
294.372	310.62
294.603	328.62
294.833	339.62
295.064	324.62
295.295	334.62
295.525	331.62
295.756	323.62
295.987	313.62
296.217	326.62
296.448	348.62
296.679	328.62
296.909	318.62
297.14	331.62
297.37	315.62
297.601	331.62
297.831	318.62
298.062	320.62
298.292	352.62
298.523	355.62
298.753	325.62
298.984	335.62
299.214	343.62
299.445	335.62
299.675	332.62
299.905	330.62
300.136	332.62
300.366	342.62
300.597	333.62
300.827	346.62
301.057	362.62
301.288	371.62
301.518	338.62
301.748	363.62
301.979	343.62
302.209	360.62
302.439	369.62
302.669	374.62
302.9	369.62
303.13	375.62
303.36	357.62
303.59	368.62
303.82	370.62
304.051	370.62
304.281	348.62
304.511	361.62
304.741	346.62
304.971	343.62
305.201	371.62
305.431	354.62
305.661	354.62
305.891	347.62
306.121	364.62
306.352	346.62
306.582	357.62
306.812	366.62
307.042	357.62
307.272	372.62
307.502	370.62
307.731	342.62
307.961	365.62
308.191	356.62
308.421	333.62
308.651	375.62
308.881	382.62
309.111	364.62
309.341	364.62
309.571	353.62
309.8	381.62
310.03	404.62
310.26	390.62
310.49	392.62
310.72	392.62
310.949	399.62
311.179	425.62
311.409	414.62
311.639	378.62
311.868	374.62
312.098	387.62
312.328	404.62
312.557	408.62
312.787	421.62
313.017	429.62
313.246	421.62
313.476	396.62
313.706	392.62
313.935	406.62
314.165	419.62
314.394	397.62
314.624	434.62
314.853	411.62
315.083	400.62
315.312	395.62
315.542	402.62
315.771	397.62
316.001	392.62
316.23	420.62
316.46	367.62
316.689	417.62
316.919	419.62
317.148	423.62
317.377	405.62
317.607	420.62
317.836	405.62
318.065	386.62
318.295	397.62
318.524	414.62
318.753	403.62
318.983	411.62
319.212	401.62
319.441	404.62
319.67	425.62
319.9	410.62
320.129	387.62
320.358	392.62
320.587	407.62
320.816	411.62
321.046	405.62
321.275	411.62
321.504	427.62
321.733	416.62
321.962	425.62
322.191	433.62
322.42	445.62
322.649	450.62
322.878	464.62
323.108	453.62
323.337	483.62
323.566	489.62
323.795	521.62
324.024	541.62
324.253	633.62
324.482	906.62
324.71	1349.62
324.939	1968.62
325.168	1710.62
325.397	894.62
325.626	626.62
325.855	535.62
326.084	508.62
326.313	505.62
326.542	486.62
326.77	530.62
326.999	632.62
327.228	816.62
327.457	1225.62
327.686	1488.62
327.914	969.62
328.143	665.62
328.372	601.62
328.6	547.62
328.829	542.62
329.058	557.62
329.287	565.62
329.515	546.62
329.744	513.62
329.972	522.62
330.201	556.62
330.43	576.62
330.658	568.62
330.887	593.62
331.115	565.62
331.344	541.62
331.572	504.62
331.801	509.62
332.03	497.62
332.258	481.62
332.486	474.62
332.715	473.62
332.943	478.62
333.172	493.62
333.4	507.62
333.629	503.62
333.857	500.62
334.085	529.62
334.314	545.62
334.542	547.62
334.771	568.62
334.999	525.62
335.227	515.62
335.455	487.62
335.684	502.62
335.912	489.62
336.14	476.62
336.369	492.62
336.597	493.62
336.825	502.62
337.053	452.62
337.281	488.62
337.51	464.62
337.738	474.62
337.966	465.62
338.194	472.62
338.422	477.62
338.65	448.62
338.878	460.62
339.106	436.62
339.334	466.62
339.562	462.62
339.79	459.62
340.018	474.62
340.246	465.62
340.474	456.62
340.702	448.62
340.93	439.62
341.158	467.62
341.386	457.62
341.614	455.62
341.842	429.62
342.07	443.62
342.298	458.62
342.526	453.62
342.754	426.62
342.981	429.62
343.209	451.62
343.437	458.62
343.665	472.62
343.893	493.62
344.12	493.62
344.348	486.62
344.576	492.62
344.804	487.62
345.031	479.62
345.259	476.62
345.487	477.62
345.714	437.62
345.942	429.62
346.17	414.62
346.397	446.62
346.625	454.62
346.853	460.62
347.08	445.62
347.308	440.62
347.535	445.62
347.763	446.62
347.99	453.62
348.218	432.62
348.445	467.62
348.673	471.62
348.9	429.62
349.128	441.62
349.355	425.62
349.583	425.62
349.81	428.62
350.037	404.62
350.265	434.62
350.492	447.62
350.72	439.62
350.947	444.62
351.174	422.62
351.402	452.62
351.629	421.62
351.856	426.62
352.083	462.62
352.311	426.62
352.538	438.62
352.765	441.62
352.992	451.62
353.22	449.62
353.447	417.62
353.674	407.62
353.901	421.62
354.128	418.62
354.355	406.62
354.583	418.62
354.81	411.62
355.037	410.62
355.264	414.62
355.491	403.62
355.718	409.62
355.945	414.62
356.172	420.62
356.399	392.62
356.626	381.62
356.853	422.62
357.08	406.62
357.307	422.62
357.534	436.62
357.761	402.62
357.988	414.62
358.215	419.62
358.441	410.62
358.668	417.62
358.895	420.62
359.122	416.62
359.349	421.62
359.576	421.62
359.802	452.62
360.029	459.62
360.256	458.62
360.483	460.62
360.709	436.62
360.936	448.62
361.163	429.62
361.39	463.62
361.616	446.62
361.843	424.62
362.07	413.62
362.296	440.62
362.523	437.62
362.749	441.62
362.976	426.62
363.203	423.62
363.429	426.62
363.656	403.62
363.882	439.62
364.109	443.62
364.335	430.62
364.562	419.62
364.788	436.62
365.015	441.62
365.241	425.62
365.468	434.62
365.694	434.62
365.92	435.62
366.147	429.62
366.373	445.62
366.599	441.62
366.826	420.62
367.052	418.62
367.278	421.62
367.505	424.62
367.731	435.62
367.957	420.62
368.184	428.62
368.41	420.62
368.636	440.62
368.862	437.62
369.089	410.62
369.315	412.62
369.541	431.62
369.767	419.62
369.993	425.62
370.219	424.62
370.445	426.62
370.672	438.62
370.898	434.62
371.124	431.62
371.35	419.62
371.576	450.62
371.802	419.62
372.028	445.62
372.254	407.62
372.48	412.62
372.706	428.62
372.932	455.62
373.158	431.62
373.384	422.62
373.61	437.62
373.835	432.62
374.061	433.62
374.287	432.62
374.513	436.62
374.739	437.62
374.965	457.62
375.191	450.62
375.416	449.62
375.642	437.62
375.868	440.62
376.094	425.62
376.319	426.62
376.545	429.62
376.771	428.62
376.997	415.62
377.222	438.62
377.448	410.62
377.674	438.62
377.899	411.62
378.125	446.62
378.35	431.62
378.576	422.62
378.802	416.62
379.027	437.62
379.253	419.62
379.478	429.62
379.704	436.62
379.929	424.62
380.155	410.62
380.38	447.62
380.606	445.62
380.831	418.62
381.057	436.62
381.282	438.62
381.507	445.62
381.733	435.62
381.958	438.62
382.184	444.62
382.409	427.62
382.634	454.62
382.86	440.62
383.085	456.62
383.31	470.62
383.535	453.62
383.761	450.62
383.986	458.62
384.211	450.62
384.436	448.62
384.662	447.62
384.887	460.62
385.112	453.62
385.337	475.62
385.562	467.62
385.787	481.62
386.013	494.62
386.238	483.62
386.463	473.62
386.688	490.62
386.913	475.62
387.138	484.62
387.363	470.62
387.588	459.62
387.813	488.62
388.038	471.62
388.263	457.62
388.488	468.62
388.713	485.62
388.938	471.62
389.163	469.62
389.387	472.62
389.612	481.62
389.837	475.62
390.062	467.62
390.287	487.62
390.512	498.62
390.736	488.62
390.961	480.62
391.186	468.62
391.411	498.62
391.636	498.62
391.86	519.62
392.085	498.62
392.31	516.62
392.534	484.62
392.759	496.62
392.984	490.62
393.208	484.62
393.433	513.62
393.658	524.62
393.882	478.62
394.107	500.62
394.331	490.62
394.556	476.62
394.78	497.62
395.005	481.62
395.229	474.62
395.454	516.62
395.678	521.62
395.903	518.62
396.127	514.62
396.352	525.62
396.576	510.62
396.801	479.62
397.025	500.62
397.249	496.62
397.474	522.62
397.698	511.62
397.922	526.62
398.147	541.62
398.371	547.62
398.595	530.62
398.82	530.62
399.044	558.62
399.268	598.62
399.492	651.62
399.717	666.62
399.941	706.62
400.165	701.62
400.389	720.62
400.613	640.62
400.837	604.62
401.062	595.62
401.286	587.62
401.51	574.62
401.734	578.62
401.958	557.62
402.182	572.62
402.406	566.62
402.63	573.62
402.854	589.62
403.078	585.62
403.302	578.62
403.526	590.62
403.75	566.62
403.974	605.62
404.198	576.62
404.422	583.62
404.645	590.62
404.869	604.62
405.093	635.62
405.317	670.62
405.541	688.62
405.765	628.62
405.988	610.62
406.212	605.62
406.436	629.62
406.66	642.62
406.883	622.62
407.107	670.62
407.331	709.62
407.555	755.62
407.778	777.62
408.002	690.62
408.226	647.62
408.449	627.62
408.673	653.62
408.896	656.62
409.12	693.62
409.344	685.62
409.567	598.62
409.791	605.62
410.014	587.62
410.238	577.62
410.461	560.62
410.685	576.62
410.908	605.62
411.132	626.62
411.355	685.62
411.578	644.62
411.802	610.62
412.025	586.62
412.249	596.62
412.472	608.62
412.695	628.62
412.919	627.62
413.142	610.62
413.365	578.62
413.589	574.62
413.812	578.62
414.035	568.62
414.258	555.62
414.482	548.62
414.705	537.62
414.928	536.62
415.151	565.62
415.374	564.62
415.597	538.62
415.821	541.62
416.044	519.62
416.267	538.62
416.49	546.62
416.713	558.62
416.936	535.62
417.159	520.62
417.382	552.62
417.605	545.62
417.828	594.62
418.051	602.62
418.274	570.62
418.497	544.62
418.72	556.62
418.943	553.62
419.166	584.62
419.389	611.62
419.611	603.62
419.834	593.62
420.057	592.62
420.28	564.62
420.503	577.62
420.726	574.62
420.948	574.62
421.171	635.62
421.394	676.62
421.617	573.62
421.839	588.62
422.062	565.62
422.285	592.62
422.507	652.62
422.73	693.62
422.953	678.62
423.175	610.62
423.398	590.62
423.621	576.62
423.843	610.62
424.066	598.62
424.288	611.62
424.511	622.62
424.733	688.62
424.956	740.62
425.178	706.62
425.401	707.62
425.623	772.62
425.846	648.62
426.068	603.62
426.291	579.62
426.513	580.62
426.735	580.62
426.958	643.62
427.18	728.62
427.402	867.62
427.625	938.62
427.847	810.62
428.069	690.62
428.292	618.62
428.514	580.62
428.736	576.62
428.958	571.62
429.181	558.62
429.403	524.62
429.625	570.62
429.847	587.62
430.069	640.62
430.292	640.62
430.514	576.62
430.736	559.62
430.958	548.62
431.18	536.62
431.402	527.62
431.624	542.62
431.846	522.62
432.068	527.62
432.29	532.62
432.512	532.62
432.734	557.62
432.956	535.62
433.178	564.62
433.4	550.62
433.622	524.62
433.844	531.62
434.066	520.62
434.287	532.62
434.509	548.62
434.731	558.62
434.953	574.62
435.175	571.62
435.397	579.62
435.618	607.62
435.84	639.62
436.062	737.62
436.284	783.62
436.505	661.62
436.727	580.62
436.949	565.62
437.17	556.62
437.392	546.62
437.614	554.62
437.835	585.62
438.057	678.62
438.278	771.62
438.5	788.62
438.721	881.62
438.943	802.62
439.165	644.62
439.386	610.62
439.608	602.62
439.829	590.62
440.05	622.62
440.272	661.62
440.493	609.62
440.715	579.62
440.936	555.62
441.158	564.62
441.379	553.62
441.6	578.62
441.822	586.62
442.043	652.62
442.264	725.62
442.486	740.62
442.707	663.62
442.928	602.62
443.149	621.62
443.371	646.62
443.592	701.62
443.813	769.62
444.034	857.62
444.255	702.62
444.476	649.62
444.698	634.62
444.919	645.62
445.14	754.62
445.361	692.62
445.582	656.62
445.803	693.62
446.024	783.62
446.245	806.62
446.466	738.62
446.687	635.62
446.908	578.62
447.129	595.62
447.35	566.62
447.571	547.62
447.792	554.62
448.013	534.62
448.234	549.62
448.455	604.62
448.675	730.62
448.896	838.62
449.117	712.62
449.338	663.62
449.559	796.62
449.779	887.62
450	690.62
450.221	585.62
450.442	555.62
450.662	536.62
450.883	526.62
451.104	562.62
451.324	551.62
451.545	515.62
451.766	513.62
451.986	486.62
452.207	488.62
452.428	488.62
452.648	483.62
452.869	467.62
453.089	510.62
453.31	513.62
453.53	501.62
453.751	508.62
453.971	490.62
454.192	496.62
454.412	489.62
454.633	483.62
454.853	477.62
455.073	483.62
455.294	508.62
455.514	570.62
455.734	568.62
455.955	485.62
456.175	471.62
456.395	453.62
456.616	448.62
456.836	441.62
457.056	462.62
457.276	450.62
457.497	472.62
457.717	467.62
457.937	477.62
458.157	472.62
458.377	483.62
458.598	481.62
458.818	558.62
459.038	619.62
459.258	647.62
459.478	548.62
459.698	519.62
459.918	526.62
460.138	542.62
460.358	539.62
460.578	559.62
460.798	574.62
461.018	564.62
461.238	531.62
461.458	552.62
461.678	535.62
461.898	561.62
462.118	550.62
462.338	560.62
462.558	573.62
462.777	583.62
462.997	619.62
463.217	620.62
463.437	629.62
463.657	608.62
463.876	575.62
464.096	588.62
464.316	594.62
464.536	611.62
464.755	596.62
464.975	579.62
465.195	615.62
465.414	638.62
465.634	597.62
465.854	564.62
466.073	540.62
466.293	537.62
466.512	501.62
466.732	491.62
466.951	489.62
467.171	507.62
467.391	496.62
467.61	516.62
467.829	516.62
468.049	508.62
468.268	507.62
468.488	499.62
468.707	486.62
468.927	488.62
469.146	490.62
469.365	500.62
469.585	491.62
469.804	494.62
470.023	499.62
470.243	513.62
470.462	514.62
470.681	540.62
470.901	546.62
471.12	514.62
471.339	493.62
471.558	500.62
471.777	512.62
471.997	511.62
472.216	505.62
472.435	533.62
472.654	548.62
472.873	516.62
473.092	484.62
473.311	521.62
473.53	510.62
473.749	526.62
473.968	577.62
474.187	646.62
474.406	685.62
474.625	561.62
474.844	522.62
475.063	489.62
475.282	515.62
475.501	484.62
475.72	530.62
475.939	489.62
476.158	536.62
476.377	514.62
476.596	527.62
476.814	546.62
477.033	528.62
477.252	532.62
477.471	554.62
477.69	546.62
477.908	564.62
478.127	557.62
478.346	581.62
478.564	569.62
478.783	578.62
479.002	583.62
479.22	593.62
479.439	584.62
479.658	597.62
479.876	608.62
480.095	594.62
480.313	644.62
480.532	632.62
480.751	652.62
480.969	640.62
481.188	682.62
481.406	712.62
481.624	640.62
481.843	613.62
482.061	596.62
482.28	600.62
482.498	593.62
482.717	594.62
482.935	594.62
483.153	588.62
483.372	600.62
483.59	583.62
483.808	582.62
484.027	586.62
484.245	589.62
484.463	594.62
484.681	605.62
484.9	607.62
485.118	591.62
485.336	599.62
485.554	622.62
485.772	626.62
485.99	608.62
486.209	619.62
486.427	621.62
486.645	612.62
486.863	620.62
487.081	626.62
487.299	630.62
487.517	634.62
487.735	621.62
487.953	633.62
488.171	633.62
488.389	623.62
488.607	638.62
488.825	639.62
489.043	625.62
489.261	609.62
489.479	632.62
489.696	619.62
489.914	636.62
490.132	642.62
490.35	666.62
490.568	647.62
490.786	666.62
491.003	667.62
491.221	704.62
491.439	704.62
491.657	716.62
491.874	698.62
492.092	722.62
492.31	719.62
492.527	758.62
492.745	724.62
492.963	756.62
493.18	733.62
493.398	724.62
493.615	749.62
493.833	759.62
494.05	765.62
494.268	737.62
494.485	760.62
494.703	757.62
494.92	747.62
495.138	740.62
495.355	749.62
495.573	756.62
495.79	772.62
496.008	741.62
496.225	755.62
496.442	766.62
496.66	734.62
496.877	741.62
497.094	751.62
497.312	739.62
497.529	782.62
497.746	786.62
497.963	797.62
498.181	816.62
498.398	846.62
498.615	880.62
498.832	891.62
499.049	888.62
499.267	945.62
499.484	972.62
499.701	1038.62
499.918	1062.62
500.135	1128.62
500.352	1214.62
500.569	1233.62
500.786	1207.62
501.003	1180.62
501.22	1138.62
501.437	1072.62
501.654	1053.62
