Data from 1976.PennyLincolnUp.Lamp.En5.5.200Scan.071719.P1.Changed Mount._HRD10591_15-59-39-860.txt Node
Date: Thu Jul 18 15:59:39 EDT 2019
User: cochatt
Spectrometer: HR+D1059
Trigger mode: 1
Integration Time (sec): 1.000000E-1
Scans to average: 1
Electric dark correction enabled: true
Nonlinearity correction enabled: false
Boxcar width: 0
XAxis mode: Wavelengths
Number of Pixels in Spectrum: 2048
>>>>>Begin Spectral Data<<<<<
223.165	-7.69
223.4	-7.69
223.635	-7.69
223.869	-15.69
224.104	-10.69
224.338	-12.69
224.573	-17.69
224.808	-11.69
225.042	-10.69
225.277	-18.69
225.511	-4.69
225.746	-2.69
225.98	7.31
226.215	7.31
226.449	15.31
226.683	26.31
226.918	27.31
227.152	29.31
227.387	31.31
227.621	42.31
227.856	38.31
228.09	58.31
228.324	51.31
228.559	59.31
228.793	64.31
229.027	85.31
229.262	89.31
229.496	99.31
229.73	122.31
229.964	142.31
230.199	112.31
230.433	110.31
230.667	110.31
230.901	96.31
231.136	103.31
231.37	103.31
231.604	100.31
231.838	98.31
232.072	98.31
232.306	115.31
232.541	121.31
232.775	117.31
233.009	114.31
233.243	111.31
233.477	124.31
233.711	101.31
233.945	102.31
234.179	128.31
234.413	103.31
234.647	121.31
234.881	109.31
235.115	112.31
235.349	127.31
235.583	127.31
235.817	130.31
236.051	130.31
236.285	108.31
236.519	121.31
236.753	139.31
236.987	136.31
237.221	167.31
237.455	198.31
237.689	166.31
237.922	133.31
238.156	139.31
238.39	115.31
238.624	121.31
238.858	112.31
239.091	131.31
239.325	128.31
239.559	130.31
239.793	125.31
240.027	126.31
240.26	140.31
240.494	143.31
240.728	137.31
240.961	140.31
241.195	130.31
241.429	127.31
241.662	147.31
241.896	127.31
242.13	127.31
242.363	135.31
242.597	126.31
242.83	125.31
243.064	130.31
243.298	132.31
243.531	148.31
243.765	137.31
243.998	116.31
244.232	146.31
244.465	136.31
244.699	129.31
244.932	143.31
245.166	146.31
245.399	133.31
245.633	153.31
245.866	149.31
246.099	138.31
246.333	155.31
246.566	143.31
246.8	144.31
247.033	149.31
247.266	140.31
247.5	165.31
247.733	161.31
247.966	164.31
248.2	163.31
248.433	159.31
248.666	154.31
248.899	171.31
249.133	177.31
249.366	188.31
249.599	170.31
249.832	171.31
250.066	181.31
250.299	173.31
250.532	171.31
250.765	172.31
250.998	193.31
251.231	193.31
251.465	196.31
251.698	203.31
251.931	192.31
252.164	174.31
252.397	199.31
252.63	181.31
252.863	183.31
253.096	207.31
253.329	213.31
253.562	200.31
253.795	203.31
254.028	187.31
254.261	192.31
254.494	191.31
254.727	235.31
254.96	243.31
255.193	234.31
255.426	228.31
255.659	220.31
255.892	215.31
256.124	205.31
256.357	227.31
256.59	201.31
256.823	181.31
257.056	185.31
257.289	194.31
257.521	199.31
257.754	207.31
257.987	195.31
258.22	195.31
258.452	180.31
258.685	192.31
258.918	199.31
259.151	196.31
259.383	211.31
259.616	205.31
259.849	207.31
260.081	207.31
260.314	229.31
260.547	227.31
260.779	225.31
261.012	209.31
261.244	211.31
261.477	207.31
261.71	205.31
261.942	210.31
262.175	216.31
262.407	202.31
262.64	210.31
262.872	193.31
263.105	202.31
263.337	204.31
263.57	196.31
263.802	199.31
264.035	204.31
264.267	217.31
264.499	205.31
264.732	222.31
264.964	213.31
265.197	209.31
265.429	205.31
265.661	214.31
265.894	231.31
266.126	198.31
266.358	211.31
266.591	205.31
266.823	211.31
267.055	208.31
267.287	202.31
267.52	225.31
267.752	222.31
267.984	238.31
268.216	222.31
268.448	214.31
268.681	234.31
268.913	239.31
269.145	258.31
269.377	263.31
269.609	243.31
269.841	257.31
270.073	253.31
270.306	263.31
270.538	283.31
270.77	299.31
271.002	284.31
271.234	277.31
271.466	266.31
271.698	279.31
271.93	278.31
272.162	303.31
272.394	294.31
272.626	269.31
272.858	251.31
273.09	239.31
273.322	245.31
273.553	251.31
273.785	244.31
274.017	236.31
274.249	243.31
274.481	252.31
274.713	249.31
274.945	268.31
275.176	248.31
275.408	250.31
275.64	247.31
275.872	243.31
276.104	241.31
276.335	257.31
276.567	260.31
276.799	262.31
277.031	287.31
277.262	285.31
277.494	277.31
277.726	240.31
277.957	279.31
278.189	271.31
278.421	263.31
278.652	259.31
278.884	242.31
279.115	257.31
279.347	278.31
279.579	278.31
279.81	261.31
280.042	270.31
280.273	248.31
280.505	247.31
280.736	262.31
280.968	275.31
281.199	253.31
281.431	255.31
281.662	256.31
281.894	273.31
282.125	257.31
282.356	270.31
282.588	289.31
282.819	273.31
283.051	259.31
283.282	279.31
283.513	257.31
283.745	274.31
283.976	265.31
284.207	259.31
284.439	276.31
284.67	265.31
284.901	272.31
285.132	271.31
285.364	272.31
285.595	271.31
285.826	265.31
286.057	295.31
286.288	277.31
286.52	295.31
286.751	269.31
286.982	278.31
287.213	278.31
287.444	268.31
287.675	291.31
287.906	269.31
288.138	300.31
288.369	285.31
288.6	290.31
288.831	297.31
289.062	293.31
289.293	287.31
289.524	285.31
289.755	286.31
289.986	276.31
290.217	286.31
290.448	296.31
290.679	267.31
290.91	289.31
291.141	268.31
291.371	283.31
291.602	267.31
291.833	283.31
292.064	278.31
292.295	292.31
292.526	276.31
292.757	290.31
292.987	288.31
293.218	282.31
293.449	309.31
293.68	304.31
293.91	286.31
294.141	293.31
294.372	268.31
294.603	298.31
294.833	286.31
295.064	280.31
295.295	276.31
295.525	280.31
295.756	317.31
295.987	291.31
296.217	308.31
296.448	296.31
296.679	296.31
296.909	288.31
297.14	297.31
297.37	309.31
297.601	292.31
297.831	301.31
298.062	307.31
298.292	298.31
298.523	290.31
298.753	298.31
298.984	307.31
299.214	297.31
299.445	314.31
299.675	294.31
299.905	309.31
300.136	323.31
300.366	310.31
300.597	296.31
300.827	300.31
301.057	325.31
301.288	315.31
301.518	326.31
301.748	331.31
301.979	317.31
302.209	329.31
302.439	301.31
302.669	327.31
302.9	318.31
303.13	313.31
303.36	314.31
303.59	323.31
303.82	321.31
304.051	326.31
304.281	333.31
304.511	336.31
304.741	327.31
304.971	320.31
305.201	325.31
305.431	325.31
305.661	311.31
305.891	308.31
306.121	333.31
306.352	326.31
306.582	318.31
306.812	342.31
307.042	336.31
307.272	335.31
307.502	328.31
307.731	312.31
307.961	324.31
308.191	338.31
308.421	309.31
308.651	329.31
308.881	317.31
309.111	345.31
309.341	335.31
309.571	341.31
309.8	344.31
310.03	333.31
310.26	336.31
310.49	341.31
310.72	351.31
310.949	356.31
311.179	369.31
311.409	346.31
311.639	355.31
311.868	350.31
312.098	350.31
312.328	345.31
312.557	356.31
312.787	350.31
313.017	361.31
313.246	371.31
313.476	360.31
313.706	363.31
313.935	347.31
314.165	363.31
314.394	374.31
314.624	371.31
314.853	365.31
315.083	371.31
315.312	348.31
315.542	348.31
315.771	365.31
316.001	361.31
316.23	355.31
316.46	372.31
316.689	368.31
316.919	338.31
317.148	366.31
317.377	366.31
317.607	354.31
317.836	364.31
318.065	380.31
318.295	351.31
318.524	366.31
318.753	353.31
318.983	368.31
319.212	360.31
319.441	359.31
319.67	355.31
319.9	365.31
320.129	343.31
320.358	362.31
320.587	361.31
320.816	366.31
321.046	366.31
321.275	375.31
321.504	365.31
321.733	371.31
321.962	379.31
322.191	380.31
322.42	386.31
322.649	384.31
322.878	378.31
323.108	413.31
323.337	417.31
323.566	419.31
323.795	451.31
324.024	452.31
324.253	520.31
324.482	694.31
324.71	1016.31
324.939	1508.31
325.168	1336.31
325.397	694.31
325.626	478.31
325.855	427.31
326.084	422.31
326.313	425.31
326.542	428.31
326.77	454.31
326.999	520.31
327.228	668.31
327.457	936.31
327.686	1177.31
327.914	779.31
328.143	552.31
328.372	511.31
328.6	474.31
328.829	452.31
329.058	461.31
329.287	490.31
329.515	464.31
329.744	452.31
329.972	429.31
330.201	425.31
330.43	447.31
330.658	491.31
330.887	485.31
331.115	486.31
331.344	429.31
331.572	426.31
331.801	423.31
332.03	427.31
332.258	445.31
332.486	426.31
332.715	419.31
332.943	441.31
333.172	412.31
333.4	459.31
333.629	445.31
333.857	453.31
334.085	458.31
334.314	456.31
334.542	489.31
334.771	463.31
334.999	458.31
335.227	453.31
335.455	447.31
335.684	428.31
335.912	427.31
336.14	424.31
336.369	441.31
336.597	415.31
336.825	422.31
337.053	425.31
337.281	428.31
337.51	440.31
337.738	405.31
337.966	420.31
338.194	415.31
338.422	431.31
338.65	429.31
338.878	415.31
339.106	405.31
339.334	413.31
339.562	402.31
339.79	409.31
340.018	410.31
340.246	415.31
340.474	394.31
340.702	403.31
340.93	415.31
341.158	422.31
341.386	402.31
341.614	408.31
341.842	408.31
342.07	383.31
342.298	387.31
342.526	401.31
342.754	411.31
342.981	411.31
343.209	403.31
343.437	397.31
343.665	413.31
343.893	433.31
344.12	438.31
344.348	442.31
344.576	431.31
344.804	434.31
345.031	415.31
345.259	430.31
345.487	425.31
345.714	411.31
345.942	390.31
346.17	381.31
346.397	400.31
346.625	402.31
346.853	391.31
347.08	388.31
347.308	406.31
347.535	394.31
347.763	381.31
347.99	387.31
348.218	395.31
348.445	374.31
348.673	381.31
348.9	375.31
349.128	389.31
349.355	377.31
349.583	361.31
349.81	383.31
350.037	376.31
350.265	388.31
350.492	364.31
350.72	381.31
350.947	365.31
351.174	391.31
351.402	392.31
351.629	376.31
351.856	374.31
352.083	397.31
352.311	388.31
352.538	402.31
352.765	400.31
352.992	380.31
353.22	394.31
353.447	409.31
353.674	380.31
353.901	376.31
354.128	379.31
354.355	359.31
354.583	376.31
354.81	388.31
355.037	376.31
355.264	378.31
355.491	375.31
355.718	367.31
355.945	374.31
356.172	353.31
356.399	393.31
356.626	373.31
356.853	363.31
357.08	389.31
357.307	363.31
357.534	379.31
357.761	375.31
357.988	363.31
358.215	377.31
358.441	362.31
358.668	375.31
358.895	379.31
359.122	377.31
359.349	385.31
359.576	374.31
359.802	414.31
360.029	419.31
360.256	428.31
360.483	396.31
360.709	387.31
360.936	391.31
361.163	381.31
361.39	393.31
361.616	399.31
361.843	380.31
362.07	379.31
362.296	407.31
362.523	376.31
362.749	380.31
362.976	379.31
363.203	400.31
363.429	384.31
363.656	377.31
363.882	376.31
364.109	382.31
364.335	378.31
364.562	377.31
364.788	381.31
365.015	384.31
365.241	387.31
365.468	399.31
365.694	373.31
365.92	400.31
366.147	393.31
366.373	376.31
366.599	365.31
366.826	381.31
367.052	358.31
367.278	391.31
367.505	366.31
367.731	375.31
367.957	381.31
368.184	368.31
368.41	381.31
368.636	375.31
368.862	400.31
369.089	378.31
369.315	383.31
369.541	396.31
369.767	377.31
369.993	390.31
370.219	391.31
370.445	394.31
370.672	411.31
370.898	387.31
371.124	385.31
371.35	371.31
371.576	374.31
371.802	378.31
372.028	369.31
372.254	387.31
372.48	395.31
372.706	407.31
372.932	398.31
373.158	409.31
373.384	387.31
373.61	391.31
373.835	384.31
374.061	377.31
374.287	380.31
374.513	405.31
374.739	399.31
374.965	403.31
375.191	404.31
375.416	393.31
375.642	399.31
375.868	411.31
376.094	389.31
376.319	393.31
376.545	383.31
376.771	399.31
376.997	392.31
377.222	384.31
377.448	387.31
377.674	393.31
377.899	371.31
378.125	396.31
378.35	385.31
378.576	386.31
378.802	371.31
379.027	397.31
379.253	391.31
379.478	381.31
379.704	380.31
379.929	414.31
380.155	381.31
380.38	436.31
380.606	383.31
380.831	381.31
381.057	389.31
381.282	395.31
381.507	379.31
381.733	391.31
381.958	406.31
382.184	413.31
382.409	383.31
382.634	402.31
382.86	409.31
383.085	415.31
383.31	403.31
383.535	416.31
383.761	409.31
383.986	401.31
384.211	407.31
384.436	445.31
384.662	424.31
384.887	426.31
385.112	439.31
385.337	448.31
385.562	445.31
385.787	434.31
386.013	444.31
386.238	430.31
386.463	439.31
386.688	458.31
386.913	437.31
387.138	432.31
387.363	440.31
387.588	442.31
387.813	448.31
388.038	433.31
388.263	440.31
388.488	447.31
388.713	434.31
388.938	455.31
389.163	435.31
389.387	444.31
389.612	451.31
389.837	426.31
390.062	423.31
390.287	416.31
390.512	427.31
390.736	445.31
390.961	435.31
391.186	430.31
391.411	439.31
391.636	442.31
391.86	441.31
392.085	459.31
392.31	431.31
392.534	432.31
392.759	458.31
392.984	474.31
393.208	428.31
393.433	428.31
393.658	438.31
393.882	422.31
394.107	437.31
394.331	446.31
394.556	449.31
394.78	435.31
395.005	430.31
395.229	445.31
395.454	455.31
395.678	443.31
395.903	463.31
396.127	488.31
396.352	473.31
396.576	457.31
396.801	453.31
397.025	458.31
397.249	451.31
397.474	478.31
397.698	471.31
397.922	511.31
398.147	499.31
398.371	481.31
398.595	508.31
398.82	474.31
399.044	515.31
399.268	525.31
399.492	564.31
399.717	600.31
399.941	624.31
400.165	612.31
400.389	623.31
400.613	554.31
400.837	529.31
401.062	489.31
401.286	511.31
401.51	508.31
401.734	488.31
401.958	527.31
402.182	494.31
402.406	509.31
402.63	517.31
402.854	507.31
403.078	516.31
403.302	536.31
403.526	526.31
403.75	527.31
403.974	519.31
404.198	512.31
404.422	536.31
404.645	530.31
404.869	517.31
405.093	559.31
405.317	592.31
405.541	601.31
405.765	560.31
405.988	530.31
406.212	515.31
406.436	541.31
406.66	555.31
406.883	559.31
407.107	567.31
407.331	603.31
407.555	669.31
407.778	666.31
408.002	620.31
408.226	591.31
408.449	558.31
408.673	568.31
408.896	580.31
409.12	629.31
409.344	603.31
409.567	526.31
409.791	511.31
410.014	537.31
410.238	496.31
410.461	519.31
410.685	525.31
410.908	547.31
411.132	542.31
411.355	594.31
411.578	567.31
411.802	530.31
412.025	537.31
412.249	537.31
412.472	556.31
412.695	578.31
412.919	550.31
413.142	523.31
413.365	507.31
413.589	524.31
413.812	490.31
414.035	479.31
414.258	502.31
414.482	490.31
414.705	488.31
414.928	488.31
415.151	500.31
415.374	502.31
415.597	486.31
415.821	486.31
416.044	496.31
416.267	523.31
416.49	484.31
416.713	473.31
416.936	493.31
417.159	484.31
417.382	473.31
417.605	474.31
417.828	513.31
418.051	503.31
418.274	479.31
418.497	495.31
418.72	503.31
418.943	497.31
419.166	496.31
419.389	528.31
419.611	552.31
419.834	538.31
420.057	508.31
420.28	534.31
420.503	486.31
420.726	522.31
420.948	500.31
421.171	564.31
421.394	580.31
421.617	514.31
421.839	512.31
422.062	519.31
422.285	536.31
422.507	565.31
422.73	624.31
422.953	641.31
423.175	545.31
423.398	516.31
423.621	505.31
423.843	555.31
424.066	553.31
424.288	534.31
424.511	547.31
424.733	594.31
424.956	657.31
425.178	620.31
425.401	645.31
425.623	627.31
425.846	574.31
426.068	535.31
426.291	537.31
426.513	538.31
426.735	516.31
426.958	584.31
427.18	663.31
427.402	735.31
427.625	827.31
427.847	677.31
428.069	589.31
428.292	558.31
428.514	520.31
428.736	489.31
428.958	499.31
429.181	478.31
429.403	496.31
429.625	476.31
429.847	515.31
430.069	590.31
430.292	573.31
430.514	496.31
430.736	496.31
430.958	461.31
431.18	465.31
431.402	473.31
431.624	466.31
431.846	451.31
432.068	462.31
432.29	477.31
432.512	473.31
432.734	480.31
432.956	488.31
433.178	471.31
433.4	482.31
433.622	470.31
433.844	474.31
434.066	453.31
434.287	464.31
434.509	476.31
434.731	495.31
434.953	486.31
435.175	524.31
435.397	551.31
435.618	531.31
435.84	561.31
436.062	644.31
436.284	684.31
436.505	588.31
436.727	522.31
436.949	501.31
437.17	492.31
437.392	488.31
437.614	501.31
437.835	517.31
438.057	588.31
438.278	657.31
438.5	678.31
438.721	732.31
438.943	735.31
439.165	577.31
439.386	524.31
439.608	503.31
439.829	515.31
440.05	546.31
440.272	557.31
440.493	552.31
440.715	518.31
440.936	503.31
441.158	500.31
441.379	503.31
441.6	541.31
441.822	553.31
442.043	551.31
442.264	624.31
442.486	654.31
442.707	584.31
442.928	541.31
443.149	544.31
443.371	554.31
443.592	580.31
443.813	656.31
444.034	741.31
444.255	626.31
444.476	559.31
444.698	551.31
444.919	579.31
445.14	676.31
445.361	593.31
445.582	577.31
445.803	611.31
446.024	703.31
446.245	707.31
446.466	622.31
446.687	547.31
446.908	533.31
447.129	517.31
447.35	468.31
447.571	481.31
447.792	461.31
448.013	471.31
448.234	503.31
448.455	524.31
448.675	627.31
448.896	739.31
449.117	644.31
449.338	584.31
449.559	654.31
449.779	776.31
450	625.31
450.221	512.31
450.442	497.31
450.662	484.31
450.883	461.31
451.104	461.31
451.324	478.31
451.545	464.31
451.766	461.31
451.986	444.31
452.207	445.31
452.428	427.31
452.648	419.31
452.869	432.31
453.089	445.31
453.31	447.31
453.53	446.31
453.751	403.31
453.971	406.31
454.192	421.31
454.412	411.31
454.633	425.31
454.853	407.31
455.073	419.31
455.294	447.31
455.514	486.31
455.734	505.31
455.955	448.31
456.175	437.31
456.395	429.31
456.616	404.31
456.836	412.31
457.056	404.31
457.276	396.31
457.497	407.31
457.717	423.31
457.937	438.31
458.157	416.31
458.377	429.31
458.598	432.31
458.818	483.31
459.038	532.31
459.258	575.31
459.478	518.31
459.698	477.31
459.918	466.31
460.138	488.31
460.358	492.31
460.578	498.31
460.798	499.31
461.018	490.31
461.238	484.31
461.458	497.31
461.678	456.31
461.898	504.31
462.118	501.31
462.338	525.31
462.558	505.31
462.777	517.31
462.997	544.31
463.217	572.31
463.437	559.31
463.657	544.31
463.876	527.31
464.096	537.31
464.316	544.31
464.536	526.31
464.755	512.31
464.975	517.31
465.195	541.31
465.414	563.31
465.634	525.31
465.854	517.31
466.073	481.31
466.293	477.31
466.512	462.31
466.732	451.31
466.951	447.31
467.171	462.31
467.391	445.31
467.61	456.31
467.829	467.31
468.049	475.31
468.268	442.31
468.488	448.31
468.707	444.31
468.927	429.31
469.146	442.31
469.365	444.31
469.585	439.31
469.804	464.31
470.023	476.31
470.243	460.31
470.462	461.31
470.681	471.31
470.901	484.31
471.12	443.31
471.339	473.31
471.558	467.31
471.777	466.31
471.997	436.31
472.216	470.31
472.435	492.31
472.654	453.31
472.873	446.31
473.092	452.31
473.311	450.31
473.53	444.31
473.749	437.31
473.968	458.31
474.187	554.31
474.406	582.31
474.625	503.31
474.844	468.31
475.063	483.31
475.282	462.31
475.501	459.31
475.72	464.31
475.939	453.31
476.158	473.31
476.377	468.31
476.596	447.31
476.814	477.31
477.033	474.31
477.252	495.31
477.471	489.31
477.69	473.31
477.908	494.31
478.127	494.31
478.346	527.31
478.564	503.31
478.783	503.31
479.002	525.31
479.22	537.31
479.439	535.31
479.658	523.31
479.876	551.31
480.095	544.31
480.313	567.31
480.532	552.31
480.751	553.31
480.969	560.31
481.188	578.31
481.406	582.31
481.624	538.31
481.843	521.31
482.061	537.31
482.28	530.31
482.498	527.31
482.717	510.31
482.935	523.31
483.153	540.31
483.372	544.31
483.59	527.31
483.808	529.31
484.027	504.31
484.245	543.31
484.463	548.31
484.681	539.31
484.9	535.31
485.118	536.31
485.336	540.31
485.554	551.31
485.772	557.31
485.99	545.31
486.209	555.31
486.427	538.31
486.645	560.31
486.863	576.31
487.081	570.31
487.299	556.31
487.517	545.31
487.735	535.31
487.953	549.31
488.171	566.31
488.389	564.31
488.607	545.31
488.825	571.31
489.043	569.31
489.261	549.31
489.479	584.31
489.696	557.31
489.914	555.31
490.132	582.31
490.35	604.31
490.568	607.31
490.786	606.31
491.003	614.31
491.221	598.31
491.439	630.31
491.657	637.31
491.874	639.31
492.092	625.31
492.31	653.31
492.527	665.31
492.745	649.31
492.963	659.31
493.18	643.31
493.398	650.31
493.615	664.31
493.833	647.31
494.05	662.31
494.268	652.31
494.485	655.31
494.703	642.31
494.92	642.31
495.138	638.31
495.355	657.31
495.573	651.31
495.79	686.31
496.008	661.31
496.225	661.31
496.442	652.31
496.66	663.31
496.877	675.31
497.094	691.31
497.312	668.31
497.529	663.31
497.746	680.31
497.963	687.31
498.181	733.31
498.398	733.31
498.615	745.31
498.832	775.31
499.049	807.31
499.267	827.31
499.484	867.31
499.701	907.31
499.918	949.31
500.135	1049.31
500.352	1047.31
500.569	1080.31
500.786	1079.31
501.003	1077.31
501.22	1019.31
501.437	987.31
501.654	900.31
