Data from 1976.PennyLincolnUp.Lamp.En5.5.200Scan.071719.P1.Changed Mount._HRD10591_16-01-02-861.txt Node
Date: Thu Jul 18 16:01:02 EDT 2019
User: cochatt
Spectrometer: HR+D1059
Trigger mode: 1
Integration Time (sec): 1.000000E-1
Scans to average: 1
Electric dark correction enabled: true
Nonlinearity correction enabled: false
Boxcar width: 0
XAxis mode: Wavelengths
Number of Pixels in Spectrum: 2048
>>>>>Begin Spectral Data<<<<<
223.165	-22.69
223.4	-22.69
223.635	-22.69
223.869	-17.69
224.104	-11.69
224.338	-12.69
224.573	-15.69
224.808	-1.69
225.042	3.31
225.277	-13.69
225.511	-9.69
225.746	19.31
225.98	-2.69
226.215	8.31
226.449	12.31
226.683	20.31
226.918	19.31
227.152	25.31
227.387	36.31
227.621	32.31
227.856	34.31
228.09	39.31
228.324	49.31
228.559	49.31
228.793	68.31
229.027	99.31
229.262	117.31
229.496	99.31
229.73	133.31
229.964	146.31
230.199	131.31
230.433	125.31
230.667	120.31
230.901	103.31
231.136	112.31
231.37	108.31
231.604	121.31
231.838	111.31
232.072	102.31
232.306	107.31
232.541	93.31
232.775	132.31
233.009	121.31
233.243	101.31
233.477	119.31
233.711	116.31
233.945	113.31
234.179	108.31
234.413	113.31
234.647	103.31
234.881	113.31
235.115	114.31
235.349	117.31
235.583	123.31
235.817	121.31
236.051	134.31
236.285	131.31
236.519	118.31
236.753	125.31
236.987	134.31
237.221	172.31
237.455	224.31
237.689	194.31
237.922	137.31
238.156	139.31
238.39	131.31
238.624	142.31
238.858	126.31
239.091	123.31
239.325	124.31
239.559	115.31
239.793	134.31
240.027	133.31
240.26	147.31
240.494	169.31
240.728	145.31
240.961	144.31
241.195	138.31
241.429	150.31
241.662	128.31
241.896	135.31
242.13	132.31
242.363	148.31
242.597	148.31
242.83	140.31
243.064	140.31
243.298	151.31
243.531	148.31
243.765	146.31
243.998	150.31
244.232	142.31
244.465	156.31
244.699	157.31
244.932	152.31
245.166	158.31
245.399	143.31
245.633	154.31
245.866	120.31
246.099	146.31
246.333	157.31
246.566	144.31
246.8	163.31
247.033	165.31
247.266	163.31
247.5	168.31
247.733	165.31
247.966	178.31
248.2	181.31
248.433	166.31
248.666	171.31
248.899	172.31
249.133	202.31
249.366	185.31
249.599	191.31
249.832	184.31
250.066	177.31
250.299	195.31
250.532	176.31
250.765	202.31
250.998	205.31
251.231	212.31
251.465	217.31
251.698	212.31
251.931	202.31
252.164	201.31
252.397	194.31
252.63	204.31
252.863	211.31
253.096	206.31
253.329	228.31
253.562	210.31
253.795	213.31
254.028	231.31
254.261	212.31
254.494	235.31
254.727	261.31
254.96	291.31
255.193	273.31
255.426	240.31
255.659	225.31
255.892	228.31
256.124	230.31
256.357	232.31
256.59	222.31
256.823	215.31
257.056	207.31
257.289	221.31
257.521	225.31
257.754	216.31
257.987	216.31
258.22	210.31
258.452	210.31
258.685	217.31
258.918	201.31
259.151	216.31
259.383	211.31
259.616	215.31
259.849	240.31
260.081	232.31
260.314	258.31
260.547	252.31
260.779	262.31
261.012	238.31
261.244	233.31
261.477	244.31
261.71	233.31
261.942	223.31
262.175	243.31
262.407	237.31
262.64	212.31
262.872	210.31
263.105	220.31
263.337	216.31
263.57	224.31
263.802	204.31
264.035	221.31
264.267	226.31
264.499	230.31
264.732	211.31
264.964	227.31
265.197	225.31
265.429	209.31
265.661	224.31
265.894	221.31
266.126	240.31
266.358	216.31
266.591	220.31
266.823	236.31
267.055	222.31
267.287	241.31
267.52	240.31
267.752	241.31
267.984	232.31
268.216	256.31
268.448	256.31
268.681	258.31
268.913	256.31
269.145	270.31
269.377	281.31
269.609	270.31
269.841	273.31
270.073	285.31
270.306	292.31
270.538	321.31
270.77	308.31
271.002	305.31
271.234	288.31
271.466	306.31
271.698	295.31
271.93	321.31
272.162	329.31
272.394	319.31
272.626	325.31
272.858	308.31
273.09	299.31
273.322	294.31
273.553	287.31
273.785	269.31
274.017	273.31
274.249	283.31
274.481	294.31
274.713	278.31
274.945	273.31
275.176	283.31
275.408	285.31
275.64	279.31
275.872	291.31
276.104	287.31
276.335	268.31
276.567	262.31
276.799	288.31
277.031	326.31
277.262	317.31
277.494	328.31
277.726	295.31
277.957	293.31
278.189	312.31
278.421	291.31
278.652	294.31
278.884	276.31
279.115	283.31
279.347	291.31
279.579	278.31
279.81	273.31
280.042	290.31
280.273	299.31
280.505	277.31
280.736	276.31
280.968	294.31
281.199	295.31
281.431	260.31
281.662	276.31
281.894	284.31
282.125	294.31
282.356	293.31
282.588	315.31
282.819	309.31
283.051	292.31
283.282	272.31
283.513	290.31
283.745	312.31
283.976	290.31
284.207	308.31
284.439	297.31
284.67	296.31
284.901	301.31
285.132	297.31
285.364	285.31
285.595	293.31
285.826	318.31
286.057	301.31
286.288	289.31
286.52	305.31
286.751	290.31
286.982	301.31
287.213	292.31
287.444	308.31
287.675	299.31
287.906	340.31
288.138	317.31
288.369	323.31
288.6	325.31
288.831	315.31
289.062	314.31
289.293	308.31
289.524	323.31
289.755	304.31
289.986	299.31
290.217	318.31
290.448	316.31
290.679	308.31
290.91	305.31
291.141	320.31
291.371	319.31
291.602	297.31
291.833	320.31
292.064	314.31
292.295	318.31
292.526	321.31
292.757	308.31
292.987	293.31
293.218	298.31
293.449	308.31
293.68	293.31
293.91	313.31
294.141	326.31
294.372	297.31
294.603	292.31
294.833	322.31
295.064	300.31
295.295	332.31
295.525	323.31
295.756	314.31
295.987	328.31
296.217	332.31
296.448	334.31
296.679	325.31
296.909	309.31
297.14	312.31
297.37	301.31
297.601	320.31
297.831	308.31
298.062	333.31
298.292	308.31
298.523	334.31
298.753	325.31
298.984	328.31
299.214	329.31
299.445	344.31
299.675	328.31
299.905	337.31
300.136	333.31
300.366	326.31
300.597	328.31
300.827	339.31
301.057	340.31
301.288	361.31
301.518	368.31
301.748	347.31
301.979	343.31
302.209	336.31
302.439	360.31
302.669	352.31
302.9	354.31
303.13	352.31
303.36	348.31
303.59	365.31
303.82	363.31
304.051	339.31
304.281	341.31
304.511	344.31
304.741	349.31
304.971	357.31
305.201	345.31
305.431	350.31
305.661	341.31
305.891	360.31
306.121	344.31
306.352	360.31
306.582	349.31
306.812	350.31
307.042	350.31
307.272	356.31
307.502	343.31
307.731	330.31
307.961	344.31
308.191	338.31
308.421	356.31
308.651	350.31
308.881	362.31
309.111	358.31
309.341	340.31
309.571	368.31
309.8	363.31
310.03	379.31
310.26	392.31
310.49	390.31
310.72	391.31
310.949	405.31
311.179	405.31
311.409	381.31
311.639	386.31
311.868	388.31
312.098	380.31
312.328	410.31
312.557	416.31
312.787	423.31
313.017	416.31
313.246	403.31
313.476	402.31
313.706	396.31
313.935	412.31
314.165	404.31
314.394	403.31
314.624	417.31
314.853	417.31
315.083	394.31
315.312	388.31
315.542	406.31
315.771	385.31
316.001	378.31
316.23	396.31
316.46	387.31
316.689	380.31
316.919	402.31
317.148	396.31
317.377	422.31
317.607	396.31
317.836	376.31
318.065	398.31
318.295	409.31
318.524	388.31
318.753	382.31
318.983	392.31
319.212	407.31
319.441	411.31
319.67	410.31
319.9	393.31
320.129	424.31
320.358	402.31
320.587	389.31
320.816	407.31
321.046	396.31
321.275	404.31
321.504	416.31
321.733	411.31
321.962	408.31
322.191	433.31
322.42	414.31
322.649	447.31
322.878	442.31
323.108	469.31
323.337	485.31
323.566	486.31
323.795	476.31
324.024	545.31
324.253	650.31
324.482	862.31
324.71	1339.31
324.939	1973.31
325.168	1671.31
325.397	866.31
325.626	598.31
325.855	529.31
326.084	476.31
326.313	492.31
326.542	485.31
326.77	531.31
326.999	601.31
327.228	801.31
327.457	1221.31
327.686	1479.31
327.914	974.31
328.143	673.31
328.372	613.31
328.6	569.31
328.829	542.31
329.058	541.31
329.287	577.31
329.515	535.31
329.744	505.31
329.972	504.31
330.201	541.31
330.43	557.31
330.658	611.31
330.887	599.31
331.115	563.31
331.344	523.31
331.572	497.31
331.801	487.31
332.03	479.31
332.258	481.31
332.486	483.31
332.715	458.31
332.943	461.31
333.172	480.31
333.4	488.31
333.629	497.31
333.857	499.31
334.085	504.31
334.314	523.31
334.542	555.31
334.771	578.31
334.999	528.31
335.227	524.31
335.455	475.31
335.684	483.31
335.912	454.31
336.14	481.31
336.369	468.31
336.597	482.31
336.825	493.31
337.053	468.31
337.281	467.31
337.51	452.31
337.738	469.31
337.966	451.31
338.194	459.31
338.422	463.31
338.65	453.31
338.878	470.31
339.106	460.31
339.334	460.31
339.562	449.31
339.79	448.31
340.018	456.31
340.246	458.31
340.474	449.31
340.702	470.31
340.93	439.31
341.158	441.31
341.386	432.31
341.614	458.31
341.842	469.31
342.07	436.31
342.298	432.31
342.526	436.31
342.754	447.31
342.981	446.31
343.209	441.31
343.437	446.31
343.665	459.31
343.893	458.31
344.12	477.31
344.348	482.31
344.576	477.31
344.804	475.31
345.031	469.31
345.259	478.31
345.487	448.31
345.714	446.31
345.942	450.31
346.17	442.31
346.397	438.31
346.625	432.31
346.853	441.31
347.08	429.31
347.308	430.31
347.535	425.31
347.763	460.31
347.99	427.31
348.218	432.31
348.445	453.31
348.673	449.31
348.9	420.31
349.128	398.31
349.355	403.31
349.583	411.31
349.81	417.31
350.037	401.31
350.265	419.31
350.492	427.31
350.72	424.31
350.947	440.31
351.174	425.31
351.402	442.31
351.629	424.31
351.856	434.31
352.083	454.31
352.311	430.31
352.538	440.31
352.765	433.31
352.992	442.31
353.22	439.31
353.447	439.31
353.674	428.31
353.901	422.31
354.128	409.31
354.355	423.31
354.583	399.31
354.81	405.31
355.037	396.31
355.264	411.31
355.491	399.31
355.718	402.31
355.945	406.31
356.172	419.31
356.399	416.31
356.626	405.31
356.853	421.31
357.08	417.31
357.307	412.31
357.534	406.31
357.761	409.31
357.988	401.31
358.215	417.31
358.441	415.31
358.668	400.31
358.895	430.31
359.122	421.31
359.349	442.31
359.576	416.31
359.802	454.31
360.029	444.31
360.256	452.31
360.483	447.31
360.709	448.31
360.936	421.31
361.163	437.31
361.39	448.31
361.616	412.31
361.843	437.31
362.07	443.31
362.296	421.31
362.523	412.31
362.749	414.31
362.976	435.31
363.203	430.31
363.429	421.31
363.656	412.31
363.882	415.31
364.109	398.31
364.335	416.31
364.562	408.31
364.788	407.31
365.015	399.31
365.241	415.31
365.468	422.31
365.694	413.31
365.92	414.31
366.147	410.31
366.373	410.31
366.599	410.31
366.826	416.31
367.052	409.31
367.278	422.31
367.505	411.31
367.731	408.31
367.957	420.31
368.184	396.31
368.41	400.31
368.636	433.31
368.862	427.31
369.089	423.31
369.315	405.31
369.541	394.31
369.767	397.31
369.993	412.31
370.219	425.31
370.445	429.31
370.672	434.31
370.898	406.31
371.124	406.31
371.35	421.31
371.576	424.31
371.802	410.31
372.028	400.31
372.254	414.31
372.48	407.31
372.706	438.31
372.932	428.31
373.158	417.31
373.384	424.31
373.61	432.31
373.835	429.31
374.061	409.31
374.287	410.31
374.513	427.31
374.739	436.31
374.965	441.31
375.191	428.31
375.416	447.31
375.642	428.31
375.868	448.31
376.094	417.31
376.319	421.31
376.545	430.31
376.771	409.31
376.997	418.31
377.222	410.31
377.448	409.31
377.674	409.31
377.899	412.31
378.125	401.31
378.35	407.31
378.576	417.31
378.802	405.31
379.027	424.31
379.253	419.31
379.478	417.31
379.704	435.31
379.929	424.31
380.155	423.31
380.38	424.31
380.606	404.31
380.831	413.31
381.057	434.31
381.282	409.31
381.507	428.31
381.733	432.31
381.958	426.31
382.184	445.31
382.409	444.31
382.634	423.31
382.86	432.31
383.085	437.31
383.31	447.31
383.535	437.31
383.761	449.31
383.986	445.31
384.211	456.31
384.436	448.31
384.662	451.31
384.887	466.31
385.112	466.31
385.337	470.31
385.562	458.31
385.787	502.31
386.013	492.31
386.238	477.31
386.463	452.31
386.688	483.31
386.913	471.31
387.138	462.31
387.363	473.31
387.588	452.31
387.813	465.31
388.038	453.31
388.263	475.31
388.488	468.31
388.713	490.31
388.938	456.31
389.163	460.31
389.387	463.31
389.612	448.31
389.837	465.31
390.062	475.31
390.287	454.31
390.512	466.31
390.736	461.31
390.961	480.31
391.186	478.31
391.411	481.31
391.636	472.31
391.86	484.31
392.085	482.31
392.31	485.31
392.534	478.31
392.759	475.31
392.984	483.31
393.208	446.31
393.433	502.31
393.658	472.31
393.882	456.31
394.107	486.31
394.331	498.31
394.556	483.31
394.78	466.31
395.005	484.31
395.229	474.31
395.454	503.31
395.678	498.31
395.903	476.31
396.127	519.31
396.352	528.31
396.576	514.31
396.801	484.31
397.025	484.31
397.249	474.31
397.474	508.31
397.698	498.31
397.922	518.31
398.147	537.31
398.371	553.31
398.595	533.31
398.82	534.31
399.044	565.31
399.268	580.31
399.492	605.31
399.717	688.31
399.941	680.31
400.165	682.31
400.389	700.31
400.613	635.31
400.837	578.31
401.062	558.31
401.286	602.31
401.51	565.31
401.734	556.31
401.958	526.31
402.182	539.31
402.406	562.31
402.63	557.31
402.854	550.31
403.078	556.31
403.302	562.31
403.526	589.31
403.75	568.31
403.974	575.31
404.198	560.31
404.422	583.31
404.645	590.31
404.869	601.31
405.093	624.31
405.317	665.31
405.541	678.31
405.765	640.31
405.988	592.31
406.212	607.31
406.436	605.31
406.66	635.31
406.883	609.31
407.107	650.31
407.331	684.31
407.555	772.31
407.778	761.31
408.002	665.31
408.226	636.31
408.449	628.31
408.673	635.31
408.896	658.31
409.12	684.31
409.344	636.31
409.567	600.31
409.791	576.31
410.014	580.31
410.238	579.31
410.461	594.31
410.685	581.31
410.908	586.31
411.132	634.31
411.355	654.31
411.578	619.31
411.802	578.31
412.025	536.31
412.249	566.31
412.472	601.31
412.695	621.31
412.919	624.31
413.142	578.31
413.365	562.31
413.589	570.31
413.812	540.31
414.035	542.31
414.258	526.31
414.482	536.31
414.705	564.31
414.928	549.31
415.151	544.31
415.374	529.31
415.597	537.31
415.821	549.31
416.044	523.31
416.267	532.31
416.49	532.31
416.713	513.31
416.936	538.31
417.159	537.31
417.382	555.31
417.605	540.31
417.828	541.31
418.051	560.31
418.274	528.31
418.497	521.31
418.72	542.31
418.943	545.31
419.166	557.31
419.389	592.31
419.611	582.31
419.834	605.31
420.057	593.31
420.28	568.31
420.503	560.31
420.726	561.31
420.948	577.31
421.171	611.31
421.394	621.31
421.617	574.31
421.839	545.31
422.062	560.31
422.285	552.31
422.507	626.31
422.73	718.31
422.953	703.31
423.175	612.31
423.398	588.31
423.621	593.31
423.843	610.31
424.066	606.31
424.288	603.31
424.511	635.31
424.733	651.31
424.956	744.31
425.178	703.31
425.401	717.31
425.623	757.31
425.846	652.31
426.068	595.31
426.291	586.31
426.513	586.31
426.735	573.31
426.958	634.31
427.18	710.31
427.402	834.31
427.625	922.31
427.847	794.31
428.069	682.31
428.292	643.31
428.514	577.31
428.736	593.31
428.958	547.31
429.181	560.31
429.403	549.31
429.625	544.31
429.847	562.31
430.069	658.31
430.292	636.31
430.514	545.31
430.736	525.31
430.958	520.31
431.18	527.31
431.402	523.31
431.624	497.31
431.846	499.31
432.068	500.31
432.29	518.31
432.512	530.31
432.734	540.31
432.956	519.31
433.178	544.31
433.4	544.31
433.622	527.31
433.844	522.31
434.066	494.31
434.287	523.31
434.509	509.31
434.731	541.31
434.953	542.31
435.175	553.31
435.397	584.31
435.618	608.31
435.84	616.31
436.062	712.31
436.284	775.31
436.505	648.31
436.727	577.31
436.949	565.31
437.17	550.31
437.392	526.31
437.614	554.31
437.835	563.31
438.057	672.31
438.278	768.31
438.5	800.31
438.721	834.31
438.943	812.31
439.165	681.31
439.386	608.31
439.608	587.31
439.829	588.31
440.05	632.31
440.272	658.31
440.493	625.31
440.715	555.31
440.936	566.31
441.158	561.31
441.379	562.31
441.6	573.31
441.822	587.31
442.043	625.31
442.264	705.31
442.486	746.31
442.707	631.31
442.928	606.31
443.149	616.31
443.371	640.31
443.592	650.31
443.813	738.31
444.034	852.31
444.255	692.31
444.476	643.31
444.698	613.31
444.919	630.31
445.14	754.31
445.361	677.31
445.582	631.31
445.803	682.31
446.024	789.31
446.245	781.31
446.466	729.31
446.687	628.31
446.908	592.31
447.129	536.31
447.35	521.31
447.571	537.31
447.792	531.31
448.013	556.31
448.234	539.31
448.455	596.31
448.675	709.31
448.896	852.31
449.117	718.31
449.338	668.31
449.559	761.31
449.779	894.31
450	715.31
450.221	588.31
450.442	536.31
450.662	519.31
450.883	522.31
451.104	528.31
451.324	519.31
451.545	494.31
451.766	495.31
451.986	471.31
452.207	479.31
452.428	470.31
452.648	503.31
452.869	500.31
453.089	483.31
453.31	488.31
453.53	486.31
453.751	473.31
453.971	492.31
454.192	482.31
454.412	478.31
454.633	484.31
454.853	464.31
455.073	470.31
455.294	499.31
455.514	562.31
455.734	546.31
455.955	483.31
456.175	458.31
456.395	442.31
456.616	438.31
456.836	449.31
457.056	468.31
457.276	459.31
457.497	475.31
457.717	444.31
457.937	447.31
458.157	461.31
458.377	465.31
458.598	482.31
458.818	545.31
459.038	610.31
459.258	640.31
459.478	561.31
459.698	516.31
459.918	521.31
460.138	524.31
460.358	528.31
460.578	534.31
460.798	519.31
461.018	532.31
461.238	539.31
461.458	558.31
461.678	527.31
461.898	528.31
462.118	552.31
462.338	554.31
462.558	565.31
462.777	572.31
462.997	602.31
463.217	616.31
463.437	597.31
463.657	611.31
463.876	590.31
464.096	585.31
464.316	586.31
464.536	594.31
464.755	580.31
464.975	595.31
465.195	582.31
465.414	602.31
465.634	597.31
465.854	540.31
466.073	539.31
466.293	486.31
466.512	505.31
466.732	499.31
466.951	500.31
467.171	479.31
467.391	487.31
467.61	499.31
467.829	505.31
468.049	511.31
468.268	502.31
468.488	496.31
468.707	478.31
468.927	486.31
469.146	486.31
469.365	475.31
469.585	461.31
469.804	504.31
470.023	507.31
470.243	521.31
470.462	515.31
470.681	524.31
470.901	533.31
471.12	516.31
471.339	500.31
471.558	489.31
471.777	514.31
471.997	510.31
472.216	501.31
472.435	534.31
472.654	510.31
472.873	507.31
473.092	485.31
473.311	490.31
473.53	506.31
473.749	484.31
473.968	532.31
474.187	613.31
474.406	677.31
474.625	554.31
474.844	511.31
475.063	491.31
475.282	493.31
475.501	517.31
475.72	517.31
475.939	500.31
476.158	520.31
476.377	538.31
476.596	521.31
476.814	514.31
477.033	531.31
477.252	525.31
477.471	521.31
477.69	546.31
477.908	549.31
478.127	551.31
478.346	539.31
478.564	570.31
478.783	555.31
479.002	599.31
479.22	589.31
479.439	600.31
479.658	588.31
479.876	601.31
480.095	640.31
480.313	630.31
480.532	617.31
480.751	603.31
480.969	641.31
481.188	670.31
481.406	696.31
481.624	613.31
481.843	592.31
482.061	600.31
482.28	589.31
482.498	574.31
482.717	590.31
482.935	561.31
483.153	605.31
483.372	583.31
483.59	579.31
483.808	579.31
484.027	563.31
484.245	590.31
484.463	591.31
484.681	590.31
484.9	578.31
485.118	602.31
485.336	600.31
485.554	625.31
485.772	611.31
485.99	590.31
486.209	626.31
486.427	596.31
486.645	613.31
486.863	613.31
487.081	625.31
487.299	630.31
487.517	601.31
487.735	593.31
487.953	616.31
488.171	597.31
488.389	606.31
488.607	610.31
488.825	612.31
489.043	617.31
489.261	632.31
489.479	638.31
489.696	625.31
489.914	618.31
490.132	635.31
490.35	660.31
490.568	620.31
490.786	646.31
491.003	660.31
491.221	662.31
491.439	700.31
491.657	700.31
491.874	699.31
492.092	708.31
492.31	741.31
492.527	749.31
492.745	704.31
492.963	729.31
493.18	726.31
493.398	730.31
493.615	729.31
493.833	752.31
494.05	732.31
494.268	700.31
494.485	718.31
494.703	704.31
494.92	714.31
495.138	708.31
495.355	744.31
495.573	738.31
495.79	713.31
496.008	745.31
496.225	732.31
496.442	729.31
496.66	760.31
496.877	732.31
497.094	736.31
497.312	742.31
497.529	754.31
497.746	756.31
497.963	772.31
498.181	809.31
498.398	841.31
498.615	832.31
498.832	866.31
499.049	890.31
499.267	924.31
499.484	953.31
499.701	992.31
499.918	997.31
500.135	1093.31
500.352	1152.31
500.569	1164.31
500.786	1196.31
501.003	1169.31
501.22	1139.31
501.437	1083.31
501.654	997.31
