Data from 1976.PennyLincolnUp.Lamp.En5.5.200Scan.071719.P1.Changed Mount._HRD10591_16-02-06-871.txt Node
Date: Thu Jul 18 16:02:06 EDT 2019
User: cochatt
Spectrometer: HR+D1059
Trigger mode: 1
Integration Time (sec): 1.000000E-1
Scans to average: 1
Electric dark correction enabled: true
Nonlinearity correction enabled: false
Boxcar width: 0
XAxis mode: Wavelengths
Number of Pixels in Spectrum: 2048
>>>>>Begin Spectral Data<<<<<
223.165	-3.44
223.4	-3.44
223.635	-3.44
223.869	-16.44
224.104	-11.44
224.338	-12.44
224.573	-30.44
224.808	-10.44
225.042	-1.44
225.277	-9.44
225.511	14.56
225.746	18.56
225.98	5.56
226.215	15.56
226.449	-7.44
226.683	14.56
226.918	17.56
227.152	16.56
227.387	26.56
227.621	34.56
227.856	49.56
228.09	49.56
228.324	58.56
228.559	57.56
228.793	57.56
229.027	87.56
229.262	100.56
229.496	97.56
229.73	117.56
229.964	137.56
230.199	116.56
230.433	110.56
230.667	107.56
230.901	115.56
231.136	105.56
231.37	110.56
231.604	113.56
231.838	119.56
232.072	107.56
232.306	112.56
232.541	97.56
232.775	107.56
233.009	101.56
233.243	92.56
233.477	110.56
233.711	107.56
233.945	116.56
234.179	120.56
234.413	119.56
234.647	125.56
234.881	130.56
235.115	125.56
235.349	110.56
235.583	116.56
235.817	118.56
236.051	118.56
236.285	124.56
236.519	120.56
236.753	127.56
236.987	139.56
237.221	187.56
237.455	254.56
237.689	199.56
237.922	138.56
238.156	124.56
238.39	131.56
238.624	110.56
238.858	126.56
239.091	123.56
239.325	103.56
239.559	132.56
239.793	120.56
240.027	128.56
240.26	151.56
240.494	145.56
240.728	165.56
240.961	149.56
241.195	147.56
241.429	131.56
241.662	141.56
241.896	146.56
242.13	151.56
242.363	134.56
242.597	144.56
242.83	134.56
243.064	162.56
243.298	155.56
243.531	149.56
243.765	136.56
243.998	134.56
244.232	148.56
244.465	130.56
244.699	148.56
244.932	136.56
245.166	155.56
245.399	155.56
245.633	154.56
245.866	158.56
246.099	133.56
246.333	153.56
246.566	155.56
246.8	149.56
247.033	153.56
247.266	176.56
247.5	166.56
247.733	150.56
247.966	163.56
248.2	168.56
248.433	183.56
248.666	178.56
248.899	204.56
249.133	201.56
249.366	211.56
249.599	199.56
249.832	182.56
250.066	172.56
250.299	176.56
250.532	189.56
250.765	203.56
250.998	212.56
251.231	220.56
251.465	210.56
251.698	216.56
251.931	202.56
252.164	210.56
252.397	203.56
252.63	204.56
252.863	207.56
253.096	214.56
253.329	204.56
253.562	238.56
253.795	220.56
254.028	224.56
254.261	216.56
254.494	211.56
254.727	260.56
254.96	285.56
255.193	266.56
255.426	247.56
255.659	231.56
255.892	233.56
256.124	238.56
256.357	224.56
256.59	222.56
256.823	231.56
257.056	230.56
257.289	217.56
257.521	214.56
257.754	209.56
257.987	227.56
258.22	215.56
258.452	200.56
258.685	205.56
258.918	194.56
259.151	228.56
259.383	219.56
259.616	210.56
259.849	227.56
260.081	238.56
260.314	275.56
260.547	275.56
260.779	252.56
261.012	257.56
261.244	249.56
261.477	226.56
261.71	224.56
261.942	216.56
262.175	233.56
262.407	244.56
262.64	226.56
262.872	220.56
263.105	239.56
263.337	224.56
263.57	208.56
263.802	228.56
264.035	219.56
264.267	227.56
264.499	214.56
264.732	218.56
264.964	215.56
265.197	216.56
265.429	209.56
265.661	226.56
265.894	231.56
266.126	224.56
266.358	240.56
266.591	216.56
266.823	241.56
267.055	254.56
267.287	242.56
267.52	242.56
267.752	242.56
267.984	238.56
268.216	243.56
268.448	249.56
268.681	258.56
268.913	253.56
269.145	275.56
269.377	270.56
269.609	303.56
269.841	296.56
270.073	299.56
270.306	308.56
270.538	322.56
270.77	329.56
271.002	319.56
271.234	296.56
271.466	313.56
271.698	316.56
271.93	331.56
272.162	330.56
272.394	322.56
272.626	301.56
272.858	307.56
273.09	292.56
273.322	292.56
273.553	280.56
273.785	283.56
274.017	280.56
274.249	286.56
274.481	291.56
274.713	286.56
274.945	290.56
275.176	296.56
275.408	276.56
275.64	279.56
275.872	264.56
276.104	267.56
276.335	272.56
276.567	302.56
276.799	295.56
277.031	320.56
277.262	334.56
277.494	328.56
277.726	318.56
277.957	304.56
278.189	288.56
278.421	300.56
278.652	259.56
278.884	280.56
279.115	294.56
279.347	307.56
279.579	302.56
279.81	290.56
280.042	274.56
280.273	305.56
280.505	275.56
280.736	273.56
280.968	280.56
281.199	277.56
281.431	293.56
281.662	283.56
281.894	274.56
282.125	287.56
282.356	298.56
282.588	307.56
282.819	321.56
283.051	308.56
283.282	305.56
283.513	290.56
283.745	281.56
283.976	304.56
284.207	299.56
284.439	294.56
284.67	298.56
284.901	316.56
285.132	302.56
285.364	283.56
285.595	321.56
285.826	296.56
286.057	299.56
286.288	296.56
286.52	308.56
286.751	305.56
286.982	318.56
287.213	319.56
287.444	311.56
287.675	322.56
287.906	323.56
288.138	336.56
288.369	344.56
288.6	320.56
288.831	320.56
289.062	311.56
289.293	318.56
289.524	296.56
289.755	309.56
289.986	312.56
290.217	310.56
290.448	308.56
290.679	318.56
290.91	293.56
291.141	303.56
291.371	316.56
291.602	326.56
291.833	298.56
292.064	323.56
292.295	318.56
292.526	307.56
292.757	327.56
292.987	333.56
293.218	325.56
293.449	315.56
293.68	314.56
293.91	336.56
294.141	312.56
294.372	330.56
294.603	316.56
294.833	310.56
295.064	337.56
295.295	319.56
295.525	316.56
295.756	329.56
295.987	333.56
296.217	322.56
296.448	338.56
296.679	330.56
296.909	331.56
297.14	319.56
297.37	325.56
297.601	303.56
297.831	315.56
298.062	315.56
298.292	327.56
298.523	349.56
298.753	339.56
298.984	328.56
299.214	325.56
299.445	318.56
299.675	313.56
299.905	321.56
300.136	331.56
300.366	333.56
300.597	347.56
300.827	338.56
301.057	349.56
301.288	351.56
301.518	353.56
301.748	349.56
301.979	364.56
302.209	361.56
302.439	381.56
302.669	369.56
302.9	343.56
303.13	326.56
303.36	362.56
303.59	359.56
303.82	348.56
304.051	352.56
304.281	346.56
304.511	347.56
304.741	370.56
304.971	361.56
305.201	361.56
305.431	330.56
305.661	346.56
305.891	360.56
306.121	350.56
306.352	370.56
306.582	360.56
306.812	362.56
307.042	361.56
307.272	354.56
307.502	351.56
307.731	359.56
307.961	366.56
308.191	360.56
308.421	355.56
308.651	376.56
308.881	378.56
309.111	359.56
309.341	361.56
309.571	367.56
309.8	394.56
310.03	374.56
310.26	378.56
310.49	372.56
310.72	412.56
310.949	415.56
311.179	412.56
311.409	390.56
311.639	385.56
311.868	384.56
312.098	404.56
312.328	378.56
312.557	431.56
312.787	418.56
313.017	424.56
313.246	422.56
313.476	411.56
313.706	422.56
313.935	397.56
314.165	415.56
314.394	423.56
314.624	412.56
314.853	432.56
315.083	400.56
315.312	411.56
315.542	372.56
315.771	383.56
316.001	393.56
316.23	382.56
316.46	390.56
316.689	390.56
316.919	400.56
317.148	395.56
317.377	420.56
317.607	393.56
317.836	403.56
318.065	394.56
318.295	384.56
318.524	392.56
318.753	392.56
318.983	393.56
319.212	386.56
319.441	423.56
319.67	380.56
319.9	395.56
320.129	394.56
320.358	412.56
320.587	403.56
320.816	408.56
321.046	411.56
321.275	439.56
321.504	408.56
321.733	397.56
321.962	436.56
322.191	430.56
322.42	438.56
322.649	456.56
322.878	458.56
323.108	466.56
323.337	474.56
323.566	498.56
323.795	522.56
324.024	539.56
324.253	638.56
324.482	866.56
324.71	1367.56
324.939	2044.56
325.168	1778.56
325.397	902.56
325.626	615.56
325.855	530.56
326.084	482.56
326.313	486.56
326.542	515.56
326.77	518.56
326.999	608.56
327.228	840.56
327.457	1243.56
327.686	1560.56
327.914	1027.56
328.143	670.56
328.372	610.56
328.6	569.56
328.829	570.56
329.058	534.56
329.287	566.56
329.515	550.56
329.744	525.56
329.972	519.56
330.201	539.56
330.43	560.56
330.658	581.56
330.887	610.56
331.115	603.56
331.344	514.56
331.572	505.56
331.801	512.56
332.03	511.56
332.258	488.56
332.486	500.56
332.715	486.56
332.943	498.56
333.172	485.56
333.4	460.56
333.629	504.56
333.857	522.56
334.085	543.56
334.314	532.56
334.542	560.56
334.771	571.56
334.999	547.56
335.227	517.56
335.455	491.56
335.684	484.56
335.912	506.56
336.14	482.56
336.369	475.56
336.597	479.56
336.825	505.56
337.053	484.56
337.281	461.56
337.51	464.56
337.738	483.56
337.966	467.56
338.194	473.56
338.422	491.56
338.65	485.56
338.878	472.56
339.106	467.56
339.334	469.56
339.562	468.56
339.79	462.56
340.018	464.56
340.246	437.56
340.474	460.56
340.702	473.56
340.93	454.56
341.158	440.56
341.386	449.56
341.614	474.56
341.842	449.56
342.07	465.56
342.298	454.56
342.526	440.56
342.754	423.56
342.981	455.56
343.209	452.56
343.437	450.56
343.665	463.56
343.893	471.56
344.12	482.56
344.348	461.56
344.576	465.56
344.804	467.56
345.031	454.56
345.259	487.56
345.487	478.56
345.714	472.56
345.942	444.56
346.17	462.56
346.397	425.56
346.625	427.56
346.853	418.56
347.08	414.56
347.308	449.56
347.535	432.56
347.763	454.56
347.99	466.56
348.218	462.56
348.445	453.56
348.673	454.56
348.9	419.56
349.128	421.56
349.355	419.56
349.583	411.56
349.81	405.56
350.037	433.56
350.265	409.56
350.492	434.56
350.72	465.56
350.947	434.56
351.174	441.56
351.402	442.56
351.629	443.56
351.856	422.56
352.083	446.56
352.311	432.56
352.538	443.56
352.765	458.56
352.992	444.56
353.22	423.56
353.447	414.56
353.674	412.56
353.901	427.56
354.128	410.56
354.355	408.56
354.583	436.56
354.81	424.56
355.037	442.56
355.264	407.56
355.491	403.56
355.718	411.56
355.945	412.56
356.172	406.56
356.399	428.56
356.626	408.56
356.853	397.56
357.08	391.56
357.307	411.56
357.534	421.56
357.761	396.56
357.988	430.56
358.215	401.56
358.441	423.56
358.668	405.56
358.895	420.56
359.122	428.56
359.349	419.56
359.576	444.56
359.802	466.56
360.029	458.56
360.256	483.56
360.483	449.56
360.709	443.56
360.936	436.56
361.163	423.56
361.39	450.56
361.616	432.56
361.843	425.56
362.07	424.56
362.296	404.56
362.523	436.56
362.749	432.56
362.976	433.56
363.203	435.56
363.429	420.56
363.656	447.56
363.882	420.56
364.109	436.56
364.335	412.56
364.562	421.56
364.788	422.56
365.015	411.56
365.241	432.56
365.468	426.56
365.694	418.56
365.92	432.56
366.147	416.56
366.373	397.56
366.599	421.56
366.826	412.56
367.052	402.56
367.278	406.56
367.505	412.56
367.731	432.56
367.957	435.56
368.184	439.56
368.41	422.56
368.636	439.56
368.862	433.56
369.089	444.56
369.315	449.56
369.541	408.56
369.767	415.56
369.993	422.56
370.219	418.56
370.445	415.56
370.672	418.56
370.898	427.56
371.124	432.56
371.35	427.56
371.576	426.56
371.802	411.56
372.028	425.56
372.254	443.56
372.48	445.56
372.706	410.56
372.932	425.56
373.158	436.56
373.384	426.56
373.61	430.56
373.835	422.56
374.061	419.56
374.287	433.56
374.513	424.56
374.739	440.56
374.965	420.56
375.191	435.56
375.416	421.56
375.642	444.56
375.868	432.56
376.094	432.56
376.319	424.56
376.545	409.56
376.771	439.56
376.997	414.56
377.222	439.56
377.448	432.56
377.674	420.56
377.899	394.56
378.125	426.56
378.35	428.56
378.576	416.56
378.802	412.56
379.027	424.56
379.253	410.56
379.478	415.56
379.704	405.56
379.929	427.56
380.155	420.56
380.38	417.56
380.606	410.56
380.831	425.56
381.057	433.56
381.282	422.56
381.507	418.56
381.733	424.56
381.958	418.56
382.184	436.56
382.409	458.56
382.634	459.56
382.86	446.56
383.085	442.56
383.31	434.56
383.535	436.56
383.761	439.56
383.986	446.56
384.211	448.56
384.436	426.56
384.662	462.56
384.887	456.56
385.112	443.56
385.337	466.56
385.562	474.56
385.787	472.56
386.013	456.56
386.238	489.56
386.463	480.56
386.688	480.56
386.913	462.56
387.138	482.56
387.363	467.56
387.588	469.56
387.813	479.56
388.038	470.56
388.263	478.56
388.488	494.56
388.713	496.56
388.938	474.56
389.163	482.56
389.387	448.56
389.612	458.56
389.837	481.56
390.062	478.56
390.287	486.56
390.512	472.56
390.736	459.56
390.961	467.56
391.186	487.56
391.411	481.56
391.636	481.56
391.86	485.56
392.085	498.56
392.31	497.56
392.534	483.56
392.759	491.56
392.984	481.56
393.208	464.56
393.433	498.56
393.658	458.56
393.882	466.56
394.107	462.56
394.331	465.56
394.556	484.56
394.78	486.56
395.005	464.56
395.229	478.56
395.454	488.56
395.678	474.56
395.903	513.56
396.127	525.56
396.352	519.56
396.576	526.56
396.801	508.56
397.025	486.56
397.249	510.56
397.474	515.56
397.698	538.56
397.922	544.56
398.147	542.56
398.371	562.56
398.595	518.56
398.82	559.56
399.044	578.56
399.268	578.56
399.492	623.56
399.717	651.56
399.941	711.56
400.165	698.56
400.389	686.56
400.613	625.56
400.837	574.56
401.062	559.56
401.286	548.56
401.51	534.56
401.734	545.56
401.958	577.56
402.182	578.56
402.406	596.56
402.63	556.56
402.854	556.56
403.078	566.56
403.302	586.56
403.526	588.56
403.75	590.56
403.974	598.56
404.198	592.56
404.422	583.56
404.645	575.56
404.869	581.56
405.093	628.56
405.317	683.56
405.541	694.56
405.765	632.56
405.988	607.56
406.212	595.56
406.436	613.56
406.66	649.56
406.883	611.56
407.107	643.56
407.331	692.56
407.555	768.56
407.778	784.56
408.002	707.56
408.226	634.56
408.449	650.56
408.673	628.56
408.896	668.56
409.12	696.56
409.344	672.56
409.567	624.56
409.791	604.56
410.014	591.56
410.238	555.56
410.461	604.56
410.685	584.56
410.908	591.56
411.132	634.56
411.355	672.56
411.578	638.56
411.802	603.56
412.025	577.56
412.249	582.56
412.472	586.56
412.695	634.56
412.919	632.56
413.142	607.56
413.365	557.56
413.589	554.56
413.812	567.56
414.035	538.56
414.258	540.56
414.482	537.56
414.705	553.56
414.928	544.56
415.151	551.56
415.374	543.56
415.597	545.56
415.821	551.56
416.044	523.56
416.267	543.56
416.49	528.56
416.713	544.56
416.936	539.56
417.159	538.56
417.382	543.56
417.605	562.56
417.828	564.56
418.051	539.56
418.274	550.56
418.497	546.56
418.72	539.56
418.943	545.56
419.166	589.56
419.389	580.56
419.611	580.56
419.834	571.56
420.057	583.56
420.28	569.56
420.503	578.56
420.726	546.56
420.948	603.56
421.171	615.56
421.394	649.56
421.617	588.56
421.839	578.56
422.062	577.56
422.285	580.56
422.507	624.56
422.73	719.56
422.953	705.56
423.175	611.56
423.398	578.56
423.621	572.56
423.843	605.56
424.066	617.56
424.288	596.56
424.511	632.56
424.733	664.56
424.956	742.56
425.178	682.56
425.401	693.56
425.623	722.56
425.846	645.56
426.068	596.56
426.291	591.56
426.513	574.56
426.735	605.56
426.958	599.56
427.18	726.56
427.402	878.56
427.625	933.56
427.847	786.56
428.069	699.56
428.292	642.56
428.514	604.56
428.736	572.56
428.958	555.56
429.181	545.56
429.403	530.56
429.625	560.56
429.847	599.56
430.069	665.56
430.292	642.56
430.514	550.56
430.736	544.56
430.958	533.56
431.18	549.56
431.402	512.56
431.624	543.56
431.846	510.56
432.068	484.56
432.29	519.56
432.512	530.56
432.734	544.56
432.956	531.56
433.178	530.56
433.4	549.56
433.622	548.56
433.844	506.56
434.066	520.56
434.287	543.56
434.509	544.56
434.731	538.56
434.953	559.56
435.175	543.56
435.397	579.56
435.618	601.56
435.84	631.56
436.062	716.56
436.284	786.56
436.505	674.56
436.727	595.56
436.949	574.56
437.17	552.56
437.392	549.56
437.614	576.56
437.835	568.56
438.057	684.56
438.278	782.56
438.5	759.56
438.721	882.56
438.943	836.56
439.165	653.56
439.386	611.56
439.608	597.56
439.829	571.56
440.05	611.56
440.272	650.56
440.493	610.56
440.715	571.56
440.936	563.56
441.158	566.56
441.379	571.56
441.6	571.56
441.822	588.56
442.043	638.56
442.264	729.56
442.486	740.56
442.707	634.56
442.928	595.56
443.149	611.56
443.371	638.56
443.592	674.56
443.813	801.56
444.034	851.56
444.255	707.56
444.476	647.56
444.698	614.56
444.919	612.56
445.14	713.56
445.361	686.56
445.582	642.56
445.803	709.56
446.024	801.56
446.245	819.56
446.466	750.56
446.687	652.56
446.908	572.56
447.129	547.56
447.35	512.56
447.571	561.56
447.792	540.56
448.013	550.56
448.234	551.56
448.455	616.56
448.675	715.56
448.896	836.56
449.117	733.56
449.338	686.56
449.559	757.56
449.779	868.56
450	710.56
450.221	600.56
450.442	545.56
450.662	535.56
450.883	542.56
451.104	539.56
451.324	528.56
451.545	526.56
451.766	513.56
451.986	487.56
452.207	469.56
452.428	489.56
452.648	456.56
452.869	479.56
453.089	484.56
453.31	503.56
453.53	476.56
453.751	479.56
453.971	471.56
454.192	509.56
454.412	477.56
454.633	467.56
454.853	472.56
455.073	476.56
455.294	523.56
455.514	563.56
455.734	569.56
455.955	490.56
456.175	479.56
456.395	462.56
456.616	487.56
456.836	440.56
457.056	446.56
457.276	443.56
457.497	474.56
457.717	465.56
457.937	466.56
458.157	458.56
458.377	474.56
458.598	481.56
458.818	529.56
459.038	599.56
459.258	625.56
459.478	539.56
459.698	550.56
459.918	524.56
460.138	531.56
460.358	544.56
460.578	534.56
460.798	555.56
461.018	558.56
461.238	516.56
461.458	536.56
461.678	547.56
461.898	547.56
462.118	550.56
462.338	562.56
462.558	536.56
462.777	586.56
462.997	597.56
463.217	619.56
463.437	628.56
463.657	598.56
463.876	594.56
464.096	605.56
464.316	606.56
464.536	586.56
464.755	582.56
464.975	589.56
465.195	594.56
465.414	636.56
465.634	579.56
465.854	537.56
466.073	528.56
466.293	512.56
466.512	514.56
466.732	497.56
466.951	487.56
467.171	496.56
467.391	483.56
467.61	510.56
467.829	522.56
468.049	512.56
468.268	505.56
468.488	489.56
468.707	488.56
468.927	476.56
469.146	483.56
469.365	492.56
469.585	494.56
469.804	530.56
470.023	512.56
470.243	516.56
470.462	522.56
470.681	528.56
470.901	520.56
471.12	500.56
471.339	489.56
471.558	475.56
471.777	501.56
471.997	517.56
472.216	500.56
472.435	536.56
472.654	522.56
472.873	503.56
473.092	482.56
473.311	500.56
473.53	496.56
473.749	529.56
473.968	559.56
474.187	636.56
474.406	674.56
474.625	562.56
474.844	525.56
475.063	522.56
475.282	502.56
475.501	505.56
475.72	522.56
475.939	509.56
476.158	520.56
476.377	524.56
476.596	527.56
476.814	542.56
477.033	520.56
477.252	528.56
477.471	534.56
477.69	539.56
477.908	551.56
478.127	563.56
478.346	556.56
478.564	559.56
478.783	583.56
479.002	580.56
479.22	570.56
479.439	602.56
479.658	599.56
479.876	616.56
480.095	609.56
480.313	648.56
480.532	635.56
480.751	617.56
480.969	598.56
481.188	694.56
481.406	686.56
481.624	618.56
481.843	598.56
482.061	587.56
482.28	584.56
482.498	606.56
482.717	576.56
482.935	592.56
483.153	584.56
483.372	576.56
483.59	589.56
483.808	580.56
484.027	600.56
484.245	571.56
484.463	584.56
484.681	606.56
484.9	603.56
485.118	615.56
485.336	604.56
485.554	606.56
485.772	596.56
485.99	614.56
486.209	612.56
486.427	602.56
486.645	610.56
486.863	627.56
487.081	630.56
487.299	620.56
487.517	620.56
487.735	622.56
487.953	660.56
488.171	626.56
488.389	641.56
488.607	637.56
488.825	651.56
489.043	635.56
489.261	643.56
489.479	620.56
489.696	638.56
489.914	642.56
490.132	649.56
490.35	653.56
490.568	650.56
490.786	664.56
491.003	680.56
491.221	708.56
491.439	691.56
491.657	721.56
491.874	709.56
492.092	711.56
492.31	735.56
492.527	720.56
492.745	727.56
492.963	715.56
493.18	719.56
493.398	738.56
493.615	739.56
493.833	736.56
494.05	745.56
494.268	730.56
494.485	722.56
494.703	704.56
494.92	734.56
495.138	734.56
495.355	752.56
495.573	762.56
495.79	738.56
496.008	758.56
496.225	739.56
496.442	726.56
496.66	759.56
496.877	731.56
497.094	755.56
497.312	760.56
497.529	769.56
497.746	788.56
497.963	812.56
498.181	809.56
498.398	857.56
498.615	851.56
498.832	888.56
499.049	894.56
499.267	917.56
499.484	958.56
499.701	1003.56
499.918	1035.56
500.135	1103.56
500.352	1174.56
500.569	1189.56
500.786	1204.56
501.003	1198.56
501.22	1167.56
501.437	1087.56
501.654	1010.56
