Data from 1976.PennyLincolnUp.Lamp.En5.5.200Scan.071719.P1.Changed Mount._HRD10591_16-00-51-861.txt Node
Date: Thu Jul 18 16:00:51 EDT 2019
User: cochatt
Spectrometer: HR+D1059
Trigger mode: 1
Integration Time (sec): 1.000000E-1
Scans to average: 1
Electric dark correction enabled: true
Nonlinearity correction enabled: false
Boxcar width: 0
XAxis mode: Wavelengths
Number of Pixels in Spectrum: 2048
>>>>>Begin Spectral Data<<<<<
223.165	-22.44
223.4	-22.44
223.635	-22.44
223.869	-25.44
224.104	-30.44
224.338	-22.44
224.573	-12.44
224.808	-6.44
225.042	1.56
225.277	-7.44
225.511	-3.44
225.746	4.56
225.98	10.56
226.215	18.56
226.449	20.56
226.683	20.56
226.918	22.56
227.152	31.56
227.387	39.56
227.621	42.56
227.856	43.56
228.09	38.56
228.324	42.56
228.559	52.56
228.793	54.56
229.027	80.56
229.262	106.56
229.496	119.56
229.73	114.56
229.964	145.56
230.199	143.56
230.433	119.56
230.667	103.56
230.901	108.56
231.136	103.56
231.37	117.56
231.604	120.56
231.838	130.56
232.072	103.56
232.306	109.56
232.541	103.56
232.775	122.56
233.009	132.56
233.243	124.56
233.477	118.56
233.711	117.56
233.945	133.56
234.179	122.56
234.413	136.56
234.647	114.56
234.881	123.56
235.115	118.56
235.349	119.56
235.583	119.56
235.817	131.56
236.051	107.56
236.285	132.56
236.519	128.56
236.753	120.56
236.987	142.56
237.221	179.56
237.455	212.56
237.689	172.56
237.922	138.56
238.156	120.56
238.39	129.56
238.624	134.56
238.858	132.56
239.091	124.56
239.325	135.56
239.559	124.56
239.793	130.56
240.027	129.56
240.26	131.56
240.494	151.56
240.728	148.56
240.961	158.56
241.195	152.56
241.429	146.56
241.662	136.56
241.896	124.56
242.13	132.56
242.363	145.56
242.597	134.56
242.83	110.56
243.064	154.56
243.298	144.56
243.531	139.56
243.765	148.56
243.998	143.56
244.232	139.56
244.465	126.56
244.699	138.56
244.932	148.56
245.166	161.56
245.399	150.56
245.633	164.56
245.866	168.56
246.099	150.56
246.333	164.56
246.566	162.56
246.8	161.56
247.033	170.56
247.266	160.56
247.5	167.56
247.733	175.56
247.966	182.56
248.2	164.56
248.433	155.56
248.666	175.56
248.899	185.56
249.133	195.56
249.366	194.56
249.599	185.56
249.832	194.56
250.066	201.56
250.299	194.56
250.532	190.56
250.765	200.56
250.998	219.56
251.231	218.56
251.465	206.56
251.698	199.56
251.931	209.56
252.164	184.56
252.397	202.56
252.63	194.56
252.863	192.56
253.096	214.56
253.329	220.56
253.562	210.56
253.795	220.56
254.028	223.56
254.261	206.56
254.494	227.56
254.727	247.56
254.96	267.56
255.193	286.56
255.426	252.56
255.659	226.56
255.892	240.56
256.124	226.56
256.357	253.56
256.59	227.56
256.823	220.56
257.056	213.56
257.289	208.56
257.521	207.56
257.754	208.56
257.987	228.56
258.22	206.56
258.452	209.56
258.685	207.56
258.918	193.56
259.151	215.56
259.383	223.56
259.616	218.56
259.849	224.56
260.081	246.56
260.314	242.56
260.547	247.56
260.779	249.56
261.012	236.56
261.244	221.56
261.477	238.56
261.71	209.56
261.942	219.56
262.175	223.56
262.407	209.56
262.64	221.56
262.872	221.56
263.105	212.56
263.337	214.56
263.57	199.56
263.802	234.56
264.035	226.56
264.267	210.56
264.499	209.56
264.732	218.56
264.964	223.56
265.197	226.56
265.429	221.56
265.661	201.56
265.894	229.56
266.126	241.56
266.358	233.56
266.591	223.56
266.823	223.56
267.055	234.56
267.287	243.56
267.52	235.56
267.752	238.56
267.984	239.56
268.216	227.56
268.448	261.56
268.681	254.56
268.913	237.56
269.145	258.56
269.377	272.56
269.609	276.56
269.841	255.56
270.073	264.56
270.306	308.56
270.538	312.56
270.77	287.56
271.002	301.56
271.234	290.56
271.466	293.56
271.698	297.56
271.93	303.56
272.162	313.56
272.394	322.56
272.626	302.56
272.858	309.56
273.09	275.56
273.322	276.56
273.553	257.56
273.785	278.56
274.017	278.56
274.249	271.56
274.481	276.56
274.713	277.56
274.945	280.56
275.176	291.56
275.408	256.56
275.64	265.56
275.872	294.56
276.104	265.56
276.335	270.56
276.567	276.56
276.799	300.56
277.031	300.56
277.262	322.56
277.494	299.56
277.726	330.56
277.957	307.56
278.189	290.56
278.421	265.56
278.652	273.56
278.884	278.56
279.115	255.56
279.347	294.56
279.579	284.56
279.81	296.56
280.042	277.56
280.273	271.56
280.505	284.56
280.736	283.56
280.968	276.56
281.199	278.56
281.431	287.56
281.662	290.56
281.894	271.56
282.125	298.56
282.356	292.56
282.588	311.56
282.819	306.56
283.051	319.56
283.282	293.56
283.513	290.56
283.745	282.56
283.976	277.56
284.207	303.56
284.439	293.56
284.67	306.56
284.901	293.56
285.132	286.56
285.364	292.56
285.595	288.56
285.826	285.56
286.057	306.56
286.288	290.56
286.52	305.56
286.751	302.56
286.982	319.56
287.213	296.56
287.444	312.56
287.675	295.56
287.906	318.56
288.138	326.56
288.369	322.56
288.6	312.56
288.831	317.56
289.062	308.56
289.293	303.56
289.524	325.56
289.755	318.56
289.986	312.56
290.217	309.56
290.448	298.56
290.679	310.56
290.91	303.56
291.141	313.56
291.371	325.56
291.602	308.56
291.833	308.56
292.064	333.56
292.295	306.56
292.526	308.56
292.757	291.56
292.987	300.56
293.218	320.56
293.449	317.56
293.68	317.56
293.91	304.56
294.141	294.56
294.372	331.56
294.603	312.56
294.833	304.56
295.064	310.56
295.295	329.56
295.525	312.56
295.756	315.56
295.987	319.56
296.217	319.56
296.448	348.56
296.679	335.56
296.909	322.56
297.14	315.56
297.37	318.56
297.601	330.56
297.831	338.56
298.062	323.56
298.292	330.56
298.523	319.56
298.753	320.56
298.984	318.56
299.214	327.56
299.445	326.56
299.675	335.56
299.905	350.56
300.136	318.56
300.366	332.56
300.597	318.56
300.827	342.56
301.057	332.56
301.288	340.56
301.518	344.56
301.748	358.56
301.979	351.56
302.209	346.56
302.439	347.56
302.669	338.56
302.9	360.56
303.13	336.56
303.36	349.56
303.59	348.56
303.82	357.56
304.051	329.56
304.281	336.56
304.511	337.56
304.741	360.56
304.971	341.56
305.201	336.56
305.431	332.56
305.661	356.56
305.891	351.56
306.121	343.56
306.352	354.56
306.582	343.56
306.812	324.56
307.042	359.56
307.272	355.56
307.502	355.56
307.731	354.56
307.961	341.56
308.191	355.56
308.421	358.56
308.651	334.56
308.881	357.56
309.111	365.56
309.341	339.56
309.571	358.56
309.8	360.56
310.03	358.56
310.26	371.56
310.49	373.56
310.72	379.56
310.949	391.56
311.179	363.56
311.409	394.56
311.639	389.56
311.868	380.56
312.098	385.56
312.328	384.56
312.557	403.56
312.787	403.56
313.017	397.56
313.246	378.56
313.476	370.56
313.706	380.56
313.935	383.56
314.165	408.56
314.394	394.56
314.624	392.56
314.853	386.56
315.083	394.56
315.312	383.56
315.542	397.56
315.771	383.56
316.001	401.56
316.23	370.56
316.46	392.56
316.689	411.56
316.919	390.56
317.148	385.56
317.377	391.56
317.607	392.56
317.836	378.56
318.065	374.56
318.295	382.56
318.524	395.56
318.753	400.56
318.983	387.56
319.212	395.56
319.441	379.56
319.67	397.56
319.9	387.56
320.129	385.56
320.358	386.56
320.587	400.56
320.816	374.56
321.046	386.56
321.275	392.56
321.504	396.56
321.733	386.56
321.962	396.56
322.191	400.56
322.42	412.56
322.649	429.56
322.878	452.56
323.108	436.56
323.337	456.56
323.566	475.56
323.795	488.56
324.024	535.56
324.253	602.56
324.482	807.56
324.71	1276.56
324.939	1822.56
325.168	1594.56
325.397	846.56
325.626	583.56
325.855	522.56
326.084	486.56
326.313	466.56
326.542	474.56
326.77	514.56
326.999	604.56
327.228	759.56
327.457	1134.56
327.686	1394.56
327.914	944.56
328.143	654.56
328.372	582.56
328.6	557.56
328.829	534.56
329.058	543.56
329.287	547.56
329.515	534.56
329.744	509.56
329.972	495.56
330.201	495.56
330.43	534.56
330.658	549.56
330.887	550.56
331.115	558.56
331.344	526.56
331.572	490.56
331.801	493.56
332.03	479.56
332.258	506.56
332.486	498.56
332.715	477.56
332.943	470.56
333.172	457.56
333.4	454.56
333.629	479.56
333.857	518.56
334.085	494.56
334.314	503.56
334.542	531.56
334.771	554.56
334.999	522.56
335.227	493.56
335.455	494.56
335.684	479.56
335.912	467.56
336.14	478.56
336.369	468.56
336.597	483.56
336.825	464.56
337.053	466.56
337.281	468.56
337.51	452.56
337.738	433.56
337.966	456.56
338.194	445.56
338.422	466.56
338.65	472.56
338.878	460.56
339.106	439.56
339.334	453.56
339.562	445.56
339.79	429.56
340.018	446.56
340.246	440.56
340.474	447.56
340.702	422.56
340.93	429.56
341.158	451.56
341.386	462.56
341.614	439.56
341.842	450.56
342.07	451.56
342.298	436.56
342.526	429.56
342.754	418.56
342.981	423.56
343.209	422.56
343.437	455.56
343.665	454.56
343.893	465.56
344.12	474.56
344.348	465.56
344.576	461.56
344.804	454.56
345.031	462.56
345.259	473.56
345.487	456.56
345.714	447.56
345.942	442.56
346.17	422.56
346.397	443.56
346.625	428.56
346.853	410.56
347.08	415.56
347.308	420.56
347.535	443.56
347.763	434.56
347.99	438.56
348.218	428.56
348.445	437.56
348.673	431.56
348.9	433.56
349.128	410.56
349.355	392.56
349.583	417.56
349.81	410.56
350.037	392.56
350.265	404.56
350.492	421.56
350.72	427.56
350.947	414.56
351.174	406.56
351.402	426.56
351.629	452.56
351.856	431.56
352.083	442.56
352.311	423.56
352.538	429.56
352.765	423.56
352.992	435.56
353.22	432.56
353.447	410.56
353.674	394.56
353.901	402.56
354.128	409.56
354.355	407.56
354.583	403.56
354.81	401.56
355.037	404.56
355.264	390.56
355.491	407.56
355.718	388.56
355.945	390.56
356.172	400.56
356.399	396.56
356.626	383.56
356.853	388.56
357.08	406.56
357.307	410.56
357.534	393.56
357.761	401.56
357.988	409.56
358.215	402.56
358.441	403.56
358.668	406.56
358.895	400.56
359.122	403.56
359.349	406.56
359.576	414.56
359.802	416.56
360.029	464.56
360.256	471.56
360.483	431.56
360.709	445.56
360.936	415.56
361.163	415.56
361.39	413.56
361.616	413.56
361.843	404.56
362.07	424.56
362.296	420.56
362.523	441.56
362.749	428.56
362.976	394.56
363.203	420.56
363.429	419.56
363.656	399.56
363.882	406.56
364.109	388.56
364.335	405.56
364.562	402.56
364.788	396.56
365.015	403.56
365.241	406.56
365.468	403.56
365.694	425.56
365.92	411.56
366.147	407.56
366.373	403.56
366.599	380.56
366.826	414.56
367.052	372.56
367.278	412.56
367.505	406.56
367.731	417.56
367.957	397.56
368.184	408.56
368.41	425.56
368.636	422.56
368.862	420.56
369.089	407.56
369.315	416.56
369.541	384.56
369.767	394.56
369.993	441.56
370.219	404.56
370.445	422.56
370.672	406.56
370.898	390.56
371.124	408.56
371.35	422.56
371.576	406.56
371.802	416.56
372.028	407.56
372.254	409.56
372.48	419.56
372.706	432.56
372.932	434.56
373.158	428.56
373.384	418.56
373.61	412.56
373.835	421.56
374.061	391.56
374.287	421.56
374.513	426.56
374.739	410.56
374.965	414.56
375.191	414.56
375.416	413.56
375.642	421.56
375.868	433.56
376.094	413.56
376.319	425.56
376.545	425.56
376.771	397.56
376.997	410.56
377.222	405.56
377.448	408.56
377.674	442.56
377.899	412.56
378.125	416.56
378.35	410.56
378.576	386.56
378.802	406.56
379.027	400.56
379.253	406.56
379.478	415.56
379.704	390.56
379.929	428.56
380.155	430.56
380.38	415.56
380.606	410.56
380.831	406.56
381.057	415.56
381.282	421.56
381.507	418.56
381.733	422.56
381.958	418.56
382.184	438.56
382.409	408.56
382.634	421.56
382.86	435.56
383.085	433.56
383.31	438.56
383.535	430.56
383.761	430.56
383.986	442.56
384.211	428.56
384.436	411.56
384.662	444.56
384.887	453.56
385.112	451.56
385.337	431.56
385.562	459.56
385.787	454.56
386.013	464.56
386.238	465.56
386.463	456.56
386.688	485.56
386.913	451.56
387.138	450.56
387.363	470.56
387.588	442.56
387.813	468.56
388.038	460.56
388.263	467.56
388.488	484.56
388.713	459.56
388.938	457.56
389.163	459.56
389.387	464.56
389.612	451.56
389.837	467.56
390.062	465.56
390.287	472.56
390.512	447.56
390.736	474.56
390.961	490.56
391.186	463.56
391.411	473.56
391.636	489.56
391.86	477.56
392.085	470.56
392.31	475.56
392.534	474.56
392.759	483.56
392.984	469.56
393.208	472.56
393.433	445.56
393.658	483.56
393.882	474.56
394.107	469.56
394.331	466.56
394.556	471.56
394.78	487.56
395.005	467.56
395.229	473.56
395.454	472.56
395.678	496.56
395.903	503.56
396.127	524.56
396.352	494.56
396.576	477.56
396.801	494.56
397.025	489.56
397.249	470.56
397.474	489.56
397.698	489.56
397.922	513.56
398.147	511.56
398.371	536.56
398.595	505.56
398.82	517.56
399.044	543.56
399.268	576.56
399.492	593.56
399.717	662.56
399.941	686.56
400.165	665.56
400.389	674.56
400.613	620.56
400.837	586.56
401.062	556.56
401.286	571.56
401.51	526.56
401.734	524.56
401.958	526.56
402.182	564.56
402.406	548.56
402.63	535.56
402.854	557.56
403.078	572.56
403.302	562.56
403.526	582.56
403.75	570.56
403.974	552.56
404.198	558.56
404.422	564.56
404.645	566.56
404.869	577.56
405.093	600.56
405.317	637.56
405.541	657.56
405.765	616.56
405.988	587.56
406.212	595.56
406.436	577.56
406.66	616.56
406.883	610.56
407.107	632.56
407.331	664.56
407.555	747.56
407.778	754.56
408.002	662.56
408.226	616.56
408.449	622.56
408.673	622.56
408.896	635.56
409.12	680.56
409.344	655.56
409.567	610.56
409.791	578.56
410.014	566.56
410.238	574.56
410.461	563.56
410.685	562.56
410.908	580.56
411.132	615.56
411.355	654.56
411.578	613.56
411.802	572.56
412.025	534.56
412.249	544.56
412.472	575.56
412.695	629.56
412.919	623.56
413.142	574.56
413.365	555.56
413.589	548.56
413.812	522.56
414.035	528.56
414.258	519.56
414.482	530.56
414.705	546.56
414.928	546.56
415.151	541.56
415.374	525.56
415.597	530.56
415.821	511.56
416.044	537.56
416.267	519.56
416.49	528.56
416.713	532.56
416.936	529.56
417.159	531.56
417.382	532.56
417.605	539.56
417.828	536.56
418.051	556.56
418.274	534.56
418.497	522.56
418.72	538.56
418.943	526.56
419.166	564.56
419.389	572.56
419.611	573.56
419.834	556.56
420.057	544.56
420.28	574.56
420.503	554.56
420.726	543.56
420.948	554.56
421.171	604.56
421.394	621.56
421.617	588.56
421.839	562.56
422.062	538.56
422.285	538.56
422.507	623.56
422.73	699.56
422.953	662.56
423.175	594.56
423.398	566.56
423.621	573.56
423.843	586.56
424.066	578.56
424.288	595.56
424.511	622.56
424.733	647.56
424.956	745.56
425.178	692.56
425.401	692.56
425.623	711.56
425.846	622.56
426.068	590.56
426.291	590.56
426.513	588.56
426.735	566.56
426.958	614.56
427.18	679.56
427.402	834.56
427.625	896.56
427.847	772.56
428.069	656.56
428.292	612.56
428.514	593.56
428.736	579.56
428.958	552.56
429.181	538.56
429.403	540.56
429.625	532.56
429.847	557.56
430.069	636.56
430.292	620.56
430.514	547.56
430.736	535.56
430.958	504.56
431.18	528.56
431.402	498.56
431.624	494.56
431.846	477.56
432.068	490.56
432.29	517.56
432.512	522.56
432.734	531.56
432.956	528.56
433.178	516.56
433.4	514.56
433.622	513.56
433.844	514.56
434.066	497.56
434.287	504.56
434.509	524.56
434.731	520.56
434.953	546.56
435.175	558.56
435.397	575.56
435.618	590.56
435.84	616.56
436.062	722.56
436.284	784.56
436.505	629.56
436.727	598.56
436.949	545.56
437.17	539.56
437.392	539.56
437.614	559.56
437.835	569.56
438.057	624.56
438.278	757.56
438.5	757.56
438.721	821.56
438.943	805.56
439.165	614.56
439.386	583.56
439.608	570.56
439.829	590.56
440.05	592.56
440.272	634.56
440.493	627.56
440.715	568.56
440.936	540.56
441.158	551.56
441.379	559.56
441.6	572.56
441.822	598.56
442.043	606.56
442.264	669.56
442.486	731.56
442.707	630.56
442.928	595.56
443.149	576.56
443.371	612.56
443.592	669.56
443.813	756.56
444.034	822.56
444.255	665.56
444.476	628.56
444.698	598.56
444.919	604.56
445.14	731.56
445.361	680.56
445.582	614.56
445.803	669.56
446.024	792.56
446.245	783.56
446.466	680.56
446.687	593.56
446.908	566.56
447.129	541.56
447.35	519.56
447.571	547.56
447.792	527.56
448.013	559.56
448.234	544.56
448.455	608.56
448.675	679.56
448.896	805.56
449.117	680.56
449.338	643.56
449.559	762.56
449.779	857.56
450	666.56
450.221	591.56
450.442	528.56
450.662	516.56
450.883	519.56
451.104	522.56
451.324	521.56
451.545	501.56
451.766	479.56
451.986	504.56
452.207	472.56
452.428	468.56
452.648	469.56
452.869	487.56
453.089	486.56
453.31	502.56
453.53	492.56
453.751	466.56
453.971	465.56
454.192	481.56
454.412	454.56
454.633	483.56
454.853	442.56
455.073	470.56
455.294	490.56
455.514	581.56
455.734	529.56
455.955	480.56
456.175	456.56
456.395	442.56
456.616	453.56
456.836	450.56
457.056	443.56
457.276	428.56
457.497	456.56
457.717	438.56
457.937	441.56
458.157	471.56
458.377	460.56
458.598	483.56
458.818	518.56
459.038	595.56
459.258	610.56
459.478	536.56
459.698	521.56
459.918	503.56
460.138	512.56
460.358	533.56
460.578	524.56
460.798	523.56
461.018	550.56
461.238	534.56
461.458	539.56
461.678	532.56
461.898	538.56
462.118	529.56
462.338	527.56
462.558	570.56
462.777	568.56
462.997	582.56
463.217	610.56
463.437	584.56
463.657	598.56
463.876	568.56
464.096	593.56
464.316	588.56
464.536	565.56
464.755	565.56
464.975	565.56
465.195	598.56
465.414	614.56
465.634	554.56
465.854	548.56
466.073	519.56
466.293	522.56
466.512	498.56
466.732	505.56
466.951	452.56
467.171	480.56
467.391	491.56
467.61	498.56
467.829	489.56
468.049	495.56
468.268	512.56
468.488	472.56
468.707	475.56
468.927	488.56
469.146	465.56
469.365	470.56
469.585	468.56
469.804	506.56
470.023	506.56
470.243	490.56
470.462	500.56
470.681	519.56
470.901	502.56
471.12	484.56
471.339	503.56
471.558	473.56
471.777	492.56
471.997	489.56
472.216	487.56
472.435	516.56
472.654	486.56
472.873	476.56
473.092	489.56
473.311	469.56
473.53	499.56
473.749	485.56
473.968	530.56
474.187	616.56
474.406	648.56
474.625	537.56
474.844	503.56
475.063	510.56
475.282	481.56
475.501	478.56
475.72	479.56
475.939	484.56
476.158	516.56
476.377	490.56
476.596	500.56
476.814	504.56
477.033	525.56
477.252	518.56
477.471	530.56
477.69	550.56
477.908	534.56
478.127	554.56
478.346	534.56
478.564	542.56
478.783	533.56
479.002	562.56
479.22	576.56
479.439	589.56
479.658	579.56
479.876	599.56
480.095	599.56
480.313	620.56
480.532	607.56
480.751	622.56
480.969	634.56
481.188	670.56
481.406	657.56
481.624	596.56
481.843	579.56
482.061	591.56
482.28	560.56
482.498	558.56
482.717	554.56
482.935	596.56
483.153	576.56
483.372	576.56
483.59	549.56
483.808	574.56
484.027	566.56
484.245	564.56
484.463	575.56
484.681	592.56
484.9	572.56
485.118	580.56
485.336	584.56
485.554	572.56
485.772	610.56
485.99	599.56
486.209	597.56
486.427	597.56
486.645	601.56
486.863	619.56
487.081	600.56
487.299	624.56
487.517	634.56
487.735	628.56
487.953	612.56
488.171	609.56
488.389	598.56
488.607	597.56
488.825	616.56
489.043	616.56
489.261	601.56
489.479	612.56
489.696	605.56
489.914	602.56
490.132	617.56
490.35	638.56
490.568	618.56
490.786	632.56
491.003	650.56
491.221	659.56
491.439	661.56
491.657	669.56
491.874	688.56
492.092	685.56
492.31	680.56
492.527	715.56
492.745	684.56
492.963	704.56
493.18	702.56
493.398	703.56
493.615	723.56
493.833	719.56
494.05	682.56
494.268	701.56
494.485	707.56
494.703	713.56
494.92	732.56
495.138	737.56
495.355	719.56
495.573	720.56
495.79	716.56
496.008	740.56
496.225	716.56
496.442	735.56
496.66	747.56
496.877	710.56
497.094	743.56
497.312	724.56
497.529	740.56
497.746	754.56
497.963	750.56
498.181	778.56
498.398	793.56
498.615	835.56
498.832	852.56
499.049	874.56
499.267	877.56
499.484	946.56
499.701	950.56
499.918	1016.56
500.135	1104.56
500.352	1150.56
500.569	1148.56
500.786	1156.56
501.003	1148.56
501.22	1102.56
501.437	1040.56
501.654	995.56
