Data from 1976.PennyLincolnUp.Lamp.En5.5.200Scan.071719.P1.Changed Mount._HRD10591_16-00-11-860.txt Node
Date: Thu Jul 18 16:00:11 EDT 2019
User: cochatt
Spectrometer: HR+D1059
Trigger mode: 1
Integration Time (sec): 1.000000E-1
Scans to average: 1
Electric dark correction enabled: true
Nonlinearity correction enabled: false
Boxcar width: 0
XAxis mode: Wavelengths
Number of Pixels in Spectrum: 2048
>>>>>Begin Spectral Data<<<<<
223.165	-11.06
223.4	-11.06
223.635	-11.06
223.869	-1.06
224.104	-19.06
224.338	-2.06
224.573	-31.06
224.808	-17.06
225.042	-11.06
225.277	-11.06
225.511	-1.06
225.746	5.94
225.98	4.94
226.215	18.94
226.449	4.94
226.683	11.94
226.918	19.94
227.152	37.94
227.387	21.94
227.621	35.94
227.856	51.94
228.09	44.94
228.324	48.94
228.559	47.94
228.793	62.94
229.027	95.94
229.262	107.94
229.496	114.94
229.73	122.94
229.964	142.94
230.199	132.94
230.433	107.94
230.667	113.94
230.901	106.94
231.136	99.94
231.37	88.94
231.604	103.94
231.838	114.94
232.072	118.94
232.306	101.94
232.541	117.94
232.775	106.94
233.009	108.94
233.243	103.94
233.477	119.94
233.711	120.94
233.945	109.94
234.179	118.94
234.413	109.94
234.647	102.94
234.881	106.94
235.115	113.94
235.349	122.94
235.583	125.94
235.817	128.94
236.051	126.94
236.285	116.94
236.519	114.94
236.753	125.94
236.987	136.94
237.221	180.94
237.455	229.94
237.689	172.94
237.922	148.94
238.156	134.94
238.39	137.94
238.624	117.94
238.858	115.94
239.091	114.94
239.325	123.94
239.559	132.94
239.793	119.94
240.027	118.94
240.26	135.94
240.494	157.94
240.728	139.94
240.961	139.94
241.195	133.94
241.429	134.94
241.662	136.94
241.896	131.94
242.13	126.94
242.363	151.94
242.597	134.94
242.83	145.94
243.064	136.94
243.298	135.94
243.531	133.94
243.765	129.94
243.998	134.94
244.232	132.94
244.465	148.94
244.699	132.94
244.932	152.94
245.166	138.94
245.399	158.94
245.633	143.94
245.866	140.94
246.099	133.94
246.333	165.94
246.566	138.94
246.8	138.94
247.033	170.94
247.266	161.94
247.5	150.94
247.733	155.94
247.966	158.94
248.2	169.94
248.433	166.94
248.666	149.94
248.899	177.94
249.133	197.94
249.366	188.94
249.599	172.94
249.832	165.94
250.066	179.94
250.299	187.94
250.532	192.94
250.765	196.94
250.998	221.94
251.231	192.94
251.465	205.94
251.698	208.94
251.931	202.94
252.164	199.94
252.397	184.94
252.63	185.94
252.863	204.94
253.096	215.94
253.329	222.94
253.562	221.94
253.795	229.94
254.028	213.94
254.261	211.94
254.494	229.94
254.727	244.94
254.96	268.94
255.193	248.94
255.426	227.94
255.659	232.94
255.892	215.94
256.124	210.94
256.357	228.94
256.59	216.94
256.823	207.94
257.056	210.94
257.289	210.94
257.521	201.94
257.754	217.94
257.987	206.94
258.22	198.94
258.452	212.94
258.685	181.94
258.918	217.94
259.151	212.94
259.383	220.94
259.616	214.94
259.849	227.94
260.081	217.94
260.314	260.94
260.547	243.94
260.779	233.94
261.012	208.94
261.244	221.94
261.477	221.94
261.71	215.94
261.942	224.94
262.175	222.94
262.407	218.94
262.64	207.94
262.872	203.94
263.105	214.94
263.337	201.94
263.57	212.94
263.802	214.94
264.035	226.94
264.267	222.94
264.499	224.94
264.732	205.94
264.964	223.94
265.197	216.94
265.429	213.94
265.661	223.94
265.894	215.94
266.126	217.94
266.358	225.94
266.591	230.94
266.823	230.94
267.055	237.94
267.287	229.94
267.52	220.94
267.752	218.94
267.984	225.94
268.216	222.94
268.448	235.94
268.681	235.94
268.913	244.94
269.145	260.94
269.377	283.94
269.609	275.94
269.841	256.94
270.073	244.94
270.306	293.94
270.538	313.94
270.77	296.94
271.002	270.94
271.234	275.94
271.466	274.94
271.698	301.94
271.93	308.94
272.162	308.94
272.394	321.94
272.626	297.94
272.858	274.94
273.09	255.94
273.322	248.94
273.553	262.94
273.785	267.94
274.017	258.94
274.249	246.94
274.481	273.94
274.713	268.94
274.945	265.94
275.176	264.94
275.408	262.94
275.64	264.94
275.872	272.94
276.104	283.94
276.335	267.94
276.567	274.94
276.799	284.94
277.031	307.94
277.262	319.94
277.494	316.94
277.726	301.94
277.957	288.94
278.189	296.94
278.421	271.94
278.652	278.94
278.884	280.94
279.115	266.94
279.347	283.94
279.579	299.94
279.81	282.94
280.042	272.94
280.273	252.94
280.505	258.94
280.736	265.94
280.968	266.94
281.199	272.94
281.431	284.94
281.662	275.94
281.894	283.94
282.125	268.94
282.356	281.94
282.588	313.94
282.819	277.94
283.051	284.94
283.282	270.94
283.513	292.94
283.745	284.94
283.976	268.94
284.207	289.94
284.439	281.94
284.67	283.94
284.901	288.94
285.132	288.94
285.364	283.94
285.595	296.94
285.826	291.94
286.057	280.94
286.288	281.94
286.52	284.94
286.751	304.94
286.982	307.94
287.213	293.94
287.444	273.94
287.675	300.94
287.906	309.94
288.138	306.94
288.369	294.94
288.6	304.94
288.831	315.94
289.062	316.94
289.293	302.94
289.524	312.94
289.755	293.94
289.986	280.94
290.217	300.94
290.448	333.94
290.679	309.94
290.91	304.94
291.141	309.94
291.371	293.94
291.602	282.94
291.833	289.94
292.064	306.94
292.295	297.94
292.526	288.94
292.757	307.94
292.987	293.94
293.218	289.94
293.449	298.94
293.68	320.94
293.91	299.94
294.141	296.94
294.372	304.94
294.603	308.94
294.833	310.94
295.064	300.94
295.295	300.94
295.525	306.94
295.756	314.94
295.987	324.94
296.217	326.94
296.448	330.94
296.679	313.94
296.909	326.94
297.14	310.94
297.37	312.94
297.601	316.94
297.831	304.94
298.062	300.94
298.292	326.94
298.523	315.94
298.753	329.94
298.984	336.94
299.214	316.94
299.445	318.94
299.675	301.94
299.905	321.94
300.136	329.94
300.366	321.94
300.597	314.94
300.827	321.94
301.057	324.94
301.288	339.94
301.518	347.94
301.748	343.94
301.979	344.94
302.209	332.94
302.439	338.94
302.669	342.94
302.9	317.94
303.13	330.94
303.36	333.94
303.59	329.94
303.82	326.94
304.051	365.94
304.281	349.94
304.511	356.94
304.741	315.94
304.971	321.94
305.201	333.94
305.431	348.94
305.661	332.94
305.891	341.94
306.121	338.94
306.352	343.94
306.582	363.94
306.812	329.94
307.042	326.94
307.272	360.94
307.502	359.94
307.731	338.94
307.961	346.94
308.191	345.94
308.421	332.94
308.651	350.94
308.881	328.94
309.111	348.94
309.341	371.94
309.571	349.94
309.8	365.94
310.03	361.94
310.26	360.94
310.49	365.94
310.72	379.94
310.949	372.94
311.179	384.94
311.409	364.94
311.639	373.94
311.868	377.94
312.098	380.94
312.328	382.94
312.557	375.94
312.787	424.94
313.017	399.94
313.246	402.94
313.476	372.94
313.706	374.94
313.935	390.94
314.165	381.94
314.394	378.94
314.624	405.94
314.853	376.94
315.083	400.94
315.312	372.94
315.542	351.94
315.771	396.94
316.001	377.94
316.23	370.94
316.46	391.94
316.689	380.94
316.919	366.94
317.148	388.94
317.377	394.94
317.607	394.94
317.836	387.94
318.065	385.94
318.295	394.94
318.524	391.94
318.753	376.94
318.983	365.94
319.212	386.94
319.441	380.94
319.67	389.94
319.9	372.94
320.129	360.94
320.358	378.94
320.587	402.94
320.816	385.94
321.046	396.94
321.275	400.94
321.504	411.94
321.733	403.94
321.962	387.94
322.191	412.94
322.42	411.94
322.649	410.94
322.878	430.94
323.108	441.94
323.337	432.94
323.566	490.94
323.795	489.94
324.024	491.94
324.253	573.94
324.482	785.94
324.71	1207.94
324.939	1811.94
325.168	1513.94
325.397	787.94
325.626	558.94
325.855	484.94
326.084	453.94
326.313	441.94
326.542	469.94
326.77	502.94
326.999	551.94
327.228	732.94
327.457	1096.94
327.686	1343.94
327.914	887.94
328.143	602.94
328.372	539.94
328.6	533.94
328.829	514.94
329.058	514.94
329.287	516.94
329.515	521.94
329.744	481.94
329.972	502.94
330.201	494.94
330.43	536.94
330.658	517.94
330.887	555.94
331.115	528.94
331.344	484.94
331.572	445.94
331.801	462.94
332.03	458.94
332.258	461.94
332.486	472.94
332.715	451.94
332.943	434.94
333.172	458.94
333.4	472.94
333.629	480.94
333.857	470.94
334.085	497.94
334.314	506.94
334.542	532.94
334.771	519.94
334.999	497.94
335.227	480.94
335.455	480.94
335.684	467.94
335.912	465.94
336.14	456.94
336.369	460.94
336.597	462.94
336.825	455.94
337.053	446.94
337.281	458.94
337.51	450.94
337.738	460.94
337.966	473.94
338.194	438.94
338.422	455.94
338.65	429.94
338.878	456.94
339.106	425.94
339.334	422.94
339.562	444.94
339.79	419.94
340.018	417.94
340.246	435.94
340.474	439.94
340.702	413.94
340.93	432.94
341.158	442.94
341.386	441.94
341.614	430.94
341.842	419.94
342.07	410.94
342.298	419.94
342.526	406.94
342.754	416.94
342.981	425.94
343.209	415.94
343.437	410.94
343.665	442.94
343.893	454.94
344.12	460.94
344.348	458.94
344.576	454.94
344.804	461.94
345.031	451.94
345.259	452.94
345.487	449.94
345.714	416.94
345.942	411.94
346.17	416.94
346.397	408.94
346.625	405.94
346.853	407.94
347.08	410.94
347.308	432.94
347.535	417.94
347.763	427.94
347.99	416.94
348.218	438.94
348.445	432.94
348.673	434.94
348.9	416.94
349.128	386.94
349.355	399.94
349.583	422.94
349.81	420.94
350.037	411.94
350.265	398.94
350.492	405.94
350.72	388.94
350.947	412.94
351.174	448.94
351.402	428.94
351.629	436.94
351.856	430.94
352.083	395.94
352.311	409.94
352.538	441.94
352.765	445.94
352.992	434.94
353.22	417.94
353.447	424.94
353.674	419.94
353.901	380.94
354.128	392.94
354.355	408.94
354.583	396.94
354.81	415.94
355.037	392.94
355.264	410.94
355.491	399.94
355.718	377.94
355.945	400.94
356.172	405.94
356.399	392.94
356.626	390.94
356.853	405.94
357.08	385.94
357.307	388.94
357.534	388.94
357.761	394.94
357.988	388.94
358.215	402.94
358.441	376.94
358.668	379.94
358.895	396.94
359.122	404.94
359.349	404.94
359.576	411.94
359.802	411.94
360.029	418.94
360.256	445.94
360.483	443.94
360.709	408.94
360.936	392.94
361.163	420.94
361.39	402.94
361.616	416.94
361.843	414.94
362.07	426.94
362.296	417.94
362.523	417.94
362.749	411.94
362.976	389.94
363.203	392.94
363.429	400.94
363.656	397.94
363.882	394.94
364.109	396.94
364.335	404.94
364.562	401.94
364.788	396.94
365.015	432.94
365.241	378.94
365.468	395.94
365.694	416.94
365.92	398.94
366.147	396.94
366.373	399.94
366.599	379.94
366.826	402.94
367.052	404.94
367.278	379.94
367.505	416.94
367.731	398.94
367.957	406.94
368.184	412.94
368.41	428.94
368.636	416.94
368.862	435.94
369.089	413.94
369.315	418.94
369.541	403.94
369.767	391.94
369.993	394.94
370.219	408.94
370.445	402.94
370.672	408.94
370.898	413.94
371.124	407.94
371.35	398.94
371.576	386.94
371.802	406.94
372.028	409.94
372.254	398.94
372.48	396.94
372.706	397.94
372.932	400.94
373.158	401.94
373.384	409.94
373.61	396.94
373.835	418.94
374.061	416.94
374.287	429.94
374.513	424.94
374.739	396.94
374.965	407.94
375.191	442.94
375.416	421.94
375.642	398.94
375.868	435.94
376.094	409.94
376.319	405.94
376.545	421.94
376.771	411.94
376.997	394.94
377.222	409.94
377.448	404.94
377.674	417.94
377.899	394.94
378.125	411.94
378.35	396.94
378.576	389.94
378.802	381.94
379.027	427.94
379.253	411.94
379.478	392.94
379.704	420.94
379.929	411.94
380.155	414.94
380.38	385.94
380.606	424.94
380.831	420.94
381.057	417.94
381.282	393.94
381.507	395.94
381.733	430.94
381.958	413.94
382.184	409.94
382.409	414.94
382.634	407.94
382.86	424.94
383.085	436.94
383.31	442.94
383.535	426.94
383.761	444.94
383.986	427.94
384.211	451.94
384.436	435.94
384.662	458.94
384.887	432.94
385.112	443.94
385.337	423.94
385.562	456.94
385.787	456.94
386.013	460.94
386.238	479.94
386.463	422.94
386.688	442.94
386.913	451.94
387.138	465.94
387.363	460.94
387.588	437.94
387.813	457.94
388.038	427.94
388.263	432.94
388.488	468.94
388.713	450.94
388.938	450.94
389.163	441.94
389.387	449.94
389.612	452.94
389.837	442.94
390.062	452.94
390.287	446.94
390.512	453.94
390.736	442.94
390.961	460.94
391.186	456.94
391.411	458.94
391.636	474.94
391.86	462.94
392.085	469.94
392.31	489.94
392.534	466.94
392.759	477.94
392.984	465.94
393.208	474.94
393.433	474.94
393.658	465.94
393.882	457.94
394.107	461.94
394.331	432.94
394.556	460.94
394.78	447.94
395.005	476.94
395.229	468.94
395.454	468.94
395.678	468.94
395.903	478.94
396.127	518.94
396.352	521.94
396.576	480.94
396.801	456.94
397.025	460.94
397.249	472.94
397.474	488.94
397.698	484.94
397.922	510.94
398.147	526.94
398.371	512.94
398.595	511.94
398.82	535.94
399.044	536.94
399.268	551.94
399.492	600.94
399.717	644.94
399.941	685.94
400.165	684.94
400.389	651.94
400.613	607.94
400.837	552.94
401.062	556.94
401.286	549.94
401.51	545.94
401.734	521.94
401.958	518.94
402.182	550.94
402.406	557.94
402.63	532.94
402.854	534.94
403.078	546.94
403.302	533.94
403.526	550.94
403.75	539.94
403.974	546.94
404.198	549.94
404.422	553.94
404.645	539.94
404.869	578.94
405.093	576.94
405.317	621.94
405.541	640.94
405.765	621.94
405.988	568.94
406.212	562.94
406.436	594.94
406.66	615.94
406.883	609.94
407.107	612.94
407.331	656.94
407.555	703.94
407.778	728.94
408.002	675.94
408.226	617.94
408.449	603.94
408.673	597.94
408.896	628.94
409.12	662.94
409.344	631.94
409.567	564.94
409.791	558.94
410.014	580.94
410.238	542.94
410.461	549.94
410.685	562.94
410.908	551.94
411.132	564.94
411.355	616.94
411.578	604.94
411.802	543.94
412.025	548.94
412.249	542.94
412.472	584.94
412.695	597.94
412.919	584.94
413.142	560.94
413.365	535.94
413.589	537.94
413.812	523.94
414.035	532.94
414.258	530.94
414.482	525.94
414.705	516.94
414.928	524.94
415.151	514.94
415.374	527.94
415.597	529.94
415.821	500.94
416.044	522.94
416.267	500.94
416.49	512.94
416.713	503.94
416.936	505.94
417.159	518.94
417.382	510.94
417.605	526.94
417.828	534.94
418.051	531.94
418.274	530.94
418.497	535.94
418.72	527.94
418.943	538.94
419.166	526.94
419.389	573.94
419.611	545.94
419.834	547.94
420.057	537.94
420.28	554.94
420.503	529.94
420.726	529.94
420.948	568.94
421.171	603.94
421.394	615.94
421.617	547.94
421.839	558.94
422.062	530.94
422.285	547.94
422.507	613.94
422.73	659.94
422.953	671.94
423.175	573.94
423.398	574.94
423.621	547.94
423.843	557.94
424.066	588.94
424.288	600.94
424.511	581.94
424.733	647.94
424.956	706.94
425.178	655.94
425.401	710.94
425.623	688.94
425.846	584.94
426.068	574.94
426.291	546.94
426.513	564.94
426.735	568.94
426.958	601.94
427.18	673.94
427.402	808.94
427.625	891.94
427.847	741.94
428.069	652.94
428.292	570.94
428.514	540.94
428.736	550.94
428.958	555.94
429.181	533.94
429.403	504.94
429.625	524.94
429.847	553.94
430.069	629.94
430.292	608.94
430.514	534.94
430.736	517.94
430.958	520.94
431.18	488.94
431.402	504.94
431.624	490.94
431.846	489.94
432.068	509.94
432.29	481.94
432.512	483.94
432.734	523.94
432.956	503.94
433.178	517.94
433.4	516.94
433.622	502.94
433.844	497.94
434.066	484.94
434.287	514.94
434.509	515.94
434.731	520.94
434.953	523.94
435.175	534.94
435.397	553.94
435.618	560.94
435.84	587.94
436.062	695.94
436.284	784.94
436.505	616.94
436.727	568.94
436.949	524.94
437.17	536.94
437.392	517.94
437.614	514.94
437.835	547.94
438.057	643.94
438.278	735.94
438.5	729.94
438.721	823.94
438.943	811.94
439.165	621.94
439.386	565.94
439.608	563.94
439.829	570.94
440.05	574.94
440.272	609.94
440.493	574.94
440.715	539.94
440.936	509.94
441.158	516.94
441.379	520.94
441.6	533.94
441.822	566.94
442.043	598.94
442.264	668.94
442.486	712.94
442.707	618.94
442.928	575.94
443.149	595.94
443.371	595.94
443.592	616.94
443.813	730.94
444.034	790.94
444.255	659.94
444.476	597.94
444.698	606.94
444.919	583.94
445.14	716.94
445.361	626.94
445.582	617.94
445.803	656.94
446.024	756.94
446.245	752.94
446.466	718.94
446.687	598.94
446.908	569.94
447.129	557.94
447.35	522.94
447.571	521.94
447.792	503.94
448.013	488.94
448.234	513.94
448.455	572.94
448.675	696.94
448.896	803.94
449.117	671.94
449.338	635.94
449.559	711.94
449.779	832.94
450	660.94
450.221	550.94
450.442	522.94
450.662	522.94
450.883	505.94
451.104	516.94
451.324	512.94
451.545	521.94
451.766	482.94
451.986	468.94
452.207	460.94
452.428	454.94
452.648	470.94
452.869	451.94
453.089	456.94
453.31	488.94
453.53	477.94
453.751	467.94
453.971	454.94
454.192	472.94
454.412	422.94
454.633	454.94
454.853	435.94
455.073	438.94
455.294	476.94
455.514	565.94
455.734	530.94
455.955	462.94
456.175	448.94
456.395	444.94
456.616	427.94
456.836	453.94
457.056	444.94
457.276	433.94
457.497	446.94
457.717	433.94
457.937	432.94
458.157	440.94
458.377	454.94
458.598	466.94
458.818	510.94
459.038	583.94
459.258	600.94
459.478	518.94
459.698	472.94
459.918	500.94
460.138	512.94
460.358	522.94
460.578	499.94
460.798	486.94
461.018	506.94
461.238	518.94
461.458	519.94
461.678	530.94
461.898	496.94
462.118	522.94
462.338	539.94
462.558	554.94
462.777	542.94
462.997	554.94
463.217	556.94
463.437	605.94
463.657	558.94
463.876	573.94
464.096	604.94
464.316	576.94
464.536	566.94
464.755	564.94
464.975	552.94
465.195	566.94
465.414	618.94
465.634	546.94
465.854	505.94
466.073	486.94
466.293	494.94
466.512	498.94
466.732	492.94
466.951	483.94
467.171	464.94
467.391	481.94
467.61	498.94
467.829	522.94
468.049	484.94
468.268	462.94
468.488	485.94
468.707	475.94
468.927	449.94
469.146	458.94
469.365	472.94
469.585	452.94
469.804	489.94
470.023	484.94
470.243	487.94
470.462	494.94
470.681	506.94
470.901	489.94
471.12	483.94
471.339	502.94
471.558	461.94
471.777	508.94
471.997	472.94
472.216	465.94
472.435	503.94
472.654	489.94
472.873	468.94
473.092	481.94
473.311	484.94
473.53	465.94
473.749	473.94
473.968	506.94
474.187	608.94
474.406	614.94
474.625	519.94
474.844	499.94
475.063	485.94
475.282	471.94
475.501	481.94
475.72	466.94
475.939	505.94
476.158	493.94
476.377	493.94
476.596	486.94
476.814	519.94
477.033	517.94
477.252	521.94
477.471	516.94
477.69	499.94
477.908	538.94
478.127	536.94
478.346	507.94
478.564	537.94
478.783	534.94
479.002	549.94
479.22	547.94
479.439	557.94
479.658	540.94
479.876	564.94
480.095	579.94
480.313	612.94
480.532	629.94
480.751	594.94
480.969	586.94
481.188	634.94
481.406	634.94
481.624	602.94
481.843	565.94
482.061	583.94
482.28	571.94
482.498	549.94
482.717	540.94
482.935	551.94
483.153	566.94
483.372	542.94
483.59	548.94
483.808	574.94
484.027	566.94
484.245	547.94
484.463	547.94
484.681	569.94
484.9	586.94
485.118	577.94
485.336	579.94
485.554	553.94
485.772	572.94
485.99	591.94
486.209	580.94
486.427	571.94
486.645	571.94
486.863	611.94
487.081	575.94
487.299	585.94
487.517	597.94
487.735	598.94
487.953	600.94
488.171	581.94
488.389	583.94
488.607	615.94
488.825	608.94
489.043	591.94
489.261	611.94
489.479	591.94
489.696	614.94
489.914	584.94
490.132	600.94
490.35	625.94
490.568	638.94
490.786	657.94
491.003	648.94
491.221	671.94
491.439	644.94
491.657	649.94
491.874	658.94
492.092	708.94
492.31	681.94
492.527	681.94
492.745	676.94
492.963	672.94
493.18	690.94
493.398	692.94
493.615	712.94
493.833	711.94
494.05	692.94
494.268	714.94
494.485	698.94
494.703	702.94
494.92	714.94
495.138	695.94
495.355	695.94
495.573	703.94
495.79	689.94
496.008	724.94
496.225	718.94
496.442	719.94
496.66	704.94
496.877	705.94
497.094	724.94
497.312	717.94
497.529	724.94
497.746	756.94
497.963	776.94
498.181	787.94
498.398	779.94
498.615	807.94
498.832	800.94
499.049	860.94
499.267	860.94
499.484	907.94
499.701	967.94
499.918	1000.94
500.135	1060.94
500.352	1101.94
500.569	1130.94
500.786	1128.94
501.003	1105.94
501.22	1064.94
501.437	1026.94
501.654	999.94
