Data from 1976.PennyLincolnUp.Lamp.En5.5.200Scan.071719.P1.Changed Mount._HRD10591_16-00-36-860.txt Node
Date: Thu Jul 18 16:00:36 EDT 2019
User: cochatt
Spectrometer: HR+D1059
Trigger mode: 1
Integration Time (sec): 1.000000E-1
Scans to average: 1
Electric dark correction enabled: true
Nonlinearity correction enabled: false
Boxcar width: 0
XAxis mode: Wavelengths
Number of Pixels in Spectrum: 2048
>>>>>Begin Spectral Data<<<<<
223.165	-13.25
223.4	-13.25
223.635	-13.25
223.869	-13.25
224.104	-17.25
224.338	-23.25
224.573	-7.25
224.808	-20.25
225.042	-13.25
225.277	3.75
225.511	5.75
225.746	0.75
225.98	17.75
226.215	1.75
226.449	10.75
226.683	14.75
226.918	29.75
227.152	22.75
227.387	29.75
227.621	33.75
227.856	33.75
228.09	40.75
228.324	49.75
228.559	68.75
228.793	77.75
229.027	93.75
229.262	101.75
229.496	107.75
229.73	129.75
229.964	148.75
230.199	138.75
230.433	99.75
230.667	110.75
230.901	113.75
231.136	107.75
231.37	118.75
231.604	110.75
231.838	121.75
232.072	101.75
232.306	113.75
232.541	100.75
232.775	99.75
233.009	117.75
233.243	94.75
233.477	110.75
233.711	113.75
233.945	125.75
234.179	122.75
234.413	135.75
234.647	115.75
234.881	106.75
235.115	112.75
235.349	120.75
235.583	119.75
235.817	121.75
236.051	123.75
236.285	121.75
236.519	126.75
236.753	134.75
236.987	138.75
237.221	175.75
237.455	233.75
237.689	184.75
237.922	130.75
238.156	139.75
238.39	137.75
238.624	132.75
238.858	113.75
239.091	129.75
239.325	126.75
239.559	142.75
239.793	123.75
240.027	130.75
240.26	138.75
240.494	163.75
240.728	145.75
240.961	171.75
241.195	151.75
241.429	138.75
241.662	127.75
241.896	131.75
242.13	139.75
242.363	142.75
242.597	136.75
242.83	141.75
243.064	147.75
243.298	149.75
243.531	151.75
243.765	143.75
243.998	150.75
244.232	145.75
244.465	160.75
244.699	152.75
244.932	155.75
245.166	170.75
245.399	146.75
245.633	149.75
245.866	134.75
246.099	139.75
246.333	142.75
246.566	152.75
246.8	163.75
247.033	156.75
247.266	164.75
247.5	158.75
247.733	187.75
247.966	181.75
248.2	178.75
248.433	176.75
248.666	172.75
248.899	187.75
249.133	176.75
249.366	207.75
249.599	188.75
249.832	192.75
250.066	166.75
250.299	188.75
250.532	211.75
250.765	199.75
250.998	217.75
251.231	220.75
251.465	232.75
251.698	226.75
251.931	197.75
252.164	194.75
252.397	204.75
252.63	210.75
252.863	206.75
253.096	216.75
253.329	221.75
253.562	236.75
253.795	239.75
254.028	203.75
254.261	189.75
254.494	226.75
254.727	237.75
254.96	269.75
255.193	265.75
255.426	234.75
255.659	229.75
255.892	226.75
256.124	238.75
256.357	242.75
256.59	225.75
256.823	220.75
257.056	207.75
257.289	212.75
257.521	230.75
257.754	205.75
257.987	209.75
258.22	212.75
258.452	227.75
258.685	212.75
258.918	207.75
259.151	215.75
259.383	198.75
259.616	218.75
259.849	238.75
260.081	246.75
260.314	242.75
260.547	263.75
260.779	236.75
261.012	239.75
261.244	225.75
261.477	219.75
261.71	223.75
261.942	242.75
262.175	217.75
262.407	229.75
262.64	241.75
262.872	209.75
263.105	215.75
263.337	204.75
263.57	213.75
263.802	223.75
264.035	204.75
264.267	213.75
264.499	234.75
264.732	217.75
264.964	226.75
265.197	203.75
265.429	215.75
265.661	211.75
265.894	215.75
266.126	233.75
266.358	227.75
266.591	218.75
266.823	239.75
267.055	240.75
267.287	226.75
267.52	229.75
267.752	234.75
267.984	218.75
268.216	245.75
268.448	239.75
268.681	255.75
268.913	241.75
269.145	277.75
269.377	291.75
269.609	289.75
269.841	286.75
270.073	292.75
270.306	291.75
270.538	321.75
270.77	334.75
271.002	331.75
271.234	305.75
271.466	290.75
271.698	317.75
271.93	313.75
272.162	328.75
272.394	325.75
272.626	292.75
272.858	293.75
273.09	277.75
273.322	290.75
273.553	260.75
273.785	259.75
274.017	256.75
274.249	285.75
274.481	283.75
274.713	259.75
274.945	286.75
275.176	279.75
275.408	278.75
275.64	286.75
275.872	267.75
276.104	286.75
276.335	255.75
276.567	278.75
276.799	305.75
277.031	301.75
277.262	329.75
277.494	306.75
277.726	317.75
277.957	301.75
278.189	293.75
278.421	279.75
278.652	277.75
278.884	280.75
279.115	281.75
279.347	282.75
279.579	284.75
279.81	289.75
280.042	267.75
280.273	269.75
280.505	267.75
280.736	277.75
280.968	276.75
281.199	300.75
281.431	280.75
281.662	278.75
281.894	299.75
282.125	304.75
282.356	281.75
282.588	311.75
282.819	322.75
283.051	315.75
283.282	286.75
283.513	302.75
283.745	306.75
283.976	286.75
284.207	317.75
284.439	308.75
284.67	305.75
284.901	281.75
285.132	301.75
285.364	306.75
285.595	305.75
285.826	297.75
286.057	300.75
286.288	302.75
286.52	302.75
286.751	306.75
286.982	303.75
287.213	300.75
287.444	310.75
287.675	312.75
287.906	309.75
288.138	321.75
288.369	309.75
288.6	341.75
288.831	331.75
289.062	309.75
289.293	306.75
289.524	313.75
289.755	321.75
289.986	315.75
290.217	313.75
290.448	314.75
290.679	294.75
290.91	297.75
291.141	293.75
291.371	284.75
291.602	314.75
291.833	310.75
292.064	296.75
292.295	327.75
292.526	331.75
292.757	303.75
292.987	317.75
293.218	315.75
293.449	299.75
293.68	314.75
293.91	309.75
294.141	300.75
294.372	325.75
294.603	294.75
294.833	304.75
295.064	326.75
295.295	314.75
295.525	314.75
295.756	314.75
295.987	334.75
296.217	339.75
296.448	344.75
296.679	323.75
296.909	319.75
297.14	319.75
297.37	329.75
297.601	319.75
297.831	330.75
298.062	315.75
298.292	318.75
298.523	330.75
298.753	313.75
298.984	337.75
299.214	325.75
299.445	329.75
299.675	327.75
299.905	331.75
300.136	326.75
300.366	331.75
300.597	318.75
300.827	342.75
301.057	321.75
301.288	327.75
301.518	348.75
301.748	350.75
301.979	345.75
302.209	349.75
302.439	359.75
302.669	332.75
302.9	350.75
303.13	355.75
303.36	334.75
303.59	333.75
303.82	357.75
304.051	361.75
304.281	350.75
304.511	341.75
304.741	340.75
304.971	353.75
305.201	338.75
305.431	356.75
305.661	339.75
305.891	328.75
306.121	344.75
306.352	346.75
306.582	354.75
306.812	374.75
307.042	361.75
307.272	350.75
307.502	364.75
307.731	345.75
307.961	341.75
308.191	345.75
308.421	358.75
308.651	349.75
308.881	350.75
309.111	354.75
309.341	365.75
309.571	356.75
309.8	374.75
310.03	369.75
310.26	379.75
310.49	373.75
310.72	379.75
310.949	388.75
311.179	386.75
311.409	409.75
311.639	398.75
311.868	383.75
312.098	409.75
312.328	394.75
312.557	397.75
312.787	387.75
313.017	411.75
313.246	405.75
313.476	391.75
313.706	384.75
313.935	401.75
314.165	409.75
314.394	423.75
314.624	402.75
314.853	409.75
315.083	410.75
315.312	391.75
315.542	385.75
315.771	374.75
316.001	388.75
316.23	393.75
316.46	390.75
316.689	390.75
316.919	377.75
317.148	396.75
317.377	409.75
317.607	382.75
317.836	395.75
318.065	374.75
318.295	379.75
318.524	383.75
318.753	373.75
318.983	414.75
319.212	380.75
319.441	399.75
319.67	385.75
319.9	389.75
320.129	402.75
320.358	397.75
320.587	396.75
320.816	402.75
321.046	416.75
321.275	402.75
321.504	406.75
321.733	390.75
321.962	408.75
322.191	417.75
322.42	416.75
322.649	446.75
322.878	453.75
323.108	440.75
323.337	469.75
323.566	494.75
323.795	503.75
324.024	534.75
324.253	611.75
324.482	865.75
324.71	1285.75
324.939	1902.75
325.168	1651.75
325.397	856.75
325.626	622.75
325.855	536.75
326.084	465.75
326.313	444.75
326.542	493.75
326.77	510.75
326.999	588.75
327.228	792.75
327.457	1165.75
327.686	1445.75
327.914	962.75
328.143	648.75
328.372	578.75
328.6	535.75
328.829	529.75
329.058	563.75
329.287	550.75
329.515	531.75
329.744	525.75
329.972	493.75
330.201	534.75
330.43	539.75
330.658	553.75
330.887	556.75
331.115	562.75
331.344	509.75
331.572	487.75
331.801	481.75
332.03	463.75
332.258	506.75
332.486	471.75
332.715	481.75
332.943	468.75
333.172	477.75
333.4	486.75
333.629	505.75
333.857	521.75
334.085	521.75
334.314	541.75
334.542	553.75
334.771	556.75
334.999	514.75
335.227	494.75
335.455	480.75
335.684	477.75
335.912	482.75
336.14	465.75
336.369	474.75
336.597	472.75
336.825	470.75
337.053	493.75
337.281	461.75
337.51	449.75
337.738	484.75
337.966	469.75
338.194	447.75
338.422	434.75
338.65	467.75
338.878	458.75
339.106	442.75
339.334	443.75
339.562	430.75
339.79	454.75
340.018	443.75
340.246	444.75
340.474	443.75
340.702	426.75
340.93	444.75
341.158	439.75
341.386	435.75
341.614	451.75
341.842	445.75
342.07	436.75
342.298	443.75
342.526	433.75
342.754	431.75
342.981	425.75
343.209	417.75
343.437	423.75
343.665	455.75
343.893	468.75
344.12	480.75
344.348	484.75
344.576	458.75
344.804	455.75
345.031	455.75
345.259	450.75
345.487	445.75
345.714	452.75
345.942	422.75
346.17	433.75
346.397	422.75
346.625	433.75
346.853	440.75
347.08	428.75
347.308	418.75
347.535	422.75
347.763	433.75
347.99	457.75
348.218	433.75
348.445	453.75
348.673	423.75
348.9	426.75
349.128	410.75
349.355	406.75
349.583	410.75
349.81	406.75
350.037	404.75
350.265	399.75
350.492	416.75
350.72	396.75
350.947	420.75
351.174	418.75
351.402	411.75
351.629	429.75
351.856	409.75
352.083	438.75
352.311	431.75
352.538	438.75
352.765	437.75
352.992	417.75
353.22	418.75
353.447	424.75
353.674	421.75
353.901	415.75
354.128	402.75
354.355	413.75
354.583	407.75
354.81	407.75
355.037	419.75
355.264	391.75
355.491	412.75
355.718	411.75
355.945	392.75
356.172	400.75
356.399	380.75
356.626	417.75
356.853	399.75
357.08	404.75
357.307	398.75
357.534	418.75
357.761	389.75
357.988	415.75
358.215	415.75
358.441	393.75
358.668	422.75
358.895	405.75
359.122	434.75
359.349	399.75
359.576	425.75
359.802	446.75
360.029	460.75
360.256	473.75
360.483	452.75
360.709	437.75
360.936	412.75
361.163	410.75
361.39	439.75
361.616	435.75
361.843	418.75
362.07	419.75
362.296	427.75
362.523	426.75
362.749	422.75
362.976	411.75
363.203	411.75
363.429	415.75
363.656	443.75
363.882	415.75
364.109	415.75
364.335	429.75
364.562	408.75
364.788	397.75
365.015	442.75
365.241	399.75
365.468	430.75
365.694	429.75
365.92	410.75
366.147	410.75
366.373	410.75
366.599	424.75
366.826	402.75
367.052	399.75
367.278	421.75
367.505	417.75
367.731	423.75
367.957	411.75
368.184	406.75
368.41	435.75
368.636	406.75
368.862	443.75
369.089	406.75
369.315	398.75
369.541	401.75
369.767	409.75
369.993	409.75
370.219	398.75
370.445	445.75
370.672	421.75
370.898	411.75
371.124	413.75
371.35	414.75
371.576	413.75
371.802	408.75
372.028	396.75
372.254	423.75
372.48	421.75
372.706	415.75
372.932	429.75
373.158	407.75
373.384	421.75
373.61	417.75
373.835	417.75
374.061	410.75
374.287	423.75
374.513	413.75
374.739	426.75
374.965	451.75
375.191	433.75
375.416	428.75
375.642	403.75
375.868	407.75
376.094	428.75
376.319	428.75
376.545	421.75
376.771	420.75
376.997	405.75
377.222	403.75
377.448	407.75
377.674	417.75
377.899	408.75
378.125	410.75
378.35	415.75
378.576	395.75
378.802	398.75
379.027	412.75
379.253	414.75
379.478	410.75
379.704	415.75
379.929	407.75
380.155	389.75
380.38	431.75
380.606	428.75
380.831	406.75
381.057	413.75
381.282	405.75
381.507	410.75
381.733	409.75
381.958	424.75
382.184	444.75
382.409	428.75
382.634	445.75
382.86	437.75
383.085	447.75
383.31	439.75
383.535	432.75
383.761	427.75
383.986	429.75
384.211	431.75
384.436	444.75
384.662	463.75
384.887	451.75
385.112	484.75
385.337	462.75
385.562	473.75
385.787	459.75
386.013	456.75
386.238	460.75
386.463	461.75
386.688	467.75
386.913	462.75
387.138	443.75
387.363	467.75
387.588	452.75
387.813	472.75
388.038	455.75
388.263	489.75
388.488	483.75
388.713	443.75
388.938	454.75
389.163	474.75
389.387	470.75
389.612	478.75
389.837	467.75
390.062	452.75
390.287	461.75
390.512	441.75
390.736	461.75
390.961	473.75
391.186	493.75
391.411	467.75
391.636	490.75
391.86	482.75
392.085	474.75
392.31	461.75
392.534	497.75
392.759	492.75
392.984	481.75
393.208	465.75
393.433	465.75
393.658	485.75
393.882	461.75
394.107	484.75
394.331	457.75
394.556	459.75
394.78	482.75
395.005	497.75
395.229	460.75
395.454	490.75
395.678	494.75
395.903	481.75
396.127	516.75
396.352	525.75
396.576	523.75
396.801	486.75
397.025	479.75
397.249	471.75
397.474	506.75
397.698	478.75
397.922	521.75
398.147	536.75
398.371	532.75
398.595	538.75
398.82	528.75
399.044	538.75
399.268	578.75
399.492	604.75
399.717	654.75
399.941	667.75
400.165	669.75
400.389	679.75
400.613	605.75
400.837	579.75
401.062	545.75
401.286	559.75
401.51	532.75
401.734	522.75
401.958	542.75
402.182	507.75
402.406	582.75
402.63	559.75
402.854	544.75
403.078	562.75
403.302	541.75
403.526	577.75
403.75	589.75
403.974	554.75
404.198	581.75
404.422	573.75
404.645	574.75
404.869	579.75
405.093	593.75
405.317	632.75
405.541	681.75
405.765	607.75
405.988	606.75
406.212	604.75
406.436	606.75
406.66	621.75
406.883	601.75
407.107	642.75
407.331	651.75
407.555	744.75
407.778	740.75
408.002	701.75
408.226	616.75
408.449	611.75
408.673	596.75
408.896	614.75
409.12	688.75
409.344	647.75
409.567	561.75
409.791	587.75
410.014	575.75
410.238	567.75
410.461	545.75
410.685	561.75
410.908	586.75
411.132	602.75
411.355	632.75
411.578	628.75
411.802	561.75
412.025	556.75
412.249	582.75
412.472	595.75
412.695	619.75
412.919	637.75
413.142	562.75
413.365	541.75
413.589	535.75
413.812	545.75
414.035	531.75
414.258	535.75
414.482	530.75
414.705	536.75
414.928	524.75
415.151	526.75
415.374	501.75
415.597	507.75
415.821	528.75
416.044	531.75
416.267	548.75
416.49	527.75
416.713	506.75
416.936	520.75
417.159	528.75
417.382	525.75
417.605	533.75
417.828	530.75
418.051	558.75
418.274	552.75
418.497	522.75
418.72	519.75
418.943	523.75
419.166	561.75
419.389	591.75
419.611	588.75
419.834	575.75
420.057	590.75
420.28	565.75
420.503	534.75
420.726	556.75
420.948	568.75
421.171	602.75
421.394	639.75
421.617	570.75
421.839	566.75
422.062	557.75
422.285	587.75
422.507	610.75
422.73	705.75
422.953	677.75
423.175	607.75
423.398	584.75
423.621	581.75
423.843	595.75
424.066	600.75
424.288	593.75
424.511	611.75
424.733	661.75
424.956	753.75
425.178	720.75
425.401	688.75
425.623	712.75
425.846	598.75
426.068	586.75
426.291	563.75
426.513	576.75
426.735	592.75
426.958	640.75
427.18	708.75
427.402	814.75
427.625	918.75
427.847	773.75
428.069	693.75
428.292	595.75
428.514	568.75
428.736	550.75
428.958	547.75
429.181	530.75
429.403	529.75
429.625	541.75
429.847	571.75
430.069	633.75
430.292	631.75
430.514	550.75
430.736	522.75
430.958	515.75
431.18	497.75
431.402	522.75
431.624	502.75
431.846	522.75
432.068	516.75
432.29	509.75
432.512	518.75
432.734	516.75
432.956	505.75
433.178	513.75
433.4	521.75
433.622	506.75
433.844	517.75
434.066	502.75
434.287	515.75
434.509	515.75
434.731	524.75
434.953	537.75
435.175	542.75
435.397	583.75
435.618	577.75
435.84	614.75
436.062	708.75
436.284	770.75
436.505	662.75
436.727	600.75
436.949	565.75
437.17	521.75
437.392	507.75
437.614	546.75
437.835	568.75
438.057	629.75
438.278	770.75
438.5	763.75
438.721	826.75
438.943	824.75
439.165	643.75
439.386	591.75
439.608	566.75
439.829	579.75
440.05	613.75
440.272	620.75
440.493	606.75
440.715	576.75
440.936	546.75
441.158	549.75
441.379	546.75
441.6	535.75
441.822	580.75
442.043	605.75
442.264	704.75
442.486	759.75
442.707	653.75
442.928	579.75
443.149	585.75
443.371	630.75
443.592	663.75
443.813	746.75
444.034	811.75
444.255	676.75
444.476	622.75
444.698	645.75
444.919	627.75
445.14	727.75
445.361	684.75
445.582	616.75
445.803	654.75
446.024	775.75
446.245	795.75
446.466	723.75
446.687	586.75
446.908	579.75
447.129	540.75
447.35	557.75
447.571	514.75
447.792	514.75
448.013	524.75
448.234	537.75
448.455	582.75
448.675	686.75
448.896	831.75
449.117	684.75
449.338	649.75
449.559	748.75
449.779	856.75
450	680.75
450.221	570.75
450.442	533.75
450.662	515.75
450.883	517.75
451.104	513.75
451.324	528.75
451.545	516.75
451.766	484.75
451.986	452.75
452.207	452.75
452.428	469.75
452.648	484.75
452.869	484.75
453.089	486.75
453.31	490.75
453.53	488.75
453.751	451.75
453.971	453.75
454.192	486.75
454.412	450.75
454.633	451.75
454.853	458.75
455.073	467.75
455.294	490.75
455.514	553.75
455.734	556.75
455.955	492.75
456.175	464.75
456.395	471.75
456.616	438.75
456.836	446.75
457.056	441.75
457.276	441.75
457.497	434.75
457.717	454.75
457.937	470.75
458.157	441.75
458.377	474.75
458.598	474.75
458.818	534.75
459.038	601.75
459.258	603.75
459.478	547.75
459.698	536.75
459.918	503.75
460.138	506.75
460.358	523.75
460.578	526.75
460.798	524.75
461.018	528.75
461.238	517.75
461.458	534.75
461.678	513.75
461.898	539.75
462.118	532.75
462.338	554.75
462.558	564.75
462.777	566.75
462.997	582.75
463.217	605.75
463.437	610.75
463.657	575.75
463.876	572.75
464.096	593.75
464.316	586.75
464.536	574.75
464.755	577.75
464.975	572.75
465.195	556.75
465.414	623.75
465.634	558.75
465.854	537.75
466.073	521.75
466.293	492.75
466.512	481.75
466.732	497.75
466.951	479.75
467.171	487.75
467.391	498.75
467.61	506.75
467.829	492.75
468.049	509.75
468.268	519.75
468.488	467.75
468.707	480.75
468.927	493.75
469.146	477.75
469.365	481.75
469.585	478.75
469.804	494.75
470.023	493.75
470.243	519.75
470.462	503.75
470.681	515.75
470.901	504.75
471.12	535.75
471.339	510.75
471.558	499.75
471.777	509.75
471.997	479.75
472.216	492.75
472.435	517.75
472.654	492.75
472.873	485.75
473.092	483.75
473.311	472.75
473.53	481.75
473.749	493.75
473.968	526.75
474.187	635.75
474.406	640.75
474.625	550.75
474.844	493.75
475.063	495.75
475.282	500.75
475.501	488.75
475.72	508.75
475.939	497.75
476.158	498.75
476.377	505.75
476.596	521.75
476.814	508.75
477.033	535.75
477.252	495.75
477.471	517.75
477.69	542.75
477.908	550.75
478.127	540.75
478.346	539.75
478.564	554.75
478.783	553.75
479.002	575.75
479.22	562.75
479.439	586.75
479.658	619.75
479.876	598.75
480.095	610.75
480.313	618.75
480.532	631.75
480.751	625.75
480.969	622.75
481.188	647.75
481.406	674.75
481.624	615.75
481.843	601.75
482.061	568.75
482.28	569.75
482.498	559.75
482.717	558.75
482.935	563.75
483.153	582.75
483.372	553.75
483.59	571.75
483.808	568.75
484.027	581.75
484.245	574.75
484.463	575.75
484.681	562.75
484.9	586.75
485.118	587.75
485.336	605.75
485.554	574.75
485.772	612.75
485.99	583.75
486.209	604.75
486.427	597.75
486.645	598.75
486.863	602.75
487.081	601.75
487.299	627.75
487.517	604.75
487.735	618.75
487.953	610.75
488.171	620.75
488.389	610.75
488.607	632.75
488.825	601.75
489.043	605.75
489.261	614.75
489.479	609.75
489.696	622.75
489.914	585.75
490.132	643.75
490.35	639.75
490.568	649.75
490.786	650.75
491.003	665.75
491.221	682.75
491.439	694.75
491.657	674.75
491.874	704.75
492.092	701.75
492.31	712.75
492.527	703.75
492.745	691.75
492.963	692.75
493.18	712.75
493.398	728.75
493.615	732.75
493.833	727.75
494.05	721.75
494.268	726.75
494.485	713.75
494.703	729.75
494.92	746.75
495.138	730.75
495.355	729.75
495.573	708.75
495.79	727.75
496.008	727.75
496.225	722.75
496.442	724.75
496.66	715.75
496.877	728.75
497.094	735.75
497.312	744.75
497.529	773.75
497.746	746.75
497.963	773.75
498.181	807.75
498.398	803.75
498.615	833.75
498.832	832.75
499.049	875.75
499.267	902.75
499.484	919.75
499.701	977.75
499.918	1014.75
500.135	1068.75
500.352	1111.75
500.569	1163.75
500.786	1189.75
501.003	1134.75
501.22	1110.75
501.437	1052.75
501.654	1003.75
