Data from 1976.PennyLincolnUp.Lamp.En5.5.200Scan.071719.P1.Changed Mount._HRD10591_15-59-48-860.txt Node
Date: Thu Jul 18 15:59:48 EDT 2019
User: cochatt
Spectrometer: HR+D1059
Trigger mode: 1
Integration Time (sec): 1.000000E-1
Scans to average: 1
Electric dark correction enabled: true
Nonlinearity correction enabled: false
Boxcar width: 0
XAxis mode: Wavelengths
Number of Pixels in Spectrum: 2048
>>>>>Begin Spectral Data<<<<<
223.165	-24.81
223.4	-24.81
223.635	-24.81
223.869	-20.81
224.104	-22.81
224.338	-18.81
224.573	-0.81
224.808	2.19
225.042	-3.81
225.277	-12.81
225.511	10.19
225.746	0.19
225.98	-1.81
226.215	10.19
226.449	20.19
226.683	13.19
226.918	22.19
227.152	28.19
227.387	35.19
227.621	41.19
227.856	38.19
228.09	50.19
228.324	45.19
228.559	49.19
228.793	59.19
229.027	89.19
229.262	95.19
229.496	124.19
229.73	112.19
229.964	117.19
230.199	123.19
230.433	104.19
230.667	96.19
230.901	113.19
231.136	111.19
231.37	113.19
231.604	107.19
231.838	109.19
232.072	109.19
232.306	104.19
232.541	105.19
232.775	103.19
233.009	89.19
233.243	99.19
233.477	96.19
233.711	104.19
233.945	113.19
234.179	121.19
234.413	99.19
234.647	98.19
234.881	118.19
235.115	120.19
235.349	95.19
235.583	122.19
235.817	107.19
236.051	103.19
236.285	110.19
236.519	113.19
236.753	130.19
236.987	112.19
237.221	158.19
237.455	193.19
237.689	184.19
237.922	114.19
238.156	125.19
238.39	117.19
238.624	122.19
238.858	131.19
239.091	112.19
239.325	105.19
239.559	117.19
239.793	115.19
240.027	127.19
240.26	134.19
240.494	145.19
240.728	144.19
240.961	139.19
241.195	143.19
241.429	120.19
241.662	131.19
241.896	129.19
242.13	121.19
242.363	128.19
242.597	121.19
242.83	126.19
243.064	141.19
243.298	109.19
243.531	122.19
243.765	145.19
243.998	151.19
244.232	133.19
244.465	153.19
244.699	132.19
244.932	146.19
245.166	135.19
245.399	130.19
245.633	143.19
245.866	139.19
246.099	137.19
246.333	159.19
246.566	149.19
246.8	144.19
247.033	137.19
247.266	143.19
247.5	147.19
247.733	159.19
247.966	166.19
248.2	149.19
248.433	160.19
248.666	153.19
248.899	171.19
249.133	177.19
249.366	188.19
249.599	199.19
249.832	183.19
250.066	167.19
250.299	176.19
250.532	168.19
250.765	184.19
250.998	211.19
251.231	226.19
251.465	197.19
251.698	196.19
251.931	186.19
252.164	180.19
252.397	177.19
252.63	199.19
252.863	201.19
253.096	187.19
253.329	203.19
253.562	209.19
253.795	204.19
254.028	200.19
254.261	193.19
254.494	220.19
254.727	229.19
254.96	257.19
255.193	234.19
255.426	220.19
255.659	197.19
255.892	208.19
256.124	221.19
256.357	213.19
256.59	206.19
256.823	211.19
257.056	183.19
257.289	199.19
257.521	204.19
257.754	197.19
257.987	186.19
258.22	207.19
258.452	195.19
258.685	202.19
258.918	210.19
259.151	204.19
259.383	216.19
259.616	227.19
259.849	219.19
260.081	253.19
260.314	238.19
260.547	235.19
260.779	230.19
261.012	216.19
261.244	216.19
261.477	214.19
261.71	214.19
261.942	209.19
262.175	201.19
262.407	216.19
262.64	215.19
262.872	203.19
263.105	209.19
263.337	197.19
263.57	201.19
263.802	198.19
264.035	207.19
264.267	212.19
264.499	204.19
264.732	202.19
264.964	212.19
265.197	212.19
265.429	208.19
265.661	214.19
265.894	211.19
266.126	197.19
266.358	210.19
266.591	215.19
266.823	202.19
267.055	217.19
267.287	238.19
267.52	217.19
267.752	214.19
267.984	217.19
268.216	213.19
268.448	233.19
268.681	224.19
268.913	253.19
269.145	245.19
269.377	258.19
269.609	235.19
269.841	239.19
270.073	263.19
270.306	290.19
270.538	283.19
270.77	289.19
271.002	270.19
271.234	281.19
271.466	273.19
271.698	282.19
271.93	296.19
272.162	288.19
272.394	294.19
272.626	305.19
272.858	289.19
273.09	270.19
273.322	256.19
273.553	265.19
273.785	262.19
274.017	255.19
274.249	259.19
274.481	271.19
274.713	287.19
274.945	257.19
275.176	247.19
275.408	266.19
275.64	261.19
275.872	280.19
276.104	237.19
276.335	253.19
276.567	261.19
276.799	264.19
277.031	263.19
277.262	303.19
277.494	296.19
277.726	291.19
277.957	282.19
278.189	255.19
278.421	245.19
278.652	279.19
278.884	267.19
279.115	261.19
279.347	271.19
279.579	278.19
279.81	257.19
280.042	245.19
280.273	262.19
280.505	284.19
280.736	279.19
280.968	265.19
281.199	247.19
281.431	267.19
281.662	274.19
281.894	264.19
282.125	271.19
282.356	273.19
282.588	306.19
282.819	312.19
283.051	271.19
283.282	265.19
283.513	266.19
283.745	269.19
283.976	285.19
284.207	282.19
284.439	272.19
284.67	283.19
284.901	283.19
285.132	285.19
285.364	284.19
285.595	267.19
285.826	264.19
286.057	306.19
286.288	297.19
286.52	283.19
286.751	274.19
286.982	295.19
287.213	271.19
287.444	283.19
287.675	288.19
287.906	290.19
288.138	317.19
288.369	310.19
288.6	311.19
288.831	294.19
289.062	295.19
289.293	278.19
289.524	300.19
289.755	292.19
289.986	287.19
290.217	291.19
290.448	282.19
290.679	293.19
290.91	307.19
291.141	282.19
291.371	286.19
291.602	281.19
291.833	288.19
292.064	317.19
292.295	301.19
292.526	278.19
292.757	295.19
292.987	295.19
293.218	283.19
293.449	301.19
293.68	279.19
293.91	292.19
294.141	305.19
294.372	290.19
294.603	297.19
294.833	310.19
295.064	296.19
295.295	294.19
295.525	261.19
295.756	268.19
295.987	299.19
296.217	304.19
296.448	320.19
296.679	290.19
296.909	298.19
297.14	303.19
297.37	298.19
297.601	310.19
297.831	319.19
298.062	319.19
298.292	287.19
298.523	312.19
298.753	327.19
298.984	320.19
299.214	291.19
299.445	299.19
299.675	321.19
299.905	316.19
300.136	314.19
300.366	299.19
300.597	317.19
300.827	315.19
301.057	339.19
301.288	329.19
301.518	331.19
301.748	335.19
301.979	328.19
302.209	317.19
302.439	346.19
302.669	321.19
302.9	328.19
303.13	331.19
303.36	333.19
303.59	347.19
303.82	337.19
304.051	348.19
304.281	322.19
304.511	320.19
304.741	331.19
304.971	318.19
305.201	337.19
305.431	322.19
305.661	343.19
305.891	331.19
306.121	336.19
306.352	325.19
306.582	326.19
306.812	331.19
307.042	325.19
307.272	340.19
307.502	324.19
307.731	328.19
307.961	344.19
308.191	305.19
308.421	333.19
308.651	342.19
308.881	324.19
309.111	344.19
309.341	331.19
309.571	365.19
309.8	363.19
310.03	329.19
310.26	344.19
310.49	359.19
310.72	356.19
310.949	368.19
311.179	353.19
311.409	356.19
311.639	362.19
311.868	351.19
312.098	374.19
312.328	366.19
312.557	362.19
312.787	375.19
313.017	370.19
313.246	367.19
313.476	352.19
313.706	387.19
313.935	376.19
314.165	376.19
314.394	373.19
314.624	371.19
314.853	365.19
315.083	360.19
315.312	384.19
315.542	369.19
315.771	353.19
316.001	369.19
316.23	371.19
316.46	375.19
316.689	368.19
316.919	382.19
317.148	391.19
317.377	373.19
317.607	355.19
317.836	359.19
318.065	366.19
318.295	375.19
318.524	372.19
318.753	363.19
318.983	367.19
319.212	371.19
319.441	374.19
319.67	369.19
319.9	371.19
320.129	380.19
320.358	362.19
320.587	375.19
320.816	369.19
321.046	377.19
321.275	376.19
321.504	387.19
321.733	388.19
321.962	385.19
322.191	414.19
322.42	386.19
322.649	414.19
322.878	396.19
323.108	424.19
323.337	420.19
323.566	433.19
323.795	461.19
324.024	493.19
324.253	558.19
324.482	723.19
324.71	1094.19
324.939	1633.19
325.168	1417.19
325.397	750.19
325.626	531.19
325.855	470.19
326.084	441.19
326.313	447.19
326.542	440.19
326.77	473.19
326.999	541.19
327.228	722.19
327.457	1032.19
327.686	1263.19
327.914	821.19
328.143	585.19
328.372	517.19
328.6	503.19
328.829	488.19
329.058	489.19
329.287	489.19
329.515	474.19
329.744	442.19
329.972	453.19
330.201	447.19
330.43	476.19
330.658	521.19
330.887	505.19
331.115	507.19
331.344	454.19
331.572	461.19
331.801	434.19
332.03	433.19
332.258	444.19
332.486	438.19
332.715	442.19
332.943	452.19
333.172	441.19
333.4	454.19
333.629	463.19
333.857	471.19
334.085	491.19
334.314	502.19
334.542	483.19
334.771	497.19
334.999	457.19
335.227	450.19
335.455	456.19
335.684	437.19
335.912	445.19
336.14	464.19
336.369	439.19
336.597	443.19
336.825	434.19
337.053	440.19
337.281	424.19
337.51	432.19
337.738	442.19
337.966	425.19
338.194	433.19
338.422	426.19
338.65	423.19
338.878	430.19
339.106	431.19
339.334	426.19
339.562	417.19
339.79	420.19
340.018	397.19
340.246	404.19
340.474	411.19
340.702	412.19
340.93	424.19
341.158	407.19
341.386	400.19
341.614	423.19
341.842	405.19
342.07	424.19
342.298	406.19
342.526	406.19
342.754	415.19
342.981	407.19
343.209	405.19
343.437	408.19
343.665	424.19
343.893	454.19
344.12	455.19
344.348	431.19
344.576	440.19
344.804	446.19
345.031	427.19
345.259	433.19
345.487	448.19
345.714	432.19
345.942	403.19
346.17	422.19
346.397	395.19
346.625	413.19
346.853	393.19
347.08	404.19
347.308	410.19
347.535	412.19
347.763	410.19
347.99	393.19
348.218	391.19
348.445	408.19
348.673	418.19
348.9	383.19
349.128	397.19
349.355	397.19
349.583	378.19
349.81	385.19
350.037	396.19
350.265	378.19
350.492	408.19
350.72	401.19
350.947	395.19
351.174	390.19
351.402	391.19
351.629	425.19
351.856	393.19
352.083	393.19
352.311	416.19
352.538	412.19
352.765	402.19
352.992	401.19
353.22	377.19
353.447	400.19
353.674	410.19
353.901	401.19
354.128	386.19
354.355	378.19
354.583	394.19
354.81	387.19
355.037	401.19
355.264	383.19
355.491	391.19
355.718	398.19
355.945	373.19
356.172	382.19
356.399	387.19
356.626	369.19
356.853	371.19
357.08	379.19
357.307	381.19
357.534	381.19
357.761	397.19
357.988	385.19
358.215	362.19
358.441	381.19
358.668	370.19
358.895	389.19
359.122	401.19
359.349	380.19
359.576	391.19
359.802	415.19
360.029	425.19
360.256	430.19
360.483	430.19
360.709	429.19
360.936	415.19
361.163	399.19
361.39	385.19
361.616	404.19
361.843	396.19
362.07	392.19
362.296	395.19
362.523	394.19
362.749	378.19
362.976	377.19
363.203	389.19
363.429	401.19
363.656	401.19
363.882	390.19
364.109	393.19
364.335	377.19
364.562	381.19
364.788	405.19
365.015	385.19
365.241	399.19
365.468	387.19
365.694	376.19
365.92	388.19
366.147	395.19
366.373	410.19
366.599	379.19
366.826	378.19
367.052	377.19
367.278	385.19
367.505	390.19
367.731	383.19
367.957	371.19
368.184	400.19
368.41	392.19
368.636	388.19
368.862	396.19
369.089	404.19
369.315	390.19
369.541	389.19
369.767	382.19
369.993	396.19
370.219	390.19
370.445	407.19
370.672	403.19
370.898	401.19
371.124	398.19
371.35	393.19
371.576	414.19
371.802	397.19
372.028	399.19
372.254	392.19
372.48	399.19
372.706	399.19
372.932	376.19
373.158	408.19
373.384	423.19
373.61	393.19
373.835	389.19
374.061	397.19
374.287	402.19
374.513	405.19
374.739	395.19
374.965	404.19
375.191	396.19
375.416	415.19
375.642	413.19
375.868	415.19
376.094	399.19
376.319	396.19
376.545	384.19
376.771	394.19
376.997	394.19
377.222	404.19
377.448	412.19
377.674	387.19
377.899	401.19
378.125	393.19
378.35	388.19
378.576	375.19
378.802	371.19
379.027	404.19
379.253	384.19
379.478	389.19
379.704	384.19
379.929	405.19
380.155	409.19
380.38	390.19
380.606	415.19
380.831	405.19
381.057	374.19
381.282	391.19
381.507	379.19
381.733	393.19
381.958	409.19
382.184	424.19
382.409	408.19
382.634	417.19
382.86	414.19
383.085	411.19
383.31	413.19
383.535	417.19
383.761	424.19
383.986	424.19
384.211	424.19
384.436	435.19
384.662	415.19
384.887	443.19
385.112	423.19
385.337	442.19
385.562	438.19
385.787	448.19
386.013	462.19
386.238	450.19
386.463	448.19
386.688	441.19
386.913	442.19
387.138	444.19
387.363	453.19
387.588	449.19
387.813	436.19
388.038	458.19
388.263	450.19
388.488	455.19
388.713	429.19
388.938	459.19
389.163	433.19
389.387	459.19
389.612	426.19
389.837	446.19
390.062	436.19
390.287	426.19
390.512	420.19
390.736	443.19
390.961	452.19
391.186	444.19
391.411	462.19
391.636	433.19
391.86	464.19
392.085	473.19
392.31	451.19
392.534	479.19
392.759	457.19
392.984	440.19
393.208	441.19
393.433	454.19
393.658	443.19
393.882	466.19
394.107	448.19
394.331	458.19
394.556	445.19
394.78	453.19
395.005	452.19
395.229	437.19
395.454	455.19
395.678	469.19
395.903	498.19
396.127	493.19
396.352	508.19
396.576	460.19
396.801	463.19
397.025	462.19
397.249	510.19
397.474	496.19
397.698	488.19
397.922	493.19
398.147	484.19
398.371	511.19
398.595	513.19
398.82	505.19
399.044	521.19
399.268	549.19
399.492	577.19
399.717	642.19
399.941	644.19
400.165	642.19
400.389	643.19
400.613	584.19
400.837	562.19
401.062	537.19
401.286	528.19
401.51	509.19
401.734	512.19
401.958	513.19
402.182	531.19
402.406	543.19
402.63	530.19
402.854	544.19
403.078	538.19
403.302	544.19
403.526	553.19
403.75	529.19
403.974	543.19
404.198	536.19
404.422	572.19
404.645	584.19
404.869	545.19
405.093	570.19
405.317	593.19
405.541	646.19
405.765	585.19
405.988	554.19
406.212	577.19
406.436	569.19
406.66	576.19
406.883	587.19
407.107	627.19
407.331	631.19
407.555	718.19
407.778	715.19
408.002	656.19
408.226	617.19
408.449	609.19
408.673	578.19
408.896	624.19
409.12	637.19
409.344	597.19
409.567	573.19
409.791	545.19
410.014	538.19
410.238	549.19
410.461	539.19
410.685	566.19
410.908	549.19
411.132	579.19
411.355	623.19
411.578	578.19
411.802	543.19
412.025	545.19
412.249	524.19
412.472	577.19
412.695	588.19
412.919	585.19
413.142	512.19
413.365	527.19
413.589	521.19
413.812	532.19
414.035	521.19
414.258	525.19
414.482	498.19
414.705	511.19
414.928	496.19
415.151	511.19
415.374	505.19
415.597	498.19
415.821	511.19
416.044	524.19
416.267	516.19
416.49	530.19
416.713	494.19
416.936	513.19
417.159	504.19
417.382	510.19
417.605	496.19
417.828	533.19
418.051	532.19
418.274	514.19
418.497	523.19
418.72	511.19
418.943	488.19
419.166	524.19
419.389	550.19
419.611	542.19
419.834	550.19
420.057	549.19
420.28	552.19
420.503	528.19
420.726	515.19
420.948	531.19
421.171	572.19
421.394	583.19
421.617	537.19
421.839	531.19
422.062	541.19
422.285	542.19
422.507	586.19
422.73	638.19
422.953	628.19
423.175	574.19
423.398	535.19
423.621	530.19
423.843	577.19
424.066	563.19
424.288	564.19
424.511	578.19
424.733	584.19
424.956	715.19
425.178	666.19
425.401	660.19
425.623	674.19
425.846	544.19
426.068	526.19
426.291	562.19
426.513	546.19
426.735	577.19
426.958	585.19
427.18	663.19
427.402	787.19
427.625	870.19
427.847	728.19
428.069	641.19
428.292	582.19
428.514	542.19
428.736	539.19
428.958	515.19
429.181	506.19
429.403	510.19
429.625	501.19
429.847	529.19
430.069	584.19
430.292	575.19
430.514	513.19
430.736	502.19
430.958	498.19
431.18	480.19
431.402	487.19
431.624	481.19
431.846	499.19
432.068	475.19
432.29	490.19
432.512	480.19
432.734	484.19
432.956	464.19
433.178	497.19
433.4	497.19
433.622	482.19
433.844	485.19
434.066	498.19
434.287	499.19
434.509	508.19
434.731	509.19
434.953	533.19
435.175	532.19
435.397	534.19
435.618	560.19
435.84	573.19
436.062	672.19
436.284	728.19
436.505	627.19
436.727	537.19
436.949	515.19
437.17	499.19
437.392	489.19
437.614	511.19
437.835	527.19
438.057	616.19
438.278	728.19
438.5	701.19
438.721	791.19
438.943	756.19
439.165	598.19
439.386	553.19
439.608	520.19
439.829	551.19
440.05	559.19
440.272	591.19
440.493	573.19
440.715	540.19
440.936	516.19
441.158	503.19
441.379	517.19
441.6	536.19
441.822	527.19
442.043	590.19
442.264	634.19
442.486	698.19
442.707	598.19
442.928	561.19
443.149	549.19
443.371	581.19
443.592	601.19
443.813	704.19
444.034	765.19
444.255	664.19
444.476	570.19
444.698	573.19
444.919	597.19
445.14	687.19
445.361	606.19
445.582	581.19
445.803	641.19
446.024	715.19
446.245	718.19
446.466	697.19
446.687	587.19
446.908	532.19
447.129	539.19
447.35	523.19
447.571	489.19
447.792	493.19
448.013	468.19
448.234	503.19
448.455	553.19
448.675	652.19
448.896	793.19
449.117	653.19
449.338	603.19
449.559	692.19
449.779	802.19
450	643.19
450.221	529.19
450.442	490.19
450.662	501.19
450.883	498.19
451.104	497.19
451.324	481.19
451.545	473.19
451.766	443.19
451.986	450.19
452.207	447.19
452.428	443.19
452.648	443.19
452.869	457.19
453.089	455.19
453.31	480.19
453.53	457.19
453.751	440.19
453.971	453.19
454.192	439.19
454.412	448.19
454.633	442.19
454.853	441.19
455.073	437.19
455.294	463.19
455.514	509.19
455.734	516.19
455.955	444.19
456.175	435.19
456.395	421.19
456.616	426.19
456.836	401.19
457.056	448.19
457.276	423.19
457.497	415.19
457.717	431.19
457.937	439.19
458.157	419.19
458.377	419.19
458.598	451.19
458.818	481.19
459.038	566.19
459.258	576.19
459.478	493.19
459.698	491.19
459.918	486.19
460.138	501.19
460.358	487.19
460.578	496.19
460.798	511.19
461.018	513.19
461.238	487.19
461.458	487.19
461.678	483.19
461.898	512.19
462.118	505.19
462.338	529.19
462.558	518.19
462.777	543.19
462.997	584.19
463.217	575.19
463.437	581.19
463.657	585.19
463.876	569.19
464.096	547.19
464.316	549.19
464.536	518.19
464.755	531.19
464.975	537.19
465.195	544.19
465.414	589.19
465.634	530.19
465.854	514.19
466.073	499.19
466.293	487.19
466.512	455.19
466.732	473.19
466.951	472.19
467.171	452.19
467.391	469.19
467.61	485.19
467.829	466.19
468.049	467.19
468.268	474.19
468.488	443.19
468.707	442.19
468.927	460.19
469.146	452.19
469.365	437.19
469.585	435.19
469.804	450.19
470.023	474.19
470.243	475.19
470.462	483.19
470.681	478.19
470.901	467.19
471.12	446.19
471.339	465.19
471.558	455.19
471.777	475.19
471.997	455.19
472.216	458.19
472.435	479.19
472.654	467.19
472.873	481.19
473.092	467.19
473.311	458.19
473.53	474.19
473.749	471.19
473.968	512.19
474.187	590.19
474.406	615.19
474.625	512.19
474.844	455.19
475.063	491.19
475.282	464.19
475.501	481.19
475.72	465.19
475.939	488.19
476.158	482.19
476.377	470.19
476.596	466.19
476.814	500.19
477.033	505.19
477.252	497.19
477.471	499.19
477.69	522.19
477.908	530.19
478.127	512.19
478.346	520.19
478.564	508.19
478.783	524.19
479.002	541.19
479.22	531.19
479.439	571.19
479.658	565.19
479.876	577.19
480.095	585.19
480.313	602.19
480.532	610.19
480.751	586.19
480.969	565.19
481.188	613.19
481.406	610.19
481.624	569.19
481.843	546.19
482.061	546.19
482.28	533.19
482.498	538.19
482.717	554.19
482.935	562.19
483.153	559.19
483.372	533.19
483.59	549.19
483.808	545.19
484.027	540.19
484.245	546.19
484.463	520.19
484.681	554.19
484.9	555.19
485.118	562.19
485.336	577.19
485.554	559.19
485.772	576.19
485.99	553.19
486.209	576.19
486.427	562.19
486.645	581.19
486.863	574.19
487.081	581.19
487.299	553.19
487.517	580.19
487.735	597.19
487.953	570.19
488.171	577.19
488.389	600.19
488.607	606.19
488.825	575.19
489.043	597.19
489.261	584.19
489.479	590.19
489.696	595.19
489.914	599.19
490.132	607.19
490.35	606.19
490.568	614.19
490.786	616.19
491.003	621.19
491.221	633.19
491.439	642.19
491.657	628.19
491.874	657.19
492.092	679.19
492.31	667.19
492.527	685.19
492.745	689.19
492.963	682.19
493.18	669.19
493.398	654.19
493.615	663.19
493.833	674.19
494.05	679.19
494.268	673.19
494.485	685.19
494.703	659.19
494.92	691.19
495.138	691.19
495.355	696.19
495.573	689.19
495.79	663.19
496.008	683.19
496.225	674.19
496.442	692.19
496.66	673.19
496.877	704.19
497.094	707.19
497.312	703.19
497.529	730.19
497.746	752.19
497.963	747.19
498.181	778.19
498.398	769.19
498.615	796.19
498.832	796.19
499.049	839.19
499.267	865.19
499.484	888.19
499.701	965.19
499.918	987.19
500.135	1045.19
500.352	1066.19
500.569	1111.19
500.786	1150.19
501.003	1113.19
501.22	1045.19
501.437	1017.19
501.654	971.19
501.871	911.19
