Data from 1976.PennyLincolnUp.Lamp.En5.5.200Scan.071719.P1.Changed Mount._HRD10591_16-02-40-862.txt Node
Date: Thu Jul 18 16:02:40 EDT 2019
User: cochatt
Spectrometer: HR+D1059
Trigger mode: 1
Integration Time (sec): 1.000000E-1
Scans to average: 1
Electric dark correction enabled: true
Nonlinearity correction enabled: false
Boxcar width: 0
XAxis mode: Wavelengths
Number of Pixels in Spectrum: 2048
>>>>>Begin Spectral Data<<<<<
223.165	-24.19
223.4	-24.19
223.635	-24.19
223.869	-20.19
224.104	-4.19
224.338	3.81
224.573	-17.19
224.808	-11.19
225.042	-7.19
225.277	-12.19
225.511	-9.19
225.746	-0.19
225.98	8.81
226.215	17.81
226.449	14.81
226.683	21.81
226.918	15.81
227.152	22.81
227.387	28.81
227.621	46.81
227.856	32.81
228.09	46.81
228.324	47.81
228.559	55.81
228.793	69.81
229.027	100.81
229.262	105.81
229.496	117.81
229.73	147.81
229.964	147.81
230.199	124.81
230.433	117.81
230.667	109.81
230.901	102.81
231.136	103.81
231.37	107.81
231.604	106.81
231.838	122.81
232.072	127.81
232.306	125.81
232.541	109.81
232.775	107.81
233.009	114.81
233.243	102.81
233.477	116.81
233.711	114.81
233.945	128.81
234.179	123.81
234.413	129.81
234.647	113.81
234.881	122.81
235.115	125.81
235.349	126.81
235.583	121.81
235.817	133.81
236.051	136.81
236.285	125.81
236.519	138.81
236.753	137.81
236.987	149.81
237.221	174.81
237.455	245.81
237.689	207.81
237.922	145.81
238.156	145.81
238.39	126.81
238.624	128.81
238.858	143.81
239.091	129.81
239.325	124.81
239.559	134.81
239.793	129.81
240.027	125.81
240.26	141.81
240.494	149.81
240.728	168.81
240.961	145.81
241.195	142.81
241.429	136.81
241.662	127.81
241.896	128.81
242.13	141.81
242.363	143.81
242.597	137.81
242.83	148.81
243.064	147.81
243.298	132.81
243.531	149.81
243.765	153.81
243.998	141.81
244.232	147.81
244.465	140.81
244.699	135.81
244.932	153.81
245.166	143.81
245.399	144.81
245.633	154.81
245.866	147.81
246.099	137.81
246.333	150.81
246.566	167.81
246.8	169.81
247.033	159.81
247.266	163.81
247.5	159.81
247.733	180.81
247.966	181.81
248.2	168.81
248.433	173.81
248.666	185.81
248.899	182.81
249.133	194.81
249.366	205.81
249.599	202.81
249.832	205.81
250.066	173.81
250.299	174.81
250.532	200.81
250.765	201.81
250.998	233.81
251.231	229.81
251.465	220.81
251.698	212.81
251.931	213.81
252.164	210.81
252.397	195.81
252.63	223.81
252.863	218.81
253.096	207.81
253.329	255.81
253.562	231.81
253.795	219.81
254.028	237.81
254.261	215.81
254.494	242.81
254.727	260.81
254.96	274.81
255.193	269.81
255.426	275.81
255.659	247.81
255.892	238.81
256.124	231.81
256.357	236.81
256.59	216.81
256.823	226.81
257.056	225.81
257.289	225.81
257.521	229.81
257.754	231.81
257.987	219.81
258.22	233.81
258.452	215.81
258.685	200.81
258.918	215.81
259.151	203.81
259.383	204.81
259.616	229.81
259.849	233.81
260.081	245.81
260.314	269.81
260.547	262.81
260.779	255.81
261.012	249.81
261.244	219.81
261.477	250.81
261.71	226.81
261.942	230.81
262.175	222.81
262.407	231.81
262.64	229.81
262.872	232.81
263.105	233.81
263.337	237.81
263.57	212.81
263.802	212.81
264.035	222.81
264.267	251.81
264.499	237.81
264.732	219.81
264.964	225.81
265.197	221.81
265.429	235.81
265.661	211.81
265.894	240.81
266.126	232.81
266.358	244.81
266.591	241.81
266.823	242.81
267.055	227.81
267.287	265.81
267.52	242.81
267.752	248.81
267.984	260.81
268.216	232.81
268.448	247.81
268.681	229.81
268.913	265.81
269.145	270.81
269.377	306.81
269.609	290.81
269.841	265.81
270.073	298.81
270.306	321.81
270.538	336.81
270.77	331.81
271.002	341.81
271.234	311.81
271.466	318.81
271.698	311.81
271.93	321.81
272.162	323.81
272.394	337.81
272.626	319.81
272.858	288.81
273.09	291.81
273.322	290.81
273.553	270.81
273.785	289.81
274.017	271.81
274.249	275.81
274.481	276.81
274.713	285.81
274.945	278.81
275.176	268.81
275.408	284.81
275.64	271.81
275.872	289.81
276.104	293.81
276.335	296.81
276.567	289.81
276.799	301.81
277.031	319.81
277.262	332.81
277.494	346.81
277.726	314.81
277.957	315.81
278.189	300.81
278.421	300.81
278.652	307.81
278.884	283.81
279.115	272.81
279.347	290.81
279.579	303.81
279.81	279.81
280.042	286.81
280.273	293.81
280.505	291.81
280.736	282.81
280.968	291.81
281.199	282.81
281.431	289.81
281.662	279.81
281.894	296.81
282.125	295.81
282.356	308.81
282.588	322.81
282.819	334.81
283.051	297.81
283.282	308.81
283.513	291.81
283.745	298.81
283.976	307.81
284.207	309.81
284.439	295.81
284.67	306.81
284.901	313.81
285.132	290.81
285.364	295.81
285.595	309.81
285.826	290.81
286.057	307.81
286.288	306.81
286.52	286.81
286.751	309.81
286.982	312.81
287.213	322.81
287.444	324.81
287.675	301.81
287.906	315.81
288.138	321.81
288.369	326.81
288.6	325.81
288.831	348.81
289.062	329.81
289.293	329.81
289.524	307.81
289.755	333.81
289.986	314.81
290.217	326.81
290.448	299.81
290.679	338.81
290.91	316.81
291.141	303.81
291.371	319.81
291.602	320.81
291.833	310.81
292.064	315.81
292.295	305.81
292.526	315.81
292.757	316.81
292.987	319.81
293.218	302.81
293.449	327.81
293.68	319.81
293.91	299.81
294.141	317.81
294.372	314.81
294.603	323.81
294.833	342.81
295.064	316.81
295.295	314.81
295.525	317.81
295.756	333.81
295.987	334.81
296.217	335.81
296.448	371.81
296.679	334.81
296.909	321.81
297.14	310.81
297.37	320.81
297.601	322.81
297.831	314.81
298.062	315.81
298.292	334.81
298.523	332.81
298.753	337.81
298.984	334.81
299.214	333.81
299.445	326.81
299.675	342.81
299.905	333.81
300.136	329.81
300.366	321.81
300.597	363.81
300.827	359.81
301.057	347.81
301.288	385.81
301.518	343.81
301.748	371.81
301.979	349.81
302.209	351.81
302.439	358.81
302.669	346.81
302.9	357.81
303.13	358.81
303.36	357.81
303.59	375.81
303.82	354.81
304.051	357.81
304.281	353.81
304.511	361.81
304.741	354.81
304.971	329.81
305.201	353.81
305.431	371.81
305.661	352.81
305.891	365.81
306.121	371.81
306.352	343.81
306.582	357.81
306.812	363.81
307.042	361.81
307.272	358.81
307.502	349.81
307.731	363.81
307.961	371.81
308.191	347.81
308.421	358.81
308.651	348.81
308.881	374.81
309.111	357.81
309.341	371.81
309.571	371.81
309.8	377.81
310.03	387.81
310.26	388.81
310.49	403.81
310.72	407.81
310.949	382.81
311.179	404.81
311.409	393.81
311.639	395.81
311.868	404.81
312.098	389.81
312.328	390.81
312.557	440.81
312.787	433.81
313.017	413.81
313.246	402.81
313.476	395.81
313.706	427.81
313.935	404.81
314.165	418.81
314.394	435.81
314.624	420.81
314.853	403.81
315.083	410.81
315.312	407.81
315.542	412.81
315.771	393.81
316.001	406.81
316.23	389.81
316.46	413.81
316.689	409.81
316.919	401.81
317.148	404.81
317.377	413.81
317.607	394.81
317.836	395.81
318.065	390.81
318.295	387.81
318.524	396.81
318.753	400.81
318.983	395.81
319.212	384.81
319.441	394.81
319.67	408.81
319.9	403.81
320.129	387.81
320.358	403.81
320.587	382.81
320.816	400.81
321.046	435.81
321.275	417.81
321.504	420.81
321.733	435.81
321.962	417.81
322.191	431.81
322.42	449.81
322.649	452.81
322.878	453.81
323.108	452.81
323.337	485.81
323.566	476.81
323.795	532.81
324.024	547.81
324.253	649.81
324.482	911.81
324.71	1376.81
324.939	2024.81
325.168	1787.81
325.397	847.81
325.626	635.81
325.855	546.81
326.084	509.81
326.313	503.81
326.542	530.81
326.77	559.81
326.999	643.81
327.228	843.81
327.457	1236.81
327.686	1537.81
327.914	1047.81
328.143	691.81
328.372	625.81
328.6	575.81
328.829	565.81
329.058	565.81
329.287	578.81
329.515	560.81
329.744	527.81
329.972	512.81
330.201	538.81
330.43	566.81
330.658	580.81
330.887	617.81
331.115	605.81
331.344	526.81
331.572	499.81
331.801	509.81
332.03	496.81
332.258	508.81
332.486	484.81
332.715	491.81
332.943	482.81
333.172	498.81
333.4	500.81
333.629	486.81
333.857	528.81
334.085	530.81
334.314	565.81
334.542	548.81
334.771	565.81
334.999	528.81
335.227	498.81
335.455	499.81
335.684	507.81
335.912	489.81
336.14	463.81
336.369	483.81
336.597	483.81
336.825	470.81
337.053	474.81
337.281	482.81
337.51	497.81
337.738	468.81
337.966	473.81
338.194	468.81
338.422	451.81
338.65	466.81
338.878	474.81
339.106	458.81
339.334	466.81
339.562	459.81
339.79	439.81
340.018	461.81
340.246	469.81
340.474	481.81
340.702	467.81
340.93	465.81
341.158	445.81
341.386	446.81
341.614	462.81
341.842	437.81
342.07	459.81
342.298	453.81
342.526	432.81
342.754	446.81
342.981	438.81
343.209	446.81
343.437	437.81
343.665	473.81
343.893	465.81
344.12	491.81
344.348	494.81
344.576	468.81
344.804	489.81
345.031	469.81
345.259	472.81
345.487	491.81
345.714	462.81
345.942	429.81
346.17	451.81
346.397	444.81
346.625	427.81
346.853	434.81
347.08	422.81
347.308	464.81
347.535	436.81
347.763	450.81
347.99	451.81
348.218	445.81
348.445	449.81
348.673	448.81
348.9	429.81
349.128	449.81
349.355	460.81
349.583	434.81
349.81	412.81
350.037	428.81
350.265	414.81
350.492	417.81
350.72	438.81
350.947	435.81
351.174	441.81
351.402	439.81
351.629	441.81
351.856	451.81
352.083	437.81
352.311	447.81
352.538	454.81
352.765	451.81
352.992	421.81
353.22	437.81
353.447	451.81
353.674	438.81
353.901	428.81
354.128	413.81
354.355	413.81
354.583	407.81
354.81	421.81
355.037	404.81
355.264	419.81
355.491	403.81
355.718	421.81
355.945	399.81
356.172	413.81
356.399	420.81
356.626	417.81
356.853	426.81
357.08	409.81
357.307	414.81
357.534	415.81
357.761	423.81
357.988	422.81
358.215	418.81
358.441	394.81
358.668	404.81
358.895	409.81
359.122	433.81
359.349	420.81
359.576	430.81
359.802	462.81
360.029	479.81
360.256	461.81
360.483	474.81
360.709	428.81
360.936	431.81
361.163	425.81
361.39	444.81
361.616	440.81
361.843	435.81
362.07	429.81
362.296	442.81
362.523	414.81
362.749	435.81
362.976	426.81
363.203	441.81
363.429	431.81
363.656	437.81
363.882	425.81
364.109	441.81
364.335	417.81
364.562	407.81
364.788	415.81
365.015	420.81
365.241	419.81
365.468	421.81
365.694	426.81
365.92	462.81
366.147	423.81
366.373	403.81
366.599	423.81
366.826	426.81
367.052	410.81
367.278	421.81
367.505	419.81
367.731	420.81
367.957	414.81
368.184	418.81
368.41	414.81
368.636	423.81
368.862	426.81
369.089	408.81
369.315	442.81
369.541	423.81
369.767	422.81
369.993	418.81
370.219	421.81
370.445	407.81
370.672	409.81
370.898	404.81
371.124	428.81
371.35	415.81
371.576	425.81
371.802	429.81
372.028	421.81
372.254	417.81
372.48	443.81
372.706	450.81
372.932	421.81
373.158	412.81
373.384	440.81
373.61	441.81
373.835	425.81
374.061	429.81
374.287	424.81
374.513	434.81
374.739	445.81
374.965	428.81
375.191	439.81
375.416	433.81
375.642	417.81
375.868	426.81
376.094	434.81
376.319	410.81
376.545	417.81
376.771	410.81
376.997	422.81
377.222	409.81
377.448	408.81
377.674	420.81
377.899	429.81
378.125	410.81
378.35	421.81
378.576	446.81
378.802	419.81
379.027	418.81
379.253	418.81
379.478	419.81
379.704	415.81
379.929	426.81
380.155	433.81
380.38	429.81
380.606	419.81
380.831	415.81
381.057	421.81
381.282	422.81
381.507	421.81
381.733	434.81
381.958	427.81
382.184	439.81
382.409	449.81
382.634	426.81
382.86	432.81
383.085	453.81
383.31	451.81
383.535	443.81
383.761	444.81
383.986	447.81
384.211	453.81
384.436	456.81
384.662	469.81
384.887	456.81
385.112	469.81
385.337	482.81
385.562	497.81
385.787	467.81
386.013	477.81
386.238	455.81
386.463	462.81
386.688	471.81
386.913	473.81
387.138	457.81
387.363	456.81
387.588	481.81
387.813	473.81
388.038	473.81
388.263	470.81
388.488	491.81
388.713	452.81
388.938	464.81
389.163	487.81
389.387	477.81
389.612	470.81
389.837	475.81
390.062	472.81
390.287	471.81
390.512	467.81
390.736	466.81
390.961	455.81
391.186	469.81
391.411	479.81
391.636	488.81
391.86	502.81
392.085	490.81
392.31	486.81
392.534	504.81
392.759	465.81
392.984	464.81
393.208	483.81
393.433	473.81
393.658	458.81
393.882	453.81
394.107	467.81
394.331	492.81
394.556	457.81
394.78	493.81
395.005	477.81
395.229	483.81
395.454	490.81
395.678	515.81
395.903	501.81
396.127	527.81
396.352	524.81
396.576	494.81
396.801	490.81
397.025	502.81
397.249	520.81
397.474	513.81
397.698	490.81
397.922	529.81
398.147	547.81
398.371	551.81
398.595	541.81
398.82	541.81
399.044	553.81
399.268	562.81
399.492	624.81
399.717	641.81
399.941	663.81
400.165	695.81
400.389	728.81
400.613	634.81
400.837	578.81
401.062	561.81
401.286	551.81
401.51	545.81
401.734	543.81
401.958	569.81
402.182	546.81
402.406	556.81
402.63	564.81
402.854	543.81
403.078	558.81
403.302	574.81
403.526	582.81
403.75	582.81
403.974	589.81
404.198	578.81
404.422	580.81
404.645	578.81
404.869	597.81
405.093	635.81
405.317	672.81
405.541	686.81
405.765	645.81
405.988	591.81
406.212	594.81
406.436	607.81
406.66	632.81
406.883	639.81
407.107	642.81
407.331	710.81
407.555	778.81
407.778	748.81
408.002	676.81
408.226	644.81
408.449	645.81
408.673	626.81
408.896	688.81
409.12	702.81
409.344	666.81
409.567	610.81
409.791	595.81
410.014	573.81
410.238	568.81
410.461	580.81
410.685	567.81
410.908	582.81
411.132	643.81
411.355	632.81
411.578	621.81
411.802	587.81
412.025	565.81
412.249	582.81
412.472	598.81
412.695	637.81
412.919	618.81
413.142	556.81
413.365	561.81
413.589	573.81
413.812	550.81
414.035	565.81
414.258	545.81
414.482	541.81
414.705	539.81
414.928	547.81
415.151	538.81
415.374	557.81
415.597	553.81
415.821	517.81
416.044	539.81
416.267	532.81
416.49	549.81
416.713	556.81
416.936	546.81
417.159	573.81
417.382	538.81
417.605	528.81
417.828	551.81
418.051	556.81
418.274	569.81
418.497	547.81
418.72	569.81
418.943	538.81
419.166	549.81
419.389	591.81
419.611	577.81
419.834	577.81
420.057	590.81
420.28	558.81
420.503	567.81
420.726	559.81
420.948	586.81
421.171	594.81
421.394	632.81
421.617	588.81
421.839	577.81
422.062	563.81
422.285	565.81
422.507	651.81
422.73	718.81
422.953	684.81
423.175	608.81
423.398	585.81
423.621	575.81
423.843	609.81
424.066	620.81
424.288	599.81
424.511	625.81
424.733	686.81
424.956	742.81
425.178	724.81
425.401	722.81
425.623	757.81
425.846	637.81
426.068	575.81
426.291	590.81
426.513	583.81
426.735	603.81
426.958	637.81
427.18	739.81
427.402	862.81
427.625	911.81
427.847	804.81
428.069	690.81
428.292	615.81
428.514	577.81
428.736	556.81
428.958	574.81
429.181	551.81
429.403	517.81
429.625	539.81
429.847	580.81
430.069	656.81
430.292	638.81
430.514	563.81
430.736	547.81
430.958	571.81
431.18	537.81
431.402	567.81
431.624	531.81
431.846	526.81
432.068	514.81
432.29	501.81
432.512	521.81
432.734	523.81
432.956	532.81
433.178	515.81
433.4	536.81
433.622	533.81
433.844	524.81
434.066	525.81
434.287	525.81
434.509	545.81
434.731	548.81
434.953	549.81
435.175	574.81
435.397	597.81
435.618	601.81
435.84	614.81
436.062	732.81
436.284	812.81
436.505	656.81
436.727	606.81
436.949	572.81
437.17	550.81
437.392	548.81
437.614	547.81
437.835	562.81
438.057	657.81
438.278	796.81
438.5	771.81
438.721	886.81
438.943	821.81
439.165	674.81
439.386	579.81
439.608	593.81
439.829	597.81
440.05	627.81
440.272	673.81
440.493	639.81
440.715	585.81
440.936	578.81
441.158	582.81
441.379	549.81
441.6	577.81
441.822	590.81
442.043	651.81
442.264	727.81
442.486	753.81
442.707	655.81
442.928	610.81
443.149	602.81
443.371	653.81
443.592	659.81
443.813	787.81
444.034	823.81
444.255	712.81
444.476	634.81
444.698	633.81
444.919	617.81
445.14	695.81
445.361	666.81
445.582	648.81
445.803	693.81
446.024	804.81
446.245	809.81
446.466	750.81
446.687	631.81
446.908	589.81
447.129	568.81
447.35	541.81
447.571	569.81
447.792	525.81
448.013	523.81
448.234	561.81
448.455	608.81
448.675	729.81
448.896	849.81
449.117	713.81
449.338	682.81
449.559	789.81
449.779	890.81
450	712.81
450.221	581.81
450.442	533.81
450.662	530.81
450.883	533.81
451.104	566.81
451.324	532.81
451.545	497.81
451.766	500.81
451.986	485.81
452.207	469.81
452.428	471.81
452.648	479.81
452.869	479.81
453.089	515.81
453.31	490.81
453.53	499.81
453.751	481.81
453.971	507.81
454.192	505.81
454.412	490.81
454.633	487.81
454.853	473.81
455.073	491.81
455.294	523.81
455.514	574.81
455.734	555.81
455.955	501.81
456.175	473.81
456.395	459.81
456.616	453.81
456.836	470.81
457.056	454.81
457.276	453.81
457.497	463.81
457.717	453.81
457.937	473.81
458.157	459.81
458.377	467.81
458.598	480.81
458.818	531.81
459.038	611.81
459.258	627.81
459.478	552.81
459.698	521.81
459.918	515.81
460.138	533.81
460.358	531.81
460.578	529.81
460.798	537.81
461.018	542.81
461.238	531.81
461.458	521.81
461.678	533.81
461.898	517.81
462.118	553.81
462.338	559.81
462.558	568.81
462.777	558.81
462.997	589.81
463.217	577.81
463.437	598.81
463.657	594.81
463.876	580.81
464.096	586.81
464.316	591.81
464.536	584.81
464.755	599.81
464.975	580.81
465.195	595.81
465.414	637.81
465.634	557.81
465.854	566.81
466.073	526.81
466.293	514.81
466.512	510.81
466.732	497.81
466.951	492.81
467.171	505.81
467.391	494.81
467.61	514.81
467.829	501.81
468.049	511.81
468.268	517.81
468.488	494.81
468.707	509.81
468.927	489.81
469.146	497.81
469.365	488.81
469.585	480.81
469.804	508.81
470.023	517.81
470.243	502.81
470.462	518.81
470.681	537.81
470.901	525.81
471.12	498.81
471.339	501.81
471.558	477.81
471.777	516.81
471.997	511.81
472.216	527.81
472.435	532.81
472.654	531.81
472.873	504.81
473.092	483.81
473.311	492.81
473.53	502.81
473.749	509.81
473.968	542.81
474.187	649.81
474.406	651.81
474.625	552.81
474.844	540.81
475.063	518.81
475.282	459.81
475.501	492.81
475.72	515.81
475.939	511.81
476.158	518.81
476.377	516.81
476.596	521.81
476.814	518.81
477.033	537.81
477.252	541.81
477.471	556.81
477.69	535.81
477.908	546.81
478.127	572.81
478.346	559.81
478.564	572.81
478.783	564.81
479.002	580.81
479.22	566.81
479.439	599.81
479.658	593.81
479.876	616.81
480.095	611.81
480.313	638.81
480.532	625.81
480.751	623.81
480.969	643.81
481.188	676.81
481.406	693.81
481.624	637.81
481.843	616.81
482.061	605.81
482.28	606.81
482.498	583.81
482.717	567.81
482.935	590.81
483.153	585.81
483.372	586.81
483.59	592.81
483.808	599.81
484.027	579.81
484.245	565.81
484.463	592.81
484.681	596.81
484.9	605.81
485.118	615.81
485.336	612.81
485.554	603.81
485.772	591.81
485.99	613.81
486.209	602.81
486.427	597.81
486.645	609.81
486.863	620.81
487.081	625.81
487.299	620.81
487.517	622.81
487.735	618.81
487.953	636.81
488.171	625.81
488.389	634.81
488.607	631.81
488.825	606.81
489.043	637.81
489.261	637.81
489.479	637.81
489.696	644.81
489.914	627.81
490.132	633.81
490.35	649.81
490.568	667.81
490.786	691.81
491.003	691.81
491.221	701.81
491.439	702.81
491.657	709.81
491.874	691.81
492.092	711.81
492.31	724.81
492.527	713.81
492.745	724.81
492.963	731.81
493.18	739.81
493.398	746.81
493.615	735.81
493.833	738.81
494.05	767.81
494.268	737.81
494.485	727.81
494.703	738.81
494.92	736.81
495.138	747.81
495.355	745.81
495.573	747.81
495.79	752.81
496.008	729.81
496.225	759.81
496.442	758.81
496.66	758.81
496.877	746.81
497.094	769.81
497.312	739.81
497.529	773.81
497.746	768.81
497.963	794.81
498.181	813.81
498.398	823.81
498.615	857.81
498.832	856.81
499.049	877.81
499.267	917.81
499.484	952.81
499.701	1008.81
499.918	1038.81
500.135	1089.81
500.352	1120.81
500.569	1192.81
500.786	1171.81
501.003	1198.81
501.22	1115.81
501.437	1066.81
501.654	1029.81
