Data from 1976.PennyLincolnUp.Lamp.En5.5.200Scan.071719.P1.Changed Mount._HRD10591_16-02-01-862.txt Node
Date: Thu Jul 18 16:02:01 EDT 2019
User: cochatt
Spectrometer: HR+D1059
Trigger mode: 1
Integration Time (sec): 1.000000E-1
Scans to average: 1
Electric dark correction enabled: true
Nonlinearity correction enabled: false
Boxcar width: 0
XAxis mode: Wavelengths
Number of Pixels in Spectrum: 2048
>>>>>Begin Spectral Data<<<<<
223.165	-9.12
223.4	-9.12
223.635	-9.12
223.869	-22.12
224.104	-33.12
224.338	-8.12
224.573	-11.12
224.808	-19.12
225.042	-13.12
225.277	-11.12
225.511	-6.12
225.746	11.88
225.98	10.88
226.215	8.88
226.449	20.88
226.683	28.88
226.918	24.88
227.152	26.88
227.387	27.88
227.621	25.88
227.856	31.88
228.09	51.88
228.324	47.88
228.559	56.88
228.793	70.88
229.027	92.88
229.262	104.88
229.496	117.88
229.73	133.88
229.964	135.88
230.199	142.88
230.433	123.88
230.667	113.88
230.901	114.88
231.136	104.88
231.37	109.88
231.604	115.88
231.838	114.88
232.072	104.88
232.306	105.88
232.541	118.88
232.775	121.88
233.009	124.88
233.243	115.88
233.477	106.88
233.711	122.88
233.945	125.88
234.179	118.88
234.413	125.88
234.647	114.88
234.881	115.88
235.115	117.88
235.349	113.88
235.583	126.88
235.817	123.88
236.051	131.88
236.285	123.88
236.519	142.88
236.753	131.88
236.987	148.88
237.221	194.88
237.455	234.88
237.689	196.88
237.922	149.88
238.156	133.88
238.39	146.88
238.624	128.88
238.858	129.88
239.091	132.88
239.325	122.88
239.559	127.88
239.793	137.88
240.027	134.88
240.26	147.88
240.494	173.88
240.728	155.88
240.961	160.88
241.195	147.88
241.429	147.88
241.662	147.88
241.896	126.88
242.13	123.88
242.363	145.88
242.597	134.88
242.83	124.88
243.064	140.88
243.298	124.88
243.531	142.88
243.765	135.88
243.998	136.88
244.232	139.88
244.465	155.88
244.699	145.88
244.932	157.88
245.166	175.88
245.399	161.88
245.633	147.88
245.866	160.88
246.099	165.88
246.333	157.88
246.566	156.88
246.8	146.88
247.033	146.88
247.266	164.88
247.5	186.88
247.733	165.88
247.966	179.88
248.2	187.88
248.433	170.88
248.666	177.88
248.899	181.88
249.133	202.88
249.366	218.88
249.599	179.88
249.832	191.88
250.066	189.88
250.299	193.88
250.532	186.88
250.765	214.88
250.998	217.88
251.231	226.88
251.465	211.88
251.698	232.88
251.931	221.88
252.164	205.88
252.397	215.88
252.63	205.88
252.863	215.88
253.096	227.88
253.329	245.88
253.562	257.88
253.795	230.88
254.028	216.88
254.261	227.88
254.494	249.88
254.727	277.88
254.96	283.88
255.193	254.88
255.426	257.88
255.659	247.88
255.892	234.88
256.124	251.88
256.357	252.88
256.59	246.88
256.823	214.88
257.056	240.88
257.289	214.88
257.521	224.88
257.754	229.88
257.987	219.88
258.22	233.88
258.452	220.88
258.685	221.88
258.918	221.88
259.151	232.88
259.383	234.88
259.616	240.88
259.849	248.88
260.081	265.88
260.314	257.88
260.547	256.88
260.779	266.88
261.012	249.88
261.244	219.88
261.477	249.88
261.71	244.88
261.942	261.88
262.175	210.88
262.407	235.88
262.64	214.88
262.872	212.88
263.105	213.88
263.337	239.88
263.57	221.88
263.802	243.88
264.035	227.88
264.267	232.88
264.499	245.88
264.732	218.88
264.964	243.88
265.197	244.88
265.429	230.88
265.661	228.88
265.894	229.88
266.126	218.88
266.358	224.88
266.591	236.88
266.823	227.88
267.055	245.88
267.287	255.88
267.52	234.88
267.752	228.88
267.984	246.88
268.216	245.88
268.448	247.88
268.681	253.88
268.913	264.88
269.145	287.88
269.377	304.88
269.609	278.88
269.841	279.88
270.073	306.88
270.306	304.88
270.538	338.88
270.77	321.88
271.002	330.88
271.234	319.88
271.466	332.88
271.698	342.88
271.93	352.88
272.162	358.88
272.394	348.88
272.626	333.88
272.858	311.88
273.09	312.88
273.322	276.88
273.553	299.88
273.785	275.88
274.017	306.88
274.249	282.88
274.481	279.88
274.713	275.88
274.945	288.88
275.176	294.88
275.408	274.88
275.64	291.88
275.872	268.88
276.104	279.88
276.335	283.88
276.567	283.88
276.799	300.88
277.031	336.88
277.262	331.88
277.494	338.88
277.726	323.88
277.957	321.88
278.189	304.88
278.421	310.88
278.652	306.88
278.884	315.88
279.115	285.88
279.347	298.88
279.579	293.88
279.81	286.88
280.042	296.88
280.273	304.88
280.505	282.88
280.736	296.88
280.968	280.88
281.199	296.88
281.431	280.88
281.662	292.88
281.894	311.88
282.125	305.88
282.356	329.88
282.588	323.88
282.819	301.88
283.051	293.88
283.282	293.88
283.513	316.88
283.745	309.88
283.976	294.88
284.207	303.88
284.439	324.88
284.67	302.88
284.901	286.88
285.132	293.88
285.364	312.88
285.595	311.88
285.826	303.88
286.057	315.88
286.288	317.88
286.52	312.88
286.751	328.88
286.982	297.88
287.213	316.88
287.444	303.88
287.675	313.88
287.906	318.88
288.138	340.88
288.369	324.88
288.6	324.88
288.831	346.88
289.062	327.88
289.293	330.88
289.524	318.88
289.755	326.88
289.986	319.88
290.217	324.88
290.448	322.88
290.679	306.88
290.91	299.88
291.141	312.88
291.371	319.88
291.602	327.88
291.833	320.88
292.064	318.88
292.295	322.88
292.526	319.88
292.757	339.88
292.987	299.88
293.218	320.88
293.449	349.88
293.68	315.88
293.91	322.88
294.141	320.88
294.372	312.88
294.603	338.88
294.833	328.88
295.064	331.88
295.295	326.88
295.525	337.88
295.756	329.88
295.987	344.88
296.217	352.88
296.448	343.88
296.679	330.88
296.909	309.88
297.14	314.88
297.37	326.88
297.601	335.88
297.831	345.88
298.062	339.88
298.292	324.88
298.523	346.88
298.753	345.88
298.984	344.88
299.214	349.88
299.445	362.88
299.675	349.88
299.905	350.88
300.136	347.88
300.366	344.88
300.597	364.88
300.827	363.88
301.057	372.88
301.288	353.88
301.518	358.88
301.748	361.88
301.979	354.88
302.209	369.88
302.439	371.88
302.669	363.88
302.9	362.88
303.13	371.88
303.36	364.88
303.59	357.88
303.82	365.88
304.051	364.88
304.281	358.88
304.511	360.88
304.741	352.88
304.971	369.88
305.201	361.88
305.431	357.88
305.661	370.88
305.891	369.88
306.121	354.88
306.352	359.88
306.582	375.88
306.812	372.88
307.042	373.88
307.272	381.88
307.502	378.88
307.731	360.88
307.961	361.88
308.191	374.88
308.421	359.88
308.651	379.88
308.881	370.88
309.111	393.88
309.341	377.88
309.571	380.88
309.8	410.88
310.03	409.88
310.26	396.88
310.49	400.88
310.72	419.88
310.949	412.88
311.179	415.88
311.409	410.88
311.639	413.88
311.868	413.88
312.098	416.88
312.328	385.88
312.557	423.88
312.787	416.88
313.017	426.88
313.246	419.88
313.476	410.88
313.706	408.88
313.935	407.88
314.165	424.88
314.394	405.88
314.624	417.88
314.853	424.88
315.083	405.88
315.312	416.88
315.542	435.88
315.771	403.88
316.001	398.88
316.23	420.88
316.46	404.88
316.689	412.88
316.919	412.88
317.148	424.88
317.377	418.88
317.607	419.88
317.836	411.88
318.065	423.88
318.295	417.88
318.524	406.88
318.753	409.88
318.983	401.88
319.212	414.88
319.441	419.88
319.67	415.88
319.9	404.88
320.129	419.88
320.358	412.88
320.587	393.88
320.816	423.88
321.046	439.88
321.275	425.88
321.504	428.88
321.733	448.88
321.962	449.88
322.191	447.88
322.42	450.88
322.649	480.88
322.878	464.88
323.108	476.88
323.337	500.88
323.566	523.88
323.795	533.88
324.024	576.88
324.253	667.88
324.482	927.88
324.71	1401.88
324.939	2126.88
325.168	1857.88
325.397	946.88
325.626	637.88
325.855	542.88
326.084	529.88
326.313	519.88
326.542	520.88
326.77	554.88
326.999	639.88
327.228	846.88
327.457	1259.88
327.686	1594.88
327.914	1057.88
328.143	685.88
328.372	646.88
328.6	573.88
328.829	577.88
329.058	579.88
329.287	575.88
329.515	568.88
329.744	523.88
329.972	517.88
330.201	554.88
330.43	589.88
330.658	610.88
330.887	656.88
331.115	618.88
331.344	523.88
331.572	513.88
331.801	508.88
332.03	521.88
332.258	509.88
332.486	493.88
332.715	477.88
332.943	499.88
333.172	515.88
333.4	505.88
333.629	511.88
333.857	537.88
334.085	565.88
334.314	563.88
334.542	585.88
334.771	589.88
334.999	537.88
335.227	505.88
335.455	492.88
335.684	517.88
335.912	495.88
336.14	476.88
336.369	495.88
336.597	517.88
336.825	506.88
337.053	491.88
337.281	484.88
337.51	475.88
337.738	478.88
337.966	479.88
338.194	468.88
338.422	477.88
338.65	477.88
338.878	460.88
339.106	464.88
339.334	459.88
339.562	471.88
339.79	470.88
340.018	465.88
340.246	474.88
340.474	475.88
340.702	468.88
340.93	463.88
341.158	470.88
341.386	476.88
341.614	473.88
341.842	457.88
342.07	450.88
342.298	467.88
342.526	456.88
342.754	458.88
342.981	449.88
343.209	440.88
343.437	459.88
343.665	472.88
343.893	494.88
344.12	504.88
344.348	484.88
344.576	489.88
344.804	481.88
345.031	499.88
345.259	491.88
345.487	481.88
345.714	469.88
345.942	473.88
346.17	458.88
346.397	467.88
346.625	457.88
346.853	455.88
347.08	454.88
347.308	432.88
347.535	456.88
347.763	461.88
347.99	453.88
348.218	467.88
348.445	445.88
348.673	455.88
348.9	441.88
349.128	449.88
349.355	448.88
349.583	427.88
349.81	433.88
350.037	436.88
350.265	444.88
350.492	425.88
350.72	443.88
350.947	455.88
351.174	466.88
351.402	464.88
351.629	457.88
351.856	463.88
352.083	416.88
352.311	439.88
352.538	450.88
352.765	458.88
352.992	455.88
353.22	443.88
353.447	444.88
353.674	436.88
353.901	436.88
354.128	428.88
354.355	415.88
354.583	434.88
354.81	427.88
355.037	426.88
355.264	428.88
355.491	426.88
355.718	407.88
355.945	423.88
356.172	409.88
356.399	415.88
356.626	423.88
356.853	393.88
357.08	423.88
357.307	428.88
357.534	406.88
357.761	402.88
357.988	419.88
358.215	415.88
358.441	432.88
358.668	404.88
358.895	418.88
359.122	425.88
359.349	460.88
359.576	446.88
359.802	457.88
360.029	479.88
360.256	481.88
360.483	473.88
360.709	450.88
360.936	449.88
361.163	444.88
361.39	451.88
361.616	455.88
361.843	433.88
362.07	443.88
362.296	455.88
362.523	445.88
362.749	431.88
362.976	436.88
363.203	449.88
363.429	417.88
363.656	432.88
363.882	416.88
364.109	426.88
364.335	410.88
364.562	432.88
364.788	437.88
365.015	424.88
365.241	432.88
365.468	426.88
365.694	424.88
365.92	428.88
366.147	424.88
366.373	440.88
366.599	428.88
366.826	431.88
367.052	413.88
367.278	412.88
367.505	421.88
367.731	433.88
367.957	444.88
368.184	389.88
368.41	439.88
368.636	449.88
368.862	438.88
369.089	452.88
369.315	443.88
369.541	400.88
369.767	433.88
369.993	422.88
370.219	413.88
370.445	426.88
370.672	433.88
370.898	415.88
371.124	439.88
371.35	447.88
371.576	417.88
371.802	427.88
372.028	445.88
372.254	447.88
372.48	426.88
372.706	441.88
372.932	452.88
373.158	461.88
373.384	448.88
373.61	420.88
373.835	419.88
374.061	421.88
374.287	434.88
374.513	447.88
374.739	431.88
374.965	450.88
375.191	463.88
375.416	470.88
375.642	449.88
375.868	447.88
376.094	450.88
376.319	451.88
376.545	425.88
376.771	437.88
376.997	435.88
377.222	434.88
377.448	409.88
377.674	423.88
377.899	418.88
378.125	418.88
378.35	419.88
378.576	433.88
378.802	437.88
379.027	425.88
379.253	449.88
379.478	447.88
379.704	446.88
379.929	428.88
380.155	444.88
380.38	441.88
380.606	424.88
380.831	417.88
381.057	428.88
381.282	437.88
381.507	445.88
381.733	434.88
381.958	460.88
382.184	443.88
382.409	450.88
382.634	447.88
382.86	453.88
383.085	439.88
383.31	458.88
383.535	457.88
383.761	458.88
383.986	467.88
384.211	447.88
384.436	463.88
384.662	472.88
384.887	478.88
385.112	480.88
385.337	489.88
385.562	471.88
385.787	483.88
386.013	493.88
386.238	498.88
386.463	495.88
386.688	459.88
386.913	480.88
387.138	486.88
387.363	482.88
387.588	484.88
387.813	476.88
388.038	487.88
388.263	496.88
388.488	503.88
388.713	492.88
388.938	488.88
389.163	487.88
389.387	476.88
389.612	482.88
389.837	484.88
390.062	459.88
390.287	483.88
390.512	470.88
390.736	483.88
390.961	469.88
391.186	488.88
391.411	498.88
391.636	489.88
391.86	491.88
392.085	516.88
392.31	504.88
392.534	493.88
392.759	499.88
392.984	515.88
393.208	470.88
393.433	497.88
393.658	463.88
393.882	464.88
394.107	479.88
394.331	502.88
394.556	472.88
394.78	478.88
395.005	498.88
395.229	530.88
395.454	518.88
395.678	511.88
395.903	526.88
396.127	543.88
396.352	533.88
396.576	511.88
396.801	509.88
397.025	506.88
397.249	524.88
397.474	522.88
397.698	525.88
397.922	549.88
398.147	537.88
398.371	564.88
398.595	561.88
398.82	553.88
399.044	561.88
399.268	617.88
399.492	640.88
399.717	686.88
399.941	705.88
400.165	714.88
400.389	709.88
400.613	621.88
400.837	584.88
401.062	577.88
401.286	569.88
401.51	573.88
401.734	562.88
401.958	566.88
402.182	572.88
402.406	587.88
402.63	570.88
402.854	573.88
403.078	579.88
403.302	576.88
403.526	607.88
403.75	611.88
403.974	601.88
404.198	593.88
404.422	602.88
404.645	604.88
404.869	618.88
405.093	648.88
405.317	693.88
405.541	725.88
405.765	674.88
405.988	639.88
406.212	630.88
406.436	634.88
406.66	664.88
406.883	632.88
407.107	679.88
407.331	726.88
407.555	785.88
407.778	804.88
408.002	710.88
408.226	649.88
408.449	646.88
408.673	635.88
408.896	651.88
409.12	729.88
409.344	681.88
409.567	618.88
409.791	609.88
410.014	610.88
410.238	595.88
410.461	594.88
410.685	599.88
410.908	611.88
411.132	648.88
411.355	663.88
411.578	655.88
411.802	607.88
412.025	579.88
412.249	592.88
412.472	628.88
412.695	645.88
412.919	636.88
413.142	619.88
413.365	565.88
413.589	583.88
413.812	567.88
414.035	551.88
414.258	567.88
414.482	556.88
414.705	562.88
414.928	565.88
415.151	573.88
415.374	543.88
415.597	531.88
415.821	560.88
416.044	534.88
416.267	566.88
416.49	546.88
416.713	534.88
416.936	560.88
417.159	544.88
417.382	547.88
417.605	556.88
417.828	576.88
418.051	580.88
418.274	554.88
418.497	559.88
418.72	559.88
418.943	556.88
419.166	568.88
419.389	620.88
419.611	619.88
419.834	589.88
420.057	609.88
420.28	595.88
420.503	579.88
420.726	581.88
420.948	597.88
421.171	642.88
421.394	659.88
421.617	595.88
421.839	599.88
422.062	578.88
422.285	593.88
422.507	654.88
422.73	725.88
422.953	704.88
423.175	637.88
423.398	607.88
423.621	595.88
423.843	633.88
424.066	615.88
424.288	615.88
424.511	631.88
424.733	688.88
424.956	748.88
425.178	757.88
425.401	745.88
425.623	753.88
425.846	652.88
426.068	626.88
426.291	620.88
426.513	589.88
426.735	627.88
426.958	658.88
427.18	729.88
427.402	857.88
427.625	998.88
427.847	819.88
428.069	714.88
428.292	648.88
428.514	615.88
428.736	591.88
428.958	587.88
429.181	560.88
429.403	573.88
429.625	561.88
429.847	609.88
430.069	667.88
430.292	686.88
430.514	569.88
430.736	584.88
430.958	571.88
431.18	564.88
431.402	552.88
431.624	538.88
431.846	498.88
432.068	549.88
432.29	530.88
432.512	516.88
432.734	550.88
432.956	551.88
433.178	555.88
433.4	544.88
433.622	523.88
433.844	532.88
434.066	527.88
434.287	524.88
434.509	556.88
434.731	565.88
434.953	561.88
435.175	584.88
435.397	614.88
435.618	599.88
435.84	675.88
436.062	748.88
436.284	821.88
436.505	682.88
436.727	624.88
436.949	556.88
437.17	554.88
437.392	533.88
437.614	569.88
437.835	615.88
438.057	699.88
438.278	776.88
438.5	811.88
438.721	865.88
438.943	850.88
439.165	673.88
439.386	605.88
439.608	614.88
439.829	624.88
440.05	636.88
440.272	663.88
440.493	660.88
440.715	579.88
440.936	599.88
441.158	578.88
441.379	556.88
441.6	577.88
441.822	592.88
442.043	662.88
442.264	751.88
442.486	780.88
442.707	682.88
442.928	626.88
443.149	629.88
443.371	654.88
443.592	709.88
443.813	791.88
444.034	850.88
444.255	709.88
444.476	644.88
444.698	630.88
444.919	624.88
445.14	736.88
445.361	697.88
445.582	672.88
445.803	706.88
446.024	828.88
446.245	824.88
446.466	771.88
446.687	676.88
446.908	611.88
447.129	595.88
447.35	559.88
447.571	538.88
447.792	543.88
448.013	570.88
448.234	555.88
448.455	589.88
448.675	752.88
448.896	853.88
449.117	717.88
449.338	690.88
449.559	769.88
449.779	919.88
450	743.88
450.221	611.88
450.442	572.88
450.662	533.88
450.883	539.88
451.104	556.88
451.324	562.88
451.545	531.88
451.766	512.88
451.986	512.88
452.207	508.88
452.428	491.88
452.648	499.88
452.869	486.88
453.089	512.88
453.31	523.88
453.53	496.88
453.751	492.88
453.971	506.88
454.192	516.88
454.412	502.88
454.633	497.88
454.853	507.88
455.073	473.88
455.294	502.88
455.514	597.88
455.734	570.88
455.955	514.88
456.175	454.88
456.395	488.88
456.616	487.88
456.836	479.88
457.056	459.88
457.276	451.88
457.497	489.88
457.717	470.88
457.937	466.88
458.157	497.88
458.377	483.88
458.598	501.88
458.818	544.88
459.038	642.88
459.258	637.88
459.478	573.88
459.698	523.88
459.918	568.88
460.138	548.88
460.358	548.88
460.578	564.88
460.798	546.88
461.018	533.88
461.238	553.88
461.458	548.88
461.678	534.88
461.898	567.88
462.118	584.88
462.338	573.88
462.558	595.88
462.777	599.88
462.997	607.88
463.217	627.88
463.437	641.88
463.657	625.88
463.876	614.88
464.096	612.88
464.316	599.88
464.536	595.88
464.755	602.88
464.975	598.88
465.195	600.88
465.414	674.88
465.634	594.88
465.854	577.88
466.073	554.88
466.293	525.88
466.512	564.88
466.732	511.88
466.951	517.88
467.171	492.88
467.391	547.88
467.61	518.88
467.829	538.88
468.049	505.88
468.268	524.88
468.488	512.88
468.707	485.88
468.927	515.88
469.146	485.88
469.365	516.88
469.585	484.88
469.804	508.88
470.023	500.88
470.243	516.88
470.462	535.88
470.681	539.88
470.901	539.88
471.12	506.88
471.339	531.88
471.558	502.88
471.777	525.88
471.997	500.88
472.216	524.88
472.435	533.88
472.654	536.88
472.873	501.88
473.092	521.88
473.311	517.88
473.53	533.88
473.749	541.88
473.968	537.88
474.187	661.88
474.406	713.88
474.625	596.88
474.844	552.88
475.063	513.88
475.282	501.88
475.501	497.88
475.72	529.88
475.939	553.88
476.158	532.88
476.377	531.88
476.596	519.88
476.814	527.88
477.033	567.88
477.252	533.88
477.471	563.88
477.69	564.88
477.908	576.88
478.127	571.88
478.346	569.88
478.564	560.88
478.783	596.88
479.002	597.88
479.22	585.88
479.439	591.88
479.658	612.88
479.876	627.88
480.095	619.88
480.313	657.88
480.532	655.88
480.751	624.88
480.969	649.88
481.188	697.88
481.406	692.88
481.624	652.88
481.843	612.88
482.061	607.88
482.28	615.88
482.498	595.88
482.717	588.88
482.935	597.88
483.153	614.88
483.372	598.88
483.59	603.88
483.808	595.88
484.027	580.88
484.245	625.88
484.463	598.88
484.681	608.88
484.9	611.88
485.118	636.88
485.336	613.88
485.554	629.88
485.772	637.88
485.99	631.88
486.209	632.88
486.427	625.88
486.645	635.88
486.863	637.88
487.081	640.88
487.299	629.88
487.517	652.88
487.735	619.88
487.953	633.88
488.171	645.88
488.389	629.88
488.607	644.88
488.825	634.88
489.043	668.88
489.261	630.88
489.479	673.88
489.696	648.88
489.914	659.88
490.132	680.88
490.35	665.88
490.568	669.88
490.786	680.88
491.003	695.88
491.221	696.88
491.439	707.88
491.657	719.88
491.874	736.88
492.092	745.88
492.31	740.88
492.527	751.88
492.745	740.88
492.963	755.88
493.18	746.88
493.398	743.88
493.615	759.88
493.833	741.88
494.05	765.88
494.268	737.88
494.485	743.88
494.703	733.88
494.92	768.88
495.138	761.88
495.355	752.88
495.573	764.88
495.79	780.88
496.008	796.88
496.225	745.88
496.442	773.88
496.66	760.88
496.877	760.88
497.094	796.88
497.312	788.88
497.529	791.88
497.746	788.88
497.963	820.88
498.181	838.88
498.398	840.88
498.615	872.88
498.832	902.88
499.049	913.88
499.267	939.88
499.484	969.88
499.701	1000.88
499.918	1095.88
500.135	1149.88
500.352	1182.88
500.569	1221.88
500.786	1258.88
501.003	1198.88
501.22	1148.88
501.437	1105.88
501.654	1063.88
