Data from 1976.PennyLincolnUp.Lamp.En5.5.200Scan.071719.P1.Changed Mount._HRD10591_16-00-18-860.txt Node
Date: Thu Jul 18 16:00:18 EDT 2019
User: cochatt
Spectrometer: HR+D1059
Trigger mode: 1
Integration Time (sec): 1.000000E-1
Scans to average: 1
Electric dark correction enabled: true
Nonlinearity correction enabled: false
Boxcar width: 0
XAxis mode: Wavelengths
Number of Pixels in Spectrum: 2048
>>>>>Begin Spectral Data<<<<<
223.165	-15.38
223.4	-15.38
223.635	-15.38
223.869	-11.38
224.104	-12.38
224.338	-34.38
224.573	-14.38
224.808	-9.38
225.042	-2.38
225.277	-12.38
225.511	-2.38
225.746	-4.38
225.98	6.62
226.215	6.62
226.449	20.62
226.683	35.62
226.918	26.62
227.152	22.62
227.387	43.62
227.621	20.62
227.856	38.62
228.09	52.62
228.324	47.62
228.559	68.62
228.793	74.62
229.027	114.62
229.262	103.62
229.496	103.62
229.73	121.62
229.964	129.62
230.199	118.62
230.433	112.62
230.667	107.62
230.901	97.62
231.136	115.62
231.37	107.62
231.604	106.62
231.838	115.62
232.072	113.62
232.306	110.62
232.541	117.62
232.775	106.62
233.009	110.62
233.243	110.62
233.477	109.62
233.711	111.62
233.945	111.62
234.179	105.62
234.413	108.62
234.647	123.62
234.881	113.62
235.115	102.62
235.349	123.62
235.583	131.62
235.817	125.62
236.051	124.62
236.285	129.62
236.519	119.62
236.753	132.62
236.987	129.62
237.221	172.62
237.455	208.62
237.689	182.62
237.922	133.62
238.156	137.62
238.39	123.62
238.624	132.62
238.858	133.62
239.091	118.62
239.325	120.62
239.559	117.62
239.793	135.62
240.027	143.62
240.26	138.62
240.494	138.62
240.728	144.62
240.961	138.62
241.195	144.62
241.429	122.62
241.662	134.62
241.896	123.62
242.13	131.62
242.363	138.62
242.597	133.62
242.83	139.62
243.064	141.62
243.298	128.62
243.531	132.62
243.765	139.62
243.998	147.62
244.232	141.62
244.465	125.62
244.699	139.62
244.932	138.62
245.166	150.62
245.399	146.62
245.633	149.62
245.866	145.62
246.099	141.62
246.333	146.62
246.566	163.62
246.8	160.62
247.033	141.62
247.266	149.62
247.5	148.62
247.733	167.62
247.966	156.62
248.2	164.62
248.433	177.62
248.666	181.62
248.899	175.62
249.133	190.62
249.366	185.62
249.599	196.62
249.832	170.62
250.066	184.62
250.299	184.62
250.532	201.62
250.765	187.62
250.998	197.62
251.231	233.62
251.465	218.62
251.698	193.62
251.931	189.62
252.164	203.62
252.397	185.62
252.63	216.62
252.863	187.62
253.096	208.62
253.329	236.62
253.562	219.62
253.795	208.62
254.028	197.62
254.261	206.62
254.494	220.62
254.727	230.62
254.96	265.62
255.193	272.62
255.426	229.62
255.659	222.62
255.892	228.62
256.124	229.62
256.357	230.62
256.59	237.62
256.823	213.62
257.056	216.62
257.289	213.62
257.521	223.62
257.754	198.62
257.987	190.62
258.22	207.62
258.452	218.62
258.685	211.62
258.918	201.62
259.151	214.62
259.383	213.62
259.616	220.62
259.849	211.62
260.081	214.62
260.314	259.62
260.547	254.62
260.779	226.62
261.012	238.62
261.244	238.62
261.477	221.62
261.71	216.62
261.942	214.62
262.175	235.62
262.407	217.62
262.64	218.62
262.872	224.62
263.105	221.62
263.337	211.62
263.57	205.62
263.802	230.62
264.035	211.62
264.267	206.62
264.499	217.62
264.732	217.62
264.964	205.62
265.197	212.62
265.429	201.62
265.661	222.62
265.894	228.62
266.126	220.62
266.358	230.62
266.591	220.62
266.823	237.62
267.055	234.62
267.287	241.62
267.52	231.62
267.752	237.62
267.984	229.62
268.216	247.62
268.448	241.62
268.681	265.62
268.913	255.62
269.145	262.62
269.377	290.62
269.609	274.62
269.841	284.62
270.073	275.62
270.306	277.62
270.538	318.62
270.77	291.62
271.002	293.62
271.234	281.62
271.466	299.62
271.698	305.62
271.93	315.62
272.162	309.62
272.394	293.62
272.626	301.62
272.858	292.62
273.09	275.62
273.322	273.62
273.553	273.62
273.785	259.62
274.017	237.62
274.249	279.62
274.481	266.62
274.713	257.62
274.945	291.62
275.176	275.62
275.408	271.62
275.64	276.62
275.872	282.62
276.104	268.62
276.335	271.62
276.567	275.62
276.799	286.62
277.031	305.62
277.262	312.62
277.494	309.62
277.726	312.62
277.957	301.62
278.189	282.62
278.421	275.62
278.652	290.62
278.884	291.62
279.115	290.62
279.347	267.62
279.579	292.62
279.81	279.62
280.042	284.62
280.273	280.62
280.505	275.62
280.736	291.62
280.968	285.62
281.199	277.62
281.431	279.62
281.662	294.62
281.894	286.62
282.125	285.62
282.356	295.62
282.588	310.62
282.819	305.62
283.051	295.62
283.282	293.62
283.513	291.62
283.745	302.62
283.976	291.62
284.207	299.62
284.439	302.62
284.67	290.62
284.901	303.62
285.132	282.62
285.364	301.62
285.595	285.62
285.826	311.62
286.057	321.62
286.288	287.62
286.52	306.62
286.751	282.62
286.982	292.62
287.213	288.62
287.444	295.62
287.675	303.62
287.906	296.62
288.138	306.62
288.369	307.62
288.6	333.62
288.831	302.62
289.062	297.62
289.293	333.62
289.524	324.62
289.755	301.62
289.986	304.62
290.217	301.62
290.448	299.62
290.679	303.62
290.91	305.62
291.141	295.62
291.371	283.62
291.602	309.62
291.833	320.62
292.064	295.62
292.295	302.62
292.526	308.62
292.757	310.62
292.987	308.62
293.218	301.62
293.449	295.62
293.68	305.62
293.91	296.62
294.141	297.62
294.372	289.62
294.603	307.62
294.833	314.62
295.064	294.62
295.295	306.62
295.525	325.62
295.756	303.62
295.987	312.62
296.217	334.62
296.448	311.62
296.679	311.62
296.909	302.62
297.14	305.62
297.37	341.62
297.601	315.62
297.831	290.62
298.062	305.62
298.292	321.62
298.523	326.62
298.753	315.62
298.984	312.62
299.214	329.62
299.445	334.62
299.675	327.62
299.905	314.62
300.136	314.62
300.366	326.62
300.597	313.62
300.827	336.62
301.057	329.62
301.288	349.62
301.518	334.62
301.748	337.62
301.979	333.62
302.209	334.62
302.439	349.62
302.669	332.62
302.9	349.62
303.13	321.62
303.36	326.62
303.59	331.62
303.82	346.62
304.051	373.62
304.281	357.62
304.511	344.62
304.741	334.62
304.971	335.62
305.201	344.62
305.431	333.62
305.661	339.62
305.891	332.62
306.121	329.62
306.352	352.62
306.582	349.62
306.812	343.62
307.042	330.62
307.272	354.62
307.502	349.62
307.731	344.62
307.961	334.62
308.191	343.62
308.421	326.62
308.651	352.62
308.881	353.62
309.111	367.62
309.341	340.62
309.571	362.62
309.8	377.62
310.03	367.62
310.26	355.62
310.49	357.62
310.72	363.62
310.949	388.62
311.179	385.62
311.409	373.62
311.639	359.62
311.868	384.62
312.098	377.62
312.328	379.62
312.557	380.62
312.787	391.62
313.017	400.62
313.246	391.62
313.476	393.62
313.706	390.62
313.935	394.62
314.165	390.62
314.394	391.62
314.624	396.62
314.853	386.62
315.083	397.62
315.312	370.62
315.542	381.62
315.771	361.62
316.001	363.62
316.23	370.62
316.46	376.62
316.689	387.62
316.919	381.62
317.148	371.62
317.377	391.62
317.607	381.62
317.836	358.62
318.065	371.62
318.295	385.62
318.524	375.62
318.753	364.62
318.983	386.62
319.212	391.62
319.441	381.62
319.67	385.62
319.9	398.62
320.129	380.62
320.358	395.62
320.587	393.62
320.816	393.62
321.046	398.62
321.275	377.62
321.504	407.62
321.733	399.62
321.962	394.62
322.191	414.62
322.42	400.62
322.649	403.62
322.878	441.62
323.108	441.62
323.337	453.62
323.566	475.62
323.795	478.62
324.024	509.62
324.253	584.62
324.482	802.62
324.71	1194.62
324.939	1750.62
325.168	1526.62
325.397	776.62
325.626	568.62
325.855	483.62
326.084	472.62
326.313	474.62
326.542	481.62
326.77	519.62
326.999	574.62
327.228	765.62
327.457	1086.62
327.686	1340.62
327.914	902.62
328.143	614.62
328.372	546.62
328.6	528.62
328.829	514.62
329.058	518.62
329.287	505.62
329.515	493.62
329.744	474.62
329.972	498.62
330.201	490.62
330.43	516.62
330.658	549.62
330.887	556.62
331.115	538.62
331.344	488.62
331.572	474.62
331.801	460.62
332.03	478.62
332.258	478.62
332.486	442.62
332.715	444.62
332.943	460.62
333.172	469.62
333.4	481.62
333.629	501.62
333.857	492.62
334.085	481.62
334.314	509.62
334.542	503.62
334.771	537.62
334.999	518.62
335.227	497.62
335.455	474.62
335.684	466.62
335.912	455.62
336.14	474.62
336.369	479.62
336.597	466.62
336.825	456.62
337.053	451.62
337.281	441.62
337.51	456.62
337.738	458.62
337.966	444.62
338.194	448.62
338.422	441.62
338.65	457.62
338.878	435.62
339.106	446.62
339.334	431.62
339.562	442.62
339.79	437.62
340.018	428.62
340.246	427.62
340.474	450.62
340.702	440.62
340.93	433.62
341.158	424.62
341.386	433.62
341.614	433.62
341.842	409.62
342.07	453.62
342.298	424.62
342.526	426.62
342.754	404.62
342.981	419.62
343.209	428.62
343.437	425.62
343.665	434.62
343.893	457.62
344.12	475.62
344.348	453.62
344.576	441.62
344.804	458.62
345.031	445.62
345.259	468.62
345.487	437.62
345.714	441.62
345.942	411.62
346.17	433.62
346.397	433.62
346.625	429.62
346.853	398.62
347.08	423.62
347.308	415.62
347.535	426.62
347.763	406.62
347.99	441.62
348.218	443.62
348.445	431.62
348.673	436.62
348.9	413.62
349.128	421.62
349.355	422.62
349.583	414.62
349.81	416.62
350.037	414.62
350.265	395.62
350.492	439.62
350.72	410.62
350.947	390.62
351.174	417.62
351.402	427.62
351.629	426.62
351.856	409.62
352.083	422.62
352.311	416.62
352.538	411.62
352.765	425.62
352.992	420.62
353.22	414.62
353.447	421.62
353.674	415.62
353.901	422.62
354.128	388.62
354.355	395.62
354.583	399.62
354.81	415.62
355.037	385.62
355.264	387.62
355.491	394.62
355.718	405.62
355.945	379.62
356.172	391.62
356.399	402.62
356.626	387.62
356.853	394.62
357.08	402.62
357.307	365.62
357.534	389.62
357.761	392.62
357.988	394.62
358.215	400.62
358.441	402.62
358.668	400.62
358.895	388.62
359.122	409.62
359.349	395.62
359.576	415.62
359.802	411.62
360.029	459.62
360.256	434.62
360.483	437.62
360.709	435.62
360.936	421.62
361.163	435.62
361.39	430.62
361.616	401.62
361.843	403.62
362.07	420.62
362.296	425.62
362.523	423.62
362.749	411.62
362.976	414.62
363.203	411.62
363.429	410.62
363.656	413.62
363.882	415.62
364.109	409.62
364.335	391.62
364.562	408.62
364.788	420.62
365.015	402.62
365.241	389.62
365.468	421.62
365.694	390.62
365.92	390.62
366.147	403.62
366.373	395.62
366.599	402.62
366.826	405.62
367.052	400.62
367.278	405.62
367.505	403.62
367.731	423.62
367.957	417.62
368.184	418.62
368.41	419.62
368.636	398.62
368.862	416.62
369.089	419.62
369.315	416.62
369.541	413.62
369.767	409.62
369.993	393.62
370.219	381.62
370.445	404.62
370.672	402.62
370.898	407.62
371.124	420.62
371.35	403.62
371.576	414.62
371.802	406.62
372.028	416.62
372.254	402.62
372.48	410.62
372.706	405.62
372.932	407.62
373.158	412.62
373.384	405.62
373.61	392.62
373.835	411.62
374.061	413.62
374.287	433.62
374.513	435.62
374.739	424.62
374.965	423.62
375.191	417.62
375.416	407.62
375.642	417.62
375.868	429.62
376.094	425.62
376.319	410.62
376.545	419.62
376.771	394.62
376.997	406.62
377.222	409.62
377.448	394.62
377.674	416.62
377.899	391.62
378.125	407.62
378.35	405.62
378.576	408.62
378.802	425.62
379.027	425.62
379.253	426.62
379.478	412.62
379.704	408.62
379.929	403.62
380.155	387.62
380.38	429.62
380.606	401.62
380.831	387.62
381.057	407.62
381.282	401.62
381.507	398.62
381.733	403.62
381.958	410.62
382.184	414.62
382.409	422.62
382.634	403.62
382.86	409.62
383.085	435.62
383.31	430.62
383.535	449.62
383.761	435.62
383.986	431.62
384.211	455.62
384.436	428.62
384.662	436.62
384.887	436.62
385.112	446.62
385.337	430.62
385.562	449.62
385.787	446.62
386.013	460.62
386.238	475.62
386.463	461.62
386.688	462.62
386.913	434.62
387.138	438.62
387.363	450.62
387.588	459.62
387.813	436.62
388.038	440.62
388.263	467.62
388.488	443.62
388.713	455.62
388.938	452.62
389.163	425.62
389.387	463.62
389.612	428.62
389.837	445.62
390.062	458.62
390.287	433.62
390.512	460.62
390.736	433.62
390.961	435.62
391.186	455.62
391.411	467.62
391.636	477.62
391.86	459.62
392.085	501.62
392.31	457.62
392.534	474.62
392.759	472.62
392.984	461.62
393.208	463.62
393.433	448.62
393.658	454.62
393.882	454.62
394.107	456.62
394.331	465.62
394.556	476.62
394.78	452.62
395.005	456.62
395.229	488.62
395.454	481.62
395.678	468.62
395.903	491.62
396.127	529.62
396.352	491.62
396.576	503.62
396.801	492.62
397.025	473.62
397.249	477.62
397.474	487.62
397.698	494.62
397.922	517.62
398.147	532.62
398.371	510.62
398.595	499.62
398.82	508.62
399.044	525.62
399.268	575.62
399.492	599.62
399.717	621.62
399.941	681.62
400.165	649.62
400.389	665.62
400.613	609.62
400.837	556.62
401.062	519.62
401.286	535.62
401.51	540.62
401.734	524.62
401.958	530.62
402.182	561.62
402.406	550.62
402.63	547.62
402.854	547.62
403.078	545.62
403.302	552.62
403.526	574.62
403.75	565.62
403.974	553.62
404.198	569.62
404.422	553.62
404.645	574.62
404.869	563.62
405.093	587.62
405.317	631.62
405.541	661.62
405.765	609.62
405.988	595.62
406.212	598.62
406.436	592.62
406.66	593.62
406.883	596.62
407.107	628.62
407.331	645.62
407.555	714.62
407.778	739.62
408.002	678.62
408.226	618.62
408.449	606.62
408.673	605.62
408.896	594.62
409.12	662.62
409.344	634.62
409.567	598.62
409.791	569.62
410.014	542.62
410.238	539.62
410.461	574.62
410.685	573.62
410.908	565.62
411.132	585.62
411.355	646.62
411.578	598.62
411.802	548.62
412.025	531.62
412.249	561.62
412.472	581.62
412.695	611.62
412.919	627.62
413.142	567.62
413.365	534.62
413.589	522.62
413.812	537.62
414.035	497.62
414.258	510.62
414.482	518.62
414.705	519.62
414.928	539.62
415.151	483.62
415.374	515.62
415.597	520.62
415.821	510.62
416.044	499.62
416.267	515.62
416.49	527.62
416.713	513.62
416.936	506.62
417.159	514.62
417.382	523.62
417.605	525.62
417.828	533.62
418.051	550.62
418.274	553.62
418.497	517.62
418.72	530.62
418.943	529.62
419.166	550.62
419.389	556.62
419.611	570.62
419.834	524.62
420.057	546.62
420.28	529.62
420.503	546.62
420.726	550.62
420.948	538.62
421.171	588.62
421.394	603.62
421.617	562.62
421.839	553.62
422.062	551.62
422.285	547.62
422.507	580.62
422.73	684.62
422.953	649.62
423.175	610.62
423.398	549.62
423.621	565.62
423.843	606.62
424.066	558.62
424.288	563.62
424.511	603.62
424.733	659.62
424.956	710.62
425.178	675.62
425.401	691.62
425.623	699.62
425.846	620.62
426.068	575.62
426.291	565.62
426.513	564.62
426.735	590.62
426.958	584.62
427.18	684.62
427.402	788.62
427.625	872.62
427.847	728.62
428.069	679.62
428.292	598.62
428.514	569.62
428.736	533.62
428.958	526.62
429.181	526.62
429.403	513.62
429.625	541.62
429.847	537.62
430.069	642.62
430.292	625.62
430.514	550.62
430.736	515.62
430.958	519.62
431.18	493.62
431.402	471.62
431.624	481.62
431.846	494.62
432.068	507.62
432.29	507.62
432.512	516.62
432.734	509.62
432.956	515.62
433.178	513.62
433.4	502.62
433.622	502.62
433.844	525.62
434.066	501.62
434.287	492.62
434.509	522.62
434.731	512.62
434.953	537.62
435.175	551.62
435.397	566.62
435.618	577.62
435.84	592.62
436.062	675.62
436.284	751.62
436.505	618.62
436.727	563.62
436.949	523.62
437.17	534.62
437.392	519.62
437.614	520.62
437.835	542.62
438.057	636.62
438.278	747.62
438.5	734.62
438.721	809.62
438.943	807.62
439.165	629.62
439.386	579.62
439.608	544.62
439.829	556.62
440.05	574.62
440.272	621.62
440.493	587.62
440.715	558.62
440.936	536.62
441.158	522.62
441.379	538.62
441.6	539.62
441.822	556.62
442.043	608.62
442.264	663.62
442.486	709.62
442.707	605.62
442.928	584.62
443.149	568.62
443.371	606.62
443.592	635.62
443.813	702.62
444.034	779.62
444.255	663.62
444.476	595.62
444.698	612.62
444.919	606.62
445.14	701.62
445.361	615.62
445.582	604.62
445.803	641.62
446.024	756.62
446.245	742.62
446.466	665.62
446.687	607.62
446.908	565.62
447.129	521.62
447.35	518.62
447.571	525.62
447.792	518.62
448.013	538.62
448.234	530.62
448.455	555.62
448.675	661.62
448.896	788.62
449.117	644.62
449.338	607.62
449.559	723.62
449.779	821.62
450	677.62
450.221	574.62
450.442	545.62
450.662	502.62
450.883	487.62
451.104	515.62
451.324	505.62
451.545	473.62
451.766	483.62
451.986	480.62
452.207	450.62
452.428	461.62
452.648	463.62
452.869	455.62
453.089	444.62
453.31	476.62
453.53	459.62
453.751	463.62
453.971	470.62
454.192	444.62
454.412	467.62
454.633	443.62
454.853	440.62
455.073	460.62
455.294	485.62
455.514	540.62
455.734	534.62
455.955	465.62
456.175	436.62
456.395	427.62
456.616	437.62
456.836	450.62
457.056	452.62
457.276	449.62
457.497	438.62
457.717	444.62
457.937	435.62
458.157	428.62
458.377	440.62
458.598	481.62
458.818	524.62
459.038	587.62
459.258	589.62
459.478	530.62
459.698	502.62
459.918	502.62
460.138	507.62
460.358	528.62
460.578	513.62
460.798	522.62
461.018	533.62
461.238	536.62
461.458	512.62
461.678	492.62
461.898	522.62
462.118	549.62
462.338	524.62
462.558	539.62
462.777	541.62
462.997	586.62
463.217	592.62
463.437	618.62
463.657	581.62
463.876	564.62
464.096	550.62
464.316	584.62
464.536	578.62
464.755	557.62
464.975	552.62
465.195	557.62
465.414	606.62
465.634	553.62
465.854	542.62
466.073	507.62
466.293	505.62
466.512	493.62
466.732	491.62
466.951	479.62
467.171	486.62
467.391	491.62
467.61	483.62
467.829	505.62
468.049	481.62
468.268	483.62
468.488	472.62
468.707	452.62
468.927	476.62
469.146	454.62
469.365	481.62
469.585	468.62
469.804	460.62
470.023	477.62
470.243	490.62
470.462	481.62
470.681	493.62
470.901	464.62
471.12	469.62
471.339	481.62
471.558	481.62
471.777	484.62
471.997	475.62
472.216	478.62
472.435	495.62
472.654	501.62
472.873	484.62
473.092	466.62
473.311	477.62
473.53	463.62
473.749	471.62
473.968	530.62
474.187	609.62
474.406	635.62
474.625	539.62
474.844	491.62
475.063	498.62
475.282	484.62
475.501	474.62
475.72	479.62
475.939	501.62
476.158	500.62
476.377	497.62
476.596	493.62
476.814	499.62
477.033	529.62
477.252	503.62
477.471	513.62
477.69	522.62
477.908	530.62
478.127	519.62
478.346	527.62
478.564	561.62
478.783	550.62
479.002	521.62
479.22	549.62
479.439	579.62
479.658	561.62
479.876	602.62
480.095	595.62
480.313	618.62
480.532	620.62
480.751	590.62
480.969	601.62
481.188	621.62
481.406	665.62
481.624	599.62
481.843	583.62
482.061	569.62
482.28	567.62
482.498	569.62
482.717	570.62
482.935	563.62
483.153	559.62
483.372	569.62
483.59	570.62
483.808	542.62
484.027	588.62
484.245	567.62
484.463	564.62
484.681	589.62
484.9	584.62
485.118	575.62
485.336	561.62
485.554	568.62
485.772	591.62
485.99	578.62
486.209	566.62
486.427	574.62
486.645	594.62
486.863	591.62
487.081	601.62
487.299	605.62
487.517	577.62
487.735	580.62
487.953	587.62
488.171	587.62
488.389	579.62
488.607	590.62
488.825	619.62
489.043	620.62
489.261	592.62
489.479	610.62
489.696	609.62
489.914	605.62
490.132	597.62
490.35	615.62
490.568	650.62
490.786	645.62
491.003	643.62
491.221	662.62
491.439	667.62
491.657	676.62
491.874	650.62
492.092	675.62
492.31	702.62
492.527	645.62
492.745	697.62
492.963	695.62
493.18	680.62
493.398	686.62
493.615	705.62
493.833	699.62
494.05	702.62
494.268	708.62
494.485	685.62
494.703	687.62
494.92	685.62
495.138	711.62
495.355	733.62
495.573	708.62
495.79	677.62
496.008	722.62
496.225	706.62
496.442	708.62
496.66	724.62
496.877	734.62
497.094	727.62
497.312	713.62
497.529	744.62
497.746	743.62
497.963	747.62
498.181	780.62
498.398	778.62
498.615	782.62
498.832	829.62
499.049	822.62
499.267	902.62
499.484	926.62
499.701	965.62
499.918	1021.62
500.135	1075.62
500.352	1108.62
500.569	1110.62
500.786	1129.62
501.003	1095.62
501.22	1054.62
501.437	1014.62
501.654	964.62
