Data from 1976.PennyLincolnUp.Lamp.En5.5.200Scan.071719.P1.Changed Mount._HRD10591_15-59-28-860.txt Node
Date: Thu Jul 18 15:59:28 EDT 2019
User: cochatt
Spectrometer: HR+D1059
Trigger mode: 1
Integration Time (sec): 1.000000E-1
Scans to average: 1
Electric dark correction enabled: true
Nonlinearity correction enabled: false
Boxcar width: 0
XAxis mode: Wavelengths
Number of Pixels in Spectrum: 2048
>>>>>Begin Spectral Data<<<<<
223.165	-14.06
223.4	-14.06
223.635	-14.06
223.869	-18.06
224.104	-17.06
224.338	-19.06
224.573	-3.06
224.808	-12.06
225.042	-5.06
225.277	-3.06
225.511	-2.06
225.746	3.94
225.98	-1.06
226.215	-2.06
226.449	20.94
226.683	14.94
226.918	27.94
227.152	28.94
227.387	26.94
227.621	33.94
227.856	40.94
228.09	48.94
228.324	37.94
228.559	56.94
228.793	49.94
229.027	82.94
229.262	96.94
229.496	85.94
229.73	112.94
229.964	108.94
230.199	112.94
230.433	105.94
230.667	108.94
230.901	106.94
231.136	97.94
231.37	104.94
231.604	103.94
231.838	96.94
232.072	102.94
232.306	105.94
232.541	117.94
232.775	109.94
233.009	105.94
233.243	113.94
233.477	107.94
233.711	102.94
233.945	107.94
234.179	100.94
234.413	112.94
234.647	107.94
234.881	108.94
235.115	120.94
235.349	113.94
235.583	105.94
235.817	107.94
236.051	121.94
236.285	108.94
236.519	116.94
236.753	110.94
236.987	109.94
237.221	144.94
237.455	192.94
237.689	158.94
237.922	114.94
238.156	124.94
238.39	106.94
238.624	109.94
238.858	111.94
239.091	127.94
239.325	103.94
239.559	104.94
239.793	132.94
240.027	121.94
240.26	130.94
240.494	112.94
240.728	134.94
240.961	136.94
241.195	120.94
241.429	122.94
241.662	123.94
241.896	123.94
242.13	106.94
242.363	120.94
242.597	133.94
242.83	132.94
243.064	118.94
243.298	128.94
243.531	132.94
243.765	134.94
243.998	129.94
244.232	138.94
244.465	121.94
244.699	152.94
244.932	135.94
245.166	125.94
245.399	134.94
245.633	134.94
245.866	134.94
246.099	137.94
246.333	122.94
246.566	141.94
246.8	142.94
247.033	130.94
247.266	150.94
247.5	142.94
247.733	156.94
247.966	150.94
248.2	166.94
248.433	156.94
248.666	166.94
248.899	152.94
249.133	160.94
249.366	170.94
249.599	158.94
249.832	172.94
250.066	165.94
250.299	154.94
250.532	176.94
250.765	162.94
250.998	172.94
251.231	185.94
251.465	192.94
251.698	191.94
251.931	188.94
252.164	172.94
252.397	169.94
252.63	182.94
252.863	183.94
253.096	172.94
253.329	188.94
253.562	174.94
253.795	171.94
254.028	195.94
254.261	194.94
254.494	187.94
254.727	222.94
254.96	229.94
255.193	222.94
255.426	210.94
255.659	198.94
255.892	201.94
256.124	192.94
256.357	175.94
256.59	193.94
256.823	193.94
257.056	188.94
257.289	193.94
257.521	201.94
257.754	183.94
257.987	170.94
258.22	186.94
258.452	201.94
258.685	190.94
258.918	166.94
259.151	202.94
259.383	196.94
259.616	186.94
259.849	193.94
260.081	206.94
260.314	198.94
260.547	225.94
260.779	210.94
261.012	212.94
261.244	196.94
261.477	180.94
261.71	202.94
261.942	213.94
262.175	200.94
262.407	198.94
262.64	201.94
262.872	194.94
263.105	186.94
263.337	177.94
263.57	184.94
263.802	209.94
264.035	192.94
264.267	214.94
264.499	194.94
264.732	209.94
264.964	221.94
265.197	209.94
265.429	189.94
265.661	196.94
265.894	199.94
266.126	196.94
266.358	188.94
266.591	202.94
266.823	210.94
267.055	214.94
267.287	206.94
267.52	219.94
267.752	224.94
267.984	222.94
268.216	219.94
268.448	218.94
268.681	213.94
268.913	218.94
269.145	233.94
269.377	265.94
269.609	246.94
269.841	233.94
270.073	241.94
270.306	254.94
270.538	260.94
270.77	283.94
271.002	272.94
271.234	242.94
271.466	245.94
271.698	244.94
271.93	263.94
272.162	265.94
272.394	285.94
272.626	263.94
272.858	256.94
273.09	253.94
273.322	236.94
273.553	236.94
273.785	225.94
274.017	221.94
274.249	229.94
274.481	224.94
274.713	257.94
274.945	229.94
275.176	260.94
275.408	232.94
275.64	229.94
275.872	230.94
276.104	233.94
276.335	236.94
276.567	244.94
276.799	251.94
277.031	256.94
277.262	298.94
277.494	296.94
277.726	272.94
277.957	252.94
278.189	262.94
278.421	257.94
278.652	277.94
278.884	264.94
279.115	250.94
279.347	256.94
279.579	273.94
279.81	272.94
280.042	244.94
280.273	238.94
280.505	268.94
280.736	257.94
280.968	271.94
281.199	264.94
281.431	248.94
281.662	248.94
281.894	247.94
282.125	258.94
282.356	274.94
282.588	282.94
282.819	283.94
283.051	275.94
283.282	266.94
283.513	254.94
283.745	258.94
283.976	264.94
284.207	266.94
284.439	259.94
284.67	270.94
284.901	268.94
285.132	252.94
285.364	245.94
285.595	262.94
285.826	254.94
286.057	276.94
286.288	276.94
286.52	282.94
286.751	272.94
286.982	274.94
287.213	278.94
287.444	256.94
287.675	284.94
287.906	291.94
288.138	278.94
288.369	278.94
288.6	283.94
288.831	281.94
289.062	278.94
289.293	268.94
289.524	268.94
289.755	270.94
289.986	267.94
290.217	290.94
290.448	288.94
290.679	273.94
290.91	268.94
291.141	276.94
291.371	267.94
291.602	278.94
291.833	265.94
292.064	274.94
292.295	291.94
292.526	267.94
292.757	287.94
292.987	262.94
293.218	294.94
293.449	280.94
293.68	280.94
293.91	275.94
294.141	285.94
294.372	273.94
294.603	291.94
294.833	275.94
295.064	280.94
295.295	275.94
295.525	271.94
295.756	277.94
295.987	285.94
296.217	296.94
296.448	290.94
296.679	285.94
296.909	262.94
297.14	288.94
297.37	291.94
297.601	289.94
297.831	282.94
298.062	286.94
298.292	281.94
298.523	285.94
298.753	281.94
298.984	292.94
299.214	298.94
299.445	304.94
299.675	290.94
299.905	292.94
300.136	300.94
300.366	298.94
300.597	316.94
300.827	304.94
301.057	297.94
301.288	297.94
301.518	313.94
301.748	300.94
301.979	318.94
302.209	318.94
302.439	308.94
302.669	326.94
302.9	311.94
303.13	320.94
303.36	318.94
303.59	312.94
303.82	318.94
304.051	323.94
304.281	314.94
304.511	305.94
304.741	304.94
304.971	302.94
305.201	313.94
305.431	327.94
305.661	314.94
305.891	304.94
306.121	325.94
306.352	303.94
306.582	327.94
306.812	313.94
307.042	293.94
307.272	328.94
307.502	304.94
307.731	304.94
307.961	330.94
308.191	305.94
308.421	292.94
308.651	332.94
308.881	310.94
309.111	321.94
309.341	313.94
309.571	318.94
309.8	327.94
310.03	310.94
310.26	336.94
310.49	327.94
310.72	324.94
310.949	331.94
311.179	343.94
311.409	334.94
311.639	349.94
311.868	318.94
312.098	315.94
312.328	341.94
312.557	332.94
312.787	358.94
313.017	358.94
313.246	351.94
313.476	343.94
313.706	347.94
313.935	349.94
314.165	352.94
314.394	372.94
314.624	347.94
314.853	331.94
315.083	342.94
315.312	359.94
315.542	345.94
315.771	345.94
316.001	337.94
316.23	353.94
316.46	365.94
316.689	352.94
316.919	353.94
317.148	340.94
317.377	357.94
317.607	349.94
317.836	340.94
318.065	342.94
318.295	330.94
318.524	325.94
318.753	330.94
318.983	349.94
319.212	333.94
319.441	322.94
319.67	368.94
319.9	350.94
320.129	349.94
320.358	334.94
320.587	354.94
320.816	352.94
321.046	346.94
321.275	360.94
321.504	354.94
321.733	354.94
321.962	368.94
322.191	376.94
322.42	386.94
322.649	379.94
322.878	374.94
323.108	377.94
323.337	376.94
323.566	382.94
323.795	418.94
324.024	433.94
324.253	491.94
324.482	642.94
324.71	993.94
324.939	1441.94
325.168	1246.94
325.397	620.94
325.626	467.94
325.855	421.94
326.084	405.94
326.313	384.94
326.542	408.94
326.77	418.94
326.999	475.94
327.228	638.94
327.457	893.94
327.686	1097.94
327.914	716.94
328.143	518.94
328.372	450.94
328.6	449.94
328.829	433.94
329.058	423.94
329.287	423.94
329.515	434.94
329.744	424.94
329.972	406.94
330.201	430.94
330.43	422.94
330.658	445.94
330.887	461.94
331.115	450.94
331.344	443.94
331.572	416.94
331.801	436.94
332.03	433.94
332.258	402.94
332.486	402.94
332.715	409.94
332.943	403.94
333.172	419.94
333.4	429.94
333.629	441.94
333.857	439.94
334.085	449.94
334.314	439.94
334.542	451.94
334.771	449.94
334.999	447.94
335.227	436.94
335.455	419.94
335.684	424.94
335.912	412.94
336.14	408.94
336.369	410.94
336.597	397.94
336.825	385.94
337.053	417.94
337.281	409.94
337.51	397.94
337.738	398.94
337.966	410.94
338.194	402.94
338.422	382.94
338.65	375.94
338.878	392.94
339.106	410.94
339.334	407.94
339.562	383.94
339.79	389.94
340.018	382.94
340.246	388.94
340.474	390.94
340.702	388.94
340.93	381.94
341.158	381.94
341.386	402.94
341.614	382.94
341.842	416.94
342.07	395.94
342.298	397.94
342.526	400.94
342.754	382.94
342.981	382.94
343.209	388.94
343.437	397.94
343.665	395.94
343.893	414.94
344.12	406.94
344.348	406.94
344.576	415.94
344.804	403.94
345.031	416.94
345.259	414.94
345.487	409.94
345.714	384.94
345.942	379.94
346.17	377.94
346.397	389.94
346.625	388.94
346.853	388.94
347.08	378.94
347.308	359.94
347.535	376.94
347.763	367.94
347.99	380.94
348.218	378.94
348.445	382.94
348.673	383.94
348.9	391.94
349.128	383.94
349.355	370.94
349.583	357.94
349.81	370.94
350.037	371.94
350.265	364.94
350.492	380.94
350.72	387.94
350.947	385.94
351.174	373.94
351.402	383.94
351.629	365.94
351.856	384.94
352.083	363.94
352.311	388.94
352.538	389.94
352.765	368.94
352.992	398.94
353.22	377.94
353.447	378.94
353.674	364.94
353.901	363.94
354.128	379.94
354.355	372.94
354.583	357.94
354.81	358.94
355.037	358.94
355.264	345.94
355.491	349.94
355.718	365.94
355.945	372.94
356.172	350.94
356.399	375.94
356.626	356.94
356.853	370.94
357.08	366.94
357.307	349.94
357.534	369.94
357.761	372.94
357.988	379.94
358.215	364.94
358.441	370.94
358.668	355.94
358.895	359.94
359.122	392.94
359.349	362.94
359.576	379.94
359.802	377.94
360.029	387.94
360.256	406.94
360.483	358.94
360.709	376.94
360.936	376.94
361.163	366.94
361.39	398.94
361.616	370.94
361.843	372.94
362.07	358.94
362.296	369.94
362.523	370.94
362.749	383.94
362.976	357.94
363.203	374.94
363.429	362.94
363.656	396.94
363.882	355.94
364.109	348.94
364.335	374.94
364.562	382.94
364.788	351.94
365.015	378.94
365.241	370.94
365.468	386.94
365.694	394.94
365.92	362.94
366.147	354.94
366.373	358.94
366.599	361.94
366.826	352.94
367.052	361.94
367.278	365.94
367.505	373.94
367.731	360.94
367.957	353.94
368.184	356.94
368.41	383.94
368.636	373.94
368.862	375.94
369.089	374.94
369.315	368.94
369.541	382.94
369.767	358.94
369.993	376.94
370.219	366.94
370.445	366.94
370.672	360.94
370.898	373.94
371.124	374.94
371.35	369.94
371.576	386.94
371.802	378.94
372.028	365.94
372.254	376.94
372.48	370.94
372.706	391.94
372.932	390.94
373.158	370.94
373.384	379.94
373.61	390.94
373.835	387.94
374.061	388.94
374.287	378.94
374.513	389.94
374.739	397.94
374.965	393.94
375.191	397.94
375.416	400.94
375.642	400.94
375.868	379.94
376.094	377.94
376.319	372.94
376.545	383.94
376.771	402.94
376.997	403.94
377.222	406.94
377.448	386.94
377.674	374.94
377.899	369.94
378.125	396.94
378.35	390.94
378.576	375.94
378.802	379.94
379.027	370.94
379.253	397.94
379.478	390.94
379.704	376.94
379.929	376.94
380.155	384.94
380.38	373.94
380.606	380.94
380.831	384.94
381.057	394.94
381.282	400.94
381.507	363.94
381.733	388.94
381.958	392.94
382.184	394.94
382.409	390.94
382.634	374.94
382.86	393.94
383.085	409.94
383.31	425.94
383.535	421.94
383.761	393.94
383.986	420.94
384.211	416.94
384.436	434.94
384.662	426.94
384.887	417.94
385.112	436.94
385.337	408.94
385.562	424.94
385.787	410.94
386.013	445.94
386.238	440.94
386.463	446.94
386.688	438.94
386.913	419.94
387.138	420.94
387.363	453.94
387.588	422.94
387.813	440.94
388.038	432.94
388.263	434.94
388.488	422.94
388.713	437.94
388.938	429.94
389.163	412.94
389.387	427.94
389.612	421.94
389.837	435.94
390.062	421.94
390.287	426.94
390.512	433.94
390.736	427.94
390.961	422.94
391.186	454.94
391.411	430.94
391.636	437.94
391.86	446.94
392.085	441.94
392.31	448.94
392.534	423.94
392.759	452.94
392.984	439.94
393.208	425.94
393.433	422.94
393.658	432.94
393.882	434.94
394.107	435.94
394.331	429.94
394.556	452.94
394.78	444.94
395.005	441.94
395.229	441.94
395.454	439.94
395.678	445.94
395.903	477.94
396.127	472.94
396.352	454.94
396.576	442.94
396.801	452.94
397.025	444.94
397.249	446.94
397.474	457.94
397.698	457.94
397.922	442.94
398.147	460.94
398.371	472.94
398.595	472.94
398.82	483.94
399.044	498.94
399.268	534.94
399.492	556.94
399.717	586.94
399.941	614.94
400.165	631.94
400.389	610.94
400.613	552.94
400.837	550.94
401.062	518.94
401.286	508.94
401.51	498.94
401.734	484.94
401.958	496.94
402.182	493.94
402.406	520.94
402.63	517.94
402.854	501.94
403.078	494.94
403.302	524.94
403.526	501.94
403.75	520.94
403.974	538.94
404.198	518.94
404.422	512.94
404.645	514.94
404.869	513.94
405.093	553.94
405.317	560.94
405.541	594.94
405.765	565.94
405.988	527.94
406.212	550.94
406.436	540.94
406.66	552.94
406.883	543.94
407.107	589.94
407.331	608.94
407.555	651.94
407.778	653.94
408.002	615.94
408.226	557.94
408.449	556.94
408.673	554.94
408.896	581.94
409.12	630.94
409.344	596.94
409.567	510.94
409.791	509.94
410.014	520.94
410.238	523.94
410.461	524.94
410.685	506.94
410.908	530.94
411.132	562.94
411.355	571.94
411.578	555.94
411.802	504.94
412.025	492.94
412.249	525.94
412.472	527.94
412.695	564.94
412.919	524.94
413.142	518.94
413.365	491.94
413.589	492.94
413.812	490.94
414.035	503.94
414.258	478.94
414.482	472.94
414.705	478.94
414.928	475.94
415.151	482.94
415.374	468.94
415.597	486.94
415.821	483.94
416.044	472.94
416.267	478.94
416.49	461.94
416.713	481.94
416.936	490.94
417.159	482.94
417.382	472.94
417.605	474.94
417.828	481.94
418.051	513.94
418.274	493.94
418.497	484.94
418.72	480.94
418.943	491.94
419.166	502.94
419.389	516.94
419.611	540.94
419.834	516.94
420.057	512.94
420.28	498.94
420.503	488.94
420.726	482.94
420.948	499.94
421.171	534.94
421.394	564.94
421.617	506.94
421.839	498.94
422.062	487.94
422.285	476.94
422.507	542.94
422.73	608.94
422.953	604.94
423.175	536.94
423.398	506.94
423.621	504.94
423.843	516.94
424.066	536.94
424.288	496.94
424.511	534.94
424.733	596.94
424.956	632.94
425.178	589.94
425.401	610.94
425.623	648.94
425.846	528.94
426.068	516.94
426.291	521.94
426.513	507.94
426.735	512.94
426.958	544.94
427.18	605.94
427.402	700.94
427.625	802.94
427.847	658.94
428.069	581.94
428.292	538.94
428.514	508.94
428.736	468.94
428.958	474.94
429.181	460.94
429.403	452.94
429.625	474.94
429.847	522.94
430.069	558.94
430.292	557.94
430.514	488.94
430.736	473.94
430.958	482.94
431.18	465.94
431.402	461.94
431.624	466.94
431.846	449.94
432.068	452.94
432.29	460.94
432.512	471.94
432.734	457.94
432.956	456.94
433.178	472.94
433.4	491.94
433.622	469.94
433.844	458.94
434.066	477.94
434.287	469.94
434.509	471.94
434.731	468.94
434.953	477.94
435.175	489.94
435.397	506.94
435.618	508.94
435.84	522.94
436.062	606.94
436.284	656.94
436.505	581.94
436.727	500.94
436.949	492.94
437.17	470.94
437.392	451.94
437.614	484.94
437.835	503.94
438.057	553.94
438.278	652.94
438.5	619.94
438.721	722.94
438.943	688.94
439.165	561.94
439.386	503.94
439.608	518.94
439.829	505.94
440.05	516.94
440.272	550.94
440.493	517.94
440.715	487.94
440.936	484.94
441.158	488.94
441.379	462.94
441.6	504.94
441.822	483.94
442.043	528.94
442.264	603.94
442.486	631.94
442.707	561.94
442.928	516.94
443.149	522.94
443.371	533.94
443.592	572.94
443.813	640.94
444.034	717.94
444.255	585.94
444.476	552.94
444.698	539.94
444.919	542.94
445.14	662.94
445.361	602.94
445.582	557.94
445.803	590.94
446.024	671.94
446.245	665.94
446.466	601.94
446.687	534.94
446.908	492.94
447.129	486.94
447.35	496.94
447.571	470.94
447.792	453.94
448.013	454.94
448.234	466.94
448.455	510.94
448.675	603.94
448.896	685.94
449.117	596.94
449.338	576.94
449.559	644.94
449.779	742.94
450	598.94
450.221	499.94
450.442	479.94
450.662	445.94
450.883	451.94
451.104	441.94
451.324	462.94
451.545	467.94
451.766	427.94
451.986	429.94
452.207	424.94
452.428	420.94
452.648	422.94
452.869	430.94
453.089	420.94
453.31	427.94
453.53	395.94
453.751	408.94
453.971	397.94
454.192	406.94
454.412	422.94
454.633	417.94
454.853	404.94
455.073	426.94
455.294	452.94
455.514	475.94
455.734	471.94
455.955	427.94
456.175	414.94
456.395	406.94
456.616	398.94
456.836	412.94
457.056	392.94
457.276	382.94
457.497	403.94
457.717	391.94
457.937	400.94
458.157	414.94
458.377	446.94
458.598	438.94
458.818	464.94
459.038	515.94
459.258	535.94
459.478	462.94
459.698	463.94
459.918	464.94
460.138	462.94
460.358	455.94
460.578	500.94
460.798	482.94
461.018	503.94
461.238	496.94
461.458	482.94
461.678	489.94
461.898	489.94
462.118	462.94
462.338	506.94
462.558	500.94
462.777	513.94
462.997	507.94
463.217	545.94
463.437	580.94
463.657	549.94
463.876	546.94
464.096	543.94
464.316	529.94
464.536	526.94
464.755	546.94
464.975	506.94
465.195	551.94
465.414	534.94
465.634	498.94
465.854	493.94
466.073	471.94
466.293	456.94
466.512	434.94
466.732	451.94
466.951	462.94
467.171	453.94
467.391	454.94
467.61	455.94
467.829	469.94
468.049	458.94
468.268	442.94
468.488	445.94
468.707	430.94
468.927	428.94
469.146	419.94
469.365	420.94
469.585	435.94
469.804	433.94
470.023	428.94
470.243	447.94
470.462	436.94
470.681	470.94
470.901	442.94
471.12	437.94
471.339	457.94
471.558	456.94
471.777	453.94
471.997	440.94
472.216	438.94
472.435	453.94
472.654	451.94
472.873	444.94
473.092	442.94
473.311	456.94
473.53	458.94
473.749	437.94
473.968	465.94
474.187	530.94
474.406	555.94
474.625	500.94
474.844	462.94
475.063	463.94
475.282	442.94
475.501	448.94
475.72	471.94
475.939	453.94
476.158	464.94
476.377	475.94
476.596	474.94
476.814	472.94
477.033	485.94
477.252	454.94
477.471	468.94
477.69	481.94
477.908	503.94
478.127	515.94
478.346	480.94
478.564	500.94
478.783	503.94
479.002	523.94
479.22	509.94
479.439	527.94
479.658	516.94
479.876	548.94
480.095	562.94
480.313	576.94
480.532	550.94
480.751	566.94
480.969	556.94
481.188	563.94
481.406	564.94
481.624	553.94
481.843	524.94
482.061	508.94
482.28	529.94
482.498	486.94
482.717	490.94
482.935	501.94
483.153	524.94
483.372	537.94
483.59	518.94
483.808	529.94
484.027	525.94
484.245	522.94
484.463	522.94
484.681	534.94
484.9	538.94
485.118	515.94
485.336	545.94
485.554	536.94
485.772	550.94
485.99	521.94
486.209	535.94
486.427	541.94
486.645	540.94
486.863	542.94
487.081	557.94
487.299	573.94
487.517	534.94
487.735	555.94
487.953	563.94
488.171	563.94
488.389	540.94
488.607	556.94
488.825	545.94
489.043	546.94
489.261	554.94
489.479	572.94
489.696	574.94
489.914	551.94
490.132	566.94
490.35	547.94
490.568	590.94
490.786	590.94
491.003	602.94
491.221	598.94
491.439	597.94
491.657	597.94
491.874	600.94
492.092	634.94
492.31	619.94
492.527	603.94
492.745	620.94
492.963	627.94
493.18	624.94
493.398	606.94
493.615	621.94
493.833	634.94
494.05	636.94
494.268	618.94
494.485	646.94
494.703	648.94
494.92	632.94
495.138	630.94
495.355	655.94
495.573	658.94
495.79	625.94
496.008	660.94
496.225	653.94
496.442	664.94
496.66	633.94
496.877	656.94
497.094	644.94
497.312	667.94
497.529	679.94
497.746	689.94
497.963	692.94
498.181	743.94
498.398	739.94
498.615	749.94
498.832	771.94
499.049	805.94
499.267	826.94
499.484	853.94
499.701	886.94
499.918	941.94
500.135	980.94
500.352	1034.94
500.569	1116.94
500.786	1054.94
501.003	1107.94
501.22	1011.94
501.437	952.94
501.654	908.94
