Data from 1976.PennyLincolnUp.Lamp.En5.5.200Scan.071719.P1.Changed Mount._HRD10591_16-00-07-861.txt Node
Date: Thu Jul 18 16:00:07 EDT 2019
User: cochatt
Spectrometer: HR+D1059
Trigger mode: 1
Integration Time (sec): 1.000000E-1
Scans to average: 1
Electric dark correction enabled: true
Nonlinearity correction enabled: false
Boxcar width: 0
XAxis mode: Wavelengths
Number of Pixels in Spectrum: 2048
>>>>>Begin Spectral Data<<<<<
223.165	-17.25
223.4	-17.25
223.635	-17.25
223.869	-18.25
224.104	-18.25
224.338	-16.25
224.573	-10.25
224.808	-5.25
225.042	-16.25
225.277	5.75
225.511	-0.25
225.746	-16.25
225.98	9.75
226.215	17.75
226.449	9.75
226.683	18.75
226.918	17.75
227.152	38.75
227.387	23.75
227.621	34.75
227.856	55.75
228.09	33.75
228.324	50.75
228.559	51.75
228.793	56.75
229.027	90.75
229.262	93.75
229.496	103.75
229.73	124.75
229.964	139.75
230.199	119.75
230.433	105.75
230.667	104.75
230.901	114.75
231.136	106.75
231.37	95.75
231.604	106.75
231.838	110.75
232.072	119.75
232.306	90.75
232.541	107.75
232.775	103.75
233.009	106.75
233.243	113.75
233.477	111.75
233.711	116.75
233.945	112.75
234.179	111.75
234.413	123.75
234.647	124.75
234.881	105.75
235.115	121.75
235.349	113.75
235.583	119.75
235.817	113.75
236.051	110.75
236.285	114.75
236.519	122.75
236.753	127.75
236.987	136.75
237.221	166.75
237.455	204.75
237.689	168.75
237.922	131.75
238.156	114.75
238.39	120.75
238.624	127.75
238.858	119.75
239.091	120.75
239.325	122.75
239.559	128.75
239.793	118.75
240.027	124.75
240.26	125.75
240.494	115.75
240.728	137.75
240.961	143.75
241.195	132.75
241.429	131.75
241.662	122.75
241.896	130.75
242.13	138.75
242.363	116.75
242.597	137.75
242.83	134.75
243.064	133.75
243.298	145.75
243.531	147.75
243.765	134.75
243.998	142.75
244.232	130.75
244.465	131.75
244.699	130.75
244.932	145.75
245.166	130.75
245.399	135.75
245.633	149.75
245.866	150.75
246.099	157.75
246.333	149.75
246.566	140.75
246.8	121.75
247.033	139.75
247.266	158.75
247.5	162.75
247.733	169.75
247.966	171.75
248.2	165.75
248.433	159.75
248.666	167.75
248.899	184.75
249.133	197.75
249.366	188.75
249.599	189.75
249.832	191.75
250.066	182.75
250.299	176.75
250.532	189.75
250.765	185.75
250.998	189.75
251.231	223.75
251.465	203.75
251.698	188.75
251.931	177.75
252.164	200.75
252.397	177.75
252.63	190.75
252.863	184.75
253.096	208.75
253.329	228.75
253.562	233.75
253.795	205.75
254.028	202.75
254.261	217.75
254.494	220.75
254.727	240.75
254.96	259.75
255.193	231.75
255.426	237.75
255.659	201.75
255.892	222.75
256.124	226.75
256.357	215.75
256.59	227.75
256.823	223.75
257.056	207.75
257.289	214.75
257.521	189.75
257.754	193.75
257.987	207.75
258.22	211.75
258.452	208.75
258.685	214.75
258.918	204.75
259.151	199.75
259.383	226.75
259.616	207.75
259.849	215.75
260.081	201.75
260.314	238.75
260.547	233.75
260.779	228.75
261.012	221.75
261.244	211.75
261.477	212.75
261.71	209.75
261.942	210.75
262.175	230.75
262.407	213.75
262.64	202.75
262.872	211.75
263.105	198.75
263.337	202.75
263.57	196.75
263.802	199.75
264.035	219.75
264.267	209.75
264.499	221.75
264.732	220.75
264.964	214.75
265.197	210.75
265.429	202.75
265.661	200.75
265.894	222.75
266.126	202.75
266.358	221.75
266.591	212.75
266.823	206.75
267.055	216.75
267.287	221.75
267.52	222.75
267.752	238.75
267.984	219.75
268.216	233.75
268.448	205.75
268.681	228.75
268.913	238.75
269.145	250.75
269.377	265.75
269.609	258.75
269.841	243.75
270.073	265.75
270.306	266.75
270.538	297.75
270.77	315.75
271.002	301.75
271.234	277.75
271.466	290.75
271.698	290.75
271.93	299.75
272.162	293.75
272.394	305.75
272.626	281.75
272.858	277.75
273.09	276.75
273.322	274.75
273.553	263.75
273.785	258.75
274.017	251.75
274.249	242.75
274.481	245.75
274.713	255.75
274.945	251.75
275.176	253.75
275.408	261.75
275.64	267.75
275.872	265.75
276.104	267.75
276.335	254.75
276.567	252.75
276.799	268.75
277.031	293.75
277.262	311.75
277.494	289.75
277.726	294.75
277.957	282.75
278.189	297.75
278.421	277.75
278.652	273.75
278.884	268.75
279.115	277.75
279.347	263.75
279.579	271.75
279.81	260.75
280.042	274.75
280.273	267.75
280.505	274.75
280.736	267.75
280.968	265.75
281.199	263.75
281.431	265.75
281.662	257.75
281.894	288.75
282.125	285.75
282.356	276.75
282.588	304.75
282.819	288.75
283.051	294.75
283.282	277.75
283.513	273.75
283.745	287.75
283.976	286.75
284.207	279.75
284.439	282.75
284.67	273.75
284.901	272.75
285.132	283.75
285.364	296.75
285.595	297.75
285.826	281.75
286.057	285.75
286.288	277.75
286.52	292.75
286.751	289.75
286.982	282.75
287.213	285.75
287.444	295.75
287.675	286.75
287.906	314.75
288.138	303.75
288.369	286.75
288.6	302.75
288.831	290.75
289.062	301.75
289.293	299.75
289.524	301.75
289.755	292.75
289.986	292.75
290.217	302.75
290.448	304.75
290.679	284.75
290.91	306.75
291.141	293.75
291.371	303.75
291.602	283.75
291.833	294.75
292.064	286.75
292.295	299.75
292.526	291.75
292.757	326.75
292.987	283.75
293.218	288.75
293.449	308.75
293.68	284.75
293.91	304.75
294.141	298.75
294.372	291.75
294.603	298.75
294.833	306.75
295.064	297.75
295.295	275.75
295.525	291.75
295.756	313.75
295.987	300.75
296.217	303.75
296.448	331.75
296.679	312.75
296.909	302.75
297.14	320.75
297.37	305.75
297.601	303.75
297.831	301.75
298.062	317.75
298.292	302.75
298.523	316.75
298.753	298.75
298.984	298.75
299.214	317.75
299.445	296.75
299.675	308.75
299.905	342.75
300.136	318.75
300.366	305.75
300.597	326.75
300.827	319.75
301.057	329.75
301.288	336.75
301.518	338.75
301.748	339.75
301.979	329.75
302.209	337.75
302.439	341.75
302.669	324.75
302.9	315.75
303.13	334.75
303.36	316.75
303.59	351.75
303.82	327.75
304.051	331.75
304.281	316.75
304.511	325.75
304.741	334.75
304.971	337.75
305.201	324.75
305.431	332.75
305.661	331.75
305.891	321.75
306.121	327.75
306.352	329.75
306.582	332.75
306.812	326.75
307.042	328.75
307.272	325.75
307.502	329.75
307.731	324.75
307.961	349.75
308.191	337.75
308.421	336.75
308.651	330.75
308.881	333.75
309.111	329.75
309.341	327.75
309.571	339.75
309.8	345.75
310.03	357.75
310.26	391.75
310.49	366.75
310.72	376.75
310.949	377.75
311.179	386.75
311.409	367.75
311.639	351.75
311.868	351.75
312.098	347.75
312.328	361.75
312.557	377.75
312.787	363.75
313.017	379.75
313.246	366.75
313.476	362.75
313.706	367.75
313.935	389.75
314.165	385.75
314.394	391.75
314.624	370.75
314.853	386.75
315.083	378.75
315.312	382.75
315.542	353.75
315.771	370.75
316.001	343.75
316.23	351.75
316.46	351.75
316.689	356.75
316.919	369.75
317.148	386.75
317.377	373.75
317.607	361.75
317.836	373.75
318.065	372.75
318.295	351.75
318.524	355.75
318.753	356.75
318.983	376.75
319.212	377.75
319.441	376.75
319.67	378.75
319.9	398.75
320.129	350.75
320.358	367.75
320.587	385.75
320.816	391.75
321.046	376.75
321.275	384.75
321.504	379.75
321.733	378.75
321.962	399.75
322.191	397.75
322.42	423.75
322.649	407.75
322.878	424.75
323.108	435.75
323.337	431.75
323.566	443.75
323.795	482.75
324.024	514.75
324.253	604.75
324.482	803.75
324.71	1184.75
324.939	1698.75
325.168	1478.75
325.397	751.75
325.626	549.75
325.855	459.75
326.084	437.75
326.313	421.75
326.542	441.75
326.77	502.75
326.999	547.75
327.228	696.75
327.457	1086.75
327.686	1309.75
327.914	879.75
328.143	612.75
328.372	540.75
328.6	518.75
328.829	484.75
329.058	497.75
329.287	517.75
329.515	512.75
329.744	461.75
329.972	445.75
330.201	491.75
330.43	508.75
330.658	506.75
330.887	552.75
331.115	552.75
331.344	480.75
331.572	457.75
331.801	460.75
332.03	445.75
332.258	474.75
332.486	449.75
332.715	463.75
332.943	451.75
333.172	462.75
333.4	460.75
333.629	470.75
333.857	485.75
334.085	478.75
334.314	492.75
334.542	534.75
334.771	512.75
334.999	487.75
335.227	477.75
335.455	459.75
335.684	443.75
335.912	456.75
336.14	457.75
336.369	445.75
336.597	456.75
336.825	459.75
337.053	438.75
337.281	451.75
337.51	415.75
337.738	416.75
337.966	457.75
338.194	453.75
338.422	434.75
338.65	437.75
338.878	435.75
339.106	419.75
339.334	436.75
339.562	431.75
339.79	420.75
340.018	418.75
340.246	420.75
340.474	440.75
340.702	419.75
340.93	413.75
341.158	414.75
341.386	438.75
341.614	424.75
341.842	420.75
342.07	417.75
342.298	395.75
342.526	395.75
342.754	406.75
342.981	405.75
343.209	394.75
343.437	425.75
343.665	413.75
343.893	419.75
344.12	453.75
344.348	438.75
344.576	425.75
344.804	443.75
345.031	429.75
345.259	451.75
345.487	438.75
345.714	417.75
345.942	419.75
346.17	425.75
346.397	419.75
346.625	415.75
346.853	386.75
347.08	415.75
347.308	425.75
347.535	413.75
347.763	383.75
347.99	403.75
348.218	397.75
348.445	422.75
348.673	429.75
348.9	418.75
349.128	404.75
349.355	379.75
349.583	363.75
349.81	366.75
350.037	389.75
350.265	387.75
350.492	418.75
350.72	385.75
350.947	390.75
351.174	387.75
351.402	404.75
351.629	394.75
351.856	415.75
352.083	415.75
352.311	407.75
352.538	398.75
352.765	421.75
352.992	388.75
353.22	425.75
353.447	406.75
353.674	392.75
353.901	383.75
354.128	396.75
354.355	396.75
354.583	379.75
354.81	383.75
355.037	399.75
355.264	399.75
355.491	372.75
355.718	394.75
355.945	388.75
356.172	391.75
356.399	401.75
356.626	373.75
356.853	377.75
357.08	372.75
357.307	386.75
357.534	383.75
357.761	399.75
357.988	370.75
358.215	385.75
358.441	376.75
358.668	395.75
358.895	383.75
359.122	399.75
359.349	401.75
359.576	418.75
359.802	416.75
360.029	437.75
360.256	442.75
360.483	453.75
360.709	390.75
360.936	419.75
361.163	391.75
361.39	410.75
361.616	405.75
361.843	414.75
362.07	421.75
362.296	393.75
362.523	411.75
362.749	389.75
362.976	396.75
363.203	398.75
363.429	393.75
363.656	399.75
363.882	407.75
364.109	397.75
364.335	413.75
364.562	405.75
364.788	401.75
365.015	376.75
365.241	380.75
365.468	387.75
365.694	406.75
365.92	407.75
366.147	377.75
366.373	383.75
366.599	387.75
366.826	399.75
367.052	375.75
367.278	381.75
367.505	385.75
367.731	410.75
367.957	385.75
368.184	402.75
368.41	393.75
368.636	404.75
368.862	392.75
369.089	403.75
369.315	405.75
369.541	392.75
369.767	387.75
369.993	393.75
370.219	395.75
370.445	387.75
370.672	390.75
370.898	374.75
371.124	380.75
371.35	384.75
371.576	387.75
371.802	395.75
372.028	400.75
372.254	367.75
372.48	397.75
372.706	420.75
372.932	414.75
373.158	409.75
373.384	406.75
373.61	388.75
373.835	403.75
374.061	417.75
374.287	403.75
374.513	412.75
374.739	412.75
374.965	417.75
375.191	424.75
375.416	419.75
375.642	403.75
375.868	415.75
376.094	413.75
376.319	390.75
376.545	412.75
376.771	411.75
376.997	399.75
377.222	384.75
377.448	402.75
377.674	377.75
377.899	384.75
378.125	412.75
378.35	390.75
378.576	389.75
378.802	386.75
379.027	390.75
379.253	391.75
379.478	407.75
379.704	403.75
379.929	405.75
380.155	399.75
380.38	409.75
380.606	406.75
380.831	400.75
381.057	387.75
381.282	380.75
381.507	394.75
381.733	410.75
381.958	399.75
382.184	421.75
382.409	415.75
382.634	399.75
382.86	416.75
383.085	423.75
383.31	408.75
383.535	426.75
383.761	422.75
383.986	436.75
384.211	405.75
384.436	434.75
384.662	417.75
384.887	437.75
385.112	443.75
385.337	449.75
385.562	439.75
385.787	442.75
386.013	449.75
386.238	434.75
386.463	474.75
386.688	462.75
386.913	457.75
387.138	434.75
387.363	444.75
387.588	417.75
387.813	429.75
388.038	447.75
388.263	460.75
388.488	442.75
388.713	455.75
388.938	458.75
389.163	440.75
389.387	443.75
389.612	436.75
389.837	437.75
390.062	458.75
390.287	445.75
390.512	441.75
390.736	451.75
390.961	454.75
391.186	448.75
391.411	464.75
391.636	453.75
391.86	452.75
392.085	467.75
392.31	458.75
392.534	457.75
392.759	453.75
392.984	455.75
393.208	463.75
393.433	453.75
393.658	459.75
393.882	465.75
394.107	462.75
394.331	450.75
394.556	445.75
394.78	450.75
395.005	465.75
395.229	462.75
395.454	461.75
395.678	454.75
395.903	493.75
396.127	486.75
396.352	495.75
396.576	450.75
396.801	463.75
397.025	458.75
397.249	479.75
397.474	495.75
397.698	488.75
397.922	490.75
398.147	497.75
398.371	535.75
398.595	510.75
398.82	499.75
399.044	530.75
399.268	544.75
399.492	576.75
399.717	607.75
399.941	633.75
400.165	647.75
400.389	663.75
400.613	621.75
400.837	541.75
401.062	531.75
401.286	533.75
401.51	519.75
401.734	527.75
401.958	516.75
402.182	525.75
402.406	554.75
402.63	521.75
402.854	532.75
403.078	534.75
403.302	531.75
403.526	557.75
403.75	541.75
403.974	569.75
404.198	538.75
404.422	552.75
404.645	543.75
404.869	549.75
405.093	602.75
405.317	621.75
405.541	663.75
405.765	579.75
405.988	585.75
406.212	576.75
406.436	594.75
406.66	603.75
406.883	605.75
407.107	612.75
407.331	634.75
407.555	729.75
407.778	693.75
408.002	628.75
408.226	609.75
408.449	616.75
408.673	586.75
408.896	593.75
409.12	658.75
409.344	633.75
409.567	546.75
409.791	557.75
410.014	541.75
410.238	545.75
410.461	529.75
410.685	542.75
410.908	541.75
411.132	576.75
411.355	647.75
411.578	579.75
411.802	567.75
412.025	552.75
412.249	557.75
412.472	578.75
412.695	617.75
412.919	600.75
413.142	534.75
413.365	539.75
413.589	540.75
413.812	484.75
414.035	523.75
414.258	494.75
414.482	517.75
414.705	521.75
414.928	504.75
415.151	509.75
415.374	505.75
415.597	530.75
415.821	519.75
416.044	489.75
416.267	535.75
416.49	504.75
416.713	496.75
416.936	488.75
417.159	480.75
417.382	500.75
417.605	520.75
417.828	514.75
418.051	531.75
418.274	518.75
418.497	507.75
418.72	515.75
418.943	490.75
419.166	523.75
419.389	542.75
419.611	573.75
419.834	539.75
420.057	534.75
420.28	547.75
420.503	533.75
420.726	537.75
420.948	533.75
421.171	587.75
421.394	600.75
421.617	534.75
421.839	532.75
422.062	548.75
422.285	544.75
422.507	580.75
422.73	670.75
422.953	639.75
423.175	558.75
423.398	563.75
423.621	537.75
423.843	551.75
424.066	575.75
424.288	571.75
424.511	622.75
424.733	623.75
424.956	680.75
425.178	686.75
425.401	656.75
425.623	711.75
425.846	632.75
426.068	569.75
426.291	545.75
426.513	567.75
426.735	538.75
426.958	612.75
427.18	651.75
427.402	789.75
427.625	875.75
427.847	740.75
428.069	629.75
428.292	590.75
428.514	541.75
428.736	513.75
428.958	519.75
429.181	499.75
429.403	522.75
429.625	530.75
429.847	565.75
430.069	597.75
430.292	624.75
430.514	523.75
430.736	497.75
430.958	491.75
431.18	501.75
431.402	489.75
431.624	482.75
431.846	478.75
432.068	481.75
432.29	505.75
432.512	495.75
432.734	511.75
432.956	479.75
433.178	511.75
433.4	487.75
433.622	515.75
433.844	493.75
434.066	500.75
434.287	482.75
434.509	480.75
434.731	515.75
434.953	514.75
435.175	533.75
435.397	552.75
435.618	551.75
435.84	592.75
436.062	666.75
436.284	754.75
436.505	608.75
436.727	555.75
436.949	528.75
437.17	510.75
437.392	508.75
437.614	528.75
437.835	551.75
438.057	627.75
438.278	701.75
438.5	725.75
438.721	808.75
438.943	748.75
439.165	599.75
439.386	570.75
439.608	543.75
439.829	531.75
440.05	596.75
440.272	608.75
440.493	591.75
440.715	534.75
440.936	518.75
441.158	512.75
441.379	510.75
441.6	539.75
441.822	587.75
442.043	582.75
442.264	647.75
442.486	712.75
442.707	599.75
442.928	552.75
443.149	581.75
443.371	570.75
443.592	630.75
443.813	719.75
444.034	755.75
444.255	664.75
444.476	600.75
444.698	578.75
444.919	578.75
445.14	712.75
445.361	651.75
445.582	601.75
445.803	618.75
446.024	725.75
446.245	728.75
446.466	687.75
446.687	596.75
446.908	547.75
447.129	532.75
447.35	507.75
447.571	526.75
447.792	505.75
448.013	513.75
448.234	524.75
448.455	563.75
448.675	665.75
448.896	772.75
449.117	655.75
449.338	613.75
449.559	702.75
449.779	855.75
450	661.75
450.221	562.75
450.442	513.75
450.662	511.75
450.883	477.75
451.104	499.75
451.324	466.75
451.545	473.75
451.766	453.75
451.986	459.75
452.207	456.75
452.428	450.75
452.648	458.75
452.869	469.75
453.089	448.75
453.31	482.75
453.53	460.75
453.751	471.75
453.971	455.75
454.192	446.75
454.412	455.75
454.633	446.75
454.853	438.75
455.073	456.75
455.294	462.75
455.514	530.75
455.734	530.75
455.955	461.75
456.175	441.75
456.395	443.75
456.616	435.75
456.836	433.75
457.056	420.75
457.276	419.75
457.497	426.75
457.717	437.75
457.937	439.75
458.157	444.75
458.377	445.75
458.598	480.75
458.818	482.75
459.038	569.75
459.258	597.75
459.478	529.75
459.698	499.75
459.918	477.75
460.138	493.75
460.358	488.75
460.578	509.75
460.798	513.75
461.018	504.75
461.238	515.75
461.458	511.75
461.678	519.75
461.898	516.75
462.118	543.75
462.338	532.75
462.558	523.75
462.777	559.75
462.997	563.75
463.217	576.75
463.437	591.75
463.657	551.75
463.876	574.75
464.096	549.75
464.316	561.75
464.536	574.75
464.755	551.75
464.975	551.75
465.195	552.75
465.414	584.75
465.634	548.75
465.854	526.75
466.073	490.75
466.293	482.75
466.512	498.75
466.732	453.75
466.951	463.75
467.171	474.75
467.391	494.75
467.61	464.75
467.829	480.75
468.049	473.75
468.268	462.75
468.488	459.75
468.707	452.75
468.927	460.75
469.146	458.75
469.365	442.75
469.585	431.75
469.804	477.75
470.023	481.75
470.243	488.75
470.462	483.75
470.681	499.75
470.901	494.75
471.12	495.75
471.339	487.75
471.558	495.75
471.777	482.75
471.997	459.75
472.216	486.75
472.435	489.75
472.654	489.75
472.873	472.75
473.092	456.75
473.311	450.75
473.53	462.75
473.749	467.75
473.968	475.75
474.187	606.75
474.406	627.75
474.625	533.75
474.844	494.75
475.063	454.75
475.282	475.75
475.501	465.75
475.72	471.75
475.939	482.75
476.158	490.75
476.377	460.75
476.596	462.75
476.814	489.75
477.033	506.75
477.252	521.75
477.471	510.75
477.69	518.75
477.908	530.75
478.127	492.75
478.346	535.75
478.564	520.75
478.783	524.75
479.002	551.75
479.22	554.75
479.439	562.75
479.658	578.75
479.876	542.75
480.095	565.75
480.313	601.75
480.532	616.75
480.751	598.75
480.969	590.75
481.188	629.75
481.406	639.75
481.624	611.75
481.843	573.75
482.061	574.75
482.28	542.75
482.498	537.75
482.717	554.75
482.935	552.75
483.153	542.75
483.372	545.75
483.59	546.75
483.808	559.75
484.027	543.75
484.245	528.75
484.463	560.75
484.681	576.75
484.9	575.75
485.118	590.75
485.336	578.75
485.554	557.75
485.772	575.75
485.99	592.75
486.209	555.75
486.427	574.75
486.645	582.75
486.863	610.75
487.081	587.75
487.299	597.75
487.517	606.75
487.735	605.75
487.953	601.75
488.171	564.75
488.389	573.75
488.607	584.75
488.825	601.75
489.043	582.75
489.261	600.75
489.479	594.75
489.696	607.75
489.914	592.75
490.132	589.75
490.35	626.75
490.568	627.75
490.786	642.75
491.003	634.75
491.221	640.75
491.439	647.75
491.657	659.75
491.874	671.75
492.092	693.75
492.31	690.75
492.527	685.75
492.745	687.75
492.963	679.75
493.18	671.75
493.398	689.75
493.615	661.75
493.833	677.75
494.05	690.75
494.268	699.75
494.485	693.75
494.703	689.75
494.92	693.75
495.138	704.75
495.355	691.75
495.573	698.75
495.79	697.75
496.008	689.75
496.225	695.75
496.442	720.75
496.66	699.75
496.877	701.75
497.094	703.75
497.312	740.75
497.529	729.75
497.746	752.75
497.963	744.75
498.181	752.75
498.398	777.75
498.615	811.75
498.832	805.75
499.049	832.75
499.267	839.75
499.484	901.75
499.701	925.75
499.918	966.75
500.135	1016.75
500.352	1127.75
500.569	1127.75
500.786	1129.75
501.003	1117.75
501.22	1057.75
501.437	1021.75
501.654	954.75
