Data from 1976.PennyLincolnUp.Lamp.En5.5.200Scan.071719.P1.Changed Mount._HRD10591_16-00-57-861.txt Node
Date: Thu Jul 18 16:00:57 EDT 2019
User: cochatt
Spectrometer: HR+D1059
Trigger mode: 1
Integration Time (sec): 1.000000E-1
Scans to average: 1
Electric dark correction enabled: true
Nonlinearity correction enabled: false
Boxcar width: 0
XAxis mode: Wavelengths
Number of Pixels in Spectrum: 2048
>>>>>Begin Spectral Data<<<<<
223.165	-14.38
223.4	-14.38
223.635	-14.38
223.869	-4.38
224.104	-14.38
224.338	-16.38
224.573	-19.38
224.808	0.62
225.042	-11.38
225.277	-9.38
225.511	-22.38
225.746	10.62
225.98	-5.38
226.215	11.62
226.449	16.62
226.683	17.62
226.918	31.62
227.152	28.62
227.387	28.62
227.621	35.62
227.856	49.62
228.09	60.62
228.324	42.62
228.559	72.62
228.793	79.62
229.027	102.62
229.262	108.62
229.496	127.62
229.73	137.62
229.964	170.62
230.199	130.62
230.433	116.62
230.667	126.62
230.901	112.62
231.136	122.62
231.37	116.62
231.604	110.62
231.838	109.62
232.072	121.62
232.306	132.62
232.541	109.62
232.775	110.62
233.009	112.62
233.243	109.62
233.477	132.62
233.711	118.62
233.945	110.62
234.179	118.62
234.413	118.62
234.647	125.62
234.881	125.62
235.115	132.62
235.349	119.62
235.583	109.62
235.817	111.62
236.051	134.62
236.285	120.62
236.519	118.62
236.753	136.62
236.987	129.62
237.221	177.62
237.455	219.62
237.689	184.62
237.922	153.62
238.156	127.62
238.39	131.62
238.624	137.62
238.858	128.62
239.091	122.62
239.325	132.62
239.559	128.62
239.793	124.62
240.027	136.62
240.26	152.62
240.494	157.62
240.728	160.62
240.961	154.62
241.195	154.62
241.429	150.62
241.662	155.62
241.896	130.62
242.13	137.62
242.363	142.62
242.597	138.62
242.83	144.62
243.064	146.62
243.298	155.62
243.531	145.62
243.765	146.62
243.998	145.62
244.232	157.62
244.465	168.62
244.699	154.62
244.932	136.62
245.166	147.62
245.399	156.62
245.633	153.62
245.866	159.62
246.099	158.62
246.333	153.62
246.566	158.62
246.8	155.62
247.033	137.62
247.266	154.62
247.5	165.62
247.733	177.62
247.966	171.62
248.2	181.62
248.433	166.62
248.666	177.62
248.899	194.62
249.133	198.62
249.366	204.62
249.599	199.62
249.832	189.62
250.066	188.62
250.299	177.62
250.532	189.62
250.765	196.62
250.998	226.62
251.231	232.62
251.465	220.62
251.698	210.62
251.931	213.62
252.164	209.62
252.397	191.62
252.63	213.62
252.863	221.62
253.096	231.62
253.329	233.62
253.562	244.62
253.795	229.62
254.028	212.62
254.261	206.62
254.494	219.62
254.727	247.62
254.96	275.62
255.193	270.62
255.426	259.62
255.659	248.62
255.892	257.62
256.124	238.62
256.357	227.62
256.59	245.62
256.823	228.62
257.056	223.62
257.289	208.62
257.521	221.62
257.754	202.62
257.987	230.62
258.22	221.62
258.452	210.62
258.685	221.62
258.918	213.62
259.151	227.62
259.383	228.62
259.616	232.62
259.849	229.62
260.081	251.62
260.314	268.62
260.547	280.62
260.779	251.62
261.012	270.62
261.244	223.62
261.477	232.62
261.71	224.62
261.942	249.62
262.175	248.62
262.407	238.62
262.64	239.62
262.872	222.62
263.105	217.62
263.337	233.62
263.57	223.62
263.802	229.62
264.035	230.62
264.267	214.62
264.499	227.62
264.732	236.62
264.964	225.62
265.197	229.62
265.429	234.62
265.661	209.62
265.894	230.62
266.126	233.62
266.358	211.62
266.591	244.62
266.823	237.62
267.055	252.62
267.287	240.62
267.52	232.62
267.752	261.62
267.984	256.62
268.216	237.62
268.448	249.62
268.681	254.62
268.913	257.62
269.145	279.62
269.377	283.62
269.609	296.62
269.841	278.62
270.073	276.62
270.306	304.62
270.538	333.62
270.77	312.62
271.002	307.62
271.234	310.62
271.466	304.62
271.698	318.62
271.93	335.62
272.162	336.62
272.394	316.62
272.626	321.62
272.858	292.62
273.09	302.62
273.322	304.62
273.553	283.62
273.785	284.62
274.017	286.62
274.249	295.62
274.481	293.62
274.713	272.62
274.945	285.62
275.176	280.62
275.408	267.62
275.64	270.62
275.872	282.62
276.104	300.62
276.335	272.62
276.567	279.62
276.799	300.62
277.031	332.62
277.262	337.62
277.494	333.62
277.726	329.62
277.957	312.62
278.189	316.62
278.421	298.62
278.652	305.62
278.884	297.62
279.115	303.62
279.347	283.62
279.579	271.62
279.81	289.62
280.042	272.62
280.273	307.62
280.505	296.62
280.736	298.62
280.968	296.62
281.199	281.62
281.431	291.62
281.662	277.62
281.894	303.62
282.125	293.62
282.356	308.62
282.588	318.62
282.819	320.62
283.051	307.62
283.282	326.62
283.513	306.62
283.745	305.62
283.976	291.62
284.207	315.62
284.439	328.62
284.67	302.62
284.901	332.62
285.132	302.62
285.364	293.62
285.595	291.62
285.826	294.62
286.057	315.62
286.288	296.62
286.52	305.62
286.751	315.62
286.982	318.62
287.213	297.62
287.444	328.62
287.675	325.62
287.906	318.62
288.138	329.62
288.369	313.62
288.6	337.62
288.831	326.62
289.062	324.62
289.293	316.62
289.524	330.62
289.755	343.62
289.986	328.62
290.217	318.62
290.448	318.62
290.679	314.62
290.91	308.62
291.141	310.62
291.371	317.62
291.602	318.62
291.833	327.62
292.064	332.62
292.295	314.62
292.526	317.62
292.757	329.62
292.987	317.62
293.218	320.62
293.449	318.62
293.68	324.62
293.91	325.62
294.141	333.62
294.372	324.62
294.603	332.62
294.833	323.62
295.064	330.62
295.295	319.62
295.525	310.62
295.756	318.62
295.987	329.62
296.217	345.62
296.448	358.62
296.679	334.62
296.909	329.62
297.14	345.62
297.37	337.62
297.601	325.62
297.831	328.62
298.062	344.62
298.292	338.62
298.523	340.62
298.753	345.62
298.984	340.62
299.214	338.62
299.445	319.62
299.675	356.62
299.905	358.62
300.136	352.62
300.366	332.62
300.597	356.62
300.827	337.62
301.057	369.62
301.288	354.62
301.518	353.62
301.748	354.62
301.979	351.62
302.209	352.62
302.439	351.62
302.669	349.62
302.9	362.62
303.13	344.62
303.36	390.62
303.59	362.62
303.82	370.62
304.051	388.62
304.281	349.62
304.511	362.62
304.741	371.62
304.971	348.62
305.201	337.62
305.431	352.62
305.661	358.62
305.891	343.62
306.121	359.62
306.352	365.62
306.582	344.62
306.812	358.62
307.042	356.62
307.272	354.62
307.502	356.62
307.731	374.62
307.961	361.62
308.191	348.62
308.421	377.62
308.651	376.62
308.881	370.62
309.111	364.62
309.341	373.62
309.571	378.62
309.8	372.62
310.03	389.62
310.26	406.62
310.49	380.62
310.72	409.62
310.949	408.62
311.179	412.62
311.409	414.62
311.639	414.62
311.868	393.62
312.098	391.62
312.328	411.62
312.557	408.62
312.787	444.62
313.017	438.62
313.246	403.62
313.476	406.62
313.706	416.62
313.935	400.62
314.165	414.62
314.394	425.62
314.624	413.62
314.853	408.62
315.083	405.62
315.312	392.62
315.542	410.62
315.771	378.62
316.001	382.62
316.23	386.62
316.46	397.62
316.689	394.62
316.919	400.62
317.148	388.62
317.377	387.62
317.607	396.62
317.836	405.62
318.065	403.62
318.295	414.62
318.524	380.62
318.753	372.62
318.983	409.62
319.212	419.62
319.441	391.62
319.67	432.62
319.9	387.62
320.129	386.62
320.358	414.62
320.587	395.62
320.816	406.62
321.046	422.62
321.275	428.62
321.504	418.62
321.733	426.62
321.962	435.62
322.191	412.62
322.42	443.62
322.649	422.62
322.878	448.62
323.108	469.62
323.337	471.62
323.566	479.62
323.795	527.62
324.024	557.62
324.253	625.62
324.482	882.62
324.71	1362.62
324.939	1985.62
325.168	1698.62
325.397	864.62
325.626	605.62
325.855	545.62
326.084	520.62
326.313	476.62
326.542	484.62
326.77	540.62
326.999	628.62
327.228	830.62
327.457	1172.62
327.686	1487.62
327.914	978.62
328.143	658.62
328.372	595.62
328.6	562.62
328.829	569.62
329.058	584.62
329.287	580.62
329.515	545.62
329.744	488.62
329.972	493.62
330.201	508.62
330.43	562.62
330.658	585.62
330.887	610.62
331.115	590.62
331.344	512.62
331.572	486.62
331.801	504.62
332.03	523.62
332.258	486.62
332.486	472.62
332.715	494.62
332.943	486.62
333.172	500.62
333.4	489.62
333.629	496.62
333.857	513.62
334.085	514.62
334.314	557.62
334.542	556.62
334.771	549.62
334.999	524.62
335.227	524.62
335.455	504.62
335.684	504.62
335.912	496.62
336.14	477.62
336.369	468.62
336.597	482.62
336.825	489.62
337.053	496.62
337.281	470.62
337.51	485.62
337.738	459.62
337.966	472.62
338.194	461.62
338.422	488.62
338.65	464.62
338.878	459.62
339.106	471.62
339.334	450.62
339.562	464.62
339.79	464.62
340.018	454.62
340.246	444.62
340.474	467.62
340.702	452.62
340.93	457.62
341.158	438.62
341.386	434.62
341.614	471.62
341.842	461.62
342.07	452.62
342.298	432.62
342.526	438.62
342.754	454.62
342.981	425.62
343.209	443.62
343.437	458.62
343.665	469.62
343.893	458.62
344.12	480.62
344.348	478.62
344.576	479.62
344.804	482.62
345.031	474.62
345.259	477.62
345.487	461.62
345.714	424.62
345.942	444.62
346.17	463.62
346.397	440.62
346.625	452.62
346.853	424.62
347.08	432.62
347.308	449.62
347.535	462.62
347.763	457.62
347.99	461.62
348.218	443.62
348.445	443.62
348.673	458.62
348.9	454.62
349.128	452.62
349.355	421.62
349.583	435.62
349.81	444.62
350.037	429.62
350.265	442.62
350.492	444.62
350.72	437.62
350.947	444.62
351.174	446.62
351.402	427.62
351.629	432.62
351.856	428.62
352.083	429.62
352.311	443.62
352.538	454.62
352.765	425.62
352.992	448.62
353.22	441.62
353.447	438.62
353.674	443.62
353.901	444.62
354.128	425.62
354.355	414.62
354.583	390.62
354.81	410.62
355.037	421.62
355.264	397.62
355.491	409.62
355.718	422.62
355.945	416.62
356.172	423.62
356.399	427.62
356.626	393.62
356.853	419.62
357.08	419.62
357.307	415.62
357.534	397.62
357.761	426.62
357.988	421.62
358.215	408.62
358.441	411.62
358.668	436.62
358.895	425.62
359.122	414.62
359.349	414.62
359.576	440.62
359.802	457.62
360.029	465.62
360.256	488.62
360.483	457.62
360.709	422.62
360.936	438.62
361.163	450.62
361.39	445.62
361.616	444.62
361.843	436.62
362.07	457.62
362.296	429.62
362.523	448.62
362.749	432.62
362.976	424.62
363.203	432.62
363.429	419.62
363.656	422.62
363.882	422.62
364.109	411.62
364.335	405.62
364.562	446.62
364.788	421.62
365.015	407.62
365.241	426.62
365.468	431.62
365.694	414.62
365.92	428.62
366.147	404.62
366.373	435.62
366.599	419.62
366.826	432.62
367.052	426.62
367.278	401.62
367.505	416.62
367.731	435.62
367.957	415.62
368.184	436.62
368.41	423.62
368.636	421.62
368.862	450.62
369.089	422.62
369.315	416.62
369.541	429.62
369.767	425.62
369.993	442.62
370.219	434.62
370.445	433.62
370.672	430.62
370.898	432.62
371.124	441.62
371.35	443.62
371.576	406.62
371.802	438.62
372.028	431.62
372.254	394.62
372.48	438.62
372.706	431.62
372.932	447.62
373.158	434.62
373.384	440.62
373.61	434.62
373.835	436.62
374.061	421.62
374.287	450.62
374.513	432.62
374.739	427.62
374.965	440.62
375.191	476.62
375.416	442.62
375.642	433.62
375.868	434.62
376.094	453.62
376.319	425.62
376.545	423.62
376.771	433.62
376.997	413.62
377.222	422.62
377.448	410.62
377.674	423.62
377.899	408.62
378.125	421.62
378.35	425.62
378.576	424.62
378.802	431.62
379.027	436.62
379.253	415.62
379.478	420.62
379.704	423.62
379.929	441.62
380.155	425.62
380.38	411.62
380.606	414.62
380.831	448.62
381.057	435.62
381.282	431.62
381.507	455.62
381.733	428.62
381.958	431.62
382.184	442.62
382.409	452.62
382.634	458.62
382.86	440.62
383.085	444.62
383.31	446.62
383.535	449.62
383.761	448.62
383.986	450.62
384.211	454.62
384.436	423.62
384.662	452.62
384.887	470.62
385.112	488.62
385.337	452.62
385.562	471.62
385.787	470.62
386.013	508.62
386.238	483.62
386.463	488.62
386.688	489.62
386.913	469.62
387.138	465.62
387.363	474.62
387.588	479.62
387.813	476.62
388.038	474.62
388.263	480.62
388.488	489.62
388.713	482.62
388.938	500.62
389.163	475.62
389.387	477.62
389.612	470.62
389.837	489.62
390.062	484.62
390.287	468.62
390.512	484.62
390.736	481.62
390.961	503.62
391.186	492.62
391.411	493.62
391.636	509.62
391.86	501.62
392.085	489.62
392.31	516.62
392.534	506.62
392.759	522.62
392.984	484.62
393.208	478.62
393.433	477.62
393.658	464.62
393.882	488.62
394.107	494.62
394.331	479.62
394.556	501.62
394.78	475.62
395.005	493.62
395.229	460.62
395.454	514.62
395.678	509.62
395.903	510.62
396.127	528.62
396.352	541.62
396.576	522.62
396.801	513.62
397.025	494.62
397.249	525.62
397.474	501.62
397.698	516.62
397.922	519.62
398.147	541.62
398.371	542.62
398.595	556.62
398.82	584.62
399.044	594.62
399.268	591.62
399.492	638.62
399.717	658.62
399.941	710.62
400.165	710.62
400.389	706.62
400.613	639.62
400.837	622.62
401.062	564.62
401.286	561.62
401.51	555.62
401.734	569.62
401.958	579.62
402.182	591.62
402.406	584.62
402.63	580.62
402.854	581.62
403.078	593.62
403.302	598.62
403.526	584.62
403.75	586.62
403.974	577.62
404.198	592.62
404.422	617.62
404.645	603.62
404.869	613.62
405.093	633.62
405.317	666.62
405.541	703.62
405.765	636.62
405.988	614.62
406.212	599.62
406.436	619.62
406.66	650.62
406.883	620.62
407.107	650.62
407.331	679.62
407.555	793.62
407.778	769.62
408.002	708.62
408.226	673.62
408.449	650.62
408.673	628.62
408.896	658.62
409.12	714.62
409.344	670.62
409.567	622.62
409.791	600.62
410.014	575.62
410.238	589.62
410.461	596.62
410.685	571.62
410.908	595.62
411.132	624.62
411.355	655.62
411.578	664.62
411.802	584.62
412.025	574.62
412.249	591.62
412.472	630.62
412.695	640.62
412.919	642.62
413.142	576.62
413.365	570.62
413.589	586.62
413.812	574.62
414.035	549.62
414.258	559.62
414.482	539.62
414.705	562.62
414.928	545.62
415.151	539.62
415.374	542.62
415.597	544.62
415.821	534.62
416.044	567.62
416.267	532.62
416.49	549.62
416.713	554.62
416.936	521.62
417.159	526.62
417.382	558.62
417.605	575.62
417.828	566.62
418.051	572.62
418.274	544.62
418.497	548.62
418.72	531.62
418.943	536.62
419.166	568.62
419.389	592.62
419.611	598.62
419.834	583.62
420.057	589.62
420.28	570.62
420.503	577.62
420.726	571.62
420.948	593.62
421.171	645.62
421.394	655.62
421.617	614.62
421.839	567.62
422.062	572.62
422.285	577.62
422.507	615.62
422.73	708.62
422.953	685.62
423.175	625.62
423.398	570.62
423.621	617.62
423.843	634.62
424.066	614.62
424.288	588.62
424.511	614.62
424.733	672.62
424.956	785.62
425.178	688.62
425.401	692.62
425.623	744.62
425.846	631.62
426.068	589.62
426.291	584.62
426.513	610.62
426.735	634.62
426.958	637.62
427.18	741.62
427.402	834.62
427.625	949.62
427.847	767.62
428.069	704.62
428.292	617.62
428.514	578.62
428.736	577.62
428.958	565.62
429.181	549.62
429.403	544.62
429.625	558.62
429.847	583.62
430.069	661.62
430.292	680.62
430.514	560.62
430.736	545.62
430.958	558.62
431.18	527.62
431.402	529.62
431.624	503.62
431.846	500.62
432.068	504.62
432.29	533.62
432.512	524.62
432.734	538.62
432.956	533.62
433.178	557.62
433.4	549.62
433.622	529.62
433.844	530.62
434.066	535.62
434.287	523.62
434.509	545.62
434.731	566.62
434.953	557.62
435.175	577.62
435.397	588.62
435.618	590.62
435.84	625.62
436.062	727.62
436.284	800.62
436.505	684.62
436.727	606.62
436.949	565.62
437.17	554.62
437.392	549.62
437.614	570.62
437.835	610.62
438.057	673.62
438.278	804.62
438.5	800.62
438.721	874.62
438.943	828.62
439.165	674.62
439.386	588.62
439.608	572.62
439.829	602.62
440.05	636.62
440.272	668.62
440.493	619.62
440.715	599.62
440.936	562.62
441.158	570.62
441.379	591.62
441.6	561.62
441.822	586.62
442.043	629.62
442.264	726.62
442.486	750.62
442.707	646.62
442.928	591.62
443.149	624.62
443.371	618.62
443.592	660.62
443.813	793.62
444.034	835.62
444.255	711.62
444.476	632.62
444.698	595.62
444.919	634.62
445.14	733.62
445.361	679.62
445.582	666.62
445.803	692.62
446.024	793.62
446.245	787.62
446.466	733.62
446.687	639.62
446.908	623.62
447.129	578.62
447.35	549.62
447.571	572.62
447.792	534.62
448.013	534.62
448.234	549.62
448.455	601.62
448.675	741.62
448.896	850.62
449.117	727.62
449.338	687.62
449.559	759.62
449.779	886.62
450	701.62
450.221	590.62
450.442	550.62
450.662	536.62
450.883	531.62
451.104	536.62
451.324	524.62
451.545	513.62
451.766	493.62
451.986	474.62
452.207	458.62
452.428	477.62
452.648	495.62
452.869	489.62
453.089	495.62
453.31	511.62
453.53	480.62
453.751	495.62
453.971	504.62
454.192	481.62
454.412	494.62
454.633	489.62
454.853	474.62
455.073	462.62
455.294	500.62
455.514	572.62
455.734	574.62
455.955	496.62
456.175	454.62
456.395	463.62
456.616	441.62
456.836	461.62
457.056	444.62
457.276	449.62
457.497	482.62
457.717	465.62
457.937	482.62
458.157	482.62
458.377	466.62
458.598	501.62
458.818	534.62
459.038	622.62
459.258	646.62
459.478	561.62
459.698	538.62
459.918	502.62
460.138	524.62
460.358	553.62
460.578	553.62
460.798	566.62
461.018	551.62
461.238	519.62
461.458	555.62
461.678	538.62
461.898	526.62
462.118	561.62
462.338	562.62
462.558	570.62
462.777	566.62
462.997	599.62
463.217	627.62
463.437	640.62
463.657	612.62
463.876	601.62
464.096	586.62
464.316	606.62
464.536	601.62
464.755	594.62
464.975	592.62
465.195	600.62
465.414	640.62
465.634	561.62
465.854	560.62
466.073	497.62
466.293	520.62
466.512	491.62
466.732	518.62
466.951	500.62
467.171	507.62
467.391	514.62
467.61	505.62
467.829	537.62
468.049	512.62
468.268	525.62
468.488	488.62
468.707	489.62
468.927	496.62
469.146	497.62
469.365	498.62
469.585	466.62
469.804	495.62
470.023	522.62
470.243	524.62
470.462	509.62
470.681	533.62
470.901	529.62
471.12	501.62
471.339	516.62
471.558	506.62
471.777	515.62
471.997	494.62
472.216	520.62
472.435	542.62
472.654	539.62
472.873	501.62
473.092	498.62
473.311	511.62
473.53	501.62
473.749	502.62
473.968	557.62
474.187	623.62
474.406	662.62
474.625	569.62
474.844	522.62
475.063	517.62
475.282	516.62
475.501	521.62
475.72	514.62
475.939	521.62
476.158	535.62
476.377	537.62
476.596	522.62
476.814	516.62
477.033	532.62
477.252	536.62
477.471	534.62
477.69	552.62
477.908	584.62
478.127	545.62
478.346	571.62
478.564	566.62
478.783	588.62
479.002	572.62
479.22	581.62
479.439	600.62
479.658	622.62
479.876	619.62
480.095	621.62
480.313	669.62
480.532	628.62
480.751	635.62
480.969	643.62
481.188	676.62
481.406	692.62
481.624	648.62
481.843	622.62
482.061	602.62
482.28	596.62
482.498	574.62
482.717	590.62
482.935	581.62
483.153	585.62
483.372	598.62
483.59	613.62
483.808	594.62
484.027	608.62
484.245	611.62
484.463	616.62
484.681	594.62
484.9	600.62
485.118	612.62
485.336	613.62
485.554	625.62
485.772	617.62
485.99	608.62
486.209	597.62
486.427	622.62
486.645	629.62
486.863	637.62
487.081	613.62
487.299	634.62
487.517	618.62
487.735	633.62
487.953	658.62
488.171	648.62
488.389	649.62
488.607	632.62
488.825	621.62
489.043	644.62
489.261	650.62
489.479	618.62
489.696	646.62
489.914	633.62
490.132	650.62
490.35	658.62
490.568	665.62
490.786	684.62
491.003	692.62
491.221	706.62
491.439	685.62
491.657	730.62
491.874	714.62
492.092	725.62
492.31	722.62
492.527	710.62
492.745	710.62
492.963	739.62
493.18	733.62
493.398	744.62
493.615	718.62
493.833	765.62
494.05	781.62
494.268	753.62
494.485	722.62
494.703	733.62
494.92	737.62
495.138	730.62
495.355	749.62
495.573	753.62
495.79	741.62
496.008	739.62
496.225	744.62
496.442	748.62
496.66	769.62
496.877	757.62
497.094	714.62
497.312	797.62
497.529	784.62
497.746	811.62
497.963	762.62
498.181	816.62
498.398	825.62
498.615	844.62
498.832	880.62
499.049	896.62
499.267	940.62
499.484	979.62
499.701	984.62
499.918	1050.62
500.135	1080.62
500.352	1171.62
500.569	1175.62
500.786	1208.62
501.003	1130.62
501.22	1132.62
501.437	1080.62
501.654	1040.62
