Data from 1976.PennyLincolnUp.Lamp.En5.5.200Scan.071719.P1.Changed Mount._HRD10591_16-00-05-861.txt Node
Date: Thu Jul 18 16:00:05 EDT 2019
User: cochatt
Spectrometer: HR+D1059
Trigger mode: 1
Integration Time (sec): 1.000000E-1
Scans to average: 1
Electric dark correction enabled: true
Nonlinearity correction enabled: false
Boxcar width: 0
XAxis mode: Wavelengths
Number of Pixels in Spectrum: 2048
>>>>>Begin Spectral Data<<<<<
223.165	2.06
223.4	2.06
223.635	2.06
223.869	-32.94
224.104	-17.94
224.338	-12.94
224.573	-3.94
224.808	-11.94
225.042	-13.94
225.277	-9.94
225.511	4.06
225.746	-5.94
225.98	1.06
226.215	21.06
226.449	12.06
226.683	17.06
226.918	20.06
227.152	32.06
227.387	28.06
227.621	36.06
227.856	40.06
228.09	57.06
228.324	49.06
228.559	49.06
228.793	72.06
229.027	101.06
229.262	101.06
229.496	112.06
229.73	119.06
229.964	142.06
230.199	119.06
230.433	117.06
230.667	116.06
230.901	111.06
231.136	107.06
231.37	107.06
231.604	136.06
231.838	110.06
232.072	113.06
232.306	113.06
232.541	104.06
232.775	111.06
233.009	122.06
233.243	106.06
233.477	122.06
233.711	120.06
233.945	113.06
234.179	113.06
234.413	123.06
234.647	113.06
234.881	109.06
235.115	112.06
235.349	107.06
235.583	113.06
235.817	123.06
236.051	128.06
236.285	129.06
236.519	123.06
236.753	132.06
236.987	154.06
237.221	165.06
237.455	230.06
237.689	173.06
237.922	152.06
238.156	140.06
238.39	137.06
238.624	126.06
238.858	125.06
239.091	138.06
239.325	127.06
239.559	116.06
239.793	118.06
240.027	141.06
240.26	137.06
240.494	137.06
240.728	163.06
240.961	150.06
241.195	143.06
241.429	140.06
241.662	138.06
241.896	133.06
242.13	123.06
242.363	135.06
242.597	159.06
242.83	145.06
243.064	165.06
243.298	148.06
243.531	150.06
243.765	144.06
243.998	139.06
244.232	134.06
244.465	138.06
244.699	142.06
244.932	144.06
245.166	150.06
245.399	139.06
245.633	142.06
245.866	149.06
246.099	147.06
246.333	140.06
246.566	136.06
246.8	153.06
247.033	164.06
247.266	154.06
247.5	175.06
247.733	175.06
247.966	180.06
248.2	193.06
248.433	180.06
248.666	185.06
248.899	190.06
249.133	188.06
249.366	191.06
249.599	187.06
249.832	170.06
250.066	184.06
250.299	174.06
250.532	198.06
250.765	200.06
250.998	223.06
251.231	224.06
251.465	193.06
251.698	202.06
251.931	188.06
252.164	205.06
252.397	200.06
252.63	200.06
252.863	200.06
253.096	215.06
253.329	221.06
253.562	211.06
253.795	229.06
254.028	217.06
254.261	215.06
254.494	234.06
254.727	257.06
254.96	266.06
255.193	254.06
255.426	246.06
255.659	224.06
255.892	220.06
256.124	228.06
256.357	228.06
256.59	220.06
256.823	196.06
257.056	223.06
257.289	209.06
257.521	216.06
257.754	217.06
257.987	206.06
258.22	195.06
258.452	217.06
258.685	218.06
258.918	213.06
259.151	209.06
259.383	208.06
259.616	225.06
259.849	223.06
260.081	232.06
260.314	256.06
260.547	256.06
260.779	233.06
261.012	248.06
261.244	232.06
261.477	225.06
261.71	213.06
261.942	210.06
262.175	221.06
262.407	230.06
262.64	216.06
262.872	220.06
263.105	209.06
263.337	207.06
263.57	215.06
263.802	209.06
264.035	219.06
264.267	215.06
264.499	194.06
264.732	226.06
264.964	223.06
265.197	208.06
265.429	223.06
265.661	219.06
265.894	222.06
266.126	224.06
266.358	232.06
266.591	234.06
266.823	233.06
267.055	242.06
267.287	246.06
267.52	231.06
267.752	233.06
267.984	238.06
268.216	248.06
268.448	244.06
268.681	233.06
268.913	254.06
269.145	266.06
269.377	286.06
269.609	289.06
269.841	278.06
270.073	276.06
270.306	310.06
270.538	321.06
270.77	311.06
271.002	283.06
271.234	310.06
271.466	293.06
271.698	290.06
271.93	314.06
272.162	308.06
272.394	323.06
272.626	305.06
272.858	289.06
273.09	299.06
273.322	286.06
273.553	274.06
273.785	284.06
274.017	253.06
274.249	283.06
274.481	252.06
274.713	286.06
274.945	279.06
275.176	273.06
275.408	272.06
275.64	274.06
275.872	280.06
276.104	262.06
276.335	264.06
276.567	273.06
276.799	286.06
277.031	317.06
277.262	327.06
277.494	312.06
277.726	304.06
277.957	294.06
278.189	293.06
278.421	288.06
278.652	285.06
278.884	292.06
279.115	269.06
279.347	267.06
279.579	281.06
279.81	268.06
280.042	288.06
280.273	289.06
280.505	263.06
280.736	268.06
280.968	269.06
281.199	280.06
281.431	288.06
281.662	287.06
281.894	292.06
282.125	294.06
282.356	312.06
282.588	322.06
282.819	303.06
283.051	306.06
283.282	278.06
283.513	288.06
283.745	282.06
283.976	291.06
284.207	278.06
284.439	284.06
284.67	303.06
284.901	307.06
285.132	303.06
285.364	308.06
285.595	295.06
285.826	287.06
286.057	277.06
286.288	290.06
286.52	288.06
286.751	300.06
286.982	290.06
287.213	293.06
287.444	294.06
287.675	299.06
287.906	315.06
288.138	310.06
288.369	333.06
288.6	304.06
288.831	299.06
289.062	323.06
289.293	313.06
289.524	322.06
289.755	311.06
289.986	309.06
290.217	306.06
290.448	326.06
290.679	301.06
290.91	314.06
291.141	300.06
291.371	305.06
291.602	309.06
291.833	304.06
292.064	302.06
292.295	301.06
292.526	301.06
292.757	314.06
292.987	308.06
293.218	297.06
293.449	297.06
293.68	305.06
293.91	298.06
294.141	315.06
294.372	317.06
294.603	332.06
294.833	314.06
295.064	332.06
295.295	316.06
295.525	307.06
295.756	317.06
295.987	304.06
296.217	332.06
296.448	349.06
296.679	304.06
296.909	301.06
297.14	304.06
297.37	334.06
297.601	330.06
297.831	333.06
298.062	330.06
298.292	315.06
298.523	321.06
298.753	322.06
298.984	329.06
299.214	334.06
299.445	331.06
299.675	330.06
299.905	333.06
300.136	319.06
300.366	321.06
300.597	341.06
300.827	336.06
301.057	331.06
301.288	352.06
301.518	358.06
301.748	348.06
301.979	336.06
302.209	334.06
302.439	346.06
302.669	350.06
302.9	354.06
303.13	340.06
303.36	338.06
303.59	346.06
303.82	366.06
304.051	356.06
304.281	346.06
304.511	355.06
304.741	368.06
304.971	357.06
305.201	354.06
305.431	336.06
305.661	352.06
305.891	341.06
306.121	343.06
306.352	341.06
306.582	351.06
306.812	354.06
307.042	347.06
307.272	336.06
307.502	338.06
307.731	348.06
307.961	355.06
308.191	338.06
308.421	346.06
308.651	359.06
308.881	349.06
309.111	342.06
309.341	369.06
309.571	363.06
309.8	377.06
310.03	367.06
310.26	369.06
310.49	386.06
310.72	369.06
310.949	355.06
311.179	370.06
311.409	400.06
311.639	376.06
311.868	392.06
312.098	381.06
312.328	390.06
312.557	392.06
312.787	395.06
313.017	389.06
313.246	398.06
313.476	389.06
313.706	385.06
313.935	382.06
314.165	408.06
314.394	393.06
314.624	398.06
314.853	369.06
315.083	378.06
315.312	379.06
315.542	381.06
315.771	398.06
316.001	400.06
316.23	393.06
316.46	368.06
316.689	396.06
316.919	392.06
317.148	409.06
317.377	388.06
317.607	380.06
317.836	390.06
318.065	384.06
318.295	393.06
318.524	390.06
318.753	360.06
318.983	399.06
319.212	382.06
319.441	398.06
319.67	379.06
319.9	368.06
320.129	398.06
320.358	390.06
320.587	409.06
320.816	382.06
321.046	402.06
321.275	413.06
321.504	374.06
321.733	376.06
321.962	402.06
322.191	411.06
322.42	427.06
322.649	438.06
322.878	447.06
323.108	434.06
323.337	456.06
323.566	488.06
323.795	482.06
324.024	515.06
324.253	582.06
324.482	828.06
324.71	1205.06
324.939	1744.06
325.168	1542.06
325.397	804.06
325.626	556.06
325.855	482.06
326.084	482.06
326.313	484.06
326.542	476.06
326.77	508.06
326.999	558.06
327.228	736.06
327.457	1100.06
327.686	1368.06
327.914	905.06
328.143	638.06
328.372	560.06
328.6	536.06
328.829	528.06
329.058	556.06
329.287	525.06
329.515	494.06
329.744	479.06
329.972	484.06
330.201	507.06
330.43	527.06
330.658	532.06
330.887	554.06
331.115	560.06
331.344	496.06
331.572	465.06
331.801	466.06
332.03	474.06
332.258	452.06
332.486	455.06
332.715	466.06
332.943	473.06
333.172	468.06
333.4	483.06
333.629	477.06
333.857	499.06
334.085	480.06
334.314	492.06
334.542	522.06
334.771	546.06
334.999	505.06
335.227	506.06
335.455	464.06
335.684	500.06
335.912	465.06
336.14	450.06
336.369	459.06
336.597	473.06
336.825	456.06
337.053	476.06
337.281	475.06
337.51	457.06
337.738	454.06
337.966	444.06
338.194	451.06
338.422	451.06
338.65	453.06
338.878	450.06
339.106	465.06
339.334	438.06
339.562	440.06
339.79	424.06
340.018	427.06
340.246	449.06
340.474	432.06
340.702	434.06
340.93	448.06
341.158	409.06
341.386	440.06
341.614	436.06
341.842	436.06
342.07	439.06
342.298	423.06
342.526	424.06
342.754	424.06
342.981	431.06
343.209	437.06
343.437	438.06
343.665	461.06
343.893	465.06
344.12	461.06
344.348	450.06
344.576	473.06
344.804	466.06
345.031	460.06
345.259	452.06
345.487	441.06
345.714	445.06
345.942	455.06
346.17	414.06
346.397	440.06
346.625	431.06
346.853	422.06
347.08	420.06
347.308	413.06
347.535	435.06
347.763	446.06
347.99	417.06
348.218	443.06
348.445	440.06
348.673	437.06
348.9	422.06
349.128	421.06
349.355	392.06
349.583	418.06
349.81	420.06
350.037	396.06
350.265	407.06
350.492	417.06
350.72	406.06
350.947	427.06
351.174	420.06
351.402	424.06
351.629	431.06
351.856	412.06
352.083	412.06
352.311	441.06
352.538	432.06
352.765	422.06
352.992	420.06
353.22	422.06
353.447	401.06
353.674	409.06
353.901	406.06
354.128	399.06
354.355	389.06
354.583	417.06
354.81	414.06
355.037	401.06
355.264	422.06
355.491	409.06
355.718	396.06
355.945	400.06
356.172	400.06
356.399	397.06
356.626	397.06
356.853	416.06
357.08	400.06
357.307	392.06
357.534	392.06
357.761	391.06
357.988	402.06
358.215	402.06
358.441	379.06
358.668	402.06
358.895	400.06
359.122	410.06
359.349	413.06
359.576	418.06
359.802	431.06
360.029	434.06
360.256	465.06
360.483	429.06
360.709	413.06
360.936	412.06
361.163	398.06
361.39	421.06
361.616	422.06
361.843	409.06
362.07	415.06
362.296	414.06
362.523	434.06
362.749	414.06
362.976	413.06
363.203	409.06
363.429	396.06
363.656	412.06
363.882	404.06
364.109	423.06
364.335	426.06
364.562	410.06
364.788	417.06
365.015	396.06
365.241	407.06
365.468	397.06
365.694	417.06
365.92	425.06
366.147	401.06
366.373	408.06
366.599	422.06
366.826	428.06
367.052	395.06
367.278	421.06
367.505	415.06
367.731	401.06
367.957	408.06
368.184	404.06
368.41	439.06
368.636	416.06
368.862	405.06
369.089	402.06
369.315	416.06
369.541	394.06
369.767	413.06
369.993	406.06
370.219	402.06
370.445	405.06
370.672	387.06
370.898	413.06
371.124	419.06
371.35	418.06
371.576	408.06
371.802	413.06
372.028	424.06
372.254	401.06
372.48	426.06
372.706	407.06
372.932	436.06
373.158	412.06
373.384	410.06
373.61	412.06
373.835	424.06
374.061	407.06
374.287	431.06
374.513	436.06
374.739	417.06
374.965	429.06
375.191	431.06
375.416	450.06
375.642	427.06
375.868	438.06
376.094	417.06
376.319	408.06
376.545	400.06
376.771	426.06
376.997	417.06
377.222	424.06
377.448	436.06
377.674	411.06
377.899	398.06
378.125	409.06
378.35	421.06
378.576	420.06
378.802	424.06
379.027	416.06
379.253	403.06
379.478	391.06
379.704	411.06
379.929	413.06
380.155	434.06
380.38	416.06
380.606	402.06
380.831	412.06
381.057	420.06
381.282	443.06
381.507	412.06
381.733	414.06
381.958	433.06
382.184	427.06
382.409	452.06
382.634	425.06
382.86	412.06
383.085	414.06
383.31	434.06
383.535	455.06
383.761	436.06
383.986	447.06
384.211	414.06
384.436	446.06
384.662	457.06
384.887	457.06
385.112	462.06
385.337	469.06
385.562	454.06
385.787	474.06
386.013	463.06
386.238	480.06
386.463	472.06
386.688	453.06
386.913	462.06
387.138	454.06
387.363	458.06
387.588	451.06
387.813	463.06
388.038	451.06
388.263	454.06
388.488	457.06
388.713	455.06
388.938	443.06
389.163	469.06
389.387	481.06
389.612	450.06
389.837	463.06
390.062	452.06
390.287	460.06
390.512	443.06
390.736	487.06
390.961	473.06
391.186	475.06
391.411	466.06
391.636	460.06
391.86	484.06
392.085	500.06
392.31	477.06
392.534	495.06
392.759	476.06
392.984	480.06
393.208	448.06
393.433	468.06
393.658	468.06
393.882	454.06
394.107	456.06
394.331	463.06
394.556	461.06
394.78	480.06
395.005	470.06
395.229	456.06
395.454	478.06
395.678	480.06
395.903	512.06
396.127	516.06
396.352	509.06
396.576	493.06
396.801	493.06
397.025	506.06
397.249	492.06
397.474	489.06
397.698	487.06
397.922	512.06
398.147	533.06
398.371	528.06
398.595	524.06
398.82	524.06
399.044	561.06
399.268	590.06
399.492	593.06
399.717	641.06
399.941	688.06
400.165	681.06
400.389	679.06
400.613	613.06
400.837	568.06
401.062	557.06
401.286	560.06
401.51	554.06
401.734	529.06
401.958	532.06
402.182	543.06
402.406	534.06
402.63	584.06
402.854	561.06
403.078	554.06
403.302	554.06
403.526	544.06
403.75	572.06
403.974	565.06
404.198	558.06
404.422	570.06
404.645	589.06
404.869	570.06
405.093	592.06
405.317	637.06
405.541	671.06
405.765	624.06
405.988	594.06
406.212	622.06
406.436	627.06
406.66	638.06
406.883	585.06
407.107	612.06
407.331	692.06
407.555	744.06
407.778	746.06
408.002	684.06
408.226	614.06
408.449	636.06
408.673	610.06
408.896	623.06
409.12	694.06
409.344	631.06
409.567	580.06
409.791	536.06
410.014	542.06
410.238	569.06
410.461	554.06
410.685	545.06
410.908	569.06
411.132	598.06
411.355	630.06
411.578	603.06
411.802	568.06
412.025	554.06
412.249	569.06
412.472	570.06
412.695	613.06
412.919	593.06
413.142	561.06
413.365	564.06
413.589	541.06
413.812	540.06
414.035	518.06
414.258	537.06
414.482	516.06
414.705	524.06
414.928	547.06
415.151	526.06
415.374	537.06
415.597	513.06
415.821	531.06
416.044	518.06
416.267	518.06
416.49	517.06
416.713	521.06
416.936	518.06
417.159	516.06
417.382	491.06
417.605	510.06
417.828	542.06
418.051	561.06
418.274	548.06
418.497	550.06
418.72	535.06
418.943	521.06
419.166	545.06
419.389	570.06
419.611	549.06
419.834	533.06
420.057	578.06
420.28	535.06
420.503	567.06
420.726	552.06
420.948	560.06
421.171	589.06
421.394	633.06
421.617	557.06
421.839	572.06
422.062	548.06
422.285	548.06
422.507	610.06
422.73	683.06
422.953	668.06
423.175	622.06
423.398	578.06
423.621	554.06
423.843	608.06
424.066	603.06
424.288	592.06
424.511	602.06
424.733	668.06
424.956	715.06
425.178	690.06
425.401	686.06
425.623	711.06
425.846	607.06
426.068	566.06
426.291	545.06
426.513	557.06
426.735	569.06
426.958	622.06
427.18	681.06
427.402	826.06
427.625	889.06
427.847	734.06
428.069	674.06
428.292	615.06
428.514	553.06
428.736	549.06
428.958	535.06
429.181	516.06
429.403	536.06
429.625	546.06
429.847	559.06
430.069	622.06
430.292	631.06
430.514	548.06
430.736	511.06
430.958	504.06
431.18	509.06
431.402	517.06
431.624	497.06
431.846	492.06
432.068	478.06
432.29	493.06
432.512	492.06
432.734	513.06
432.956	479.06
433.178	490.06
433.4	524.06
433.622	514.06
433.844	507.06
434.066	527.06
434.287	517.06
434.509	513.06
434.731	516.06
434.953	516.06
435.175	544.06
435.397	609.06
435.618	583.06
435.84	602.06
436.062	666.06
436.284	768.06
436.505	630.06
436.727	577.06
436.949	571.06
437.17	535.06
437.392	542.06
437.614	543.06
437.835	564.06
438.057	634.06
438.278	748.06
438.5	737.06
438.721	814.06
438.943	787.06
439.165	622.06
439.386	578.06
439.608	578.06
439.829	569.06
440.05	584.06
440.272	624.06
440.493	598.06
440.715	554.06
440.936	551.06
441.158	553.06
441.379	526.06
441.6	553.06
441.822	583.06
442.043	596.06
442.264	704.06
442.486	760.06
442.707	637.06
442.928	597.06
443.149	580.06
443.371	600.06
443.592	638.06
443.813	721.06
444.034	806.06
444.255	673.06
444.476	612.06
444.698	602.06
444.919	600.06
445.14	720.06
445.361	672.06
445.582	622.06
445.803	668.06
446.024	781.06
446.245	786.06
446.466	719.06
446.687	600.06
446.908	574.06
447.129	546.06
447.35	550.06
447.571	534.06
447.792	480.06
448.013	510.06
448.234	537.06
448.455	579.06
448.675	701.06
448.896	807.06
449.117	694.06
449.338	639.06
449.559	714.06
449.779	856.06
450	666.06
450.221	568.06
450.442	528.06
450.662	542.06
450.883	521.06
451.104	509.06
451.324	484.06
451.545	484.06
451.766	477.06
451.986	482.06
452.207	474.06
452.428	470.06
452.648	492.06
452.869	446.06
453.089	493.06
453.31	465.06
453.53	476.06
453.751	460.06
453.971	466.06
454.192	482.06
454.412	475.06
454.633	454.06
454.853	449.06
455.073	469.06
455.294	484.06
455.514	540.06
455.734	534.06
455.955	463.06
456.175	440.06
456.395	448.06
456.616	454.06
456.836	429.06
457.056	432.06
457.276	436.06
457.497	459.06
457.717	438.06
457.937	446.06
458.157	470.06
458.377	448.06
458.598	478.06
458.818	504.06
459.038	574.06
459.258	625.06
459.478	551.06
459.698	533.06
459.918	510.06
460.138	523.06
460.358	531.06
460.578	511.06
460.798	541.06
461.018	524.06
461.238	527.06
461.458	534.06
461.678	531.06
461.898	546.06
462.118	532.06
462.338	534.06
462.558	546.06
462.777	554.06
462.997	579.06
463.217	583.06
463.437	594.06
463.657	575.06
463.876	551.06
464.096	584.06
464.316	569.06
464.536	568.06
464.755	566.06
464.975	565.06
465.195	616.06
465.414	615.06
465.634	558.06
465.854	550.06
466.073	517.06
466.293	504.06
466.512	492.06
466.732	467.06
466.951	486.06
467.171	485.06
467.391	488.06
467.61	486.06
467.829	495.06
468.049	509.06
468.268	508.06
468.488	475.06
468.707	464.06
468.927	471.06
469.146	470.06
469.365	464.06
469.585	459.06
469.804	492.06
470.023	492.06
470.243	475.06
470.462	505.06
470.681	490.06
470.901	493.06
471.12	501.06
471.339	504.06
471.558	484.06
471.777	480.06
471.997	486.06
472.216	489.06
472.435	488.06
472.654	506.06
472.873	487.06
473.092	488.06
473.311	485.06
473.53	475.06
473.749	490.06
473.968	527.06
474.187	616.06
474.406	646.06
474.625	546.06
474.844	500.06
475.063	503.06
475.282	491.06
475.501	477.06
475.72	490.06
475.939	508.06
476.158	502.06
476.377	509.06
476.596	496.06
476.814	523.06
477.033	538.06
477.252	533.06
477.471	517.06
477.69	520.06
477.908	544.06
478.127	551.06
478.346	538.06
478.564	561.06
478.783	553.06
479.002	572.06
479.22	591.06
479.439	582.06
479.658	583.06
479.876	577.06
480.095	605.06
480.313	607.06
480.532	632.06
480.751	638.06
480.969	616.06
481.188	633.06
481.406	658.06
481.624	603.06
481.843	600.06
482.061	560.06
482.28	570.06
482.498	565.06
482.717	547.06
482.935	566.06
483.153	585.06
483.372	545.06
483.59	566.06
483.808	562.06
484.027	569.06
484.245	583.06
484.463	570.06
484.681	591.06
484.9	579.06
485.118	581.06
485.336	579.06
485.554	593.06
485.772	595.06
485.99	614.06
486.209	580.06
486.427	592.06
486.645	568.06
486.863	591.06
487.081	594.06
487.299	613.06
487.517	600.06
487.735	594.06
487.953	617.06
488.171	629.06
488.389	612.06
488.607	590.06
488.825	614.06
489.043	620.06
489.261	608.06
489.479	619.06
489.696	617.06
489.914	624.06
490.132	654.06
490.35	636.06
490.568	639.06
490.786	637.06
491.003	647.06
491.221	646.06
491.439	674.06
491.657	698.06
491.874	696.06
492.092	676.06
492.31	676.06
492.527	717.06
492.745	681.06
492.963	685.06
493.18	701.06
493.398	692.06
493.615	707.06
493.833	698.06
494.05	709.06
494.268	723.06
494.485	714.06
494.703	701.06
494.92	702.06
495.138	714.06
495.355	716.06
495.573	718.06
495.79	733.06
496.008	722.06
496.225	710.06
496.442	725.06
496.66	727.06
496.877	727.06
497.094	738.06
497.312	722.06
497.529	733.06
497.746	752.06
497.963	759.06
498.181	799.06
498.398	816.06
498.615	796.06
498.832	863.06
499.049	863.06
499.267	900.06
499.484	921.06
499.701	954.06
499.918	1010.06
500.135	1104.06
500.352	1098.06
500.569	1150.06
500.786	1135.06
501.003	1099.06
501.22	1097.06
501.437	1031.06
501.654	1001.06
