Data from 1976.PennyLincolnUp.Lamp.En5.5.200Scan.071719.P1.Changed Mount._HRD10591_16-00-12-861.txt Node
Date: Thu Jul 18 16:00:12 EDT 2019
User: cochatt
Spectrometer: HR+D1059
Trigger mode: 1
Integration Time (sec): 1.000000E-1
Scans to average: 1
Electric dark correction enabled: true
Nonlinearity correction enabled: false
Boxcar width: 0
XAxis mode: Wavelengths
Number of Pixels in Spectrum: 2048
>>>>>Begin Spectral Data<<<<<
223.165	-9.12
223.4	-9.12
223.635	-9.12
223.869	-9.12
224.104	-13.12
224.338	-10.12
224.573	-0.12
224.808	-24.12
225.042	-8.12
225.277	-5.12
225.511	-4.12
225.746	-9.12
225.98	6.88
226.215	27.88
226.449	13.88
226.683	20.88
226.918	14.88
227.152	7.88
227.387	23.88
227.621	48.88
227.856	34.88
228.09	44.88
228.324	55.88
228.559	58.88
228.793	75.88
229.027	84.88
229.262	104.88
229.496	94.88
229.73	114.88
229.964	122.88
230.199	130.88
230.433	122.88
230.667	127.88
230.901	110.88
231.136	106.88
231.37	97.88
231.604	109.88
231.838	94.88
232.072	107.88
232.306	116.88
232.541	116.88
232.775	126.88
233.009	114.88
233.243	106.88
233.477	102.88
233.711	119.88
233.945	120.88
234.179	121.88
234.413	110.88
234.647	115.88
234.881	120.88
235.115	121.88
235.349	122.88
235.583	117.88
235.817	118.88
236.051	123.88
236.285	120.88
236.519	122.88
236.753	134.88
236.987	140.88
237.221	183.88
237.455	219.88
237.689	174.88
237.922	142.88
238.156	133.88
238.39	136.88
238.624	126.88
238.858	131.88
239.091	119.88
239.325	112.88
239.559	136.88
239.793	134.88
240.027	136.88
240.26	129.88
240.494	158.88
240.728	162.88
240.961	136.88
241.195	155.88
241.429	151.88
241.662	139.88
241.896	136.88
242.13	135.88
242.363	145.88
242.597	144.88
242.83	141.88
243.064	133.88
243.298	142.88
243.531	149.88
243.765	144.88
243.998	157.88
244.232	150.88
244.465	149.88
244.699	164.88
244.932	142.88
245.166	149.88
245.399	139.88
245.633	146.88
245.866	166.88
246.099	145.88
246.333	154.88
246.566	146.88
246.8	161.88
247.033	141.88
247.266	150.88
247.5	158.88
247.733	166.88
247.966	162.88
248.2	169.88
248.433	184.88
248.666	182.88
248.899	173.88
249.133	192.88
249.366	217.88
249.599	181.88
249.832	176.88
250.066	178.88
250.299	161.88
250.532	174.88
250.765	189.88
250.998	228.88
251.231	214.88
251.465	211.88
251.698	210.88
251.931	197.88
252.164	207.88
252.397	206.88
252.63	188.88
252.863	219.88
253.096	212.88
253.329	243.88
253.562	220.88
253.795	189.88
254.028	190.88
254.261	211.88
254.494	223.88
254.727	239.88
254.96	266.88
255.193	247.88
255.426	237.88
255.659	210.88
255.892	226.88
256.124	224.88
256.357	229.88
256.59	230.88
256.823	218.88
257.056	199.88
257.289	212.88
257.521	193.88
257.754	196.88
257.987	183.88
258.22	188.88
258.452	202.88
258.685	199.88
258.918	216.88
259.151	202.88
259.383	220.88
259.616	205.88
259.849	207.88
260.081	248.88
260.314	246.88
260.547	228.88
260.779	234.88
261.012	247.88
261.244	231.88
261.477	223.88
261.71	220.88
261.942	228.88
262.175	224.88
262.407	223.88
262.64	221.88
262.872	208.88
263.105	216.88
263.337	206.88
263.57	215.88
263.802	200.88
264.035	221.88
264.267	205.88
264.499	214.88
264.732	218.88
264.964	227.88
265.197	230.88
265.429	211.88
265.661	218.88
265.894	234.88
266.126	213.88
266.358	229.88
266.591	235.88
266.823	233.88
267.055	223.88
267.287	240.88
267.52	261.88
267.752	233.88
267.984	230.88
268.216	235.88
268.448	223.88
268.681	254.88
268.913	249.88
269.145	260.88
269.377	277.88
269.609	276.88
269.841	260.88
270.073	280.88
270.306	293.88
270.538	306.88
270.77	290.88
271.002	296.88
271.234	294.88
271.466	290.88
271.698	312.88
271.93	302.88
272.162	314.88
272.394	323.88
272.626	298.88
272.858	276.88
273.09	269.88
273.322	272.88
273.553	243.88
273.785	253.88
274.017	251.88
274.249	266.88
274.481	273.88
274.713	265.88
274.945	282.88
275.176	270.88
275.408	252.88
275.64	269.88
275.872	268.88
276.104	275.88
276.335	274.88
276.567	264.88
276.799	272.88
277.031	310.88
277.262	297.88
277.494	314.88
277.726	301.88
277.957	296.88
278.189	280.88
278.421	275.88
278.652	281.88
278.884	290.88
279.115	280.88
279.347	290.88
279.579	270.88
279.81	263.88
280.042	287.88
280.273	270.88
280.505	282.88
280.736	264.88
280.968	280.88
281.199	276.88
281.431	265.88
281.662	282.88
281.894	284.88
282.125	278.88
282.356	284.88
282.588	295.88
282.819	305.88
283.051	278.88
283.282	300.88
283.513	272.88
283.745	300.88
283.976	279.88
284.207	296.88
284.439	299.88
284.67	294.88
284.901	287.88
285.132	271.88
285.364	292.88
285.595	283.88
285.826	284.88
286.057	307.88
286.288	305.88
286.52	291.88
286.751	295.88
286.982	277.88
287.213	298.88
287.444	301.88
287.675	309.88
287.906	301.88
288.138	291.88
288.369	307.88
288.6	317.88
288.831	306.88
289.062	317.88
289.293	302.88
289.524	322.88
289.755	306.88
289.986	301.88
290.217	293.88
290.448	279.88
290.679	298.88
290.91	300.88
291.141	307.88
291.371	304.88
291.602	296.88
291.833	308.88
292.064	302.88
292.295	306.88
292.526	310.88
292.757	303.88
292.987	292.88
293.218	312.88
293.449	282.88
293.68	286.88
293.91	296.88
294.141	324.88
294.372	277.88
294.603	329.88
294.833	317.88
295.064	308.88
295.295	295.88
295.525	295.88
295.756	302.88
295.987	320.88
296.217	304.88
296.448	327.88
296.679	312.88
296.909	293.88
297.14	284.88
297.37	313.88
297.601	314.88
297.831	315.88
298.062	318.88
298.292	318.88
298.523	296.88
298.753	314.88
298.984	308.88
299.214	327.88
299.445	336.88
299.675	323.88
299.905	342.88
300.136	304.88
300.366	309.88
300.597	321.88
300.827	335.88
301.057	332.88
301.288	340.88
301.518	342.88
301.748	341.88
301.979	341.88
302.209	338.88
302.439	323.88
302.669	331.88
302.9	354.88
303.13	325.88
303.36	326.88
303.59	335.88
303.82	326.88
304.051	346.88
304.281	341.88
304.511	342.88
304.741	317.88
304.971	325.88
305.201	349.88
305.431	323.88
305.661	342.88
305.891	345.88
306.121	330.88
306.352	344.88
306.582	341.88
306.812	337.88
307.042	336.88
307.272	329.88
307.502	334.88
307.731	358.88
307.961	346.88
308.191	340.88
308.421	342.88
308.651	345.88
308.881	358.88
309.111	346.88
309.341	340.88
309.571	359.88
309.8	363.88
310.03	372.88
310.26	370.88
310.49	348.88
310.72	379.88
310.949	386.88
311.179	388.88
311.409	376.88
311.639	371.88
311.868	356.88
312.098	355.88
312.328	378.88
312.557	384.88
312.787	406.88
313.017	406.88
313.246	384.88
313.476	364.88
313.706	382.88
313.935	380.88
314.165	395.88
314.394	392.88
314.624	379.88
314.853	401.88
315.083	407.88
315.312	384.88
315.542	373.88
315.771	372.88
316.001	384.88
316.23	397.88
316.46	387.88
316.689	387.88
316.919	400.88
317.148	400.88
317.377	384.88
317.607	378.88
317.836	395.88
318.065	374.88
318.295	391.88
318.524	376.88
318.753	382.88
318.983	359.88
319.212	388.88
319.441	397.88
319.67	386.88
319.9	391.88
320.129	384.88
320.358	389.88
320.587	391.88
320.816	381.88
321.046	404.88
321.275	390.88
321.504	391.88
321.733	388.88
321.962	419.88
322.191	405.88
322.42	428.88
322.649	416.88
322.878	416.88
323.108	435.88
323.337	441.88
323.566	467.88
323.795	471.88
324.024	487.88
324.253	573.88
324.482	786.88
324.71	1223.88
324.939	1763.88
325.168	1536.88
325.397	796.88
325.626	568.88
325.855	493.88
326.084	466.88
326.313	434.88
326.542	471.88
326.77	508.88
326.999	570.88
327.228	725.88
327.457	1096.88
327.686	1342.88
327.914	867.88
328.143	618.88
328.372	522.88
328.6	523.88
328.829	511.88
329.058	522.88
329.287	530.88
329.515	501.88
329.744	508.88
329.972	463.88
330.201	498.88
330.43	522.88
330.658	525.88
330.887	546.88
331.115	541.88
331.344	506.88
331.572	459.88
331.801	457.88
332.03	447.88
332.258	447.88
332.486	448.88
332.715	477.88
332.943	466.88
333.172	465.88
333.4	468.88
333.629	473.88
333.857	468.88
334.085	497.88
334.314	504.88
334.542	522.88
334.771	547.88
334.999	497.88
335.227	495.88
335.455	482.88
335.684	450.88
335.912	430.88
336.14	462.88
336.369	457.88
336.597	470.88
336.825	471.88
337.053	452.88
337.281	456.88
337.51	454.88
337.738	445.88
337.966	466.88
338.194	430.88
338.422	429.88
338.65	409.88
338.878	458.88
339.106	451.88
339.334	445.88
339.562	437.88
339.79	428.88
340.018	424.88
340.246	417.88
340.474	418.88
340.702	443.88
340.93	439.88
341.158	440.88
341.386	440.88
341.614	452.88
341.842	423.88
342.07	423.88
342.298	407.88
342.526	439.88
342.754	407.88
342.981	414.88
343.209	410.88
343.437	433.88
343.665	447.88
343.893	462.88
344.12	450.88
344.348	454.88
344.576	455.88
344.804	441.88
345.031	434.88
345.259	451.88
345.487	421.88
345.714	408.88
345.942	421.88
346.17	434.88
346.397	426.88
346.625	421.88
346.853	419.88
347.08	406.88
347.308	418.88
347.535	437.88
347.763	412.88
347.99	425.88
348.218	427.88
348.445	429.88
348.673	421.88
348.9	380.88
349.128	400.88
349.355	405.88
349.583	400.88
349.81	406.88
350.037	415.88
350.265	415.88
350.492	412.88
350.72	400.88
350.947	401.88
351.174	412.88
351.402	414.88
351.629	424.88
351.856	412.88
352.083	425.88
352.311	420.88
352.538	437.88
352.765	391.88
352.992	436.88
353.22	430.88
353.447	417.88
353.674	410.88
353.901	415.88
354.128	415.88
354.355	377.88
354.583	386.88
354.81	393.88
355.037	397.88
355.264	407.88
355.491	387.88
355.718	380.88
355.945	387.88
356.172	387.88
356.399	377.88
356.626	413.88
356.853	375.88
357.08	415.88
357.307	379.88
357.534	379.88
357.761	392.88
357.988	394.88
358.215	380.88
358.441	390.88
358.668	411.88
358.895	382.88
359.122	389.88
359.349	406.88
359.576	410.88
359.802	409.88
360.029	458.88
360.256	443.88
360.483	424.88
360.709	427.88
360.936	400.88
361.163	416.88
361.39	415.88
361.616	420.88
361.843	413.88
362.07	384.88
362.296	392.88
362.523	412.88
362.749	394.88
362.976	409.88
363.203	400.88
363.429	390.88
363.656	416.88
363.882	387.88
364.109	405.88
364.335	408.88
364.562	400.88
364.788	406.88
365.015	394.88
365.241	400.88
365.468	400.88
365.694	396.88
365.92	408.88
366.147	405.88
366.373	415.88
366.599	406.88
366.826	389.88
367.052	396.88
367.278	408.88
367.505	420.88
367.731	415.88
367.957	392.88
368.184	405.88
368.41	405.88
368.636	414.88
368.862	406.88
369.089	393.88
369.315	400.88
369.541	401.88
369.767	417.88
369.993	392.88
370.219	394.88
370.445	406.88
370.672	399.88
370.898	406.88
371.124	396.88
371.35	383.88
371.576	394.88
371.802	391.88
372.028	411.88
372.254	395.88
372.48	397.88
372.706	418.88
372.932	422.88
373.158	405.88
373.384	400.88
373.61	415.88
373.835	414.88
374.061	403.88
374.287	440.88
374.513	424.88
374.739	400.88
374.965	400.88
375.191	418.88
375.416	426.88
375.642	426.88
375.868	415.88
376.094	391.88
376.319	395.88
376.545	424.88
376.771	407.88
376.997	398.88
377.222	405.88
377.448	408.88
377.674	397.88
377.899	409.88
378.125	397.88
378.35	392.88
378.576	383.88
378.802	397.88
379.027	389.88
379.253	404.88
379.478	404.88
379.704	397.88
379.929	415.88
380.155	407.88
380.38	408.88
380.606	408.88
380.831	400.88
381.057	414.88
381.282	421.88
381.507	413.88
381.733	411.88
381.958	399.88
382.184	412.88
382.409	425.88
382.634	428.88
382.86	424.88
383.085	442.88
383.31	421.88
383.535	435.88
383.761	433.88
383.986	416.88
384.211	431.88
384.436	436.88
384.662	446.88
384.887	443.88
385.112	438.88
385.337	446.88
385.562	442.88
385.787	428.88
386.013	460.88
386.238	462.88
386.463	455.88
386.688	436.88
386.913	449.88
387.138	441.88
387.363	450.88
387.588	427.88
387.813	434.88
388.038	466.88
388.263	438.88
388.488	443.88
388.713	458.88
388.938	430.88
389.163	444.88
389.387	460.88
389.612	428.88
389.837	457.88
390.062	437.88
390.287	418.88
390.512	439.88
390.736	446.88
390.961	451.88
391.186	456.88
391.411	476.88
391.636	471.88
391.86	469.88
392.085	486.88
392.31	474.88
392.534	460.88
392.759	465.88
392.984	465.88
393.208	460.88
393.433	471.88
393.658	462.88
393.882	459.88
394.107	459.88
394.331	447.88
394.556	450.88
394.78	466.88
395.005	452.88
395.229	432.88
395.454	463.88
395.678	467.88
395.903	491.88
396.127	488.88
396.352	504.88
396.576	482.88
396.801	455.88
397.025	467.88
397.249	459.88
397.474	484.88
397.698	480.88
397.922	512.88
398.147	510.88
398.371	497.88
398.595	519.88
398.82	524.88
399.044	538.88
399.268	548.88
399.492	612.88
399.717	642.88
399.941	650.88
400.165	666.88
400.389	660.88
400.613	580.88
400.837	558.88
401.062	553.88
401.286	552.88
401.51	537.88
401.734	534.88
401.958	519.88
402.182	542.88
402.406	534.88
402.63	539.88
402.854	522.88
403.078	554.88
403.302	543.88
403.526	556.88
403.75	567.88
403.974	556.88
404.198	541.88
404.422	547.88
404.645	562.88
404.869	557.88
405.093	587.88
405.317	620.88
405.541	628.88
405.765	600.88
405.988	572.88
406.212	571.88
406.436	585.88
406.66	615.88
406.883	597.88
407.107	595.88
407.331	660.88
407.555	716.88
407.778	702.88
408.002	636.88
408.226	603.88
408.449	611.88
408.673	598.88
408.896	607.88
409.12	672.88
409.344	639.88
409.567	583.88
409.791	567.88
410.014	567.88
410.238	565.88
410.461	571.88
410.685	571.88
410.908	557.88
411.132	586.88
411.355	629.88
411.578	589.88
411.802	547.88
412.025	528.88
412.249	559.88
412.472	585.88
412.695	594.88
412.919	584.88
413.142	560.88
413.365	549.88
413.589	549.88
413.812	540.88
414.035	529.88
414.258	512.88
414.482	522.88
414.705	519.88
414.928	531.88
415.151	526.88
415.374	527.88
415.597	531.88
415.821	511.88
416.044	521.88
416.267	515.88
416.49	521.88
416.713	507.88
416.936	505.88
417.159	494.88
417.382	492.88
417.605	531.88
417.828	527.88
418.051	541.88
418.274	534.88
418.497	522.88
418.72	532.88
418.943	546.88
419.166	547.88
419.389	566.88
419.611	567.88
419.834	544.88
420.057	567.88
420.28	556.88
420.503	522.88
420.726	534.88
420.948	554.88
421.171	566.88
421.394	628.88
421.617	565.88
421.839	519.88
422.062	535.88
422.285	545.88
422.507	610.88
422.73	665.88
422.953	636.88
423.175	559.88
423.398	552.88
423.621	580.88
423.843	604.88
424.066	578.88
424.288	584.88
424.511	575.88
424.733	638.88
424.956	723.88
425.178	696.88
425.401	669.88
425.623	710.88
425.846	606.88
426.068	558.88
426.291	559.88
426.513	560.88
426.735	552.88
426.958	618.88
427.18	674.88
427.402	797.88
427.625	891.88
427.847	760.88
428.069	655.88
428.292	597.88
428.514	557.88
428.736	506.88
428.958	527.88
429.181	535.88
429.403	494.88
429.625	523.88
429.847	564.88
430.069	605.88
430.292	607.88
430.514	542.88
430.736	522.88
430.958	519.88
431.18	472.88
431.402	491.88
431.624	487.88
431.846	510.88
432.068	496.88
432.29	488.88
432.512	503.88
432.734	502.88
432.956	480.88
433.178	512.88
433.4	513.88
433.622	518.88
433.844	521.88
434.066	527.88
434.287	511.88
434.509	501.88
434.731	528.88
434.953	528.88
435.175	562.88
435.397	552.88
435.618	559.88
435.84	582.88
436.062	685.88
436.284	730.88
436.505	607.88
436.727	564.88
436.949	517.88
437.17	517.88
437.392	524.88
437.614	541.88
437.835	570.88
438.057	642.88
438.278	741.88
438.5	719.88
438.721	788.88
438.943	752.88
439.165	604.88
439.386	578.88
439.608	550.88
439.829	566.88
440.05	576.88
440.272	615.88
440.493	578.88
440.715	551.88
440.936	523.88
441.158	526.88
441.379	537.88
441.6	534.88
441.822	555.88
442.043	598.88
442.264	680.88
442.486	719.88
442.707	634.88
442.928	552.88
443.149	603.88
443.371	608.88
443.592	624.88
443.813	720.88
444.034	778.88
444.255	661.88
444.476	621.88
444.698	586.88
444.919	574.88
445.14	715.88
445.361	658.88
445.582	620.88
445.803	653.88
446.024	750.88
446.245	744.88
446.466	681.88
446.687	601.88
446.908	572.88
447.129	534.88
447.35	504.88
447.571	537.88
447.792	498.88
448.013	504.88
448.234	515.88
448.455	565.88
448.675	655.88
448.896	802.88
449.117	675.88
449.338	618.88
449.559	726.88
449.779	838.88
450	665.88
450.221	575.88
450.442	525.88
450.662	510.88
450.883	478.88
451.104	505.88
451.324	501.88
451.545	472.88
451.766	477.88
451.986	467.88
452.207	471.88
452.428	452.88
452.648	463.88
452.869	434.88
453.089	472.88
453.31	478.88
453.53	463.88
453.751	436.88
453.971	463.88
454.192	478.88
454.412	457.88
454.633	437.88
454.853	428.88
455.073	474.88
455.294	480.88
455.514	541.88
455.734	524.88
455.955	452.88
456.175	458.88
456.395	428.88
456.616	408.88
456.836	439.88
457.056	426.88
457.276	419.88
457.497	435.88
457.717	449.88
457.937	453.88
458.157	435.88
458.377	468.88
458.598	469.88
458.818	516.88
459.038	573.88
459.258	578.88
459.478	513.88
459.698	499.88
459.918	493.88
460.138	502.88
460.358	507.88
460.578	500.88
460.798	511.88
461.018	525.88
461.238	519.88
461.458	506.88
461.678	504.88
461.898	532.88
462.118	492.88
462.338	551.88
462.558	555.88
462.777	568.88
462.997	574.88
463.217	580.88
463.437	586.88
463.657	564.88
463.876	554.88
464.096	560.88
464.316	526.88
464.536	580.88
464.755	578.88
464.975	556.88
465.195	554.88
465.414	601.88
465.634	554.88
465.854	527.88
466.073	524.88
466.293	490.88
466.512	466.88
466.732	468.88
466.951	452.88
467.171	472.88
467.391	489.88
467.61	482.88
467.829	468.88
468.049	467.88
468.268	490.88
468.488	470.88
468.707	463.88
468.927	473.88
469.146	453.88
469.365	467.88
469.585	457.88
469.804	458.88
470.023	471.88
470.243	472.88
470.462	479.88
470.681	519.88
470.901	515.88
471.12	518.88
471.339	491.88
471.558	468.88
471.777	463.88
471.997	462.88
472.216	466.88
472.435	491.88
472.654	498.88
472.873	474.88
473.092	448.88
473.311	468.88
473.53	482.88
473.749	481.88
473.968	512.88
474.187	612.88
474.406	629.88
474.625	511.88
474.844	488.88
475.063	488.88
475.282	488.88
475.501	472.88
475.72	488.88
475.939	504.88
476.158	507.88
476.377	495.88
476.596	470.88
476.814	494.88
477.033	501.88
477.252	518.88
477.471	489.88
477.69	510.88
477.908	495.88
478.127	540.88
478.346	541.88
478.564	556.88
478.783	532.88
479.002	547.88
479.22	538.88
479.439	556.88
479.658	573.88
479.876	599.88
480.095	584.88
480.313	619.88
480.532	619.88
480.751	571.88
480.969	563.88
481.188	613.88
481.406	663.88
481.624	602.88
481.843	568.88
482.061	562.88
482.28	545.88
482.498	552.88
482.717	548.88
482.935	566.88
483.153	551.88
483.372	580.88
483.59	556.88
483.808	568.88
484.027	546.88
484.245	576.88
484.463	548.88
484.681	583.88
484.9	564.88
485.118	585.88
485.336	566.88
485.554	598.88
485.772	575.88
485.99	573.88
486.209	583.88
486.427	589.88
486.645	588.88
486.863	613.88
487.081	584.88
487.299	602.88
487.517	579.88
487.735	574.88
487.953	596.88
488.171	620.88
488.389	588.88
488.607	595.88
488.825	591.88
489.043	593.88
489.261	601.88
489.479	614.88
489.696	592.88
489.914	603.88
490.132	602.88
490.35	635.88
490.568	627.88
490.786	630.88
491.003	610.88
491.221	644.88
491.439	656.88
491.657	667.88
491.874	652.88
492.092	671.88
492.31	682.88
492.527	702.88
492.745	672.88
492.963	681.88
493.18	673.88
493.398	708.88
493.615	726.88
493.833	707.88
494.05	700.88
494.268	716.88
494.485	711.88
494.703	698.88
494.92	686.88
495.138	709.88
495.355	690.88
495.573	726.88
495.79	687.88
496.008	712.88
496.225	691.88
496.442	707.88
496.66	705.88
496.877	692.88
497.094	701.88
497.312	732.88
497.529	711.88
497.746	718.88
497.963	745.88
498.181	768.88
498.398	791.88
498.615	785.88
498.832	823.88
499.049	844.88
499.267	869.88
499.484	911.88
499.701	970.88
499.918	978.88
500.135	1056.88
500.352	1092.88
500.569	1125.88
500.786	1144.88
501.003	1101.88
501.22	1069.88
501.437	1020.88
501.654	960.88
