Data from 1976.PennyLincolnUp.Lamp.En5.5.200Scan.071719.P1.Changed Mount._HRD10591_16-02-34-862.txt Node
Date: Thu Jul 18 16:02:34 EDT 2019
User: cochatt
Spectrometer: HR+D1059
Trigger mode: 1
Integration Time (sec): 1.000000E-1
Scans to average: 1
Electric dark correction enabled: true
Nonlinearity correction enabled: false
Boxcar width: 0
XAxis mode: Wavelengths
Number of Pixels in Spectrum: 2048
>>>>>Begin Spectral Data<<<<<
223.165	-21.19
223.4	-21.19
223.635	-21.19
223.869	-20.19
224.104	-13.19
224.338	-24.19
224.573	-7.19
224.808	-13.19
225.042	-7.19
225.277	-13.19
225.511	-5.19
225.746	2.81
225.98	11.81
226.215	-0.19
226.449	23.81
226.683	21.81
226.918	32.81
227.152	31.81
227.387	26.81
227.621	37.81
227.856	44.81
228.09	57.81
228.324	55.81
228.559	62.81
228.793	67.81
229.027	95.81
229.262	100.81
229.496	117.81
229.73	126.81
229.964	147.81
230.199	129.81
230.433	115.81
230.667	128.81
230.901	119.81
231.136	106.81
231.37	111.81
231.604	119.81
231.838	104.81
232.072	103.81
232.306	119.81
232.541	120.81
232.775	124.81
233.009	131.81
233.243	118.81
233.477	132.81
233.711	124.81
233.945	125.81
234.179	124.81
234.413	124.81
234.647	117.81
234.881	134.81
235.115	124.81
235.349	136.81
235.583	118.81
235.817	103.81
236.051	135.81
236.285	136.81
236.519	143.81
236.753	123.81
236.987	154.81
237.221	188.81
237.455	241.81
237.689	195.81
237.922	141.81
238.156	142.81
238.39	138.81
238.624	135.81
238.858	115.81
239.091	112.81
239.325	130.81
239.559	125.81
239.793	150.81
240.027	132.81
240.26	157.81
240.494	169.81
240.728	147.81
240.961	165.81
241.195	155.81
241.429	155.81
241.662	155.81
241.896	136.81
242.13	149.81
242.363	137.81
242.597	143.81
242.83	147.81
243.064	131.81
243.298	134.81
243.531	154.81
243.765	154.81
243.998	139.81
244.232	151.81
244.465	145.81
244.699	150.81
244.932	155.81
245.166	154.81
245.399	159.81
245.633	152.81
245.866	143.81
246.099	150.81
246.333	166.81
246.566	145.81
246.8	154.81
247.033	173.81
247.266	163.81
247.5	155.81
247.733	168.81
247.966	182.81
248.2	175.81
248.433	191.81
248.666	187.81
248.899	191.81
249.133	218.81
249.366	210.81
249.599	212.81
249.832	185.81
250.066	184.81
250.299	198.81
250.532	214.81
250.765	207.81
250.998	232.81
251.231	248.81
251.465	222.81
251.698	210.81
251.931	195.81
252.164	210.81
252.397	203.81
252.63	206.81
252.863	199.81
253.096	224.81
253.329	251.81
253.562	246.81
253.795	236.81
254.028	229.81
254.261	220.81
254.494	224.81
254.727	271.81
254.96	294.81
255.193	303.81
255.426	262.81
255.659	251.81
255.892	242.81
256.124	248.81
256.357	236.81
256.59	247.81
256.823	230.81
257.056	223.81
257.289	211.81
257.521	222.81
257.754	222.81
257.987	216.81
258.22	233.81
258.452	225.81
258.685	210.81
258.918	223.81
259.151	222.81
259.383	240.81
259.616	233.81
259.849	243.81
260.081	240.81
260.314	266.81
260.547	270.81
260.779	259.81
261.012	248.81
261.244	247.81
261.477	252.81
261.71	227.81
261.942	238.81
262.175	244.81
262.407	237.81
262.64	236.81
262.872	244.81
263.105	239.81
263.337	207.81
263.57	245.81
263.802	224.81
264.035	237.81
264.267	229.81
264.499	241.81
264.732	240.81
264.964	218.81
265.197	226.81
265.429	239.81
265.661	235.81
265.894	227.81
266.126	242.81
266.358	220.81
266.591	241.81
266.823	248.81
267.055	255.81
267.287	243.81
267.52	235.81
267.752	250.81
267.984	247.81
268.216	255.81
268.448	265.81
268.681	255.81
268.913	274.81
269.145	278.81
269.377	299.81
269.609	285.81
269.841	302.81
270.073	298.81
270.306	329.81
270.538	319.81
270.77	324.81
271.002	324.81
271.234	320.81
271.466	323.81
271.698	349.81
271.93	356.81
272.162	326.81
272.394	324.81
272.626	326.81
272.858	302.81
273.09	313.81
273.322	298.81
273.553	286.81
273.785	277.81
274.017	296.81
274.249	297.81
274.481	302.81
274.713	275.81
274.945	290.81
275.176	294.81
275.408	290.81
275.64	309.81
275.872	290.81
276.104	292.81
276.335	299.81
276.567	302.81
276.799	292.81
277.031	340.81
277.262	327.81
277.494	363.81
277.726	340.81
277.957	313.81
278.189	295.81
278.421	290.81
278.652	320.81
278.884	289.81
279.115	296.81
279.347	300.81
279.579	302.81
279.81	293.81
280.042	300.81
280.273	302.81
280.505	291.81
280.736	279.81
280.968	294.81
281.199	294.81
281.431	297.81
281.662	280.81
281.894	296.81
282.125	298.81
282.356	319.81
282.588	336.81
282.819	335.81
283.051	319.81
283.282	294.81
283.513	309.81
283.745	306.81
283.976	312.81
284.207	318.81
284.439	324.81
284.67	316.81
284.901	303.81
285.132	313.81
285.364	300.81
285.595	331.81
285.826	318.81
286.057	300.81
286.288	320.81
286.52	312.81
286.751	317.81
286.982	316.81
287.213	316.81
287.444	319.81
287.675	335.81
287.906	334.81
288.138	320.81
288.369	356.81
288.6	319.81
288.831	334.81
289.062	343.81
289.293	319.81
289.524	343.81
289.755	317.81
289.986	320.81
290.217	328.81
290.448	311.81
290.679	330.81
290.91	320.81
291.141	320.81
291.371	324.81
291.602	339.81
291.833	320.81
292.064	330.81
292.295	304.81
292.526	301.81
292.757	324.81
292.987	329.81
293.218	317.81
293.449	335.81
293.68	317.81
293.91	319.81
294.141	320.81
294.372	310.81
294.603	318.81
294.833	311.81
295.064	307.81
295.295	342.81
295.525	318.81
295.756	353.81
295.987	327.81
296.217	349.81
296.448	360.81
296.679	324.81
296.909	351.81
297.14	327.81
297.37	346.81
297.601	339.81
297.831	340.81
298.062	313.81
298.292	333.81
298.523	332.81
298.753	335.81
298.984	357.81
299.214	346.81
299.445	346.81
299.675	338.81
299.905	345.81
300.136	355.81
300.366	353.81
300.597	337.81
300.827	350.81
301.057	366.81
301.288	359.81
301.518	365.81
301.748	356.81
301.979	355.81
302.209	366.81
302.439	376.81
302.669	370.81
302.9	362.81
303.13	379.81
303.36	365.81
303.59	371.81
303.82	372.81
304.051	378.81
304.281	374.81
304.511	357.81
304.741	356.81
304.971	350.81
305.201	351.81
305.431	356.81
305.661	350.81
305.891	351.81
306.121	356.81
306.352	364.81
306.582	356.81
306.812	363.81
307.042	359.81
307.272	381.81
307.502	366.81
307.731	375.81
307.961	361.81
308.191	379.81
308.421	365.81
308.651	368.81
308.881	373.81
309.111	365.81
309.341	378.81
309.571	386.81
309.8	387.81
310.03	383.81
310.26	397.81
310.49	400.81
310.72	406.81
310.949	427.81
311.179	408.81
311.409	400.81
311.639	395.81
311.868	389.81
312.098	404.81
312.328	415.81
312.557	414.81
312.787	427.81
313.017	438.81
313.246	414.81
313.476	403.81
313.706	423.81
313.935	396.81
314.165	423.81
314.394	436.81
314.624	393.81
314.853	423.81
315.083	422.81
315.312	407.81
315.542	410.81
315.771	419.81
316.001	412.81
316.23	411.81
316.46	406.81
316.689	412.81
316.919	415.81
317.148	418.81
317.377	437.81
317.607	419.81
317.836	415.81
318.065	401.81
318.295	403.81
318.524	442.81
318.753	392.81
318.983	407.81
319.212	419.81
319.441	411.81
319.67	411.81
319.9	420.81
320.129	406.81
320.358	408.81
320.587	431.81
320.816	444.81
321.046	411.81
321.275	427.81
321.504	418.81
321.733	447.81
321.962	446.81
322.191	414.81
322.42	463.81
322.649	457.81
322.878	475.81
323.108	472.81
323.337	489.81
323.566	512.81
323.795	526.81
324.024	547.81
324.253	690.81
324.482	908.81
324.71	1447.81
324.939	2160.81
325.168	1877.81
325.397	918.81
325.626	620.81
325.855	547.81
326.084	510.81
326.313	512.81
326.542	521.81
326.77	557.81
326.999	623.81
327.228	875.81
327.457	1318.81
327.686	1630.81
327.914	1087.81
328.143	682.81
328.372	615.81
328.6	594.81
328.829	582.81
329.058	598.81
329.287	579.81
329.515	545.81
329.744	538.81
329.972	526.81
330.201	559.81
330.43	579.81
330.658	581.81
330.887	613.81
331.115	595.81
331.344	513.81
331.572	491.81
331.801	521.81
332.03	518.81
332.258	503.81
332.486	510.81
332.715	496.81
332.943	479.81
333.172	505.81
333.4	515.81
333.629	512.81
333.857	522.81
334.085	536.81
334.314	559.81
334.542	570.81
334.771	580.81
334.999	529.81
335.227	526.81
335.455	507.81
335.684	499.81
335.912	481.81
336.14	487.81
336.369	492.81
336.597	495.81
336.825	520.81
337.053	484.81
337.281	482.81
337.51	476.81
337.738	484.81
337.966	465.81
338.194	492.81
338.422	501.81
338.65	486.81
338.878	484.81
339.106	476.81
339.334	463.81
339.562	470.81
339.79	478.81
340.018	468.81
340.246	469.81
340.474	463.81
340.702	436.81
340.93	481.81
341.158	474.81
341.386	488.81
341.614	483.81
341.842	460.81
342.07	448.81
342.298	483.81
342.526	462.81
342.754	454.81
342.981	445.81
343.209	452.81
343.437	458.81
343.665	450.81
343.893	479.81
344.12	504.81
344.348	505.81
344.576	478.81
344.804	489.81
345.031	486.81
345.259	484.81
345.487	472.81
345.714	490.81
345.942	462.81
346.17	454.81
346.397	438.81
346.625	447.81
346.853	450.81
347.08	428.81
347.308	447.81
347.535	465.81
347.763	471.81
347.99	451.81
348.218	458.81
348.445	459.81
348.673	470.81
348.9	456.81
349.128	444.81
349.355	440.81
349.583	453.81
349.81	438.81
350.037	446.81
350.265	436.81
350.492	442.81
350.72	427.81
350.947	443.81
351.174	459.81
351.402	455.81
351.629	453.81
351.856	446.81
352.083	443.81
352.311	457.81
352.538	463.81
352.765	478.81
352.992	450.81
353.22	454.81
353.447	459.81
353.674	430.81
353.901	447.81
354.128	443.81
354.355	459.81
354.583	437.81
354.81	414.81
355.037	436.81
355.264	429.81
355.491	432.81
355.718	410.81
355.945	409.81
356.172	434.81
356.399	432.81
356.626	443.81
356.853	420.81
357.08	405.81
357.307	424.81
357.534	423.81
357.761	417.81
357.988	425.81
358.215	416.81
358.441	428.81
358.668	418.81
358.895	436.81
359.122	421.81
359.349	433.81
359.576	451.81
359.802	464.81
360.029	495.81
360.256	514.81
360.483	494.81
360.709	467.81
360.936	443.81
361.163	436.81
361.39	448.81
361.616	456.81
361.843	447.81
362.07	429.81
362.296	467.81
362.523	446.81
362.749	453.81
362.976	430.81
363.203	434.81
363.429	446.81
363.656	457.81
363.882	435.81
364.109	426.81
364.335	418.81
364.562	424.81
364.788	427.81
365.015	415.81
365.241	403.81
365.468	428.81
365.694	424.81
365.92	439.81
366.147	431.81
366.373	441.81
366.599	410.81
366.826	438.81
367.052	427.81
367.278	422.81
367.505	413.81
367.731	444.81
367.957	441.81
368.184	432.81
368.41	458.81
368.636	448.81
368.862	435.81
369.089	427.81
369.315	427.81
369.541	444.81
369.767	436.81
369.993	443.81
370.219	435.81
370.445	430.81
370.672	443.81
370.898	432.81
371.124	448.81
371.35	421.81
371.576	446.81
371.802	445.81
372.028	438.81
372.254	430.81
372.48	435.81
372.706	458.81
372.932	438.81
373.158	442.81
373.384	461.81
373.61	459.81
373.835	439.81
374.061	424.81
374.287	453.81
374.513	452.81
374.739	460.81
374.965	443.81
375.191	467.81
375.416	425.81
375.642	456.81
375.868	475.81
376.094	454.81
376.319	444.81
376.545	453.81
376.771	437.81
376.997	443.81
377.222	430.81
377.448	439.81
377.674	438.81
377.899	436.81
378.125	435.81
378.35	425.81
378.576	430.81
378.802	437.81
379.027	445.81
379.253	436.81
379.478	420.81
379.704	430.81
379.929	438.81
380.155	426.81
380.38	418.81
380.606	450.81
380.831	429.81
381.057	442.81
381.282	427.81
381.507	427.81
381.733	430.81
381.958	428.81
382.184	432.81
382.409	456.81
382.634	446.81
382.86	458.81
383.085	443.81
383.31	438.81
383.535	462.81
383.761	478.81
383.986	467.81
384.211	454.81
384.436	475.81
384.662	468.81
384.887	468.81
385.112	487.81
385.337	490.81
385.562	483.81
385.787	479.81
386.013	485.81
386.238	475.81
386.463	470.81
386.688	484.81
386.913	485.81
387.138	491.81
387.363	499.81
387.588	488.81
387.813	467.81
388.038	503.81
388.263	488.81
388.488	479.81
388.713	490.81
388.938	487.81
389.163	495.81
389.387	474.81
389.612	476.81
389.837	504.81
390.062	484.81
390.287	495.81
390.512	475.81
390.736	483.81
390.961	498.81
391.186	487.81
391.411	494.81
391.636	500.81
391.86	518.81
392.085	511.81
392.31	517.81
392.534	499.81
392.759	511.81
392.984	500.81
393.208	495.81
393.433	485.81
393.658	491.81
393.882	494.81
394.107	504.81
394.331	490.81
394.556	506.81
394.78	475.81
395.005	486.81
395.229	482.81
395.454	496.81
395.678	508.81
395.903	512.81
396.127	543.81
396.352	556.81
396.576	526.81
396.801	504.81
397.025	488.81
397.249	517.81
397.474	518.81
397.698	514.81
397.922	519.81
398.147	536.81
398.371	579.81
398.595	562.81
398.82	578.81
399.044	588.81
399.268	598.81
399.492	652.81
399.717	703.81
399.941	699.81
400.165	732.81
400.389	739.81
400.613	646.81
400.837	593.81
401.062	559.81
401.286	576.81
401.51	579.81
401.734	558.81
401.958	577.81
402.182	570.81
402.406	584.81
402.63	575.81
402.854	600.81
403.078	563.81
403.302	615.81
403.526	628.81
403.75	607.81
403.974	612.81
404.198	578.81
404.422	598.81
404.645	619.81
404.869	618.81
405.093	640.81
405.317	684.81
405.541	717.81
405.765	643.81
405.988	610.81
406.212	632.81
406.436	636.81
406.66	642.81
406.883	620.81
407.107	660.81
407.331	718.81
407.555	775.81
407.778	764.81
408.002	714.81
408.226	672.81
408.449	664.81
408.673	645.81
408.896	688.81
409.12	705.81
409.344	678.81
409.567	622.81
409.791	588.81
410.014	592.81
410.238	608.81
410.461	604.81
410.685	583.81
410.908	617.81
411.132	654.81
411.355	667.81
411.578	651.81
411.802	602.81
412.025	574.81
412.249	581.81
412.472	625.81
412.695	679.81
412.919	670.81
413.142	610.81
413.365	588.81
413.589	587.81
413.812	559.81
414.035	540.81
414.258	535.81
414.482	554.81
414.705	538.81
414.928	568.81
415.151	574.81
415.374	554.81
415.597	546.81
415.821	551.81
416.044	579.81
416.267	547.81
416.49	557.81
416.713	559.81
416.936	540.81
417.159	571.81
417.382	564.81
417.605	558.81
417.828	566.81
418.051	576.81
418.274	581.81
418.497	568.81
418.72	572.81
418.943	553.81
419.166	590.81
419.389	621.81
419.611	626.81
419.834	600.81
420.057	586.81
420.28	593.81
420.503	573.81
420.726	599.81
420.948	592.81
421.171	624.81
421.394	681.81
421.617	598.81
421.839	586.81
422.062	586.81
422.285	597.81
422.507	671.81
422.73	744.81
422.953	710.81
423.175	631.81
423.398	601.81
423.621	599.81
423.843	640.81
424.066	632.81
424.288	642.81
424.511	651.81
424.733	719.81
424.956	792.81
425.178	762.81
425.401	743.81
425.623	777.81
425.846	644.81
426.068	616.81
426.291	607.81
426.513	614.81
426.735	617.81
426.958	648.81
427.18	738.81
427.402	906.81
427.625	972.81
427.847	826.81
428.069	711.81
428.292	634.81
428.514	598.81
428.736	583.81
428.958	575.81
429.181	558.81
429.403	560.81
429.625	564.81
429.847	600.81
430.069	671.81
430.292	656.81
430.514	579.81
430.736	565.81
430.958	555.81
431.18	550.81
431.402	544.81
431.624	535.81
431.846	530.81
432.068	538.81
432.29	546.81
432.512	523.81
432.734	563.81
432.956	546.81
433.178	548.81
433.4	564.81
433.622	549.81
433.844	556.81
434.066	528.81
434.287	526.81
434.509	543.81
434.731	548.81
434.953	566.81
435.175	578.81
435.397	608.81
435.618	604.81
435.84	633.81
436.062	770.81
436.284	802.81
436.505	684.81
436.727	611.81
436.949	581.81
437.17	566.81
437.392	572.81
437.614	551.81
437.835	603.81
438.057	688.81
438.278	834.81
438.5	804.81
438.721	911.81
438.943	858.81
439.165	701.81
439.386	620.81
439.608	613.81
439.829	627.81
440.05	642.81
440.272	691.81
440.493	650.81
440.715	607.81
440.936	585.81
441.158	555.81
441.379	566.81
441.6	583.81
441.822	604.81
442.043	656.81
442.264	726.81
442.486	788.81
442.707	657.81
442.928	617.81
443.149	643.81
443.371	649.81
443.592	675.81
443.813	811.81
444.034	870.81
444.255	745.81
444.476	643.81
444.698	635.81
444.919	646.81
445.14	702.81
445.361	672.81
445.582	671.81
445.803	746.81
446.024	822.81
446.245	824.81
446.466	755.81
446.687	663.81
446.908	615.81
447.129	568.81
447.35	569.81
447.571	569.81
447.792	550.81
448.013	562.81
448.234	574.81
448.455	618.81
448.675	757.81
448.896	882.81
449.117	734.81
449.338	702.81
449.559	802.81
449.779	949.81
450	724.81
450.221	618.81
450.442	575.81
450.662	546.81
450.883	559.81
451.104	576.81
451.324	532.81
451.545	522.81
451.766	514.81
451.986	498.81
452.207	502.81
452.428	498.81
452.648	515.81
452.869	514.81
453.089	489.81
453.31	518.81
453.53	499.81
453.751	491.81
453.971	512.81
454.192	506.81
454.412	483.81
454.633	502.81
454.853	476.81
455.073	484.81
455.294	505.81
455.514	603.81
455.734	565.81
455.955	500.81
456.175	495.81
456.395	470.81
456.616	465.81
456.836	482.81
457.056	495.81
457.276	464.81
457.497	466.81
457.717	464.81
457.937	473.81
458.157	483.81
458.377	502.81
458.598	504.81
458.818	551.81
459.038	613.81
459.258	646.81
459.478	568.81
459.698	539.81
459.918	543.81
460.138	534.81
460.358	536.81
460.578	542.81
460.798	563.81
461.018	554.81
461.238	542.81
461.458	541.81
461.678	566.81
461.898	592.81
462.118	537.81
462.338	576.81
462.558	573.81
462.777	572.81
462.997	614.81
463.217	650.81
463.437	648.81
463.657	632.81
463.876	605.81
464.096	620.81
464.316	617.81
464.536	610.81
464.755	631.81
464.975	581.81
465.195	635.81
465.414	676.81
465.634	620.81
465.854	572.81
466.073	518.81
466.293	520.81
466.512	504.81
466.732	501.81
466.951	488.81
467.171	504.81
467.391	514.81
467.61	512.81
467.829	533.81
468.049	524.81
468.268	515.81
468.488	516.81
468.707	497.81
468.927	493.81
469.146	509.81
469.365	505.81
469.585	504.81
469.804	505.81
470.023	517.81
470.243	507.81
470.462	527.81
470.681	558.81
470.901	534.81
471.12	516.81
471.339	524.81
471.558	544.81
471.777	518.81
471.997	487.81
472.216	510.81
472.435	550.81
472.654	538.81
472.873	527.81
473.092	493.81
473.311	506.81
473.53	525.81
473.749	525.81
473.968	557.81
474.187	661.81
474.406	697.81
474.625	599.81
474.844	541.81
475.063	520.81
475.282	514.81
475.501	523.81
475.72	520.81
475.939	535.81
476.158	523.81
476.377	530.81
476.596	514.81
476.814	559.81
477.033	544.81
477.252	537.81
477.471	536.81
477.69	556.81
477.908	555.81
478.127	554.81
478.346	567.81
478.564	570.81
478.783	578.81
479.002	591.81
479.22	612.81
479.439	617.81
479.658	599.81
479.876	631.81
480.095	638.81
480.313	676.81
480.532	636.81
480.751	662.81
480.969	661.81
481.188	687.81
481.406	723.81
481.624	668.81
481.843	617.81
482.061	614.81
482.28	593.81
482.498	607.81
482.717	619.81
482.935	592.81
483.153	619.81
483.372	604.81
483.59	614.81
483.808	610.81
484.027	603.81
484.245	614.81
484.463	594.81
484.681	619.81
484.9	605.81
485.118	634.81
485.336	609.81
485.554	608.81
485.772	626.81
485.99	626.81
486.209	594.81
486.427	635.81
486.645	635.81
486.863	635.81
487.081	656.81
487.299	609.81
487.517	638.81
487.735	657.81
487.953	656.81
488.171	656.81
488.389	667.81
488.607	652.81
488.825	655.81
489.043	650.81
489.261	626.81
489.479	672.81
489.696	662.81
489.914	680.81
490.132	699.81
490.35	664.81
490.568	690.81
490.786	693.81
491.003	713.81
491.221	698.81
491.439	734.81
491.657	738.81
491.874	726.81
492.092	732.81
492.31	735.81
492.527	747.81
492.745	731.81
492.963	759.81
493.18	737.81
493.398	760.81
493.615	770.81
493.833	777.81
494.05	785.81
494.268	775.81
494.485	762.81
494.703	761.81
494.92	766.81
495.138	760.81
495.355	754.81
495.573	756.81
495.79	762.81
496.008	739.81
496.225	766.81
496.442	755.81
496.66	737.81
496.877	758.81
497.094	787.81
497.312	787.81
497.529	776.81
497.746	807.81
497.963	815.81
498.181	861.81
498.398	836.81
498.615	860.81
498.832	894.81
499.049	921.81
499.267	929.81
499.484	998.81
499.701	1019.81
499.918	1067.81
500.135	1134.81
500.352	1210.81
500.569	1204.81
500.786	1259.81
501.003	1198.81
501.22	1152.81
501.437	1100.81
501.654	1053.81
