Data from 1976.PennyLincolnUp.Lamp.En5.5.200Scan.071719.P1.Changed Mount._HRD10591_16-00-26-861.txt Node
Date: Thu Jul 18 16:00:26 EDT 2019
User: cochatt
Spectrometer: HR+D1059
Trigger mode: 1
Integration Time (sec): 1.000000E-1
Scans to average: 1
Electric dark correction enabled: true
Nonlinearity correction enabled: false
Boxcar width: 0
XAxis mode: Wavelengths
Number of Pixels in Spectrum: 2048
>>>>>Begin Spectral Data<<<<<
223.165	-27.19
223.4	-27.19
223.635	-27.19
223.869	-7.19
224.104	-32.19
224.338	-17.19
224.573	-16.19
224.808	-17.19
225.042	-12.19
225.277	-4.19
225.511	3.81
225.746	8.81
225.98	8.81
226.215	15.81
226.449	23.81
226.683	24.81
226.918	8.81
227.152	38.81
227.387	27.81
227.621	38.81
227.856	36.81
228.09	36.81
228.324	52.81
228.559	50.81
228.793	68.81
229.027	91.81
229.262	94.81
229.496	80.81
229.73	121.81
229.964	152.81
230.199	122.81
230.433	119.81
230.667	116.81
230.901	102.81
231.136	106.81
231.37	109.81
231.604	108.81
231.838	128.81
232.072	114.81
232.306	111.81
232.541	114.81
232.775	112.81
233.009	116.81
233.243	111.81
233.477	112.81
233.711	126.81
233.945	111.81
234.179	109.81
234.413	126.81
234.647	118.81
234.881	114.81
235.115	111.81
235.349	119.81
235.583	102.81
235.817	114.81
236.051	104.81
236.285	114.81
236.519	120.81
236.753	124.81
236.987	152.81
237.221	170.81
237.455	201.81
237.689	170.81
237.922	134.81
238.156	135.81
238.39	125.81
238.624	122.81
238.858	119.81
239.091	114.81
239.325	129.81
239.559	121.81
239.793	132.81
240.027	128.81
240.26	132.81
240.494	145.81
240.728	157.81
240.961	148.81
241.195	143.81
241.429	142.81
241.662	146.81
241.896	124.81
242.13	128.81
242.363	120.81
242.597	145.81
242.83	127.81
243.064	141.81
243.298	118.81
243.531	122.81
243.765	133.81
243.998	130.81
244.232	150.81
244.465	152.81
244.699	140.81
244.932	134.81
245.166	151.81
245.399	159.81
245.633	143.81
245.866	143.81
246.099	147.81
246.333	142.81
246.566	159.81
246.8	151.81
247.033	152.81
247.266	139.81
247.5	172.81
247.733	156.81
247.966	167.81
248.2	159.81
248.433	172.81
248.666	181.81
248.899	180.81
249.133	184.81
249.366	198.81
249.599	188.81
249.832	175.81
250.066	182.81
250.299	172.81
250.532	187.81
250.765	204.81
250.998	203.81
251.231	200.81
251.465	207.81
251.698	176.81
251.931	195.81
252.164	175.81
252.397	198.81
252.63	188.81
252.863	212.81
253.096	217.81
253.329	219.81
253.562	222.81
253.795	215.81
254.028	212.81
254.261	200.81
254.494	222.81
254.727	246.81
254.96	282.81
255.193	263.81
255.426	240.81
255.659	233.81
255.892	216.81
256.124	217.81
256.357	204.81
256.59	202.81
256.823	223.81
257.056	212.81
257.289	215.81
257.521	213.81
257.754	201.81
257.987	208.81
258.22	201.81
258.452	193.81
258.685	210.81
258.918	217.81
259.151	201.81
259.383	210.81
259.616	199.81
259.849	220.81
260.081	220.81
260.314	246.81
260.547	242.81
260.779	238.81
261.012	240.81
261.244	222.81
261.477	228.81
261.71	220.81
261.942	222.81
262.175	224.81
262.407	223.81
262.64	214.81
262.872	222.81
263.105	231.81
263.337	213.81
263.57	203.81
263.802	219.81
264.035	214.81
264.267	214.81
264.499	213.81
264.732	226.81
264.964	224.81
265.197	211.81
265.429	213.81
265.661	188.81
265.894	210.81
266.126	235.81
266.358	207.81
266.591	232.81
266.823	226.81
267.055	224.81
267.287	206.81
267.52	239.81
267.752	229.81
267.984	239.81
268.216	238.81
268.448	235.81
268.681	240.81
268.913	243.81
269.145	264.81
269.377	277.81
269.609	279.81
269.841	250.81
270.073	274.81
270.306	276.81
270.538	289.81
270.77	287.81
271.002	304.81
271.234	277.81
271.466	290.81
271.698	272.81
271.93	318.81
272.162	334.81
272.394	293.81
272.626	279.81
272.858	288.81
273.09	285.81
273.322	282.81
273.553	258.81
273.785	261.81
274.017	262.81
274.249	260.81
274.481	246.81
274.713	258.81
274.945	272.81
275.176	278.81
275.408	256.81
275.64	272.81
275.872	281.81
276.104	259.81
276.335	255.81
276.567	263.81
276.799	284.81
277.031	292.81
277.262	295.81
277.494	318.81
277.726	289.81
277.957	296.81
278.189	271.81
278.421	271.81
278.652	268.81
278.884	278.81
279.115	274.81
279.347	288.81
279.579	266.81
279.81	262.81
280.042	260.81
280.273	257.81
280.505	267.81
280.736	272.81
280.968	280.81
281.199	280.81
281.431	253.81
281.662	274.81
281.894	264.81
282.125	274.81
282.356	285.81
282.588	302.81
282.819	306.81
283.051	280.81
283.282	279.81
283.513	294.81
283.745	279.81
283.976	280.81
284.207	290.81
284.439	298.81
284.67	284.81
284.901	287.81
285.132	270.81
285.364	278.81
285.595	287.81
285.826	276.81
286.057	291.81
286.288	284.81
286.52	285.81
286.751	301.81
286.982	293.81
287.213	294.81
287.444	309.81
287.675	295.81
287.906	304.81
288.138	302.81
288.369	306.81
288.6	298.81
288.831	297.81
289.062	309.81
289.293	301.81
289.524	314.81
289.755	290.81
289.986	285.81
290.217	288.81
290.448	312.81
290.679	279.81
290.91	310.81
291.141	278.81
291.371	298.81
291.602	295.81
291.833	290.81
292.064	280.81
292.295	286.81
292.526	286.81
292.757	290.81
292.987	280.81
293.218	279.81
293.449	308.81
293.68	290.81
293.91	304.81
294.141	301.81
294.372	289.81
294.603	314.81
294.833	278.81
295.064	322.81
295.295	286.81
295.525	302.81
295.756	321.81
295.987	308.81
296.217	304.81
296.448	336.81
296.679	320.81
296.909	305.81
297.14	320.81
297.37	317.81
297.601	316.81
297.831	312.81
298.062	318.81
298.292	306.81
298.523	308.81
298.753	327.81
298.984	327.81
299.214	331.81
299.445	325.81
299.675	319.81
299.905	325.81
300.136	314.81
300.366	319.81
300.597	315.81
300.827	330.81
301.057	321.81
301.288	320.81
301.518	324.81
301.748	335.81
301.979	332.81
302.209	330.81
302.439	348.81
302.669	335.81
302.9	335.81
303.13	328.81
303.36	345.81
303.59	348.81
303.82	331.81
304.051	317.81
304.281	327.81
304.511	307.81
304.741	340.81
304.971	351.81
305.201	336.81
305.431	342.81
305.661	349.81
305.891	332.81
306.121	339.81
306.352	330.81
306.582	351.81
306.812	349.81
307.042	343.81
307.272	341.81
307.502	349.81
307.731	335.81
307.961	333.81
308.191	327.81
308.421	335.81
308.651	355.81
308.881	346.81
309.111	345.81
309.341	339.81
309.571	343.81
309.8	352.81
310.03	354.81
310.26	370.81
310.49	354.81
310.72	354.81
310.949	379.81
311.179	371.81
311.409	386.81
311.639	357.81
311.868	358.81
312.098	382.81
312.328	384.81
312.557	391.81
312.787	392.81
313.017	407.81
313.246	362.81
313.476	382.81
313.706	388.81
313.935	390.81
314.165	383.81
314.394	397.81
314.624	378.81
314.853	372.81
315.083	363.81
315.312	367.81
315.542	374.81
315.771	377.81
316.001	361.81
316.23	359.81
316.46	379.81
316.689	366.81
316.919	386.81
317.148	370.81
317.377	374.81
317.607	378.81
317.836	376.81
318.065	383.81
318.295	370.81
318.524	396.81
318.753	379.81
318.983	375.81
319.212	361.81
319.441	370.81
319.67	381.81
319.9	374.81
320.129	391.81
320.358	392.81
320.587	378.81
320.816	398.81
321.046	383.81
321.275	400.81
321.504	394.81
321.733	377.81
321.962	406.81
322.191	392.81
322.42	414.81
322.649	394.81
322.878	427.81
323.108	425.81
323.337	450.81
323.566	459.81
323.795	491.81
324.024	516.81
324.253	584.81
324.482	792.81
324.71	1195.81
324.939	1708.81
325.168	1511.81
325.397	820.81
325.626	576.81
325.855	487.81
326.084	466.81
326.313	460.81
326.542	463.81
326.77	487.81
326.999	577.81
327.228	737.81
327.457	1067.81
327.686	1327.81
327.914	893.81
328.143	614.81
328.372	547.81
328.6	528.81
328.829	483.81
329.058	514.81
329.287	520.81
329.515	506.81
329.744	473.81
329.972	468.81
330.201	486.81
330.43	514.81
330.658	511.81
330.887	550.81
331.115	528.81
331.344	479.81
331.572	474.81
331.801	467.81
332.03	476.81
332.258	468.81
332.486	458.81
332.715	466.81
332.943	445.81
333.172	443.81
333.4	442.81
333.629	487.81
333.857	487.81
334.085	479.81
334.314	509.81
334.542	526.81
334.771	541.81
334.999	493.81
335.227	483.81
335.455	464.81
335.684	456.81
335.912	461.81
336.14	447.81
336.369	449.81
336.597	437.81
336.825	453.81
337.053	442.81
337.281	442.81
337.51	448.81
337.738	440.81
337.966	421.81
338.194	418.81
338.422	428.81
338.65	420.81
338.878	432.81
339.106	445.81
339.334	431.81
339.562	427.81
339.79	431.81
340.018	412.81
340.246	423.81
340.474	442.81
340.702	420.81
340.93	443.81
341.158	429.81
341.386	436.81
341.614	424.81
341.842	409.81
342.07	423.81
342.298	422.81
342.526	412.81
342.754	429.81
342.981	414.81
343.209	425.81
343.437	419.81
343.665	426.81
343.893	447.81
344.12	459.81
344.348	440.81
344.576	447.81
344.804	457.81
345.031	434.81
345.259	426.81
345.487	453.81
345.714	430.81
345.942	425.81
346.17	406.81
346.397	438.81
346.625	418.81
346.853	400.81
347.08	398.81
347.308	418.81
347.535	417.81
347.763	426.81
347.99	411.81
348.218	432.81
348.445	417.81
348.673	409.81
348.9	418.81
349.128	421.81
349.355	390.81
349.583	398.81
349.81	393.81
350.037	358.81
350.265	390.81
350.492	406.81
350.72	401.81
350.947	421.81
351.174	402.81
351.402	406.81
351.629	394.81
351.856	410.81
352.083	407.81
352.311	430.81
352.538	431.81
352.765	415.81
352.992	438.81
353.22	413.81
353.447	404.81
353.674	406.81
353.901	404.81
354.128	395.81
354.355	406.81
354.583	394.81
354.81	390.81
355.037	391.81
355.264	397.81
355.491	382.81
355.718	404.81
355.945	379.81
356.172	402.81
356.399	398.81
356.626	378.81
356.853	380.81
357.08	392.81
357.307	396.81
357.534	373.81
357.761	382.81
357.988	380.81
358.215	391.81
358.441	387.81
358.668	394.81
358.895	394.81
359.122	401.81
359.349	399.81
359.576	400.81
359.802	415.81
360.029	420.81
360.256	454.81
360.483	430.81
360.709	418.81
360.936	412.81
361.163	413.81
361.39	422.81
361.616	414.81
361.843	413.81
362.07	406.81
362.296	422.81
362.523	408.81
362.749	402.81
362.976	407.81
363.203	390.81
363.429	409.81
363.656	399.81
363.882	397.81
364.109	392.81
364.335	386.81
364.562	398.81
364.788	410.81
365.015	414.81
365.241	380.81
365.468	403.81
365.694	411.81
365.92	396.81
366.147	407.81
366.373	381.81
366.599	402.81
366.826	416.81
367.052	395.81
367.278	392.81
367.505	379.81
367.731	398.81
367.957	406.81
368.184	377.81
368.41	411.81
368.636	398.81
368.862	420.81
369.089	402.81
369.315	413.81
369.541	386.81
369.767	382.81
369.993	382.81
370.219	395.81
370.445	390.81
370.672	413.81
370.898	406.81
371.124	408.81
371.35	405.81
371.576	418.81
371.802	420.81
372.028	392.81
372.254	406.81
372.48	408.81
372.706	409.81
372.932	417.81
373.158	406.81
373.384	399.81
373.61	389.81
373.835	413.81
374.061	390.81
374.287	410.81
374.513	394.81
374.739	410.81
374.965	411.81
375.191	399.81
375.416	428.81
375.642	401.81
375.868	414.81
376.094	398.81
376.319	412.81
376.545	419.81
376.771	406.81
376.997	403.81
377.222	426.81
377.448	392.81
377.674	413.81
377.899	406.81
378.125	400.81
378.35	413.81
378.576	391.81
378.802	410.81
379.027	416.81
379.253	408.81
379.478	390.81
379.704	411.81
379.929	408.81
380.155	396.81
380.38	396.81
380.606	407.81
380.831	393.81
381.057	406.81
381.282	408.81
381.507	415.81
381.733	404.81
381.958	401.81
382.184	424.81
382.409	404.81
382.634	413.81
382.86	427.81
383.085	406.81
383.31	426.81
383.535	406.81
383.761	438.81
383.986	418.81
384.211	434.81
384.436	421.81
384.662	416.81
384.887	443.81
385.112	438.81
385.337	452.81
385.562	438.81
385.787	453.81
386.013	464.81
386.238	458.81
386.463	466.81
386.688	446.81
386.913	455.81
387.138	462.81
387.363	445.81
387.588	440.81
387.813	437.81
388.038	420.81
388.263	460.81
388.488	450.81
388.713	452.81
388.938	450.81
389.163	474.81
389.387	451.81
389.612	470.81
389.837	467.81
390.062	465.81
390.287	440.81
390.512	436.81
390.736	438.81
390.961	455.81
391.186	451.81
391.411	442.81
391.636	471.81
391.86	476.81
392.085	471.81
392.31	466.81
392.534	469.81
392.759	461.81
392.984	461.81
393.208	454.81
393.433	449.81
393.658	454.81
393.882	456.81
394.107	455.81
394.331	445.81
394.556	452.81
394.78	458.81
395.005	464.81
395.229	463.81
395.454	454.81
395.678	492.81
395.903	475.81
396.127	485.81
396.352	518.81
396.576	491.81
396.801	462.81
397.025	469.81
397.249	466.81
397.474	461.81
397.698	484.81
397.922	484.81
398.147	502.81
398.371	505.81
398.595	519.81
398.82	511.81
399.044	509.81
399.268	540.81
399.492	586.81
399.717	638.81
399.941	647.81
400.165	652.81
400.389	663.81
400.613	594.81
400.837	566.81
401.062	549.81
401.286	557.81
401.51	513.81
401.734	501.81
401.958	536.81
402.182	523.81
402.406	539.81
402.63	552.81
402.854	544.81
403.078	526.81
403.302	536.81
403.526	543.81
403.75	534.81
403.974	562.81
404.198	551.81
404.422	546.81
404.645	549.81
404.869	551.81
405.093	578.81
405.317	623.81
405.541	660.81
405.765	611.81
405.988	578.81
406.212	575.81
406.436	578.81
406.66	602.81
406.883	597.81
407.107	602.81
407.331	647.81
407.555	734.81
407.778	724.81
408.002	651.81
408.226	616.81
408.449	596.81
408.673	583.81
408.896	632.81
409.12	656.81
409.344	621.81
409.567	593.81
409.791	560.81
410.014	569.81
410.238	546.81
410.461	559.81
410.685	558.81
410.908	565.81
411.132	596.81
411.355	617.81
411.578	594.81
411.802	550.81
412.025	549.81
412.249	536.81
412.472	573.81
412.695	600.81
412.919	612.81
413.142	563.81
413.365	559.81
413.589	528.81
413.812	534.81
414.035	542.81
414.258	514.81
414.482	523.81
414.705	518.81
414.928	519.81
415.151	527.81
415.374	506.81
415.597	521.81
415.821	518.81
416.044	483.81
416.267	518.81
416.49	512.81
416.713	517.81
416.936	503.81
417.159	502.81
417.382	517.81
417.605	502.81
417.828	533.81
418.051	512.81
418.274	532.81
418.497	530.81
418.72	518.81
418.943	554.81
419.166	562.81
419.389	570.81
419.611	574.81
419.834	537.81
420.057	556.81
420.28	552.81
420.503	538.81
420.726	529.81
420.948	551.81
421.171	559.81
421.394	602.81
421.617	562.81
421.839	548.81
422.062	523.81
422.285	530.81
422.507	570.81
422.73	692.81
422.953	639.81
423.175	572.81
423.398	548.81
423.621	534.81
423.843	580.81
424.066	573.81
424.288	577.81
424.511	584.81
424.733	644.81
424.956	697.81
425.178	696.81
425.401	660.81
425.623	692.81
425.846	600.81
426.068	559.81
426.291	550.81
426.513	548.81
426.735	543.81
426.958	616.81
427.18	685.81
427.402	806.81
427.625	882.81
427.847	731.81
428.069	646.81
428.292	591.81
428.514	532.81
428.736	532.81
428.958	532.81
429.181	498.81
429.403	515.81
429.625	530.81
429.847	564.81
430.069	643.81
430.292	596.81
430.514	532.81
430.736	499.81
430.958	518.81
431.18	504.81
431.402	500.81
431.624	467.81
431.846	510.81
432.068	492.81
432.29	516.81
432.512	476.81
432.734	481.81
432.956	494.81
433.178	498.81
433.4	491.81
433.622	493.81
433.844	478.81
434.066	495.81
434.287	489.81
434.509	495.81
434.731	521.81
434.953	507.81
435.175	548.81
435.397	564.81
435.618	564.81
435.84	591.81
436.062	654.81
436.284	720.81
436.505	591.81
436.727	583.81
436.949	552.81
437.17	535.81
437.392	525.81
437.614	515.81
437.835	546.81
438.057	624.81
438.278	734.81
438.5	724.81
438.721	805.81
438.943	745.81
439.165	596.81
439.386	557.81
439.608	564.81
439.829	562.81
440.05	564.81
440.272	615.81
440.493	557.81
440.715	560.81
440.936	533.81
441.158	516.81
441.379	525.81
441.6	541.81
441.822	564.81
442.043	603.81
442.264	676.81
442.486	699.81
442.707	627.81
442.928	586.81
443.149	574.81
443.371	596.81
443.592	635.81
443.813	726.81
444.034	778.81
444.255	668.81
444.476	591.81
444.698	601.81
444.919	557.81
445.14	674.81
445.361	634.81
445.582	603.81
445.803	630.81
446.024	743.81
446.245	727.81
446.466	671.81
446.687	598.81
446.908	542.81
447.129	512.81
447.35	508.81
447.571	510.81
447.792	499.81
448.013	514.81
448.234	539.81
448.455	557.81
448.675	688.81
448.896	782.81
449.117	675.81
449.338	612.81
449.559	730.81
449.779	835.81
450	668.81
450.221	571.81
450.442	516.81
450.662	482.81
450.883	512.81
451.104	521.81
451.324	483.81
451.545	488.81
451.766	461.81
451.986	455.81
452.207	457.81
452.428	448.81
452.648	455.81
452.869	464.81
453.089	465.81
453.31	473.81
453.53	473.81
453.751	443.81
453.971	442.81
454.192	459.81
454.412	468.81
454.633	449.81
454.853	451.81
455.073	442.81
455.294	461.81
455.514	535.81
455.734	514.81
455.955	468.81
456.175	444.81
456.395	438.81
456.616	426.81
456.836	436.81
457.056	431.81
457.276	424.81
457.497	432.81
457.717	444.81
457.937	439.81
458.157	456.81
458.377	462.81
458.598	473.81
458.818	493.81
459.038	565.81
459.258	607.81
459.478	506.81
459.698	517.81
459.918	494.81
460.138	502.81
460.358	492.81
460.578	507.81
460.798	499.81
461.018	534.81
461.238	534.81
461.458	520.81
461.678	501.81
461.898	520.81
462.118	519.81
462.338	532.81
462.558	532.81
462.777	568.81
462.997	570.81
463.217	590.81
463.437	573.81
463.657	566.81
463.876	560.81
464.096	565.81
464.316	538.81
464.536	574.81
464.755	587.81
464.975	553.81
465.195	578.81
465.414	585.81
465.634	528.81
465.854	507.81
466.073	496.81
466.293	484.81
466.512	470.81
466.732	482.81
466.951	466.81
467.171	476.81
467.391	468.81
467.61	494.81
467.829	489.81
468.049	484.81
468.268	496.81
468.488	472.81
468.707	468.81
468.927	487.81
469.146	479.81
469.365	450.81
469.585	454.81
469.804	488.81
470.023	489.81
470.243	476.81
470.462	472.81
470.681	509.81
470.901	498.81
471.12	492.81
471.339	478.81
471.558	476.81
471.777	495.81
471.997	476.81
472.216	491.81
472.435	507.81
472.654	494.81
472.873	488.81
473.092	483.81
473.311	468.81
473.53	473.81
473.749	474.81
473.968	511.81
474.187	602.81
474.406	623.81
474.625	524.81
474.844	500.81
475.063	493.81
475.282	499.81
475.501	486.81
475.72	468.81
475.939	480.81
476.158	499.81
476.377	503.81
476.596	500.81
476.814	496.81
477.033	510.81
477.252	518.81
477.471	511.81
477.69	520.81
477.908	513.81
478.127	534.81
478.346	542.81
478.564	534.81
478.783	542.81
479.002	554.81
479.22	544.81
479.439	560.81
479.658	569.81
479.876	562.81
480.095	600.81
480.313	606.81
480.532	575.81
480.751	605.81
480.969	581.81
481.188	623.81
481.406	670.81
481.624	605.81
481.843	570.81
482.061	566.81
482.28	559.81
482.498	559.81
482.717	544.81
482.935	568.81
483.153	562.81
483.372	564.81
483.59	558.81
483.808	539.81
484.027	537.81
484.245	536.81
484.463	558.81
484.681	559.81
484.9	575.81
485.118	574.81
485.336	554.81
485.554	578.81
485.772	566.81
485.99	581.81
486.209	599.81
486.427	570.81
486.645	568.81
486.863	566.81
487.081	590.81
487.299	589.81
487.517	590.81
487.735	578.81
487.953	589.81
488.171	592.81
488.389	586.81
488.607	582.81
488.825	606.81
489.043	591.81
489.261	614.81
489.479	607.81
489.696	607.81
489.914	610.81
490.132	588.81
490.35	582.81
490.568	616.81
490.786	633.81
491.003	664.81
491.221	653.81
491.439	639.81
491.657	676.81
491.874	660.81
492.092	683.81
492.31	666.81
492.527	687.81
492.745	684.81
492.963	703.81
493.18	704.81
493.398	673.81
493.615	666.81
493.833	700.81
494.05	708.81
494.268	692.81
494.485	671.81
494.703	707.81
494.92	698.81
495.138	678.81
495.355	702.81
495.573	704.81
495.79	705.81
496.008	709.81
496.225	695.81
496.442	687.81
496.66	696.81
496.877	693.81
497.094	719.81
497.312	732.81
497.529	722.81
497.746	744.81
497.963	758.81
498.181	777.81
498.398	812.81
498.615	778.81
498.832	807.81
499.049	812.81
499.267	876.81
499.484	891.81
499.701	958.81
499.918	981.81
500.135	1016.81
500.352	1071.81
500.569	1109.81
500.786	1108.81
501.003	1080.81
501.22	1069.81
501.437	999.81
501.654	992.81
