Data from 1976.PennyLincolnUp.Lamp.En5.5.200Scan.071719.P1.Changed Mount._HRD10591_16-01-48-861.txt Node
Date: Thu Jul 18 16:01:48 EDT 2019
User: cochatt
Spectrometer: HR+D1059
Trigger mode: 1
Integration Time (sec): 1.000000E-1
Scans to average: 1
Electric dark correction enabled: true
Nonlinearity correction enabled: false
Boxcar width: 0
XAxis mode: Wavelengths
Number of Pixels in Spectrum: 2048
>>>>>Begin Spectral Data<<<<<
223.165	-27.31
223.4	-27.31
223.635	-27.31
223.869	-19.31
224.104	-24.31
224.338	-2.31
224.573	-14.31
224.808	-15.31
225.042	-12.31
225.277	-14.31
225.511	-10.31
225.746	-0.31
225.98	15.69
226.215	5.69
226.449	27.69
226.683	29.69
226.918	22.69
227.152	38.69
227.387	23.69
227.621	40.69
227.856	44.69
228.09	56.69
228.324	44.69
228.559	39.69
228.793	75.69
229.027	108.69
229.262	98.69
229.496	111.69
229.73	127.69
229.964	147.69
230.199	117.69
230.433	114.69
230.667	117.69
230.901	126.69
231.136	123.69
231.37	125.69
231.604	115.69
231.838	99.69
232.072	102.69
232.306	128.69
232.541	113.69
232.775	118.69
233.009	113.69
233.243	121.69
233.477	117.69
233.711	122.69
233.945	117.69
234.179	117.69
234.413	109.69
234.647	127.69
234.881	115.69
235.115	106.69
235.349	111.69
235.583	136.69
235.817	127.69
236.051	126.69
236.285	121.69
236.519	130.69
236.753	143.69
236.987	140.69
237.221	179.69
237.455	231.69
237.689	193.69
237.922	140.69
238.156	131.69
238.39	135.69
238.624	128.69
238.858	131.69
239.091	129.69
239.325	124.69
239.559	123.69
239.793	122.69
240.027	133.69
240.26	157.69
240.494	146.69
240.728	151.69
240.961	134.69
241.195	149.69
241.429	137.69
241.662	131.69
241.896	139.69
242.13	131.69
242.363	145.69
242.597	136.69
242.83	129.69
243.064	130.69
243.298	140.69
243.531	126.69
243.765	144.69
243.998	145.69
244.232	146.69
244.465	136.69
244.699	153.69
244.932	159.69
245.166	139.69
245.399	163.69
245.633	164.69
245.866	141.69
246.099	152.69
246.333	157.69
246.566	162.69
246.8	155.69
247.033	152.69
247.266	169.69
247.5	179.69
247.733	179.69
247.966	180.69
248.2	175.69
248.433	188.69
248.666	181.69
248.899	198.69
249.133	203.69
249.366	195.69
249.599	199.69
249.832	184.69
250.066	177.69
250.299	190.69
250.532	209.69
250.765	203.69
250.998	239.69
251.231	234.69
251.465	222.69
251.698	204.69
251.931	211.69
252.164	199.69
252.397	208.69
252.63	205.69
252.863	203.69
253.096	212.69
253.329	231.69
253.562	232.69
253.795	212.69
254.028	233.69
254.261	221.69
254.494	234.69
254.727	256.69
254.96	287.69
255.193	275.69
255.426	223.69
255.659	254.69
255.892	234.69
256.124	232.69
256.357	245.69
256.59	245.69
256.823	236.69
257.056	233.69
257.289	224.69
257.521	215.69
257.754	219.69
257.987	217.69
258.22	243.69
258.452	213.69
258.685	204.69
258.918	191.69
259.151	227.69
259.383	221.69
259.616	224.69
259.849	232.69
260.081	239.69
260.314	265.69
260.547	269.69
260.779	269.69
261.012	234.69
261.244	244.69
261.477	220.69
261.71	227.69
261.942	228.69
262.175	240.69
262.407	247.69
262.64	217.69
262.872	224.69
263.105	221.69
263.337	221.69
263.57	219.69
263.802	226.69
264.035	227.69
264.267	236.69
264.499	227.69
264.732	209.69
264.964	230.69
265.197	232.69
265.429	223.69
265.661	233.69
265.894	227.69
266.126	241.69
266.358	233.69
266.591	229.69
266.823	243.69
267.055	225.69
267.287	252.69
267.52	259.69
267.752	247.69
267.984	231.69
268.216	262.69
268.448	247.69
268.681	259.69
268.913	280.69
269.145	277.69
269.377	283.69
269.609	278.69
269.841	287.69
270.073	292.69
270.306	299.69
270.538	334.69
270.77	339.69
271.002	300.69
271.234	303.69
271.466	303.69
271.698	322.69
271.93	332.69
272.162	320.69
272.394	325.69
272.626	317.69
272.858	292.69
273.09	307.69
273.322	305.69
273.553	266.69
273.785	279.69
274.017	288.69
274.249	291.69
274.481	282.69
274.713	268.69
274.945	289.69
275.176	289.69
275.408	283.69
275.64	289.69
275.872	281.69
276.104	284.69
276.335	290.69
276.567	294.69
276.799	301.69
277.031	322.69
277.262	354.69
277.494	342.69
277.726	327.69
277.957	324.69
278.189	289.69
278.421	300.69
278.652	274.69
278.884	287.69
279.115	282.69
279.347	301.69
279.579	272.69
279.81	289.69
280.042	281.69
280.273	288.69
280.505	280.69
280.736	289.69
280.968	288.69
281.199	299.69
281.431	305.69
281.662	287.69
281.894	285.69
282.125	297.69
282.356	315.69
282.588	335.69
282.819	322.69
283.051	307.69
283.282	296.69
283.513	311.69
283.745	304.69
283.976	299.69
284.207	316.69
284.439	318.69
284.67	307.69
284.901	304.69
285.132	315.69
285.364	303.69
285.595	288.69
285.826	300.69
286.057	313.69
286.288	316.69
286.52	314.69
286.751	291.69
286.982	304.69
287.213	327.69
287.444	323.69
287.675	313.69
287.906	320.69
288.138	313.69
288.369	345.69
288.6	336.69
288.831	345.69
289.062	324.69
289.293	316.69
289.524	313.69
289.755	323.69
289.986	312.69
290.217	312.69
290.448	314.69
290.679	317.69
290.91	295.69
291.141	324.69
291.371	307.69
291.602	318.69
291.833	317.69
292.064	327.69
292.295	318.69
292.526	331.69
292.757	313.69
292.987	319.69
293.218	309.69
293.449	329.69
293.68	319.69
293.91	331.69
294.141	327.69
294.372	330.69
294.603	323.69
294.833	315.69
295.064	330.69
295.295	331.69
295.525	327.69
295.756	332.69
295.987	322.69
296.217	339.69
296.448	346.69
296.679	333.69
296.909	327.69
297.14	331.69
297.37	313.69
297.601	332.69
297.831	349.69
298.062	340.69
298.292	336.69
298.523	353.69
298.753	347.69
298.984	335.69
299.214	339.69
299.445	327.69
299.675	329.69
299.905	344.69
300.136	334.69
300.366	334.69
300.597	345.69
300.827	349.69
301.057	359.69
301.288	367.69
301.518	346.69
301.748	358.69
301.979	355.69
302.209	351.69
302.439	375.69
302.669	348.69
302.9	341.69
303.13	351.69
303.36	355.69
303.59	378.69
303.82	379.69
304.051	378.69
304.281	360.69
304.511	359.69
304.741	350.69
304.971	352.69
305.201	345.69
305.431	367.69
305.661	356.69
305.891	356.69
306.121	374.69
306.352	374.69
306.582	358.69
306.812	379.69
307.042	357.69
307.272	374.69
307.502	374.69
307.731	360.69
307.961	367.69
308.191	341.69
308.421	365.69
308.651	387.69
308.881	372.69
309.111	387.69
309.341	357.69
309.571	364.69
309.8	385.69
310.03	391.69
310.26	401.69
310.49	384.69
310.72	379.69
310.949	411.69
311.179	416.69
311.409	403.69
311.639	387.69
311.868	397.69
312.098	387.69
312.328	413.69
312.557	411.69
312.787	428.69
313.017	428.69
313.246	408.69
313.476	405.69
313.706	405.69
313.935	423.69
314.165	427.69
314.394	431.69
314.624	419.69
314.853	426.69
315.083	399.69
315.312	410.69
315.542	407.69
315.771	400.69
316.001	384.69
316.23	399.69
316.46	408.69
316.689	416.69
316.919	409.69
317.148	429.69
317.377	411.69
317.607	417.69
317.836	400.69
318.065	425.69
318.295	397.69
318.524	415.69
318.753	411.69
318.983	405.69
319.212	410.69
319.441	399.69
319.67	422.69
319.9	427.69
320.129	390.69
320.358	409.69
320.587	414.69
320.816	403.69
321.046	409.69
321.275	416.69
321.504	415.69
321.733	404.69
321.962	425.69
322.191	431.69
322.42	437.69
322.649	440.69
322.878	460.69
323.108	463.69
323.337	491.69
323.566	500.69
323.795	517.69
324.024	599.69
324.253	659.69
324.482	901.69
324.71	1381.69
324.939	2040.69
325.168	1741.69
325.397	894.69
325.626	603.69
325.855	529.69
326.084	517.69
326.313	514.69
326.542	492.69
326.77	531.69
326.999	627.69
327.228	844.69
327.457	1237.69
327.686	1521.69
327.914	1027.69
328.143	669.69
328.372	611.69
328.6	569.69
328.829	557.69
329.058	577.69
329.287	553.69
329.515	542.69
329.744	513.69
329.972	520.69
330.201	557.69
330.43	562.69
330.658	567.69
330.887	597.69
331.115	595.69
331.344	536.69
331.572	524.69
331.801	504.69
332.03	519.69
332.258	476.69
332.486	497.69
332.715	506.69
332.943	480.69
333.172	500.69
333.4	493.69
333.629	513.69
333.857	531.69
334.085	548.69
334.314	553.69
334.542	563.69
334.771	579.69
334.999	528.69
335.227	539.69
335.455	503.69
335.684	512.69
335.912	490.69
336.14	475.69
336.369	473.69
336.597	486.69
336.825	485.69
337.053	487.69
337.281	484.69
337.51	470.69
337.738	479.69
337.966	463.69
338.194	496.69
338.422	468.69
338.65	452.69
338.878	470.69
339.106	480.69
339.334	471.69
339.562	460.69
339.79	438.69
340.018	461.69
340.246	465.69
340.474	475.69
340.702	462.69
340.93	461.69
341.158	452.69
341.386	460.69
341.614	458.69
341.842	451.69
342.07	440.69
342.298	444.69
342.526	454.69
342.754	458.69
342.981	422.69
343.209	456.69
343.437	455.69
343.665	459.69
343.893	471.69
344.12	499.69
344.348	487.69
344.576	502.69
344.804	486.69
345.031	466.69
345.259	465.69
345.487	472.69
345.714	467.69
345.942	452.69
346.17	464.69
346.397	465.69
346.625	438.69
346.853	443.69
347.08	459.69
347.308	457.69
347.535	444.69
347.763	461.69
347.99	449.69
348.218	423.69
348.445	458.69
348.673	451.69
348.9	455.69
349.128	448.69
349.355	432.69
349.583	426.69
349.81	403.69
350.037	431.69
350.265	426.69
350.492	408.69
350.72	421.69
350.947	445.69
351.174	445.69
351.402	468.69
351.629	436.69
351.856	445.69
352.083	459.69
352.311	468.69
352.538	461.69
352.765	442.69
352.992	439.69
353.22	459.69
353.447	431.69
353.674	420.69
353.901	422.69
354.128	415.69
354.355	411.69
354.583	425.69
354.81	429.69
355.037	423.69
355.264	434.69
355.491	430.69
355.718	427.69
355.945	416.69
356.172	413.69
356.399	418.69
356.626	407.69
356.853	424.69
357.08	389.69
357.307	434.69
357.534	411.69
357.761	433.69
357.988	413.69
358.215	408.69
358.441	407.69
358.668	439.69
358.895	410.69
359.122	438.69
359.349	425.69
359.576	442.69
359.802	475.69
360.029	481.69
360.256	480.69
360.483	474.69
360.709	433.69
360.936	447.69
361.163	439.69
361.39	429.69
361.616	437.69
361.843	421.69
362.07	448.69
362.296	452.69
362.523	437.69
362.749	437.69
362.976	446.69
363.203	418.69
363.429	431.69
363.656	427.69
363.882	431.69
364.109	437.69
364.335	420.69
364.562	399.69
364.788	450.69
365.015	420.69
365.241	422.69
365.468	437.69
365.694	443.69
365.92	409.69
366.147	426.69
366.373	443.69
366.599	405.69
366.826	437.69
367.052	399.69
367.278	413.69
367.505	419.69
367.731	438.69
367.957	439.69
368.184	418.69
368.41	418.69
368.636	440.69
368.862	471.69
369.089	441.69
369.315	419.69
369.541	413.69
369.767	442.69
369.993	431.69
370.219	433.69
370.445	428.69
370.672	433.69
370.898	424.69
371.124	420.69
371.35	438.69
371.576	437.69
371.802	435.69
372.028	432.69
372.254	401.69
372.48	425.69
372.706	429.69
372.932	423.69
373.158	451.69
373.384	427.69
373.61	453.69
373.835	428.69
374.061	441.69
374.287	420.69
374.513	426.69
374.739	459.69
374.965	434.69
375.191	456.69
375.416	442.69
375.642	448.69
375.868	434.69
376.094	444.69
376.319	439.69
376.545	444.69
376.771	418.69
376.997	419.69
377.222	444.69
377.448	433.69
377.674	425.69
377.899	396.69
378.125	422.69
378.35	401.69
378.576	431.69
378.802	426.69
379.027	423.69
379.253	415.69
379.478	428.69
379.704	417.69
379.929	443.69
380.155	435.69
380.38	437.69
380.606	438.69
380.831	435.69
381.057	476.69
381.282	419.69
381.507	423.69
381.733	455.69
381.958	437.69
382.184	433.69
382.409	432.69
382.634	437.69
382.86	437.69
383.085	460.69
383.31	457.69
383.535	468.69
383.761	464.69
383.986	439.69
384.211	471.69
384.436	461.69
384.662	456.69
384.887	452.69
385.112	458.69
385.337	468.69
385.562	481.69
385.787	478.69
386.013	496.69
386.238	495.69
386.463	485.69
386.688	489.69
386.913	453.69
387.138	475.69
387.363	472.69
387.588	485.69
387.813	474.69
388.038	470.69
388.263	478.69
388.488	473.69
388.713	497.69
388.938	497.69
389.163	487.69
389.387	492.69
389.612	464.69
389.837	483.69
390.062	472.69
390.287	455.69
390.512	489.69
390.736	476.69
390.961	477.69
391.186	461.69
391.411	503.69
391.636	484.69
391.86	500.69
392.085	521.69
392.31	490.69
392.534	485.69
392.759	489.69
392.984	490.69
393.208	464.69
393.433	497.69
393.658	469.69
393.882	481.69
394.107	495.69
394.331	498.69
394.556	497.69
394.78	480.69
395.005	503.69
395.229	502.69
395.454	508.69
395.678	521.69
395.903	508.69
396.127	520.69
396.352	525.69
396.576	475.69
396.801	497.69
397.025	501.69
397.249	489.69
397.474	527.69
397.698	518.69
397.922	512.69
398.147	550.69
398.371	535.69
398.595	523.69
398.82	542.69
399.044	563.69
399.268	604.69
399.492	605.69
399.717	673.69
399.941	684.69
400.165	676.69
400.389	698.69
400.613	649.69
400.837	587.69
401.062	589.69
401.286	558.69
401.51	570.69
401.734	549.69
401.958	550.69
402.182	555.69
402.406	565.69
402.63	549.69
402.854	554.69
403.078	552.69
403.302	571.69
403.526	586.69
403.75	590.69
403.974	611.69
404.198	575.69
404.422	597.69
404.645	588.69
404.869	604.69
405.093	618.69
405.317	674.69
405.541	713.69
405.765	651.69
405.988	610.69
406.212	632.69
406.436	653.69
406.66	667.69
406.883	631.69
407.107	651.69
407.331	715.69
407.555	766.69
407.778	744.69
408.002	709.69
408.226	675.69
408.449	615.69
408.673	651.69
408.896	643.69
409.12	704.69
409.344	685.69
409.567	623.69
409.791	590.69
410.014	600.69
410.238	581.69
410.461	598.69
410.685	577.69
410.908	598.69
411.132	629.69
411.355	659.69
411.578	620.69
411.802	586.69
412.025	568.69
412.249	580.69
412.472	604.69
412.695	668.69
412.919	629.69
413.142	601.69
413.365	582.69
413.589	575.69
413.812	553.69
414.035	561.69
414.258	549.69
414.482	538.69
414.705	576.69
414.928	556.69
415.151	557.69
415.374	548.69
415.597	535.69
415.821	542.69
416.044	557.69
416.267	537.69
416.49	532.69
416.713	538.69
416.936	556.69
417.159	565.69
417.382	561.69
417.605	577.69
417.828	564.69
418.051	554.69
418.274	538.69
418.497	565.69
418.72	559.69
418.943	536.69
419.166	577.69
419.389	593.69
419.611	593.69
419.834	592.69
420.057	579.69
420.28	582.69
420.503	570.69
420.726	549.69
420.948	591.69
421.171	643.69
421.394	661.69
421.617	592.69
421.839	581.69
422.062	572.69
422.285	587.69
422.507	648.69
422.73	722.69
422.953	702.69
423.175	616.69
423.398	612.69
423.621	587.69
423.843	629.69
424.066	620.69
424.288	607.69
424.511	647.69
424.733	689.69
424.956	743.69
425.178	723.69
425.401	728.69
425.623	751.69
425.846	641.69
426.068	619.69
426.291	619.69
426.513	593.69
426.735	623.69
426.958	649.69
427.18	724.69
427.402	861.69
427.625	959.69
427.847	804.69
428.069	709.69
428.292	649.69
428.514	602.69
428.736	579.69
428.958	561.69
429.181	544.69
429.403	552.69
429.625	538.69
429.847	567.69
430.069	664.69
430.292	654.69
430.514	577.69
430.736	545.69
430.958	551.69
431.18	523.69
431.402	541.69
431.624	519.69
431.846	526.69
432.068	551.69
432.29	516.69
432.512	533.69
432.734	539.69
432.956	526.69
433.178	563.69
433.4	560.69
433.622	530.69
433.844	542.69
434.066	540.69
434.287	528.69
434.509	544.69
434.731	528.69
434.953	572.69
435.175	580.69
435.397	595.69
435.618	615.69
435.84	619.69
436.062	732.69
436.284	787.69
436.505	659.69
436.727	619.69
436.949	552.69
437.17	547.69
437.392	570.69
437.614	571.69
437.835	600.69
438.057	706.69
438.278	807.69
438.5	785.69
438.721	860.69
438.943	846.69
439.165	675.69
439.386	613.69
439.608	614.69
439.829	619.69
440.05	632.69
440.272	637.69
440.493	648.69
440.715	611.69
440.936	559.69
441.158	553.69
441.379	586.69
441.6	596.69
441.822	603.69
442.043	635.69
442.264	727.69
442.486	771.69
442.707	665.69
442.928	637.69
443.149	621.69
443.371	649.69
443.592	661.69
443.813	768.69
444.034	866.69
444.255	701.69
444.476	647.69
444.698	623.69
444.919	595.69
445.14	742.69
445.361	674.69
445.582	651.69
445.803	696.69
446.024	833.69
446.245	823.69
446.466	743.69
446.687	640.69
446.908	610.69
447.129	576.69
447.35	547.69
447.571	553.69
447.792	540.69
448.013	569.69
448.234	579.69
448.455	641.69
448.675	723.69
448.896	860.69
449.117	719.69
449.338	657.69
449.559	791.69
449.779	909.69
450	722.69
450.221	584.69
450.442	547.69
450.662	548.69
450.883	532.69
451.104	550.69
451.324	546.69
451.545	537.69
451.766	527.69
451.986	500.69
452.207	513.69
452.428	484.69
452.648	489.69
452.869	503.69
453.089	480.69
453.31	515.69
453.53	492.69
453.751	483.69
453.971	495.69
454.192	503.69
454.412	479.69
454.633	476.69
454.853	456.69
455.073	471.69
455.294	537.69
455.514	571.69
455.734	577.69
455.955	497.69
456.175	466.69
456.395	444.69
456.616	463.69
456.836	462.69
457.056	460.69
457.276	460.69
457.497	469.69
457.717	454.69
457.937	465.69
458.157	455.69
458.377	472.69
458.598	498.69
458.818	556.69
459.038	623.69
459.258	652.69
459.478	558.69
459.698	545.69
459.918	526.69
460.138	542.69
460.358	562.69
460.578	562.69
460.798	529.69
461.018	564.69
461.238	551.69
461.458	544.69
461.678	535.69
461.898	571.69
462.118	539.69
462.338	581.69
462.558	573.69
462.777	579.69
462.997	593.69
463.217	601.69
463.437	637.69
463.657	612.69
463.876	619.69
464.096	600.69
464.316	584.69
464.536	596.69
464.755	588.69
464.975	592.69
465.195	606.69
465.414	651.69
465.634	604.69
465.854	551.69
466.073	536.69
466.293	515.69
466.512	517.69
466.732	508.69
466.951	508.69
467.171	473.69
467.391	516.69
467.61	513.69
467.829	522.69
468.049	516.69
468.268	529.69
468.488	496.69
468.707	498.69
468.927	500.69
469.146	484.69
469.365	516.69
469.585	496.69
469.804	519.69
470.023	503.69
470.243	496.69
470.462	511.69
470.681	543.69
470.901	531.69
471.12	488.69
471.339	517.69
471.558	518.69
471.777	523.69
471.997	497.69
472.216	505.69
472.435	534.69
472.654	535.69
472.873	518.69
473.092	505.69
473.311	505.69
473.53	518.69
473.749	527.69
473.968	556.69
474.187	641.69
474.406	693.69
474.625	589.69
474.844	524.69
475.063	532.69
475.282	508.69
475.501	501.69
475.72	547.69
475.939	538.69
476.158	531.69
476.377	508.69
476.596	512.69
476.814	531.69
477.033	547.69
477.252	540.69
477.471	530.69
477.69	534.69
477.908	547.69
478.127	567.69
478.346	573.69
478.564	575.69
478.783	572.69
479.002	570.69
479.22	579.69
479.439	582.69
479.658	610.69
479.876	615.69
480.095	615.69
480.313	695.69
480.532	633.69
480.751	649.69
480.969	657.69
481.188	673.69
481.406	709.69
481.624	653.69
481.843	618.69
482.061	603.69
482.28	601.69
482.498	592.69
482.717	577.69
482.935	583.69
483.153	580.69
483.372	611.69
483.59	602.69
483.808	577.69
484.027	614.69
484.245	590.69
484.463	596.69
484.681	606.69
484.9	615.69
485.118	606.69
485.336	610.69
485.554	637.69
485.772	639.69
485.99	637.69
486.209	641.69
486.427	637.69
486.645	617.69
486.863	633.69
487.081	631.69
487.299	656.69
487.517	627.69
487.735	649.69
487.953	629.69
488.171	644.69
488.389	640.69
488.607	624.69
488.825	643.69
489.043	629.69
489.261	643.69
489.479	640.69
489.696	644.69
489.914	666.69
490.132	646.69
490.35	673.69
490.568	657.69
490.786	680.69
491.003	691.69
491.221	693.69
491.439	707.69
491.657	681.69
491.874	751.69
492.092	769.69
492.31	726.69
492.527	716.69
492.745	724.69
492.963	751.69
493.18	723.69
493.398	754.69
493.615	744.69
493.833	738.69
494.05	762.69
494.268	735.69
494.485	766.69
494.703	742.69
494.92	749.69
495.138	755.69
495.355	753.69
495.573	759.69
495.79	752.69
496.008	784.69
496.225	762.69
496.442	753.69
496.66	777.69
496.877	767.69
497.094	777.69
497.312	757.69
497.529	805.69
497.746	806.69
497.963	808.69
498.181	821.69
498.398	841.69
498.615	868.69
498.832	887.69
499.049	919.69
499.267	919.69
499.484	957.69
499.701	1027.69
499.918	1035.69
500.135	1130.69
500.352	1199.69
500.569	1212.69
500.786	1228.69
501.003	1197.69
501.22	1140.69
501.437	1092.69
501.654	1041.69
