Data from 1976.PennyLincolnUp.Lamp.En5.5.200Scan.071719.P1.Changed Mount._HRD10591_16-01-55-861.txt Node
Date: Thu Jul 18 16:01:55 EDT 2019
User: cochatt
Spectrometer: HR+D1059
Trigger mode: 1
Integration Time (sec): 1.000000E-1
Scans to average: 1
Electric dark correction enabled: true
Nonlinearity correction enabled: false
Boxcar width: 0
XAxis mode: Wavelengths
Number of Pixels in Spectrum: 2048
>>>>>Begin Spectral Data<<<<<
223.165	-13.06
223.4	-13.06
223.635	-13.06
223.869	-12.06
224.104	-17.06
224.338	-22.06
224.573	-8.06
224.808	-12.06
225.042	-24.06
225.277	-2.06
225.511	-0.06
225.746	-3.06
225.98	11.94
226.215	5.94
226.449	29.94
226.683	10.94
226.918	26.94
227.152	27.94
227.387	44.94
227.621	28.94
227.856	47.94
228.09	43.94
228.324	32.94
228.559	35.94
228.793	74.94
229.027	88.94
229.262	98.94
229.496	111.94
229.73	130.94
229.964	166.94
230.199	125.94
230.433	109.94
230.667	109.94
230.901	115.94
231.136	108.94
231.37	120.94
231.604	109.94
231.838	107.94
232.072	110.94
232.306	118.94
232.541	109.94
232.775	119.94
233.009	121.94
233.243	110.94
233.477	111.94
233.711	111.94
233.945	112.94
234.179	122.94
234.413	118.94
234.647	115.94
234.881	118.94
235.115	119.94
235.349	112.94
235.583	134.94
235.817	128.94
236.051	122.94
236.285	123.94
236.519	120.94
236.753	140.94
236.987	151.94
237.221	166.94
237.455	243.94
237.689	202.94
237.922	154.94
238.156	140.94
238.39	138.94
238.624	125.94
238.858	111.94
239.091	126.94
239.325	133.94
239.559	135.94
239.793	132.94
240.027	118.94
240.26	145.94
240.494	155.94
240.728	174.94
240.961	151.94
241.195	159.94
241.429	146.94
241.662	157.94
241.896	138.94
242.13	135.94
242.363	138.94
242.597	157.94
242.83	144.94
243.064	141.94
243.298	134.94
243.531	139.94
243.765	137.94
243.998	145.94
244.232	142.94
244.465	154.94
244.699	144.94
244.932	166.94
245.166	152.94
245.399	150.94
245.633	160.94
245.866	140.94
246.099	148.94
246.333	144.94
246.566	162.94
246.8	164.94
247.033	151.94
247.266	184.94
247.5	159.94
247.733	184.94
247.966	157.94
248.2	175.94
248.433	177.94
248.666	187.94
248.899	183.94
249.133	177.94
249.366	218.94
249.599	206.94
249.832	192.94
250.066	180.94
250.299	181.94
250.532	186.94
250.765	214.94
250.998	222.94
251.231	237.94
251.465	224.94
251.698	221.94
251.931	198.94
252.164	210.94
252.397	196.94
252.63	218.94
252.863	198.94
253.096	209.94
253.329	224.94
253.562	238.94
253.795	207.94
254.028	232.94
254.261	242.94
254.494	242.94
254.727	281.94
254.96	282.94
255.193	269.94
255.426	272.94
255.659	248.94
255.892	227.94
256.124	234.94
256.357	226.94
256.59	238.94
256.823	212.94
257.056	213.94
257.289	208.94
257.521	220.94
257.754	208.94
257.987	221.94
258.22	226.94
258.452	221.94
258.685	205.94
258.918	217.94
259.151	212.94
259.383	244.94
259.616	227.94
259.849	229.94
260.081	246.94
260.314	261.94
260.547	264.94
260.779	238.94
261.012	254.94
261.244	240.94
261.477	230.94
261.71	220.94
261.942	229.94
262.175	251.94
262.407	221.94
262.64	224.94
262.872	229.94
263.105	234.94
263.337	226.94
263.57	242.94
263.802	205.94
264.035	219.94
264.267	213.94
264.499	229.94
264.732	235.94
264.964	230.94
265.197	216.94
265.429	234.94
265.661	232.94
265.894	250.94
266.126	226.94
266.358	220.94
266.591	225.94
266.823	234.94
267.055	248.94
267.287	245.94
267.52	230.94
267.752	218.94
267.984	232.94
268.216	241.94
268.448	238.94
268.681	249.94
268.913	263.94
269.145	280.94
269.377	300.94
269.609	282.94
269.841	290.94
270.073	292.94
270.306	306.94
270.538	334.94
270.77	318.94
271.002	321.94
271.234	321.94
271.466	300.94
271.698	330.94
271.93	316.94
272.162	321.94
272.394	324.94
272.626	319.94
272.858	303.94
273.09	294.94
273.322	297.94
273.553	310.94
273.785	302.94
274.017	282.94
274.249	295.94
274.481	284.94
274.713	266.94
274.945	279.94
275.176	255.94
275.408	280.94
275.64	285.94
275.872	264.94
276.104	304.94
276.335	285.94
276.567	267.94
276.799	295.94
277.031	314.94
277.262	339.94
277.494	332.94
277.726	318.94
277.957	285.94
278.189	284.94
278.421	294.94
278.652	290.94
278.884	284.94
279.115	299.94
279.347	288.94
279.579	277.94
279.81	302.94
280.042	284.94
280.273	282.94
280.505	276.94
280.736	300.94
280.968	279.94
281.199	290.94
281.431	297.94
281.662	297.94
281.894	292.94
282.125	293.94
282.356	302.94
282.588	319.94
282.819	317.94
283.051	291.94
283.282	292.94
283.513	292.94
283.745	309.94
283.976	296.94
284.207	296.94
284.439	319.94
284.67	292.94
284.901	304.94
285.132	301.94
285.364	313.94
285.595	315.94
285.826	299.94
286.057	309.94
286.288	303.94
286.52	310.94
286.751	308.94
286.982	302.94
287.213	298.94
287.444	300.94
287.675	298.94
287.906	327.94
288.138	341.94
288.369	314.94
288.6	322.94
288.831	317.94
289.062	311.94
289.293	340.94
289.524	333.94
289.755	310.94
289.986	310.94
290.217	309.94
290.448	316.94
290.679	295.94
290.91	318.94
291.141	318.94
291.371	315.94
291.602	326.94
291.833	310.94
292.064	326.94
292.295	333.94
292.526	318.94
292.757	312.94
292.987	319.94
293.218	307.94
293.449	318.94
293.68	319.94
293.91	329.94
294.141	312.94
294.372	324.94
294.603	322.94
294.833	317.94
295.064	316.94
295.295	302.94
295.525	325.94
295.756	319.94
295.987	340.94
296.217	357.94
296.448	368.94
296.679	315.94
296.909	309.94
297.14	323.94
297.37	331.94
297.601	340.94
297.831	324.94
298.062	319.94
298.292	343.94
298.523	332.94
298.753	353.94
298.984	325.94
299.214	344.94
299.445	328.94
299.675	363.94
299.905	333.94
300.136	337.94
300.366	345.94
300.597	333.94
300.827	361.94
301.057	337.94
301.288	367.94
301.518	342.94
301.748	359.94
301.979	372.94
302.209	350.94
302.439	378.94
302.669	355.94
302.9	351.94
303.13	346.94
303.36	339.94
303.59	361.94
303.82	371.94
304.051	359.94
304.281	350.94
304.511	358.94
304.741	354.94
304.971	358.94
305.201	356.94
305.431	349.94
305.661	347.94
305.891	356.94
306.121	361.94
306.352	351.94
306.582	363.94
306.812	368.94
307.042	364.94
307.272	349.94
307.502	355.94
307.731	373.94
307.961	376.94
308.191	361.94
308.421	365.94
308.651	351.94
308.881	356.94
309.111	373.94
309.341	366.94
309.571	381.94
309.8	383.94
310.03	398.94
310.26	392.94
310.49	375.94
310.72	401.94
310.949	390.94
311.179	417.94
311.409	390.94
311.639	388.94
311.868	391.94
312.098	395.94
312.328	398.94
312.557	406.94
312.787	413.94
313.017	428.94
313.246	406.94
313.476	398.94
313.706	407.94
313.935	406.94
314.165	407.94
314.394	444.94
314.624	400.94
314.853	428.94
315.083	414.94
315.312	399.94
315.542	423.94
315.771	399.94
316.001	399.94
316.23	407.94
316.46	388.94
316.689	397.94
316.919	404.94
317.148	416.94
317.377	405.94
317.607	401.94
317.836	419.94
318.065	404.94
318.295	408.94
318.524	399.94
318.753	406.94
318.983	382.94
319.212	399.94
319.441	407.94
319.67	406.94
319.9	422.94
320.129	404.94
320.358	428.94
320.587	424.94
320.816	415.94
321.046	423.94
321.275	404.94
321.504	399.94
321.733	416.94
321.962	421.94
322.191	430.94
322.42	448.94
322.649	454.94
322.878	452.94
323.108	472.94
323.337	469.94
323.566	490.94
323.795	519.94
324.024	536.94
324.253	643.94
324.482	874.94
324.71	1382.94
324.939	2042.94
325.168	1756.94
325.397	894.94
325.626	618.94
325.855	525.94
326.084	515.94
326.313	495.94
326.542	513.94
326.77	564.94
326.999	622.94
327.228	807.94
327.457	1210.94
327.686	1571.94
327.914	1037.94
328.143	680.94
328.372	606.94
328.6	587.94
328.829	572.94
329.058	561.94
329.287	555.94
329.515	544.94
329.744	500.94
329.972	522.94
330.201	536.94
330.43	562.94
330.658	582.94
330.887	595.94
331.115	588.94
331.344	534.94
331.572	520.94
331.801	489.94
332.03	526.94
332.258	518.94
332.486	480.94
332.715	468.94
332.943	493.94
333.172	495.94
333.4	507.94
333.629	521.94
333.857	536.94
334.085	537.94
334.314	543.94
334.542	568.94
334.771	571.94
334.999	521.94
335.227	519.94
335.455	483.94
335.684	490.94
335.912	470.94
336.14	458.94
336.369	475.94
336.597	472.94
336.825	486.94
337.053	482.94
337.281	467.94
337.51	463.94
337.738	465.94
337.966	466.94
338.194	469.94
338.422	474.94
338.65	455.94
338.878	454.94
339.106	428.94
339.334	467.94
339.562	436.94
339.79	442.94
340.018	459.94
340.246	465.94
340.474	465.94
340.702	458.94
340.93	446.94
341.158	437.94
341.386	443.94
341.614	459.94
341.842	443.94
342.07	446.94
342.298	469.94
342.526	427.94
342.754	440.94
342.981	424.94
343.209	444.94
343.437	468.94
343.665	469.94
343.893	477.94
344.12	460.94
344.348	482.94
344.576	486.94
344.804	476.94
345.031	447.94
345.259	469.94
345.487	474.94
345.714	462.94
345.942	445.94
346.17	439.94
346.397	449.94
346.625	426.94
346.853	436.94
347.08	450.94
347.308	450.94
347.535	458.94
347.763	449.94
347.99	452.94
348.218	451.94
348.445	433.94
348.673	428.94
348.9	427.94
349.128	436.94
349.355	436.94
349.583	410.94
349.81	424.94
350.037	429.94
350.265	412.94
350.492	426.94
350.72	431.94
350.947	415.94
351.174	440.94
351.402	439.94
351.629	445.94
351.856	447.94
352.083	455.94
352.311	455.94
352.538	462.94
352.765	434.94
352.992	446.94
353.22	437.94
353.447	450.94
353.674	434.94
353.901	431.94
354.128	406.94
354.355	396.94
354.583	410.94
354.81	434.94
355.037	415.94
355.264	392.94
355.491	402.94
355.718	406.94
355.945	417.94
356.172	406.94
356.399	428.94
356.626	411.94
356.853	408.94
357.08	418.94
357.307	422.94
357.534	430.94
357.761	414.94
357.988	427.94
358.215	411.94
358.441	395.94
358.668	412.94
358.895	428.94
359.122	413.94
359.349	438.94
359.576	451.94
359.802	446.94
360.029	473.94
360.256	478.94
360.483	465.94
360.709	428.94
360.936	436.94
361.163	408.94
361.39	444.94
361.616	443.94
361.843	449.94
362.07	423.94
362.296	455.94
362.523	436.94
362.749	454.94
362.976	418.94
363.203	430.94
363.429	430.94
363.656	430.94
363.882	425.94
364.109	431.94
364.335	440.94
364.562	416.94
364.788	401.94
365.015	418.94
365.241	414.94
365.468	411.94
365.694	438.94
365.92	421.94
366.147	418.94
366.373	430.94
366.599	442.94
366.826	426.94
367.052	413.94
367.278	440.94
367.505	406.94
367.731	420.94
367.957	415.94
368.184	417.94
368.41	442.94
368.636	429.94
368.862	451.94
369.089	459.94
369.315	418.94
369.541	410.94
369.767	432.94
369.993	407.94
370.219	435.94
370.445	430.94
370.672	414.94
370.898	427.94
371.124	415.94
371.35	439.94
371.576	421.94
371.802	430.94
372.028	429.94
372.254	430.94
372.48	431.94
372.706	439.94
372.932	437.94
373.158	451.94
373.384	430.94
373.61	412.94
373.835	428.94
374.061	407.94
374.287	421.94
374.513	460.94
374.739	459.94
374.965	449.94
375.191	440.94
375.416	438.94
375.642	431.94
375.868	441.94
376.094	425.94
376.319	441.94
376.545	446.94
376.771	424.94
376.997	453.94
377.222	428.94
377.448	422.94
377.674	435.94
377.899	420.94
378.125	424.94
378.35	423.94
378.576	431.94
378.802	418.94
379.027	428.94
379.253	419.94
379.478	431.94
379.704	429.94
379.929	430.94
380.155	422.94
380.38	432.94
380.606	442.94
380.831	406.94
381.057	449.94
381.282	422.94
381.507	456.94
381.733	447.94
381.958	429.94
382.184	437.94
382.409	423.94
382.634	454.94
382.86	458.94
383.085	428.94
383.31	451.94
383.535	442.94
383.761	443.94
383.986	437.94
384.211	441.94
384.436	442.94
384.662	456.94
384.887	461.94
385.112	464.94
385.337	476.94
385.562	453.94
385.787	457.94
386.013	508.94
386.238	477.94
386.463	514.94
386.688	494.94
386.913	478.94
387.138	462.94
387.363	483.94
387.588	470.94
387.813	480.94
388.038	478.94
388.263	466.94
388.488	472.94
388.713	467.94
388.938	484.94
389.163	480.94
389.387	484.94
389.612	474.94
389.837	483.94
390.062	476.94
390.287	465.94
390.512	470.94
390.736	474.94
390.961	482.94
391.186	498.94
391.411	514.94
391.636	478.94
391.86	507.94
392.085	493.94
392.31	495.94
392.534	489.94
392.759	506.94
392.984	474.94
393.208	496.94
393.433	473.94
393.658	463.94
393.882	455.94
394.107	485.94
394.331	485.94
394.556	483.94
394.78	489.94
395.005	471.94
395.229	473.94
395.454	499.94
395.678	499.94
395.903	502.94
396.127	520.94
396.352	534.94
396.576	503.94
396.801	499.94
397.025	495.94
397.249	495.94
397.474	525.94
397.698	504.94
397.922	530.94
398.147	523.94
398.371	540.94
398.595	548.94
398.82	550.94
399.044	570.94
399.268	581.94
399.492	631.94
399.717	657.94
399.941	700.94
400.165	702.94
400.389	711.94
400.613	623.94
400.837	604.94
401.062	572.94
401.286	550.94
401.51	552.94
401.734	547.94
401.958	556.94
402.182	553.94
402.406	572.94
402.63	556.94
402.854	565.94
403.078	567.94
403.302	547.94
403.526	585.94
403.75	558.94
403.974	540.94
404.198	554.94
404.422	580.94
404.645	576.94
404.869	588.94
405.093	636.94
405.317	698.94
405.541	688.94
405.765	653.94
405.988	604.94
406.212	598.94
406.436	628.94
406.66	644.94
406.883	628.94
407.107	669.94
407.331	685.94
407.555	743.94
407.778	741.94
408.002	684.94
408.226	641.94
408.449	648.94
408.673	644.94
408.896	650.94
409.12	711.94
409.344	684.94
409.567	597.94
409.791	598.94
410.014	571.94
410.238	581.94
410.461	571.94
410.685	569.94
410.908	591.94
411.132	642.94
411.355	632.94
411.578	629.94
411.802	581.94
412.025	563.94
412.249	572.94
412.472	602.94
412.695	635.94
412.919	627.94
413.142	583.94
413.365	551.94
413.589	560.94
413.812	557.94
414.035	547.94
414.258	537.94
414.482	526.94
414.705	545.94
414.928	563.94
415.151	575.94
415.374	541.94
415.597	543.94
415.821	517.94
416.044	552.94
416.267	556.94
416.49	548.94
416.713	526.94
416.936	539.94
417.159	536.94
417.382	543.94
417.605	547.94
417.828	549.94
418.051	540.94
418.274	571.94
418.497	538.94
418.72	567.94
418.943	520.94
419.166	554.94
419.389	588.94
419.611	591.94
419.834	592.94
420.057	587.94
420.28	551.94
420.503	561.94
420.726	555.94
420.948	575.94
421.171	591.94
421.394	654.94
421.617	588.94
421.839	577.94
422.062	568.94
422.285	575.94
422.507	632.94
422.73	720.94
422.953	680.94
423.175	615.94
423.398	575.94
423.621	567.94
423.843	610.94
424.066	611.94
424.288	615.94
424.511	607.94
424.733	667.94
424.956	774.94
425.178	718.94
425.401	707.94
425.623	722.94
425.846	629.94
426.068	595.94
426.291	599.94
426.513	601.94
426.735	614.94
426.958	656.94
427.18	725.94
427.402	858.94
427.625	944.94
427.847	802.94
428.069	711.94
428.292	638.94
428.514	576.94
428.736	584.94
428.958	568.94
429.181	546.94
429.403	544.94
429.625	572.94
429.847	598.94
430.069	642.94
430.292	653.94
430.514	577.94
430.736	556.94
430.958	540.94
431.18	525.94
431.402	517.94
431.624	542.94
431.846	525.94
432.068	520.94
432.29	529.94
432.512	513.94
432.734	525.94
432.956	540.94
433.178	526.94
433.4	552.94
433.622	542.94
433.844	543.94
434.066	533.94
434.287	527.94
434.509	527.94
434.731	540.94
434.953	542.94
435.175	557.94
435.397	591.94
435.618	583.94
435.84	618.94
436.062	721.94
436.284	818.94
436.505	661.94
436.727	602.94
436.949	532.94
437.17	570.94
437.392	557.94
437.614	560.94
437.835	592.94
438.057	687.94
438.278	771.94
438.5	812.94
438.721	871.94
438.943	851.94
439.165	672.94
439.386	590.94
439.608	568.94
439.829	599.94
440.05	616.94
440.272	688.94
440.493	614.94
440.715	600.94
440.936	583.94
441.158	562.94
441.379	563.94
441.6	562.94
441.822	576.94
442.043	615.94
442.264	709.94
442.486	772.94
442.707	653.94
442.928	636.94
443.149	626.94
443.371	645.94
443.592	696.94
443.813	797.94
444.034	857.94
444.255	711.94
444.476	632.94
444.698	611.94
444.919	621.94
445.14	712.94
445.361	692.94
445.582	638.94
445.803	711.94
446.024	824.94
446.245	820.94
446.466	741.94
446.687	622.94
446.908	592.94
447.129	556.94
447.35	552.94
447.571	542.94
447.792	533.94
448.013	538.94
448.234	563.94
448.455	605.94
448.675	726.94
448.896	846.94
449.117	740.94
449.338	666.94
449.559	779.94
449.779	898.94
450	707.94
450.221	594.94
450.442	558.94
450.662	518.94
450.883	523.94
451.104	549.94
451.324	531.94
451.545	503.94
451.766	512.94
451.986	498.94
452.207	466.94
452.428	483.94
452.648	493.94
452.869	478.94
453.089	478.94
453.31	504.94
453.53	486.94
453.751	498.94
453.971	491.94
454.192	497.94
454.412	472.94
454.633	499.94
454.853	488.94
455.073	474.94
455.294	495.94
455.514	569.94
455.734	566.94
455.955	478.94
456.175	485.94
456.395	463.94
456.616	456.94
456.836	462.94
457.056	458.94
457.276	440.94
457.497	461.94
457.717	455.94
457.937	461.94
458.157	456.94
458.377	486.94
458.598	495.94
458.818	517.94
459.038	608.94
459.258	642.94
459.478	570.94
459.698	527.94
459.918	503.94
460.138	526.94
460.358	536.94
460.578	552.94
460.798	532.94
461.018	536.94
461.238	526.94
461.458	542.94
461.678	535.94
461.898	556.94
462.118	539.94
462.338	545.94
462.558	563.94
462.777	588.94
462.997	608.94
463.217	627.94
463.437	614.94
463.657	616.94
463.876	591.94
464.096	599.94
464.316	592.94
464.536	606.94
464.755	554.94
464.975	586.94
465.195	606.94
465.414	670.94
465.634	590.94
465.854	558.94
466.073	517.94
466.293	527.94
466.512	516.94
466.732	516.94
466.951	522.94
467.171	502.94
467.391	501.94
467.61	506.94
467.829	514.94
468.049	513.94
468.268	503.94
468.488	490.94
468.707	491.94
468.927	515.94
469.146	471.94
469.365	470.94
469.585	488.94
469.804	499.94
470.023	525.94
470.243	504.94
470.462	517.94
470.681	540.94
470.901	526.94
471.12	501.94
471.339	501.94
471.558	527.94
471.777	506.94
471.997	490.94
472.216	503.94
472.435	527.94
472.654	500.94
472.873	493.94
473.092	502.94
473.311	499.94
473.53	502.94
473.749	530.94
473.968	569.94
474.187	631.94
474.406	660.94
474.625	560.94
474.844	522.94
475.063	507.94
475.282	513.94
475.501	527.94
475.72	512.94
475.939	528.94
476.158	526.94
476.377	523.94
476.596	505.94
476.814	559.94
477.033	546.94
477.252	541.94
477.471	540.94
477.69	548.94
477.908	554.94
478.127	550.94
478.346	546.94
478.564	576.94
478.783	564.94
479.002	583.94
479.22	609.94
479.439	591.94
479.658	619.94
479.876	606.94
480.095	611.94
480.313	650.94
480.532	653.94
480.751	641.94
480.969	634.94
481.188	676.94
481.406	710.94
481.624	618.94
481.843	613.94
482.061	590.94
482.28	584.94
482.498	584.94
482.717	579.94
482.935	589.94
483.153	589.94
483.372	586.94
483.59	588.94
483.808	586.94
484.027	597.94
484.245	593.94
484.463	594.94
484.681	616.94
484.9	607.94
485.118	616.94
485.336	588.94
485.554	600.94
485.772	594.94
485.99	622.94
486.209	615.94
486.427	616.94
486.645	621.94
486.863	631.94
487.081	634.94
487.299	613.94
487.517	621.94
487.735	633.94
487.953	621.94
488.171	620.94
488.389	629.94
488.607	615.94
488.825	635.94
489.043	631.94
489.261	649.94
489.479	627.94
489.696	673.94
489.914	630.94
490.132	636.94
490.35	639.94
490.568	684.94
490.786	685.94
491.003	702.94
491.221	686.94
491.439	696.94
491.657	706.94
491.874	730.94
492.092	719.94
492.31	713.94
492.527	741.94
492.745	731.94
492.963	704.94
493.18	746.94
493.398	712.94
493.615	733.94
493.833	760.94
494.05	751.94
494.268	749.94
494.485	734.94
494.703	751.94
494.92	724.94
495.138	732.94
495.355	742.94
495.573	752.94
495.79	716.94
496.008	734.94
496.225	763.94
496.442	750.94
496.66	769.94
496.877	732.94
497.094	770.94
497.312	762.94
497.529	778.94
497.746	774.94
497.963	807.94
498.181	833.94
498.398	850.94
498.615	843.94
498.832	873.94
499.049	893.94
499.267	936.94
499.484	972.94
499.701	972.94
499.918	1040.94
500.135	1168.94
500.352	1166.94
500.569	1216.94
500.786	1194.94
501.003	1157.94
501.22	1123.94
501.437	1102.94
501.654	1031.94
