Data from 1976.PennyLincolnUp.Lamp.En5.5.200Scan.071719.P1.Changed Mount._HRD10591_16-01-53-862.txt Node
Date: Thu Jul 18 16:01:53 EDT 2019
User: cochatt
Spectrometer: HR+D1059
Trigger mode: 1
Integration Time (sec): 1.000000E-1
Scans to average: 1
Electric dark correction enabled: true
Nonlinearity correction enabled: false
Boxcar width: 0
XAxis mode: Wavelengths
Number of Pixels in Spectrum: 2048
>>>>>Begin Spectral Data<<<<<
223.165	-23.44
223.4	-23.44
223.635	-23.44
223.869	-17.44
224.104	-6.44
224.338	-20.44
224.573	-18.44
224.808	-10.44
225.042	-7.44
225.277	-1.44
225.511	-1.44
225.746	-4.44
225.98	12.56
226.215	13.56
226.449	14.56
226.683	26.56
226.918	19.56
227.152	24.56
227.387	29.56
227.621	35.56
227.856	46.56
228.09	37.56
228.324	55.56
228.559	65.56
228.793	64.56
229.027	102.56
229.262	118.56
229.496	115.56
229.73	141.56
229.964	146.56
230.199	151.56
230.433	123.56
230.667	109.56
230.901	106.56
231.136	99.56
231.37	122.56
231.604	126.56
231.838	118.56
232.072	127.56
232.306	108.56
232.541	123.56
232.775	125.56
233.009	117.56
233.243	117.56
233.477	121.56
233.711	141.56
233.945	133.56
234.179	137.56
234.413	120.56
234.647	137.56
234.881	133.56
235.115	124.56
235.349	128.56
235.583	135.56
235.817	127.56
236.051	131.56
236.285	134.56
236.519	121.56
236.753	136.56
236.987	142.56
237.221	173.56
237.455	241.56
237.689	202.56
237.922	151.56
238.156	139.56
238.39	143.56
238.624	142.56
238.858	135.56
239.091	122.56
239.325	125.56
239.559	136.56
239.793	141.56
240.027	157.56
240.26	151.56
240.494	158.56
240.728	159.56
240.961	159.56
241.195	173.56
241.429	151.56
241.662	145.56
241.896	143.56
242.13	137.56
242.363	154.56
242.597	128.56
242.83	141.56
243.064	145.56
243.298	146.56
243.531	153.56
243.765	145.56
243.998	144.56
244.232	161.56
244.465	161.56
244.699	137.56
244.932	151.56
245.166	153.56
245.399	141.56
245.633	151.56
245.866	157.56
246.099	164.56
246.333	160.56
246.566	161.56
246.8	157.56
247.033	167.56
247.266	170.56
247.5	183.56
247.733	183.56
247.966	190.56
248.2	200.56
248.433	168.56
248.666	174.56
248.899	197.56
249.133	193.56
249.366	228.56
249.599	207.56
249.832	193.56
250.066	208.56
250.299	199.56
250.532	206.56
250.765	224.56
250.998	223.56
251.231	229.56
251.465	237.56
251.698	212.56
251.931	217.56
252.164	204.56
252.397	207.56
252.63	213.56
252.863	220.56
253.096	219.56
253.329	233.56
253.562	221.56
253.795	238.56
254.028	236.56
254.261	239.56
254.494	232.56
254.727	280.56
254.96	297.56
255.193	289.56
255.426	263.56
255.659	252.56
255.892	256.56
256.124	263.56
256.357	233.56
256.59	234.56
256.823	235.56
257.056	218.56
257.289	242.56
257.521	231.56
257.754	213.56
257.987	215.56
258.22	212.56
258.452	232.56
258.685	218.56
258.918	224.56
259.151	223.56
259.383	229.56
259.616	237.56
259.849	236.56
260.081	254.56
260.314	277.56
260.547	287.56
260.779	278.56
261.012	260.56
261.244	237.56
261.477	240.56
261.71	232.56
261.942	240.56
262.175	245.56
262.407	245.56
262.64	235.56
262.872	236.56
263.105	211.56
263.337	236.56
263.57	222.56
263.802	231.56
264.035	236.56
264.267	249.56
264.499	211.56
264.732	236.56
264.964	233.56
265.197	238.56
265.429	225.56
265.661	248.56
265.894	261.56
266.126	239.56
266.358	242.56
266.591	245.56
266.823	252.56
267.055	249.56
267.287	264.56
267.52	262.56
267.752	259.56
267.984	256.56
268.216	276.56
268.448	254.56
268.681	259.56
268.913	269.56
269.145	295.56
269.377	289.56
269.609	304.56
269.841	275.56
270.073	306.56
270.306	320.56
270.538	331.56
270.77	349.56
271.002	348.56
271.234	313.56
271.466	340.56
271.698	337.56
271.93	351.56
272.162	339.56
272.394	350.56
272.626	332.56
272.858	297.56
273.09	315.56
273.322	301.56
273.553	293.56
273.785	278.56
274.017	298.56
274.249	299.56
274.481	301.56
274.713	289.56
274.945	305.56
275.176	292.56
275.408	307.56
275.64	293.56
275.872	305.56
276.104	284.56
276.335	292.56
276.567	304.56
276.799	317.56
277.031	321.56
277.262	335.56
277.494	354.56
277.726	331.56
277.957	331.56
278.189	313.56
278.421	291.56
278.652	293.56
278.884	292.56
279.115	301.56
279.347	295.56
279.579	299.56
279.81	279.56
280.042	290.56
280.273	301.56
280.505	306.56
280.736	302.56
280.968	282.56
281.199	296.56
281.431	297.56
281.662	298.56
281.894	296.56
282.125	309.56
282.356	323.56
282.588	339.56
282.819	323.56
283.051	298.56
283.282	309.56
283.513	328.56
283.745	315.56
283.976	323.56
284.207	332.56
284.439	332.56
284.67	327.56
284.901	316.56
285.132	305.56
285.364	311.56
285.595	310.56
285.826	317.56
286.057	331.56
286.288	321.56
286.52	315.56
286.751	327.56
286.982	327.56
287.213	327.56
287.444	335.56
287.675	328.56
287.906	320.56
288.138	369.56
288.369	328.56
288.6	354.56
288.831	354.56
289.062	323.56
289.293	341.56
289.524	323.56
289.755	318.56
289.986	335.56
290.217	318.56
290.448	331.56
290.679	323.56
290.91	322.56
291.141	325.56
291.371	311.56
291.602	325.56
291.833	326.56
292.064	331.56
292.295	319.56
292.526	335.56
292.757	346.56
292.987	342.56
293.218	326.56
293.449	332.56
293.68	333.56
293.91	327.56
294.141	337.56
294.372	315.56
294.603	330.56
294.833	328.56
295.064	330.56
295.295	333.56
295.525	343.56
295.756	327.56
295.987	329.56
296.217	358.56
296.448	355.56
296.679	336.56
296.909	330.56
297.14	340.56
297.37	344.56
297.601	341.56
297.831	353.56
298.062	321.56
298.292	317.56
298.523	334.56
298.753	347.56
298.984	333.56
299.214	350.56
299.445	347.56
299.675	353.56
299.905	339.56
300.136	363.56
300.366	351.56
300.597	342.56
300.827	355.56
301.057	376.56
301.288	367.56
301.518	364.56
301.748	366.56
301.979	373.56
302.209	385.56
302.439	373.56
302.669	362.56
302.9	373.56
303.13	365.56
303.36	380.56
303.59	357.56
303.82	375.56
304.051	382.56
304.281	382.56
304.511	380.56
304.741	344.56
304.971	375.56
305.201	366.56
305.431	393.56
305.661	362.56
305.891	368.56
306.121	357.56
306.352	386.56
306.582	368.56
306.812	345.56
307.042	383.56
307.272	381.56
307.502	360.56
307.731	386.56
307.961	381.56
308.191	389.56
308.421	370.56
308.651	377.56
308.881	385.56
309.111	391.56
309.341	399.56
309.571	379.56
309.8	389.56
310.03	405.56
310.26	407.56
310.49	410.56
310.72	416.56
310.949	442.56
311.179	427.56
311.409	426.56
311.639	416.56
311.868	425.56
312.098	398.56
312.328	407.56
312.557	445.56
312.787	433.56
313.017	427.56
313.246	412.56
313.476	419.56
313.706	414.56
313.935	422.56
314.165	416.56
314.394	441.56
314.624	437.56
314.853	421.56
315.083	434.56
315.312	421.56
315.542	428.56
315.771	414.56
316.001	414.56
316.23	400.56
316.46	430.56
316.689	413.56
316.919	412.56
317.148	433.56
317.377	430.56
317.607	429.56
317.836	409.56
318.065	422.56
318.295	421.56
318.524	405.56
318.753	409.56
318.983	400.56
319.212	399.56
319.441	400.56
319.67	446.56
319.9	437.56
320.129	415.56
320.358	413.56
320.587	423.56
320.816	449.56
321.046	422.56
321.275	424.56
321.504	425.56
321.733	457.56
321.962	433.56
322.191	461.56
322.42	459.56
322.649	470.56
322.878	479.56
323.108	488.56
323.337	518.56
323.566	505.56
323.795	521.56
324.024	550.56
324.253	683.56
324.482	922.56
324.71	1418.56
324.939	2061.56
325.168	1855.56
325.397	939.56
325.626	652.56
325.855	571.56
326.084	536.56
326.313	503.56
326.542	533.56
326.77	545.56
326.999	632.56
327.228	842.56
327.457	1269.56
327.686	1606.56
327.914	1061.56
328.143	695.56
328.372	610.56
328.6	576.56
328.829	568.56
329.058	578.56
329.287	584.56
329.515	545.56
329.744	540.56
329.972	512.56
330.201	541.56
330.43	558.56
330.658	603.56
330.887	623.56
331.115	616.56
331.344	552.56
331.572	530.56
331.801	527.56
332.03	510.56
332.258	522.56
332.486	497.56
332.715	498.56
332.943	506.56
333.172	505.56
333.4	528.56
333.629	541.56
333.857	519.56
334.085	552.56
334.314	545.56
334.542	576.56
334.771	600.56
334.999	540.56
335.227	532.56
335.455	518.56
335.684	486.56
335.912	513.56
336.14	490.56
336.369	517.56
336.597	494.56
336.825	523.56
337.053	498.56
337.281	461.56
337.51	482.56
337.738	466.56
337.966	482.56
338.194	481.56
338.422	487.56
338.65	497.56
338.878	476.56
339.106	458.56
339.334	447.56
339.562	473.56
339.79	471.56
340.018	469.56
340.246	469.56
340.474	477.56
340.702	471.56
340.93	462.56
341.158	463.56
341.386	468.56
341.614	462.56
341.842	466.56
342.07	459.56
342.298	458.56
342.526	459.56
342.754	443.56
342.981	457.56
343.209	473.56
343.437	473.56
343.665	495.56
343.893	496.56
344.12	498.56
344.348	489.56
344.576	513.56
344.804	519.56
345.031	480.56
345.259	487.56
345.487	477.56
345.714	452.56
345.942	464.56
346.17	459.56
346.397	452.56
346.625	467.56
346.853	464.56
347.08	465.56
347.308	453.56
347.535	460.56
347.763	450.56
347.99	457.56
348.218	439.56
348.445	460.56
348.673	462.56
348.9	454.56
349.128	452.56
349.355	449.56
349.583	421.56
349.81	436.56
350.037	436.56
350.265	438.56
350.492	437.56
350.72	443.56
350.947	463.56
351.174	481.56
351.402	476.56
351.629	432.56
351.856	465.56
352.083	431.56
352.311	461.56
352.538	460.56
352.765	457.56
352.992	456.56
353.22	437.56
353.447	450.56
353.674	439.56
353.901	428.56
354.128	421.56
354.355	431.56
354.583	401.56
354.81	422.56
355.037	440.56
355.264	428.56
355.491	409.56
355.718	426.56
355.945	435.56
356.172	443.56
356.399	427.56
356.626	441.56
356.853	408.56
357.08	438.56
357.307	434.56
357.534	432.56
357.761	416.56
357.988	437.56
358.215	424.56
358.441	431.56
358.668	435.56
358.895	441.56
359.122	445.56
359.349	446.56
359.576	462.56
359.802	466.56
360.029	485.56
360.256	503.56
360.483	477.56
360.709	480.56
360.936	453.56
361.163	444.56
361.39	463.56
361.616	467.56
361.843	454.56
362.07	470.56
362.296	462.56
362.523	450.56
362.749	452.56
362.976	446.56
363.203	437.56
363.429	449.56
363.656	460.56
363.882	425.56
364.109	432.56
364.335	442.56
364.562	444.56
364.788	458.56
365.015	453.56
365.241	446.56
365.468	453.56
365.694	445.56
365.92	442.56
366.147	424.56
366.373	411.56
366.599	437.56
366.826	409.56
367.052	446.56
367.278	427.56
367.505	439.56
367.731	458.56
367.957	441.56
368.184	445.56
368.41	450.56
368.636	466.56
368.862	475.56
369.089	443.56
369.315	448.56
369.541	447.56
369.767	429.56
369.993	450.56
370.219	441.56
370.445	428.56
370.672	453.56
370.898	444.56
371.124	445.56
371.35	445.56
371.576	425.56
371.802	427.56
372.028	422.56
372.254	443.56
372.48	443.56
372.706	430.56
372.932	459.56
373.158	446.56
373.384	458.56
373.61	438.56
373.835	459.56
374.061	461.56
374.287	473.56
374.513	452.56
374.739	445.56
374.965	470.56
375.191	446.56
375.416	474.56
375.642	449.56
375.868	457.56
376.094	437.56
376.319	445.56
376.545	457.56
376.771	450.56
376.997	442.56
377.222	436.56
377.448	445.56
377.674	428.56
377.899	419.56
378.125	425.56
378.35	451.56
378.576	426.56
378.802	443.56
379.027	430.56
379.253	434.56
379.478	439.56
379.704	453.56
379.929	453.56
380.155	458.56
380.38	434.56
380.606	446.56
380.831	418.56
381.057	437.56
381.282	436.56
381.507	450.56
381.733	445.56
381.958	461.56
382.184	456.56
382.409	455.56
382.634	459.56
382.86	432.56
383.085	449.56
383.31	473.56
383.535	463.56
383.761	459.56
383.986	474.56
384.211	481.56
384.436	455.56
384.662	483.56
384.887	476.56
385.112	477.56
385.337	476.56
385.562	477.56
385.787	495.56
386.013	503.56
386.238	496.56
386.463	492.56
386.688	485.56
386.913	475.56
387.138	480.56
387.363	481.56
387.588	479.56
387.813	495.56
388.038	493.56
388.263	495.56
388.488	489.56
388.713	463.56
388.938	495.56
389.163	501.56
389.387	504.56
389.612	504.56
389.837	494.56
390.062	466.56
390.287	518.56
390.512	496.56
390.736	485.56
390.961	483.56
391.186	494.56
391.411	509.56
391.636	492.56
391.86	511.56
392.085	503.56
392.31	507.56
392.534	502.56
392.759	504.56
392.984	488.56
393.208	504.56
393.433	471.56
393.658	480.56
393.882	500.56
394.107	490.56
394.331	495.56
394.556	517.56
394.78	500.56
395.005	480.56
395.229	497.56
395.454	526.56
395.678	499.56
395.903	536.56
396.127	552.56
396.352	537.56
396.576	517.56
396.801	506.56
397.025	507.56
397.249	497.56
397.474	523.56
397.698	535.56
397.922	547.56
398.147	550.56
398.371	584.56
398.595	561.56
398.82	574.56
399.044	588.56
399.268	603.56
399.492	649.56
399.717	693.56
399.941	718.56
400.165	743.56
400.389	701.56
400.613	678.56
400.837	594.56
401.062	590.56
401.286	591.56
401.51	565.56
401.734	569.56
401.958	581.56
402.182	564.56
402.406	588.56
402.63	601.56
402.854	593.56
403.078	588.56
403.302	597.56
403.526	607.56
403.75	603.56
403.974	611.56
404.198	593.56
404.422	586.56
404.645	581.56
404.869	607.56
405.093	632.56
405.317	661.56
405.541	710.56
405.765	670.56
405.988	649.56
406.212	658.56
406.436	643.56
406.66	672.56
406.883	657.56
407.107	662.56
407.331	714.56
407.555	815.56
407.778	805.56
408.002	737.56
408.226	686.56
408.449	658.56
408.673	666.56
408.896	686.56
409.12	711.56
409.344	683.56
409.567	628.56
409.791	611.56
410.014	598.56
410.238	606.56
410.461	607.56
410.685	624.56
410.908	626.56
411.132	647.56
411.355	697.56
411.578	645.56
411.802	605.56
412.025	582.56
412.249	592.56
412.472	617.56
412.695	661.56
412.919	671.56
413.142	609.56
413.365	605.56
413.589	589.56
413.812	578.56
414.035	593.56
414.258	584.56
414.482	545.56
414.705	557.56
414.928	557.56
415.151	577.56
415.374	554.56
415.597	543.56
415.821	548.56
416.044	556.56
416.267	576.56
416.49	581.56
416.713	552.56
416.936	558.56
417.159	565.56
417.382	567.56
417.605	566.56
417.828	579.56
418.051	577.56
418.274	578.56
418.497	552.56
418.72	571.56
418.943	554.56
419.166	582.56
419.389	592.56
419.611	607.56
419.834	593.56
420.057	609.56
420.28	596.56
420.503	588.56
420.726	586.56
420.948	603.56
421.171	641.56
421.394	651.56
421.617	600.56
421.839	575.56
422.062	595.56
422.285	614.56
422.507	662.56
422.73	726.56
422.953	712.56
423.175	631.56
423.398	595.56
423.621	619.56
423.843	629.56
424.066	633.56
424.288	629.56
424.511	633.56
424.733	702.56
424.956	779.56
425.178	745.56
425.401	766.56
425.623	768.56
425.846	664.56
426.068	615.56
426.291	638.56
426.513	609.56
426.735	619.56
426.958	658.56
427.18	749.56
427.402	897.56
427.625	985.56
427.847	843.56
428.069	721.56
428.292	673.56
428.514	610.56
428.736	559.56
428.958	574.56
429.181	569.56
429.403	544.56
429.625	556.56
429.847	595.56
430.069	661.56
430.292	651.56
430.514	593.56
430.736	552.56
430.958	545.56
431.18	530.56
431.402	552.56
431.624	541.56
431.846	518.56
432.068	537.56
432.29	549.56
432.512	547.56
432.734	561.56
432.956	547.56
433.178	568.56
433.4	567.56
433.622	531.56
433.844	544.56
434.066	551.56
434.287	537.56
434.509	550.56
434.731	548.56
434.953	577.56
435.175	584.56
435.397	585.56
435.618	597.56
435.84	668.56
436.062	757.56
436.284	849.56
436.505	671.56
436.727	629.56
436.949	566.56
437.17	562.56
437.392	565.56
437.614	583.56
437.835	611.56
438.057	708.56
438.278	789.56
438.5	828.56
438.721	889.56
438.943	879.56
439.165	705.56
439.386	618.56
439.608	626.56
439.829	592.56
440.05	640.56
440.272	673.56
440.493	663.56
440.715	609.56
440.936	571.56
441.158	574.56
441.379	602.56
441.6	600.56
441.822	626.56
442.043	655.56
442.264	766.56
442.486	797.56
442.707	679.56
442.928	655.56
443.149	625.56
443.371	666.56
443.592	703.56
443.813	784.56
444.034	859.56
444.255	735.56
444.476	643.56
444.698	626.56
444.919	661.56
445.14	752.56
445.361	721.56
445.582	662.56
445.803	730.56
446.024	838.56
446.245	827.56
446.466	798.56
446.687	659.56
446.908	627.56
447.129	592.56
447.35	581.56
447.571	559.56
447.792	567.56
448.013	561.56
448.234	602.56
448.455	657.56
448.675	748.56
448.896	863.56
449.117	742.56
449.338	678.56
449.559	807.56
449.779	907.56
450	737.56
450.221	602.56
450.442	574.56
450.662	567.56
450.883	552.56
451.104	563.56
451.324	552.56
451.545	535.56
451.766	523.56
451.986	519.56
452.207	504.56
452.428	512.56
452.648	507.56
452.869	520.56
453.089	520.56
453.31	505.56
453.53	504.56
453.751	509.56
453.971	504.56
454.192	522.56
454.412	499.56
454.633	490.56
454.853	492.56
455.073	483.56
455.294	527.56
455.514	593.56
455.734	607.56
455.955	522.56
456.175	487.56
456.395	474.56
456.616	463.56
456.836	472.56
457.056	486.56
457.276	466.56
457.497	462.56
457.717	474.56
457.937	485.56
458.157	483.56
458.377	493.56
458.598	521.56
458.818	567.56
459.038	642.56
459.258	663.56
459.478	575.56
459.698	537.56
459.918	534.56
460.138	544.56
460.358	555.56
460.578	559.56
460.798	558.56
461.018	547.56
461.238	560.56
461.458	556.56
461.678	580.56
461.898	565.56
462.118	571.56
462.338	573.56
462.558	598.56
462.777	569.56
462.997	621.56
463.217	642.56
463.437	651.56
463.657	604.56
463.876	606.56
464.096	597.56
464.316	605.56
464.536	638.56
464.755	597.56
464.975	607.56
465.195	600.56
465.414	689.56
465.634	589.56
465.854	591.56
466.073	549.56
466.293	530.56
466.512	536.56
466.732	507.56
466.951	528.56
467.171	532.56
467.391	536.56
467.61	515.56
467.829	528.56
468.049	529.56
468.268	514.56
468.488	511.56
468.707	490.56
468.927	515.56
469.146	482.56
469.365	493.56
469.585	525.56
469.804	528.56
470.023	522.56
470.243	535.56
470.462	503.56
470.681	538.56
470.901	535.56
471.12	530.56
471.339	532.56
471.558	541.56
471.777	549.56
471.997	520.56
472.216	530.56
472.435	553.56
472.654	528.56
472.873	537.56
473.092	542.56
473.311	517.56
473.53	539.56
473.749	524.56
473.968	572.56
474.187	682.56
474.406	675.56
474.625	611.56
474.844	506.56
475.063	507.56
475.282	521.56
475.501	530.56
475.72	528.56
475.939	533.56
476.158	535.56
476.377	526.56
476.596	531.56
476.814	554.56
477.033	535.56
477.252	565.56
477.471	553.56
477.69	573.56
477.908	579.56
478.127	573.56
478.346	577.56
478.564	580.56
478.783	576.56
479.002	592.56
479.22	594.56
479.439	607.56
479.658	627.56
479.876	631.56
480.095	612.56
480.313	674.56
480.532	659.56
480.751	634.56
480.969	671.56
481.188	685.56
481.406	682.56
481.624	638.56
481.843	616.56
482.061	624.56
482.28	591.56
482.498	604.56
482.717	607.56
482.935	615.56
483.153	631.56
483.372	609.56
483.59	619.56
483.808	618.56
484.027	607.56
484.245	592.56
484.463	617.56
484.681	620.56
484.9	618.56
485.118	594.56
485.336	612.56
485.554	628.56
485.772	634.56
485.99	643.56
486.209	636.56
486.427	642.56
486.645	631.56
486.863	645.56
487.081	641.56
487.299	653.56
487.517	673.56
487.735	665.56
487.953	663.56
488.171	649.56
488.389	642.56
488.607	664.56
488.825	671.56
489.043	646.56
489.261	632.56
489.479	667.56
489.696	652.56
489.914	665.56
490.132	675.56
490.35	675.56
490.568	688.56
490.786	699.56
491.003	702.56
491.221	704.56
491.439	680.56
491.657	738.56
491.874	720.56
492.092	725.56
492.31	736.56
492.527	738.56
492.745	765.56
492.963	757.56
493.18	730.56
493.398	775.56
493.615	747.56
493.833	751.56
494.05	769.56
494.268	738.56
494.485	767.56
494.703	754.56
494.92	780.56
495.138	766.56
495.355	787.56
495.573	760.56
495.79	771.56
496.008	789.56
496.225	791.56
496.442	764.56
496.66	776.56
496.877	803.56
497.094	784.56
497.312	784.56
497.529	807.56
497.746	819.56
497.963	833.56
498.181	842.56
498.398	865.56
498.615	890.56
498.832	897.56
499.049	923.56
499.267	928.56
499.484	998.56
499.701	1055.56
499.918	1080.56
500.135	1117.56
500.352	1197.56
500.569	1233.56
500.786	1221.56
501.003	1192.56
501.22	1152.56
501.437	1096.56
501.654	1053.56
