Data from 1976.PennyLincolnUp.Lamp.En5.5.200Scan.071719.P1.Changed Mount._HRD10591_15-59-24-860.txt Node
Date: Thu Jul 18 15:59:24 EDT 2019
User: cochatt
Spectrometer: HR+D1059
Trigger mode: 1
Integration Time (sec): 1.000000E-1
Scans to average: 1
Electric dark correction enabled: true
Nonlinearity correction enabled: false
Boxcar width: 0
XAxis mode: Wavelengths
Number of Pixels in Spectrum: 2048
>>>>>Begin Spectral Data<<<<<
223.165	-7.38
223.4	-7.38
223.635	-7.38
223.869	-22.38
224.104	-25.38
224.338	-0.38
224.573	-14.38
224.808	-28.38
225.042	-6.38
225.277	-2.38
225.511	4.62
225.746	-2.38
225.98	4.62
226.215	12.62
226.449	13.62
226.683	21.62
226.918	15.62
227.152	36.62
227.387	43.62
227.621	31.62
227.856	47.62
228.09	46.62
228.324	54.62
228.559	57.62
228.793	80.62
229.027	92.62
229.262	114.62
229.496	105.62
229.73	131.62
229.964	155.62
230.199	123.62
230.433	117.62
230.667	104.62
230.901	120.62
231.136	104.62
231.37	116.62
231.604	123.62
231.838	122.62
232.072	107.62
232.306	114.62
232.541	111.62
232.775	107.62
233.009	109.62
233.243	114.62
233.477	104.62
233.711	116.62
233.945	118.62
234.179	99.62
234.413	121.62
234.647	131.62
234.881	96.62
235.115	109.62
235.349	105.62
235.583	116.62
235.817	117.62
236.051	114.62
236.285	130.62
236.519	122.62
236.753	125.62
236.987	152.62
237.221	183.62
237.455	215.62
237.689	185.62
237.922	135.62
238.156	120.62
238.39	132.62
238.624	134.62
238.858	124.62
239.091	130.62
239.325	138.62
239.559	119.62
239.793	136.62
240.027	139.62
240.26	138.62
240.494	156.62
240.728	149.62
240.961	162.62
241.195	155.62
241.429	139.62
241.662	121.62
241.896	139.62
242.13	135.62
242.363	134.62
242.597	123.62
242.83	150.62
243.064	123.62
243.298	132.62
243.531	132.62
243.765	143.62
243.998	150.62
244.232	133.62
244.465	141.62
244.699	141.62
244.932	144.62
245.166	157.62
245.399	133.62
245.633	139.62
245.866	156.62
246.099	154.62
246.333	156.62
246.566	134.62
246.8	163.62
247.033	150.62
247.266	150.62
247.5	160.62
247.733	168.62
247.966	174.62
248.2	181.62
248.433	179.62
248.666	182.62
248.899	188.62
249.133	194.62
249.366	200.62
249.599	200.62
249.832	181.62
250.066	185.62
250.299	179.62
250.532	189.62
250.765	198.62
250.998	205.62
251.231	231.62
251.465	191.62
251.698	199.62
251.931	187.62
252.164	195.62
252.397	179.62
252.63	192.62
252.863	202.62
253.096	200.62
253.329	216.62
253.562	198.62
253.795	206.62
254.028	209.62
254.261	199.62
254.494	214.62
254.727	237.62
254.96	264.62
255.193	258.62
255.426	227.62
255.659	229.62
255.892	235.62
256.124	229.62
256.357	232.62
256.59	228.62
256.823	218.62
257.056	216.62
257.289	212.62
257.521	215.62
257.754	190.62
257.987	200.62
258.22	211.62
258.452	205.62
258.685	212.62
258.918	198.62
259.151	217.62
259.383	198.62
259.616	223.62
259.849	230.62
260.081	223.62
260.314	235.62
260.547	242.62
260.779	240.62
261.012	234.62
261.244	234.62
261.477	236.62
261.71	206.62
261.942	237.62
262.175	252.62
262.407	250.62
262.64	213.62
262.872	222.62
263.105	218.62
263.337	202.62
263.57	209.62
263.802	226.62
264.035	233.62
264.267	200.62
264.499	202.62
264.732	221.62
264.964	210.62
265.197	215.62
265.429	222.62
265.661	208.62
265.894	203.62
266.126	222.62
266.358	234.62
266.591	209.62
266.823	224.62
267.055	224.62
267.287	222.62
267.52	233.62
267.752	233.62
267.984	232.62
268.216	227.62
268.448	222.62
268.681	248.62
268.913	247.62
269.145	246.62
269.377	272.62
269.609	258.62
269.841	252.62
270.073	270.62
270.306	296.62
270.538	317.62
270.77	317.62
271.002	300.62
271.234	306.62
271.466	272.62
271.698	301.62
271.93	308.62
272.162	301.62
272.394	306.62
272.626	292.62
272.858	291.62
273.09	262.62
273.322	279.62
273.553	267.62
273.785	262.62
274.017	270.62
274.249	271.62
274.481	276.62
274.713	265.62
274.945	252.62
275.176	262.62
275.408	288.62
275.64	283.62
275.872	281.62
276.104	284.62
276.335	284.62
276.567	275.62
276.799	287.62
277.031	313.62
277.262	316.62
277.494	312.62
277.726	302.62
277.957	300.62
278.189	266.62
278.421	269.62
278.652	276.62
278.884	286.62
279.115	297.62
279.347	282.62
279.579	290.62
279.81	312.62
280.042	296.62
280.273	303.62
280.505	304.62
280.736	290.62
280.968	264.62
281.199	270.62
281.431	286.62
281.662	282.62
281.894	285.62
282.125	268.62
282.356	286.62
282.588	326.62
282.819	311.62
283.051	300.62
283.282	287.62
283.513	292.62
283.745	269.62
283.976	294.62
284.207	281.62
284.439	307.62
284.67	289.62
284.901	299.62
285.132	293.62
285.364	296.62
285.595	316.62
285.826	298.62
286.057	300.62
286.288	286.62
286.52	278.62
286.751	286.62
286.982	298.62
287.213	275.62
287.444	307.62
287.675	299.62
287.906	309.62
288.138	299.62
288.369	318.62
288.6	338.62
288.831	300.62
289.062	317.62
289.293	292.62
289.524	291.62
289.755	301.62
289.986	299.62
290.217	318.62
290.448	291.62
290.679	274.62
290.91	306.62
291.141	286.62
291.371	296.62
291.602	295.62
291.833	287.62
292.064	297.62
292.295	292.62
292.526	315.62
292.757	306.62
292.987	300.62
293.218	282.62
293.449	310.62
293.68	323.62
293.91	316.62
294.141	318.62
294.372	287.62
294.603	295.62
294.833	300.62
295.064	295.62
295.295	306.62
295.525	312.62
295.756	298.62
295.987	312.62
296.217	329.62
296.448	351.62
296.679	331.62
296.909	295.62
297.14	307.62
297.37	292.62
297.601	315.62
297.831	318.62
298.062	319.62
298.292	322.62
298.523	332.62
298.753	324.62
298.984	310.62
299.214	322.62
299.445	334.62
299.675	322.62
299.905	319.62
300.136	306.62
300.366	308.62
300.597	324.62
300.827	320.62
301.057	344.62
301.288	345.62
301.518	340.62
301.748	335.62
301.979	348.62
302.209	345.62
302.439	339.62
302.669	359.62
302.9	339.62
303.13	335.62
303.36	331.62
303.59	343.62
303.82	357.62
304.051	349.62
304.281	343.62
304.511	339.62
304.741	327.62
304.971	329.62
305.201	329.62
305.431	340.62
305.661	343.62
305.891	340.62
306.121	329.62
306.352	338.62
306.582	353.62
306.812	331.62
307.042	344.62
307.272	342.62
307.502	355.62
307.731	349.62
307.961	324.62
308.191	347.62
308.421	334.62
308.651	349.62
308.881	334.62
309.111	351.62
309.341	354.62
309.571	370.62
309.8	364.62
310.03	382.62
310.26	378.62
310.49	371.62
310.72	378.62
310.949	403.62
311.179	426.62
311.409	396.62
311.639	379.62
311.868	381.62
312.098	393.62
312.328	393.62
312.557	398.62
312.787	435.62
313.017	430.62
313.246	410.62
313.476	389.62
313.706	394.62
313.935	401.62
314.165	397.62
314.394	416.62
314.624	415.62
314.853	396.62
315.083	380.62
315.312	390.62
315.542	386.62
315.771	381.62
316.001	378.62
316.23	371.62
316.46	381.62
316.689	386.62
316.919	391.62
317.148	400.62
317.377	386.62
317.607	410.62
317.836	386.62
318.065	396.62
318.295	394.62
318.524	408.62
318.753	386.62
318.983	378.62
319.212	393.62
319.441	400.62
319.67	417.62
319.9	395.62
320.129	378.62
320.358	381.62
320.587	388.62
320.816	412.62
321.046	401.62
321.275	404.62
321.504	417.62
321.733	424.62
321.962	415.62
322.191	454.62
322.42	461.62
322.649	477.62
322.878	469.62
323.108	500.62
323.337	519.62
323.566	525.62
323.795	583.62
324.024	624.62
324.253	759.62
324.482	1144.62
324.71	1909.62
324.939	2844.62
325.168	2472.62
325.397	1141.62
325.626	735.62
325.855	607.62
326.084	537.62
326.313	519.62
326.542	516.62
326.77	599.62
326.999	736.62
327.228	1051.62
327.457	1676.62
327.686	2190.62
327.914	1373.62
328.143	814.62
328.372	698.62
328.6	630.62
328.829	599.62
329.058	606.62
329.287	631.62
329.515	569.62
329.744	534.62
329.972	549.62
330.201	564.62
330.43	614.62
330.658	668.62
330.887	676.62
331.115	638.62
331.344	555.62
331.572	529.62
331.801	523.62
332.03	512.62
332.258	487.62
332.486	487.62
332.715	462.62
332.943	477.62
333.172	468.62
333.4	483.62
333.629	485.62
333.857	524.62
334.085	532.62
334.314	568.62
334.542	637.62
334.771	670.62
334.999	551.62
335.227	510.62
335.455	475.62
335.684	498.62
335.912	457.62
336.14	475.62
336.369	471.62
336.597	476.62
336.825	449.62
337.053	453.62
337.281	459.62
337.51	451.62
337.738	463.62
337.966	460.62
338.194	474.62
338.422	452.62
338.65	474.62
338.878	452.62
339.106	449.62
339.334	446.62
339.562	439.62
339.79	426.62
340.018	427.62
340.246	440.62
340.474	442.62
340.702	463.62
340.93	451.62
341.158	420.62
341.386	455.62
341.614	450.62
341.842	444.62
342.07	434.62
342.298	431.62
342.526	424.62
342.754	451.62
342.981	436.62
343.209	433.62
343.437	427.62
343.665	451.62
343.893	447.62
344.12	444.62
344.348	467.62
344.576	468.62
344.804	466.62
345.031	441.62
345.259	469.62
345.487	470.62
345.714	430.62
345.942	468.62
346.17	429.62
346.397	430.62
346.625	454.62
346.853	435.62
347.08	413.62
347.308	432.62
347.535	450.62
347.763	466.62
347.99	443.62
348.218	441.62
348.445	446.62
348.673	437.62
348.9	457.62
349.128	429.62
349.355	404.62
349.583	418.62
349.81	379.62
350.037	407.62
350.265	403.62
350.492	408.62
350.72	413.62
350.947	407.62
351.174	441.62
351.402	455.62
351.629	454.62
351.856	453.62
352.083	456.62
352.311	462.62
352.538	448.62
352.765	450.62
352.992	456.62
353.22	440.62
353.447	438.62
353.674	429.62
353.901	401.62
354.128	398.62
354.355	387.62
354.583	425.62
354.81	419.62
355.037	408.62
355.264	391.62
355.491	397.62
355.718	389.62
355.945	405.62
356.172	405.62
356.399	403.62
356.626	388.62
356.853	379.62
357.08	415.62
357.307	407.62
357.534	411.62
357.761	414.62
357.988	416.62
358.215	392.62
358.441	412.62
358.668	399.62
358.895	418.62
359.122	424.62
359.349	412.62
359.576	442.62
359.802	464.62
360.029	483.62
360.256	526.62
360.483	480.62
360.709	444.62
360.936	454.62
361.163	428.62
361.39	439.62
361.616	453.62
361.843	437.62
362.07	422.62
362.296	422.62
362.523	421.62
362.749	429.62
362.976	452.62
363.203	415.62
363.429	405.62
363.656	423.62
363.882	412.62
364.109	418.62
364.335	428.62
364.562	398.62
364.788	426.62
365.015	401.62
365.241	415.62
365.468	418.62
365.694	424.62
365.92	413.62
366.147	409.62
366.373	394.62
366.599	406.62
366.826	406.62
367.052	393.62
367.278	404.62
367.505	418.62
367.731	418.62
367.957	412.62
368.184	393.62
368.41	417.62
368.636	424.62
368.862	438.62
369.089	410.62
369.315	420.62
369.541	404.62
369.767	403.62
369.993	436.62
370.219	422.62
370.445	399.62
370.672	416.62
370.898	392.62
371.124	410.62
371.35	422.62
371.576	413.62
371.802	401.62
372.028	408.62
372.254	420.62
372.48	411.62
372.706	409.62
372.932	406.62
373.158	415.62
373.384	430.62
373.61	397.62
373.835	430.62
374.061	409.62
374.287	414.62
374.513	421.62
374.739	429.62
374.965	424.62
375.191	412.62
375.416	409.62
375.642	408.62
375.868	439.62
376.094	410.62
376.319	415.62
376.545	406.62
376.771	406.62
376.997	407.62
377.222	404.62
377.448	413.62
377.674	428.62
377.899	402.62
378.125	395.62
378.35	424.62
378.576	412.62
378.802	397.62
379.027	424.62
379.253	434.62
379.478	418.62
379.704	413.62
379.929	413.62
380.155	422.62
380.38	428.62
380.606	403.62
380.831	420.62
381.057	418.62
381.282	411.62
381.507	428.62
381.733	419.62
381.958	426.62
382.184	421.62
382.409	422.62
382.634	433.62
382.86	447.62
383.085	428.62
383.31	458.62
383.535	434.62
383.761	446.62
383.986	435.62
384.211	429.62
384.436	458.62
384.662	428.62
384.887	470.62
385.112	463.62
385.337	484.62
385.562	488.62
385.787	483.62
386.013	504.62
386.238	491.62
386.463	482.62
386.688	484.62
386.913	485.62
387.138	467.62
387.363	488.62
387.588	478.62
387.813	489.62
388.038	487.62
388.263	492.62
388.488	481.62
388.713	483.62
388.938	457.62
389.163	433.62
389.387	447.62
389.612	463.62
389.837	461.62
390.062	454.62
390.287	450.62
390.512	438.62
390.736	447.62
390.961	447.62
391.186	436.62
391.411	472.62
391.636	442.62
391.86	477.62
392.085	478.62
392.31	476.62
392.534	495.62
392.759	468.62
392.984	488.62
393.208	508.62
393.433	557.62
393.658	550.62
393.882	488.62
394.107	460.62
394.331	452.62
394.556	454.62
394.78	473.62
395.005	458.62
395.229	467.62
395.454	485.62
395.678	483.62
395.903	485.62
396.127	507.62
396.352	490.62
396.576	503.62
396.801	508.62
397.025	511.62
397.249	487.62
397.474	479.62
397.698	501.62
397.922	495.62
398.147	503.62
398.371	527.62
398.595	522.62
398.82	504.62
399.044	529.62
399.268	566.62
399.492	600.62
399.717	634.62
399.941	665.62
400.165	639.62
400.389	647.62
400.613	614.62
400.837	576.62
401.062	563.62
401.286	558.62
401.51	544.62
401.734	526.62
401.958	540.62
402.182	524.62
402.406	564.62
402.63	570.62
402.854	554.62
403.078	536.62
403.302	538.62
403.526	551.62
403.75	570.62
403.974	550.62
404.198	558.62
404.422	550.62
404.645	557.62
404.869	572.62
405.093	614.62
405.317	638.62
405.541	678.62
405.765	620.62
405.988	585.62
406.212	575.62
406.436	607.62
406.66	653.62
406.883	613.62
407.107	611.62
407.331	658.62
407.555	773.62
407.778	738.62
408.002	690.62
408.226	643.62
408.449	618.62
408.673	619.62
408.896	639.62
409.12	692.62
409.344	634.62
409.567	559.62
409.791	578.62
410.014	570.62
410.238	536.62
410.461	542.62
410.685	561.62
410.908	584.62
411.132	582.62
411.355	644.62
411.578	586.62
411.802	568.62
412.025	540.62
412.249	549.62
412.472	607.62
412.695	632.62
412.919	623.62
413.142	582.62
413.365	547.62
413.589	566.62
413.812	526.62
414.035	517.62
414.258	532.62
414.482	549.62
414.705	541.62
414.928	535.62
415.151	524.62
415.374	541.62
415.597	521.62
415.821	508.62
416.044	522.62
416.267	535.62
416.49	515.62
416.713	534.62
416.936	505.62
417.159	514.62
417.382	520.62
417.605	526.62
417.828	525.62
418.051	551.62
418.274	533.62
418.497	542.62
418.72	508.62
418.943	523.62
419.166	522.62
419.389	565.62
419.611	541.62
419.834	550.62
420.057	534.62
420.28	535.62
420.503	523.62
420.726	545.62
420.948	539.62
421.171	601.62
421.394	645.62
421.617	582.62
421.839	536.62
422.062	552.62
422.285	535.62
422.507	620.62
422.73	717.62
422.953	713.62
423.175	589.62
423.398	571.62
423.621	556.62
423.843	565.62
424.066	594.62
424.288	587.62
424.511	594.62
424.733	655.62
424.956	708.62
425.178	698.62
425.401	674.62
425.623	731.62
425.846	622.62
426.068	557.62
426.291	542.62
426.513	564.62
426.735	585.62
426.958	591.62
427.18	688.62
427.402	825.62
427.625	956.62
427.847	843.62
428.069	742.62
428.292	653.62
428.514	588.62
428.736	550.62
428.958	530.62
429.181	535.62
429.403	527.62
429.625	526.62
429.847	596.62
430.069	642.62
430.292	633.62
430.514	545.62
430.736	554.62
430.958	523.62
431.18	507.62
431.402	500.62
431.624	491.62
431.846	477.62
432.068	505.62
432.29	501.62
432.512	495.62
432.734	485.62
432.956	490.62
433.178	515.62
433.4	536.62
433.622	534.62
433.844	490.62
434.066	492.62
434.287	520.62
434.509	511.62
434.731	535.62
434.953	523.62
435.175	550.62
435.397	568.62
435.618	569.62
435.84	636.62
436.062	716.62
436.284	783.62
436.505	669.62
436.727	591.62
436.949	558.62
437.17	550.62
437.392	539.62
437.614	515.62
437.835	581.62
438.057	687.62
438.278	756.62
438.5	756.62
438.721	845.62
438.943	794.62
439.165	624.62
439.386	580.62
439.608	573.62
439.829	595.62
440.05	618.62
440.272	656.62
440.493	629.62
440.715	572.62
440.936	548.62
441.158	559.62
441.379	536.62
441.6	568.62
441.822	578.62
442.043	618.62
442.264	714.62
442.486	758.62
442.707	636.62
442.928	592.62
443.149	599.62
443.371	610.62
443.592	643.62
443.813	755.62
444.034	828.62
444.255	675.62
444.476	610.62
444.698	594.62
444.919	566.62
445.14	715.62
445.361	674.62
445.582	643.62
445.803	707.62
446.024	811.62
446.245	826.62
446.466	762.62
446.687	628.62
446.908	589.62
447.129	544.62
447.35	539.62
447.571	542.62
447.792	526.62
448.013	515.62
448.234	550.62
448.455	571.62
448.675	705.62
448.896	823.62
449.117	683.62
449.338	659.62
449.559	741.62
449.779	878.62
450	690.62
450.221	580.62
450.442	516.62
450.662	523.62
450.883	534.62
451.104	551.62
451.324	544.62
451.545	531.62
451.766	495.62
451.986	484.62
452.207	485.62
452.428	467.62
452.648	477.62
452.869	471.62
453.089	487.62
453.31	492.62
453.53	491.62
453.751	475.62
453.971	486.62
454.192	529.62
454.412	524.62
454.633	470.62
454.853	472.62
455.073	471.62
455.294	480.62
455.514	550.62
455.734	552.62
455.955	470.62
456.175	442.62
456.395	442.62
456.616	435.62
456.836	444.62
457.056	434.62
457.276	437.62
457.497	445.62
457.717	468.62
457.937	469.62
458.157	438.62
458.377	467.62
458.598	478.62
458.818	562.62
459.038	656.62
459.258	650.62
459.478	566.62
459.698	518.62
459.918	524.62
460.138	516.62
460.358	521.62
460.578	527.62
460.798	544.62
461.018	527.62
461.238	526.62
461.458	527.62
461.678	532.62
461.898	524.62
462.118	535.62
462.338	542.62
462.558	540.62
462.777	556.62
462.997	587.62
463.217	582.62
463.437	591.62
463.657	568.62
463.876	548.62
464.096	574.62
464.316	574.62
464.536	601.62
464.755	580.62
464.975	575.62
465.195	633.62
465.414	745.62
465.634	631.62
465.854	586.62
466.073	528.62
466.293	517.62
466.512	489.62
466.732	491.62
466.951	518.62
467.171	493.62
467.391	486.62
467.61	507.62
467.829	511.62
468.049	512.62
468.268	491.62
468.488	491.62
468.707	481.62
468.927	478.62
469.146	483.62
469.365	498.62
469.585	488.62
469.804	491.62
470.023	515.62
470.243	528.62
470.462	531.62
470.681	548.62
470.901	518.62
471.12	526.62
471.339	498.62
471.558	501.62
471.777	511.62
471.997	507.62
472.216	518.62
472.435	586.62
472.654	579.62
472.873	529.62
473.092	490.62
473.311	500.62
473.53	509.62
473.749	503.62
473.968	534.62
474.187	628.62
474.406	675.62
474.625	525.62
474.844	500.62
475.063	485.62
475.282	491.62
475.501	491.62
475.72	502.62
475.939	527.62
476.158	503.62
476.377	515.62
476.596	505.62
476.814	533.62
477.033	534.62
477.252	528.62
477.471	518.62
477.69	536.62
477.908	545.62
478.127	541.62
478.346	561.62
478.564	564.62
478.783	570.62
479.002	587.62
479.22	600.62
479.439	586.62
479.658	610.62
479.876	623.62
480.095	611.62
480.313	644.62
480.532	635.62
480.751	618.62
480.969	652.62
481.188	757.62
481.406	837.62
481.624	695.62
481.843	619.62
482.061	604.62
482.28	588.62
482.498	584.62
482.717	586.62
482.935	586.62
483.153	564.62
483.372	565.62
483.59	595.62
483.808	599.62
484.027	592.62
484.245	597.62
484.463	572.62
484.681	612.62
484.9	599.62
485.118	606.62
485.336	599.62
485.554	615.62
485.772	618.62
485.99	615.62
486.209	612.62
486.427	599.62
486.645	626.62
486.863	648.62
487.081	629.62
487.299	652.62
487.517	616.62
487.735	615.62
487.953	650.62
488.171	610.62
488.389	631.62
488.607	628.62
488.825	631.62
489.043	621.62
489.261	621.62
489.479	647.62
489.696	638.62
489.914	628.62
490.132	634.62
490.35	638.62
490.568	654.62
490.786	633.62
491.003	670.62
491.221	685.62
491.439	702.62
491.657	694.62
491.874	695.62
492.092	698.62
492.31	699.62
492.527	696.62
492.745	697.62
492.963	702.62
493.18	692.62
493.398	704.62
493.615	701.62
493.833	701.62
494.05	717.62
494.268	701.62
494.485	706.62
494.703	727.62
494.92	698.62
495.138	711.62
495.355	716.62
495.573	706.62
495.79	715.62
496.008	740.62
496.225	738.62
496.442	697.62
496.66	704.62
496.877	720.62
497.094	710.62
497.312	716.62
497.529	738.62
497.746	774.62
497.963	784.62
498.181	783.62
498.398	799.62
498.615	828.62
498.832	842.62
499.049	846.62
499.267	888.62
499.484	919.62
499.701	943.62
499.918	1001.62
500.135	1048.62
500.352	1114.62
500.569	1119.62
500.786	1091.62
501.003	1099.62
501.22	1082.62
501.437	989.62
501.654	994.62
