Data from 1976.PennyLincolnUp.Lamp.En5.5.200Scan.071719.P1.Changed Mount._HRD10591_16-00-42-860.txt Node
Date: Thu Jul 18 16:00:42 EDT 2019
User: cochatt
Spectrometer: HR+D1059
Trigger mode: 1
Integration Time (sec): 1.000000E-1
Scans to average: 1
Electric dark correction enabled: true
Nonlinearity correction enabled: false
Boxcar width: 0
XAxis mode: Wavelengths
Number of Pixels in Spectrum: 2048
>>>>>Begin Spectral Data<<<<<
223.165	-3.44
223.4	-3.44
223.635	-3.44
223.869	-19.44
224.104	-5.44
224.338	-10.44
224.573	-9.44
224.808	-6.44
225.042	-10.44
225.277	1.56
225.511	-2.44
225.746	-11.44
225.98	11.56
226.215	11.56
226.449	18.56
226.683	22.56
226.918	2.56
227.152	10.56
227.387	33.56
227.621	38.56
227.856	44.56
228.09	41.56
228.324	46.56
228.559	46.56
228.793	67.56
229.027	76.56
229.262	105.56
229.496	113.56
229.73	133.56
229.964	153.56
230.199	119.56
230.433	95.56
230.667	124.56
230.901	112.56
231.136	119.56
231.37	103.56
231.604	108.56
231.838	114.56
232.072	104.56
232.306	116.56
232.541	114.56
232.775	121.56
233.009	126.56
233.243	111.56
233.477	121.56
233.711	116.56
233.945	128.56
234.179	108.56
234.413	106.56
234.647	107.56
234.881	126.56
235.115	114.56
235.349	106.56
235.583	107.56
235.817	122.56
236.051	132.56
236.285	123.56
236.519	130.56
236.753	136.56
236.987	137.56
237.221	180.56
237.455	242.56
237.689	178.56
237.922	137.56
238.156	144.56
238.39	137.56
238.624	137.56
238.858	146.56
239.091	118.56
239.325	136.56
239.559	126.56
239.793	139.56
240.027	128.56
240.26	146.56
240.494	139.56
240.728	148.56
240.961	130.56
241.195	138.56
241.429	141.56
241.662	138.56
241.896	138.56
242.13	124.56
242.363	134.56
242.597	141.56
242.83	140.56
243.064	138.56
243.298	128.56
243.531	140.56
243.765	158.56
243.998	152.56
244.232	140.56
244.465	131.56
244.699	150.56
244.932	162.56
245.166	142.56
245.399	137.56
245.633	148.56
245.866	132.56
246.099	161.56
246.333	150.56
246.566	164.56
246.8	157.56
247.033	153.56
247.266	149.56
247.5	178.56
247.733	171.56
247.966	178.56
248.2	178.56
248.433	175.56
248.666	183.56
248.899	190.56
249.133	209.56
249.366	204.56
249.599	192.56
249.832	181.56
250.066	189.56
250.299	193.56
250.532	180.56
250.765	201.56
250.998	230.56
251.231	229.56
251.465	188.56
251.698	207.56
251.931	205.56
252.164	197.56
252.397	194.56
252.63	213.56
252.863	197.56
253.096	210.56
253.329	234.56
253.562	220.56
253.795	223.56
254.028	202.56
254.261	214.56
254.494	222.56
254.727	246.56
254.96	282.56
255.193	285.56
255.426	242.56
255.659	224.56
255.892	235.56
256.124	234.56
256.357	234.56
256.59	245.56
256.823	213.56
257.056	210.56
257.289	212.56
257.521	211.56
257.754	231.56
257.987	212.56
258.22	207.56
258.452	211.56
258.685	212.56
258.918	212.56
259.151	210.56
259.383	228.56
259.616	225.56
259.849	214.56
260.081	239.56
260.314	249.56
260.547	241.56
260.779	240.56
261.012	225.56
261.244	224.56
261.477	237.56
261.71	237.56
261.942	232.56
262.175	242.56
262.407	230.56
262.64	221.56
262.872	221.56
263.105	194.56
263.337	213.56
263.57	229.56
263.802	238.56
264.035	198.56
264.267	209.56
264.499	220.56
264.732	233.56
264.964	222.56
265.197	232.56
265.429	231.56
265.661	242.56
265.894	218.56
266.126	220.56
266.358	224.56
266.591	235.56
266.823	244.56
267.055	245.56
267.287	243.56
267.52	237.56
267.752	237.56
267.984	214.56
268.216	242.56
268.448	242.56
268.681	253.56
268.913	240.56
269.145	283.56
269.377	276.56
269.609	279.56
269.841	305.56
270.073	265.56
270.306	292.56
270.538	300.56
270.77	333.56
271.002	326.56
271.234	288.56
271.466	299.56
271.698	299.56
271.93	320.56
272.162	333.56
272.394	327.56
272.626	302.56
272.858	281.56
273.09	289.56
273.322	282.56
273.553	279.56
273.785	256.56
274.017	270.56
274.249	277.56
274.481	280.56
274.713	280.56
274.945	278.56
275.176	272.56
275.408	273.56
275.64	273.56
275.872	282.56
276.104	289.56
276.335	282.56
276.567	289.56
276.799	275.56
277.031	334.56
277.262	347.56
277.494	356.56
277.726	318.56
277.957	304.56
278.189	298.56
278.421	275.56
278.652	283.56
278.884	292.56
279.115	290.56
279.347	289.56
279.579	273.56
279.81	288.56
280.042	280.56
280.273	282.56
280.505	292.56
280.736	289.56
280.968	280.56
281.199	286.56
281.431	282.56
281.662	297.56
281.894	275.56
282.125	294.56
282.356	309.56
282.588	311.56
282.819	317.56
283.051	286.56
283.282	287.56
283.513	278.56
283.745	288.56
283.976	283.56
284.207	272.56
284.439	282.56
284.67	294.56
284.901	297.56
285.132	289.56
285.364	291.56
285.595	301.56
285.826	280.56
286.057	304.56
286.288	292.56
286.52	305.56
286.751	296.56
286.982	295.56
287.213	294.56
287.444	314.56
287.675	306.56
287.906	316.56
288.138	321.56
288.369	308.56
288.6	315.56
288.831	313.56
289.062	316.56
289.293	308.56
289.524	288.56
289.755	309.56
289.986	318.56
290.217	318.56
290.448	310.56
290.679	314.56
290.91	310.56
291.141	313.56
291.371	328.56
291.602	306.56
291.833	316.56
292.064	315.56
292.295	319.56
292.526	306.56
292.757	316.56
292.987	306.56
293.218	309.56
293.449	315.56
293.68	318.56
293.91	318.56
294.141	326.56
294.372	308.56
294.603	317.56
294.833	332.56
295.064	298.56
295.295	312.56
295.525	297.56
295.756	313.56
295.987	327.56
296.217	331.56
296.448	355.56
296.679	308.56
296.909	304.56
297.14	318.56
297.37	333.56
297.601	328.56
297.831	311.56
298.062	326.56
298.292	322.56
298.523	348.56
298.753	325.56
298.984	324.56
299.214	329.56
299.445	333.56
299.675	328.56
299.905	310.56
300.136	333.56
300.366	344.56
300.597	329.56
300.827	340.56
301.057	337.56
301.288	359.56
301.518	335.56
301.748	342.56
301.979	357.56
302.209	378.56
302.439	344.56
302.669	351.56
302.9	349.56
303.13	326.56
303.36	344.56
303.59	369.56
303.82	357.56
304.051	344.56
304.281	345.56
304.511	337.56
304.741	336.56
304.971	338.56
305.201	349.56
305.431	352.56
305.661	337.56
305.891	350.56
306.121	334.56
306.352	344.56
306.582	349.56
306.812	350.56
307.042	359.56
307.272	360.56
307.502	366.56
307.731	335.56
307.961	365.56
308.191	352.56
308.421	368.56
308.651	346.56
308.881	331.56
309.111	361.56
309.341	349.56
309.571	360.56
309.8	361.56
310.03	366.56
310.26	386.56
310.49	376.56
310.72	394.56
310.949	397.56
311.179	384.56
311.409	392.56
311.639	378.56
311.868	382.56
312.098	399.56
312.328	392.56
312.557	404.56
312.787	409.56
313.017	388.56
313.246	413.56
313.476	378.56
313.706	382.56
313.935	397.56
314.165	388.56
314.394	406.56
314.624	424.56
314.853	406.56
315.083	402.56
315.312	401.56
315.542	405.56
315.771	386.56
316.001	385.56
316.23	385.56
316.46	389.56
316.689	390.56
316.919	388.56
317.148	399.56
317.377	394.56
317.607	396.56
317.836	375.56
318.065	395.56
318.295	404.56
318.524	395.56
318.753	387.56
318.983	383.56
319.212	392.56
319.441	389.56
319.67	403.56
319.9	408.56
320.129	393.56
320.358	406.56
320.587	402.56
320.816	382.56
321.046	401.56
321.275	406.56
321.504	397.56
321.733	399.56
321.962	424.56
322.191	422.56
322.42	420.56
322.649	433.56
322.878	444.56
323.108	455.56
323.337	476.56
323.566	473.56
323.795	503.56
324.024	532.56
324.253	618.56
324.482	867.56
324.71	1321.56
324.939	1902.56
325.168	1618.56
325.397	848.56
325.626	588.56
325.855	528.56
326.084	483.56
326.313	471.56
326.542	500.56
326.77	518.56
326.999	605.56
327.228	770.56
327.457	1168.56
327.686	1406.56
327.914	968.56
328.143	634.56
328.372	587.56
328.6	572.56
328.829	536.56
329.058	538.56
329.287	562.56
329.515	521.56
329.744	490.56
329.972	476.56
330.201	508.56
330.43	559.56
330.658	552.56
330.887	572.56
331.115	564.56
331.344	536.56
331.572	514.56
331.801	488.56
332.03	491.56
332.258	501.56
332.486	485.56
332.715	489.56
332.943	462.56
333.172	502.56
333.4	486.56
333.629	478.56
333.857	492.56
334.085	510.56
334.314	518.56
334.542	563.56
334.771	564.56
334.999	511.56
335.227	493.56
335.455	477.56
335.684	491.56
335.912	486.56
336.14	474.56
336.369	469.56
336.597	484.56
336.825	458.56
337.053	470.56
337.281	463.56
337.51	472.56
337.738	469.56
337.966	455.56
338.194	479.56
338.422	464.56
338.65	487.56
338.878	452.56
339.106	463.56
339.334	451.56
339.562	454.56
339.79	449.56
340.018	470.56
340.246	448.56
340.474	460.56
340.702	448.56
340.93	452.56
341.158	443.56
341.386	460.56
341.614	444.56
341.842	465.56
342.07	443.56
342.298	416.56
342.526	432.56
342.754	439.56
342.981	427.56
343.209	430.56
343.437	431.56
343.665	452.56
343.893	465.56
344.12	454.56
344.348	475.56
344.576	473.56
344.804	469.56
345.031	488.56
345.259	469.56
345.487	434.56
345.714	445.56
345.942	439.56
346.17	429.56
346.397	450.56
346.625	443.56
346.853	428.56
347.08	420.56
347.308	436.56
347.535	443.56
347.763	464.56
347.99	427.56
348.218	430.56
348.445	436.56
348.673	436.56
348.9	419.56
349.128	409.56
349.355	408.56
349.583	427.56
349.81	429.56
350.037	418.56
350.265	416.56
350.492	404.56
350.72	406.56
350.947	410.56
351.174	419.56
351.402	426.56
351.629	428.56
351.856	441.56
352.083	448.56
352.311	417.56
352.538	454.56
352.765	454.56
352.992	434.56
353.22	422.56
353.447	421.56
353.674	424.56
353.901	423.56
354.128	406.56
354.355	417.56
354.583	408.56
354.81	423.56
355.037	412.56
355.264	412.56
355.491	424.56
355.718	432.56
355.945	386.56
356.172	412.56
356.399	394.56
356.626	421.56
356.853	410.56
357.08	409.56
357.307	410.56
357.534	398.56
357.761	394.56
357.988	398.56
358.215	417.56
358.441	410.56
358.668	430.56
358.895	419.56
359.122	405.56
359.349	427.56
359.576	425.56
359.802	445.56
360.029	453.56
360.256	466.56
360.483	446.56
360.709	428.56
360.936	409.56
361.163	429.56
361.39	439.56
361.616	434.56
361.843	438.56
362.07	409.56
362.296	425.56
362.523	412.56
362.749	410.56
362.976	401.56
363.203	434.56
363.429	401.56
363.656	414.56
363.882	413.56
364.109	428.56
364.335	400.56
364.562	408.56
364.788	395.56
365.015	405.56
365.241	423.56
365.468	396.56
365.694	414.56
365.92	416.56
366.147	418.56
366.373	420.56
366.599	414.56
366.826	408.56
367.052	406.56
367.278	414.56
367.505	416.56
367.731	416.56
367.957	423.56
368.184	407.56
368.41	414.56
368.636	434.56
368.862	421.56
369.089	420.56
369.315	437.56
369.541	414.56
369.767	399.56
369.993	427.56
370.219	407.56
370.445	432.56
370.672	431.56
370.898	413.56
371.124	436.56
371.35	440.56
371.576	432.56
371.802	427.56
372.028	434.56
372.254	405.56
372.48	389.56
372.706	416.56
372.932	442.56
373.158	417.56
373.384	429.56
373.61	440.56
373.835	406.56
374.061	407.56
374.287	444.56
374.513	405.56
374.739	429.56
374.965	432.56
375.191	438.56
375.416	423.56
375.642	420.56
375.868	418.56
376.094	430.56
376.319	416.56
376.545	420.56
376.771	403.56
376.997	422.56
377.222	429.56
377.448	431.56
377.674	412.56
377.899	407.56
378.125	400.56
378.35	438.56
378.576	404.56
378.802	416.56
379.027	394.56
379.253	418.56
379.478	421.56
379.704	418.56
379.929	410.56
380.155	411.56
380.38	421.56
380.606	418.56
380.831	448.56
381.057	435.56
381.282	424.56
381.507	438.56
381.733	443.56
381.958	437.56
382.184	434.56
382.409	426.56
382.634	442.56
382.86	429.56
383.085	429.56
383.31	425.56
383.535	456.56
383.761	450.56
383.986	457.56
384.211	425.56
384.436	434.56
384.662	447.56
384.887	465.56
385.112	460.56
385.337	454.56
385.562	454.56
385.787	475.56
386.013	488.56
386.238	471.56
386.463	472.56
386.688	466.56
386.913	471.56
387.138	480.56
387.363	488.56
387.588	466.56
387.813	457.56
388.038	465.56
388.263	491.56
388.488	468.56
388.713	477.56
388.938	452.56
389.163	468.56
389.387	481.56
389.612	461.56
389.837	462.56
390.062	477.56
390.287	466.56
390.512	452.56
390.736	481.56
390.961	464.56
391.186	474.56
391.411	461.56
391.636	480.56
391.86	484.56
392.085	491.56
392.31	512.56
392.534	489.56
392.759	505.56
392.984	480.56
393.208	457.56
393.433	468.56
393.658	476.56
393.882	476.56
394.107	465.56
394.331	473.56
394.556	462.56
394.78	485.56
395.005	493.56
395.229	480.56
395.454	488.56
395.678	486.56
395.903	498.56
396.127	518.56
396.352	520.56
396.576	486.56
396.801	495.56
397.025	504.56
397.249	490.56
397.474	506.56
397.698	518.56
397.922	519.56
398.147	513.56
398.371	531.56
398.595	558.56
398.82	536.56
399.044	562.56
399.268	577.56
399.492	605.56
399.717	662.56
399.941	667.56
400.165	698.56
400.389	672.56
400.613	625.56
400.837	584.56
401.062	570.56
401.286	562.56
401.51	556.56
401.734	536.56
401.958	550.56
402.182	562.56
402.406	568.56
402.63	564.56
402.854	565.56
403.078	586.56
403.302	570.56
403.526	577.56
403.75	567.56
403.974	587.56
404.198	568.56
404.422	562.56
404.645	580.56
404.869	587.56
405.093	620.56
405.317	651.56
405.541	669.56
405.765	634.56
405.988	601.56
406.212	600.56
406.436	608.56
406.66	609.56
406.883	614.56
407.107	634.56
407.331	661.56
407.555	746.56
407.778	733.56
408.002	698.56
408.226	640.56
408.449	604.56
408.673	597.56
408.896	653.56
409.12	688.56
409.344	656.56
409.567	595.56
409.791	576.56
410.014	544.56
410.238	565.56
410.461	566.56
410.685	597.56
410.908	585.56
411.132	611.56
411.355	656.56
411.578	610.56
411.802	585.56
412.025	549.56
412.249	593.56
412.472	593.56
412.695	660.56
412.919	627.56
413.142	564.56
413.365	546.56
413.589	546.56
413.812	545.56
414.035	546.56
414.258	514.56
414.482	517.56
414.705	551.56
414.928	547.56
415.151	542.56
415.374	538.56
415.597	507.56
415.821	537.56
416.044	524.56
416.267	522.56
416.49	526.56
416.713	541.56
416.936	541.56
417.159	524.56
417.382	540.56
417.605	540.56
417.828	562.56
418.051	548.56
418.274	560.56
418.497	549.56
418.72	532.56
418.943	548.56
419.166	563.56
419.389	605.56
419.611	585.56
419.834	582.56
420.057	578.56
420.28	565.56
420.503	570.56
420.726	557.56
420.948	571.56
421.171	591.56
421.394	652.56
421.617	581.56
421.839	551.56
422.062	575.56
422.285	564.56
422.507	664.56
422.73	697.56
422.953	676.56
423.175	605.56
423.398	570.56
423.621	597.56
423.843	589.56
424.066	595.56
424.288	600.56
424.511	596.56
424.733	645.56
424.956	740.56
425.178	731.56
425.401	696.56
425.623	708.56
425.846	622.56
426.068	574.56
426.291	576.56
426.513	599.56
426.735	601.56
426.958	646.56
427.18	703.56
427.402	828.56
427.625	926.56
427.847	797.56
428.069	681.56
428.292	620.56
428.514	560.56
428.736	562.56
428.958	558.56
429.181	514.56
429.403	536.56
429.625	539.56
429.847	577.56
430.069	638.56
430.292	644.56
430.514	558.56
430.736	534.56
430.958	529.56
431.18	498.56
431.402	520.56
431.624	507.56
431.846	495.56
432.068	507.56
432.29	523.56
432.512	517.56
432.734	509.56
432.956	518.56
433.178	507.56
433.4	526.56
433.622	528.56
433.844	530.56
434.066	506.56
434.287	520.56
434.509	530.56
434.731	542.56
434.953	537.56
435.175	557.56
435.397	590.56
435.618	591.56
435.84	607.56
436.062	686.56
436.284	784.56
436.505	664.56
436.727	594.56
436.949	577.56
437.17	541.56
437.392	555.56
437.614	569.56
437.835	564.56
438.057	643.56
438.278	749.56
438.5	769.56
438.721	857.56
438.943	826.56
439.165	651.56
439.386	621.56
439.608	594.56
439.829	555.56
440.05	598.56
440.272	660.56
440.493	592.56
440.715	575.56
440.936	574.56
441.158	562.56
441.379	543.56
441.6	563.56
441.822	602.56
442.043	633.56
442.264	703.56
442.486	749.56
442.707	664.56
442.928	609.56
443.149	600.56
443.371	636.56
443.592	683.56
443.813	764.56
444.034	829.56
444.255	676.56
444.476	644.56
444.698	613.56
444.919	626.56
445.14	766.56
445.361	640.56
445.582	630.56
445.803	697.56
446.024	794.56
446.245	786.56
446.466	738.56
446.687	614.56
446.908	587.56
447.129	547.56
447.35	546.56
447.571	543.56
447.792	523.56
448.013	536.56
448.234	530.56
448.455	588.56
448.675	698.56
448.896	838.56
449.117	705.56
449.338	666.56
449.559	775.56
449.779	886.56
450	718.56
450.221	571.56
450.442	527.56
450.662	516.56
450.883	534.56
451.104	532.56
451.324	518.56
451.545	488.56
451.766	484.56
451.986	456.56
452.207	481.56
452.428	481.56
452.648	487.56
452.869	481.56
453.089	483.56
453.31	499.56
453.53	489.56
453.751	469.56
453.971	473.56
454.192	494.56
454.412	486.56
454.633	460.56
454.853	458.56
455.073	461.56
455.294	501.56
455.514	543.56
455.734	556.56
455.955	491.56
456.175	459.56
456.395	455.56
456.616	443.56
456.836	459.56
457.056	432.56
457.276	444.56
457.497	460.56
457.717	464.56
457.937	462.56
458.157	470.56
458.377	481.56
458.598	496.56
458.818	526.56
459.038	595.56
459.258	606.56
459.478	526.56
459.698	501.56
459.918	510.56
460.138	508.56
460.358	521.56
460.578	534.56
460.798	516.56
461.018	548.56
461.238	527.56
461.458	560.56
461.678	535.56
461.898	542.56
462.118	539.56
462.338	563.56
462.558	568.56
462.777	586.56
462.997	582.56
463.217	616.56
463.437	619.56
463.657	592.56
463.876	580.56
464.096	569.56
464.316	564.56
464.536	589.56
464.755	566.56
464.975	571.56
465.195	600.56
465.414	619.56
465.634	582.56
465.854	545.56
466.073	523.56
466.293	537.56
466.512	493.56
466.732	506.56
466.951	511.56
467.171	484.56
467.391	497.56
467.61	484.56
467.829	507.56
468.049	480.56
468.268	497.56
468.488	480.56
468.707	480.56
468.927	464.56
469.146	508.56
469.365	479.56
469.585	492.56
469.804	480.56
470.023	500.56
470.243	494.56
470.462	525.56
470.681	540.56
470.901	524.56
471.12	505.56
471.339	518.56
471.558	499.56
471.777	526.56
471.997	477.56
472.216	484.56
472.435	531.56
472.654	485.56
472.873	493.56
473.092	486.56
473.311	505.56
473.53	488.56
473.749	500.56
473.968	526.56
474.187	625.56
474.406	664.56
474.625	549.56
474.844	508.56
475.063	510.56
475.282	496.56
475.501	498.56
475.72	515.56
475.939	518.56
476.158	531.56
476.377	516.56
476.596	484.56
476.814	522.56
477.033	530.56
477.252	544.56
477.471	537.56
477.69	554.56
477.908	548.56
478.127	572.56
478.346	564.56
478.564	578.56
478.783	550.56
479.002	587.56
479.22	581.56
479.439	578.56
479.658	591.56
479.876	578.56
480.095	627.56
480.313	653.56
480.532	624.56
480.751	592.56
480.969	621.56
481.188	658.56
481.406	666.56
481.624	614.56
481.843	616.56
482.061	577.56
482.28	582.56
482.498	576.56
482.717	562.56
482.935	565.56
483.153	605.56
483.372	589.56
483.59	588.56
483.808	583.56
484.027	590.56
484.245	595.56
484.463	607.56
484.681	590.56
484.9	596.56
485.118	602.56
485.336	588.56
485.554	593.56
485.772	606.56
485.99	591.56
486.209	591.56
486.427	605.56
486.645	600.56
486.863	630.56
487.081	623.56
487.299	622.56
487.517	611.56
487.735	630.56
487.953	611.56
488.171	641.56
488.389	610.56
488.607	644.56
488.825	640.56
489.043	635.56
489.261	611.56
489.479	617.56
489.696	607.56
489.914	647.56
490.132	634.56
490.35	642.56
490.568	663.56
490.786	646.56
491.003	682.56
491.221	671.56
491.439	681.56
491.657	684.56
491.874	733.56
492.092	715.56
492.31	722.56
492.527	708.56
492.745	716.56
492.963	685.56
493.18	737.56
493.398	708.56
493.615	744.56
493.833	743.56
494.05	717.56
494.268	720.56
494.485	717.56
494.703	701.56
494.92	720.56
495.138	729.56
495.355	735.56
495.573	713.56
495.79	733.56
496.008	739.56
496.225	731.56
496.442	746.56
496.66	747.56
496.877	726.56
497.094	726.56
497.312	772.56
497.529	782.56
497.746	788.56
497.963	783.56
498.181	810.56
498.398	787.56
498.615	840.56
498.832	862.56
499.049	869.56
499.267	916.56
499.484	971.56
499.701	991.56
499.918	1020.56
500.135	1116.56
500.352	1142.56
500.569	1184.56
500.786	1197.56
501.003	1151.56
501.22	1060.56
501.437	1077.56
501.654	1026.56
