Data from 1976.PennyLincolnUp.Lamp.En5.5.200Scan.071719.P1.Changed Mount._HRD10591_15-59-34-861.txt Node
Date: Thu Jul 18 15:59:34 EDT 2019
User: cochatt
Spectrometer: HR+D1059
Trigger mode: 1
Integration Time (sec): 1.000000E-1
Scans to average: 1
Electric dark correction enabled: true
Nonlinearity correction enabled: false
Boxcar width: 0
XAxis mode: Wavelengths
Number of Pixels in Spectrum: 2048
>>>>>Begin Spectral Data<<<<<
223.165	-17.88
223.4	-17.88
223.635	-17.88
223.869	-17.88
224.104	-30.88
224.338	-9.88
224.573	-16.88
224.808	-6.88
225.042	-19.88
225.277	-3.88
225.511	4.12
225.746	-2.88
225.98	12.12
226.215	20.12
226.449	15.12
226.683	10.12
226.918	37.12
227.152	28.12
227.387	39.12
227.621	43.12
227.856	36.12
228.09	50.12
228.324	54.12
228.559	41.12
228.793	57.12
229.027	82.12
229.262	101.12
229.496	102.12
229.73	115.12
229.964	138.12
230.199	113.12
230.433	99.12
230.667	92.12
230.901	96.12
231.136	107.12
231.37	106.12
231.604	117.12
231.838	100.12
232.072	109.12
232.306	114.12
232.541	119.12
232.775	117.12
233.009	111.12
233.243	101.12
233.477	97.12
233.711	118.12
233.945	121.12
234.179	119.12
234.413	116.12
234.647	109.12
234.881	120.12
235.115	120.12
235.349	112.12
235.583	110.12
235.817	110.12
236.051	127.12
236.285	125.12
236.519	127.12
236.753	127.12
236.987	143.12
237.221	158.12
237.455	198.12
237.689	174.12
237.922	130.12
238.156	126.12
238.39	118.12
238.624	120.12
238.858	119.12
239.091	119.12
239.325	124.12
239.559	133.12
239.793	120.12
240.027	113.12
240.26	127.12
240.494	146.12
240.728	140.12
240.961	135.12
241.195	123.12
241.429	132.12
241.662	130.12
241.896	126.12
242.13	123.12
242.363	109.12
242.597	128.12
242.83	118.12
243.064	152.12
243.298	127.12
243.531	134.12
243.765	144.12
243.998	132.12
244.232	129.12
244.465	140.12
244.699	132.12
244.932	137.12
245.166	144.12
245.399	147.12
245.633	128.12
245.866	130.12
246.099	135.12
246.333	150.12
246.566	156.12
246.8	133.12
247.033	141.12
247.266	155.12
247.5	136.12
247.733	162.12
247.966	165.12
248.2	158.12
248.433	141.12
248.666	171.12
248.899	179.12
249.133	184.12
249.366	190.12
249.599	166.12
249.832	162.12
250.066	163.12
250.299	149.12
250.532	168.12
250.765	188.12
250.998	194.12
251.231	210.12
251.465	190.12
251.698	188.12
251.931	184.12
252.164	168.12
252.397	190.12
252.63	184.12
252.863	187.12
253.096	190.12
253.329	212.12
253.562	216.12
253.795	201.12
254.028	182.12
254.261	182.12
254.494	187.12
254.727	223.12
254.96	255.12
255.193	228.12
255.426	215.12
255.659	206.12
255.892	190.12
256.124	206.12
256.357	197.12
256.59	190.12
256.823	188.12
257.056	202.12
257.289	180.12
257.521	195.12
257.754	205.12
257.987	192.12
258.22	196.12
258.452	199.12
258.685	193.12
258.918	199.12
259.151	181.12
259.383	176.12
259.616	200.12
259.849	202.12
260.081	203.12
260.314	239.12
260.547	228.12
260.779	223.12
261.012	211.12
261.244	211.12
261.477	216.12
261.71	220.12
261.942	221.12
262.175	223.12
262.407	218.12
262.64	217.12
262.872	199.12
263.105	182.12
263.337	201.12
263.57	195.12
263.802	213.12
264.035	205.12
264.267	199.12
264.499	198.12
264.732	204.12
264.964	217.12
265.197	214.12
265.429	200.12
265.661	197.12
265.894	216.12
266.126	214.12
266.358	212.12
266.591	215.12
266.823	210.12
267.055	230.12
267.287	213.12
267.52	204.12
267.752	203.12
267.984	228.12
268.216	221.12
268.448	238.12
268.681	237.12
268.913	234.12
269.145	243.12
269.377	252.12
269.609	229.12
269.841	248.12
270.073	246.12
270.306	276.12
270.538	270.12
270.77	282.12
271.002	262.12
271.234	260.12
271.466	280.12
271.698	280.12
271.93	275.12
272.162	280.12
272.394	299.12
272.626	250.12
272.858	261.12
273.09	259.12
273.322	242.12
273.553	237.12
273.785	252.12
274.017	247.12
274.249	238.12
274.481	264.12
274.713	251.12
274.945	265.12
275.176	234.12
275.408	245.12
275.64	243.12
275.872	244.12
276.104	238.12
276.335	244.12
276.567	262.12
276.799	254.12
277.031	272.12
277.262	294.12
277.494	287.12
277.726	293.12
277.957	256.12
278.189	256.12
278.421	279.12
278.652	244.12
278.884	245.12
279.115	251.12
279.347	262.12
279.579	258.12
279.81	267.12
280.042	254.12
280.273	254.12
280.505	262.12
280.736	256.12
280.968	254.12
281.199	250.12
281.431	261.12
281.662	262.12
281.894	263.12
282.125	273.12
282.356	280.12
282.588	272.12
282.819	281.12
283.051	258.12
283.282	263.12
283.513	263.12
283.745	257.12
283.976	272.12
284.207	267.12
284.439	261.12
284.67	285.12
284.901	272.12
285.132	285.12
285.364	256.12
285.595	283.12
285.826	280.12
286.057	275.12
286.288	270.12
286.52	271.12
286.751	270.12
286.982	277.12
287.213	276.12
287.444	292.12
287.675	283.12
287.906	300.12
288.138	286.12
288.369	292.12
288.6	276.12
288.831	287.12
289.062	282.12
289.293	276.12
289.524	284.12
289.755	278.12
289.986	306.12
290.217	283.12
290.448	270.12
290.679	277.12
290.91	299.12
291.141	279.12
291.371	296.12
291.602	283.12
291.833	288.12
292.064	283.12
292.295	290.12
292.526	276.12
292.757	293.12
292.987	274.12
293.218	284.12
293.449	299.12
293.68	293.12
293.91	303.12
294.141	289.12
294.372	306.12
294.603	276.12
294.833	269.12
295.064	306.12
295.295	284.12
295.525	288.12
295.756	295.12
295.987	284.12
296.217	304.12
296.448	298.12
296.679	310.12
296.909	292.12
297.14	289.12
297.37	314.12
297.601	309.12
297.831	311.12
298.062	297.12
298.292	307.12
298.523	308.12
298.753	310.12
298.984	300.12
299.214	317.12
299.445	333.12
299.675	302.12
299.905	319.12
300.136	314.12
300.366	322.12
300.597	324.12
300.827	310.12
301.057	308.12
301.288	317.12
301.518	314.12
301.748	319.12
301.979	317.12
302.209	329.12
302.439	323.12
302.669	304.12
302.9	319.12
303.13	302.12
303.36	326.12
303.59	327.12
303.82	325.12
304.051	334.12
304.281	325.12
304.511	287.12
304.741	314.12
304.971	333.12
305.201	317.12
305.431	300.12
305.661	323.12
305.891	308.12
306.121	301.12
306.352	322.12
306.582	315.12
306.812	312.12
307.042	342.12
307.272	339.12
307.502	319.12
307.731	320.12
307.961	321.12
308.191	325.12
308.421	297.12
308.651	318.12
308.881	313.12
309.111	319.12
309.341	294.12
309.571	325.12
309.8	343.12
310.03	331.12
310.26	361.12
310.49	318.12
310.72	340.12
310.949	358.12
311.179	363.12
311.409	371.12
311.639	340.12
311.868	364.12
312.098	369.12
312.328	347.12
312.557	363.12
312.787	359.12
313.017	343.12
313.246	358.12
313.476	336.12
313.706	350.12
313.935	359.12
314.165	364.12
314.394	378.12
314.624	366.12
314.853	383.12
315.083	342.12
315.312	356.12
315.542	354.12
315.771	326.12
316.001	342.12
316.23	357.12
316.46	349.12
316.689	352.12
316.919	351.12
317.148	356.12
317.377	369.12
317.607	350.12
317.836	358.12
318.065	348.12
318.295	338.12
318.524	348.12
318.753	365.12
318.983	330.12
319.212	348.12
319.441	375.12
319.67	359.12
319.9	345.12
320.129	364.12
320.358	346.12
320.587	354.12
320.816	384.12
321.046	384.12
321.275	372.12
321.504	365.12
321.733	365.12
321.962	380.12
322.191	371.12
322.42	402.12
322.649	379.12
322.878	410.12
323.108	380.12
323.337	402.12
323.566	417.12
323.795	437.12
324.024	456.12
324.253	523.12
324.482	663.12
324.71	1007.12
324.939	1477.12
325.168	1310.12
325.397	664.12
325.626	487.12
325.855	434.12
326.084	408.12
326.313	400.12
326.542	407.12
326.77	455.12
326.999	505.12
327.228	639.12
327.457	936.12
327.686	1146.12
327.914	759.12
328.143	518.12
328.372	455.12
328.6	450.12
328.829	445.12
329.058	457.12
329.287	469.12
329.515	440.12
329.744	426.12
329.972	412.12
330.201	420.12
330.43	452.12
330.658	454.12
330.887	473.12
331.115	476.12
331.344	439.12
331.572	398.12
331.801	424.12
332.03	445.12
332.258	419.12
332.486	438.12
332.715	409.12
332.943	430.12
333.172	408.12
333.4	427.12
333.629	448.12
333.857	450.12
334.085	444.12
334.314	458.12
334.542	476.12
334.771	469.12
334.999	443.12
335.227	451.12
335.455	428.12
335.684	430.12
335.912	453.12
336.14	417.12
336.369	424.12
336.597	412.12
336.825	434.12
337.053	412.12
337.281	409.12
337.51	403.12
337.738	418.12
337.966	404.12
338.194	414.12
338.422	422.12
338.65	411.12
338.878	407.12
339.106	401.12
339.334	418.12
339.562	414.12
339.79	412.12
340.018	430.12
340.246	419.12
340.474	422.12
340.702	388.12
340.93	390.12
341.158	403.12
341.386	404.12
341.614	411.12
341.842	411.12
342.07	395.12
342.298	399.12
342.526	397.12
342.754	386.12
342.981	408.12
343.209	391.12
343.437	387.12
343.665	401.12
343.893	426.12
344.12	425.12
344.348	438.12
344.576	438.12
344.804	428.12
345.031	409.12
345.259	426.12
345.487	406.12
345.714	425.12
345.942	410.12
346.17	378.12
346.397	365.12
346.625	394.12
346.853	402.12
347.08	391.12
347.308	397.12
347.535	385.12
347.763	383.12
347.99	397.12
348.218	396.12
348.445	386.12
348.673	400.12
348.9	396.12
349.128	378.12
349.355	367.12
349.583	392.12
349.81	388.12
350.037	371.12
350.265	385.12
350.492	389.12
350.72	375.12
350.947	379.12
351.174	371.12
351.402	398.12
351.629	392.12
351.856	367.12
352.083	382.12
352.311	399.12
352.538	383.12
352.765	401.12
352.992	377.12
353.22	376.12
353.447	376.12
353.674	377.12
353.901	364.12
354.128	393.12
354.355	368.12
354.583	365.12
354.81	368.12
355.037	370.12
355.264	376.12
355.491	370.12
355.718	354.12
355.945	375.12
356.172	367.12
356.399	353.12
356.626	390.12
356.853	372.12
357.08	381.12
357.307	366.12
357.534	380.12
357.761	359.12
357.988	365.12
358.215	366.12
358.441	372.12
358.668	376.12
358.895	367.12
359.122	371.12
359.349	381.12
359.576	380.12
359.802	381.12
360.029	408.12
360.256	399.12
360.483	410.12
360.709	395.12
360.936	390.12
361.163	361.12
361.39	376.12
361.616	402.12
361.843	365.12
362.07	384.12
362.296	386.12
362.523	406.12
362.749	387.12
362.976	378.12
363.203	383.12
363.429	383.12
363.656	372.12
363.882	375.12
364.109	371.12
364.335	368.12
364.562	370.12
364.788	370.12
365.015	368.12
365.241	380.12
365.468	372.12
365.694	376.12
365.92	399.12
366.147	358.12
366.373	380.12
366.599	366.12
366.826	361.12
367.052	371.12
367.278	382.12
367.505	391.12
367.731	388.12
367.957	390.12
368.184	371.12
368.41	404.12
368.636	376.12
368.862	382.12
369.089	395.12
369.315	383.12
369.541	371.12
369.767	370.12
369.993	378.12
370.219	360.12
370.445	372.12
370.672	374.12
370.898	387.12
371.124	394.12
371.35	376.12
371.576	372.12
371.802	387.12
372.028	373.12
372.254	402.12
372.48	382.12
372.706	396.12
372.932	396.12
373.158	407.12
373.384	382.12
373.61	368.12
373.835	406.12
374.061	375.12
374.287	408.12
374.513	407.12
374.739	401.12
374.965	423.12
375.191	406.12
375.416	408.12
375.642	395.12
375.868	386.12
376.094	381.12
376.319	395.12
376.545	378.12
376.771	387.12
376.997	387.12
377.222	389.12
377.448	383.12
377.674	380.12
377.899	401.12
378.125	377.12
378.35	378.12
378.576	380.12
378.802	376.12
379.027	380.12
379.253	382.12
379.478	392.12
379.704	400.12
379.929	397.12
380.155	394.12
380.38	376.12
380.606	377.12
380.831	388.12
381.057	388.12
381.282	395.12
381.507	401.12
381.733	422.12
381.958	390.12
382.184	387.12
382.409	387.12
382.634	413.12
382.86	399.12
383.085	398.12
383.31	410.12
383.535	399.12
383.761	427.12
383.986	425.12
384.211	414.12
384.436	429.12
384.662	418.12
384.887	415.12
385.112	436.12
385.337	426.12
385.562	430.12
385.787	414.12
386.013	430.12
386.238	437.12
386.463	453.12
386.688	432.12
386.913	444.12
387.138	430.12
387.363	438.12
387.588	432.12
387.813	435.12
388.038	455.12
388.263	436.12
388.488	446.12
388.713	423.12
388.938	428.12
389.163	420.12
389.387	445.12
389.612	423.12
389.837	434.12
390.062	417.12
390.287	417.12
390.512	422.12
390.736	436.12
390.961	423.12
391.186	436.12
391.411	446.12
391.636	443.12
391.86	453.12
392.085	466.12
392.31	462.12
392.534	461.12
392.759	445.12
392.984	450.12
393.208	446.12
393.433	423.12
393.658	422.12
393.882	442.12
394.107	442.12
394.331	451.12
394.556	434.12
394.78	453.12
395.005	449.12
395.229	476.12
395.454	469.12
395.678	445.12
395.903	474.12
396.127	464.12
396.352	457.12
396.576	458.12
396.801	455.12
397.025	458.12
397.249	455.12
397.474	464.12
397.698	470.12
397.922	465.12
398.147	473.12
398.371	498.12
398.595	494.12
398.82	507.12
399.044	496.12
399.268	528.12
399.492	590.12
399.717	598.12
399.941	639.12
400.165	634.12
400.389	644.12
400.613	570.12
400.837	530.12
401.062	527.12
401.286	514.12
401.51	502.12
401.734	504.12
401.958	503.12
402.182	511.12
402.406	508.12
402.63	514.12
402.854	528.12
403.078	507.12
403.302	515.12
403.526	556.12
403.75	540.12
403.974	515.12
404.198	492.12
404.422	513.12
404.645	543.12
404.869	547.12
405.093	538.12
405.317	570.12
405.541	602.12
405.765	569.12
405.988	567.12
406.212	526.12
406.436	527.12
406.66	545.12
406.883	556.12
407.107	583.12
407.331	611.12
407.555	677.12
407.778	680.12
408.002	596.12
408.226	567.12
408.449	570.12
408.673	574.12
408.896	573.12
409.12	638.12
409.344	578.12
409.567	529.12
409.791	515.12
410.014	533.12
410.238	516.12
410.461	534.12
410.685	527.12
410.908	541.12
411.132	552.12
411.355	590.12
411.578	562.12
411.802	520.12
412.025	513.12
412.249	512.12
412.472	551.12
412.695	557.12
412.919	552.12
413.142	504.12
413.365	502.12
413.589	503.12
413.812	506.12
414.035	502.12
414.258	474.12
414.482	491.12
414.705	486.12
414.928	479.12
415.151	486.12
415.374	470.12
415.597	493.12
415.821	474.12
416.044	486.12
416.267	487.12
416.49	505.12
416.713	478.12
416.936	482.12
417.159	469.12
417.382	478.12
417.605	499.12
417.828	505.12
418.051	518.12
418.274	530.12
418.497	489.12
418.72	488.12
418.943	480.12
419.166	521.12
419.389	564.12
419.611	521.12
419.834	536.12
420.057	525.12
420.28	524.12
420.503	507.12
420.726	519.12
420.948	522.12
421.171	553.12
421.394	569.12
421.617	518.12
421.839	504.12
422.062	514.12
422.285	514.12
422.507	566.12
422.73	604.12
422.953	615.12
423.175	519.12
423.398	530.12
423.621	526.12
423.843	554.12
424.066	552.12
424.288	553.12
424.511	548.12
424.733	593.12
424.956	668.12
425.178	622.12
425.401	638.12
425.623	670.12
425.846	569.12
426.068	558.12
426.291	552.12
426.513	503.12
426.735	547.12
426.958	553.12
427.18	616.12
427.402	727.12
427.625	807.12
427.847	660.12
428.069	587.12
428.292	534.12
428.514	511.12
428.736	507.12
428.958	497.12
429.181	478.12
429.403	475.12
429.625	456.12
429.847	527.12
430.069	590.12
430.292	558.12
430.514	502.12
430.736	504.12
430.958	476.12
431.18	473.12
431.402	463.12
431.624	468.12
431.846	476.12
432.068	460.12
432.29	467.12
432.512	472.12
432.734	486.12
432.956	493.12
433.178	462.12
433.4	493.12
433.622	455.12
433.844	492.12
434.066	483.12
434.287	467.12
434.509	508.12
434.731	492.12
434.953	458.12
435.175	524.12
435.397	539.12
435.618	535.12
435.84	547.12
436.062	631.12
436.284	709.12
436.505	572.12
436.727	525.12
436.949	485.12
437.17	472.12
437.392	503.12
437.614	499.12
437.835	503.12
438.057	576.12
438.278	679.12
438.5	660.12
438.721	740.12
438.943	725.12
439.165	567.12
439.386	538.12
439.608	534.12
439.829	538.12
440.05	560.12
440.272	576.12
440.493	521.12
440.715	488.12
440.936	516.12
441.158	535.12
441.379	484.12
441.6	519.12
441.822	524.12
442.043	579.12
442.264	626.12
442.486	681.12
442.707	585.12
442.928	538.12
443.149	541.12
443.371	548.12
443.592	593.12
443.813	662.12
444.034	726.12
444.255	638.12
444.476	536.12
444.698	562.12
444.919	554.12
445.14	661.12
445.361	594.12
445.582	559.12
445.803	616.12
446.024	666.12
446.245	686.12
446.466	630.12
446.687	544.12
446.908	518.12
447.129	462.12
447.35	488.12
447.571	478.12
447.792	454.12
448.013	493.12
448.234	488.12
448.455	525.12
448.675	626.12
448.896	717.12
449.117	611.12
449.338	585.12
449.559	667.12
449.779	754.12
450	620.12
450.221	521.12
450.442	477.12
450.662	461.12
450.883	469.12
451.104	469.12
451.324	456.12
451.545	452.12
451.766	437.12
451.986	428.12
452.207	444.12
452.428	421.12
452.648	426.12
452.869	398.12
453.089	442.12
453.31	447.12
453.53	437.12
453.751	422.12
453.971	407.12
454.192	425.12
454.412	430.12
454.633	425.12
454.853	430.12
455.073	445.12
455.294	443.12
455.514	496.12
455.734	484.12
455.955	431.12
456.175	419.12
456.395	416.12
456.616	416.12
456.836	411.12
457.056	402.12
457.276	396.12
457.497	434.12
457.717	384.12
457.937	435.12
458.157	420.12
458.377	428.12
458.598	442.12
458.818	479.12
459.038	532.12
459.258	547.12
459.478	514.12
459.698	469.12
459.918	457.12
460.138	470.12
460.358	494.12
460.578	484.12
460.798	494.12
461.018	471.12
461.238	499.12
461.458	479.12
461.678	475.12
461.898	504.12
462.118	487.12
462.338	510.12
462.558	514.12
462.777	542.12
462.997	550.12
463.217	576.12
463.437	580.12
463.657	555.12
463.876	533.12
464.096	520.12
464.316	525.12
464.536	535.12
464.755	542.12
464.975	525.12
465.195	552.12
465.414	558.12
465.634	520.12
465.854	490.12
466.073	495.12
466.293	468.12
466.512	438.12
466.732	439.12
466.951	438.12
467.171	456.12
467.391	473.12
467.61	455.12
467.829	444.12
468.049	427.12
468.268	431.12
468.488	430.12
468.707	455.12
468.927	442.12
469.146	438.12
469.365	432.12
469.585	443.12
469.804	440.12
470.023	479.12
470.243	438.12
470.462	444.12
470.681	453.12
470.901	482.12
471.12	457.12
471.339	461.12
471.558	448.12
471.777	463.12
471.997	448.12
472.216	453.12
472.435	452.12
472.654	446.12
472.873	448.12
473.092	436.12
473.311	442.12
473.53	468.12
473.749	452.12
473.968	497.12
474.187	537.12
474.406	571.12
474.625	488.12
474.844	450.12
475.063	472.12
475.282	450.12
475.501	463.12
475.72	450.12
475.939	442.12
476.158	453.12
476.377	462.12
476.596	450.12
476.814	474.12
477.033	458.12
477.252	477.12
477.471	488.12
477.69	485.12
477.908	482.12
478.127	500.12
478.346	516.12
478.564	535.12
478.783	522.12
479.002	499.12
479.22	515.12
479.439	524.12
479.658	541.12
479.876	540.12
480.095	545.12
480.313	573.12
480.532	557.12
480.751	578.12
480.969	552.12
481.188	586.12
481.406	587.12
481.624	532.12
481.843	528.12
482.061	552.12
482.28	533.12
482.498	547.12
482.717	534.12
482.935	530.12
483.153	542.12
483.372	516.12
483.59	534.12
483.808	544.12
484.027	526.12
484.245	528.12
484.463	538.12
484.681	551.12
484.9	538.12
485.118	560.12
485.336	532.12
485.554	526.12
485.772	535.12
485.99	554.12
486.209	526.12
486.427	533.12
486.645	516.12
486.863	550.12
487.081	557.12
487.299	565.12
487.517	562.12
487.735	538.12
487.953	554.12
488.171	546.12
488.389	578.12
488.607	587.12
488.825	559.12
489.043	567.12
489.261	549.12
489.479	574.12
489.696	578.12
489.914	591.12
490.132	583.12
490.35	603.12
490.568	609.12
490.786	590.12
491.003	587.12
491.221	626.12
491.439	605.12
491.657	624.12
491.874	652.12
492.092	622.12
492.31	616.12
492.527	619.12
492.745	626.12
492.963	624.12
493.18	630.12
493.398	642.12
493.615	673.12
493.833	664.12
494.05	632.12
494.268	640.12
494.485	620.12
494.703	652.12
494.92	690.12
495.138	648.12
495.355	682.12
495.573	638.12
495.79	664.12
496.008	677.12
496.225	661.12
496.442	655.12
496.66	667.12
496.877	655.12
497.094	662.12
497.312	666.12
497.529	683.12
497.746	685.12
497.963	702.12
498.181	748.12
498.398	732.12
498.615	747.12
498.832	746.12
499.049	794.12
499.267	815.12
499.484	873.12
499.701	909.12
499.918	948.12
500.135	977.12
500.352	1064.12
500.569	1064.12
500.786	1102.12
501.003	1041.12
501.22	1017.12
501.437	969.12
501.654	936.12
