Data from 1976.PennyLincolnUp.Lamp.En5.5.200Scan.071719.P1.Changed Mount._HRD10591_16-01-14-862.txt Node
Date: Thu Jul 18 16:01:14 EDT 2019
User: cochatt
Spectrometer: HR+D1059
Trigger mode: 1
Integration Time (sec): 1.000000E-1
Scans to average: 1
Electric dark correction enabled: true
Nonlinearity correction enabled: false
Boxcar width: 0
XAxis mode: Wavelengths
Number of Pixels in Spectrum: 2048
>>>>>Begin Spectral Data<<<<<
223.165	-6.81
223.4	-6.81
223.635	-6.81
223.869	-6.81
224.104	-19.81
224.338	-10.81
224.573	-21.81
224.808	-22.81
225.042	-13.81
225.277	-1.81
225.511	-9.81
225.746	-5.81
225.98	12.19
226.215	12.19
226.449	12.19
226.683	15.19
226.918	31.19
227.152	37.19
227.387	36.19
227.621	40.19
227.856	46.19
228.09	44.19
228.324	58.19
228.559	66.19
228.793	89.19
229.027	101.19
229.262	108.19
229.496	103.19
229.73	127.19
229.964	165.19
230.199	128.19
230.433	125.19
230.667	107.19
230.901	113.19
231.136	123.19
231.37	110.19
231.604	129.19
231.838	101.19
232.072	107.19
232.306	128.19
232.541	118.19
232.775	116.19
233.009	122.19
233.243	118.19
233.477	119.19
233.711	117.19
233.945	118.19
234.179	126.19
234.413	108.19
234.647	131.19
234.881	124.19
235.115	117.19
235.349	131.19
235.583	125.19
235.817	116.19
236.051	124.19
236.285	129.19
236.519	113.19
236.753	121.19
236.987	140.19
237.221	169.19
237.455	230.19
237.689	173.19
237.922	143.19
238.156	143.19
238.39	120.19
238.624	121.19
238.858	147.19
239.091	139.19
239.325	142.19
239.559	142.19
239.793	132.19
240.027	137.19
240.26	159.19
240.494	148.19
240.728	152.19
240.961	154.19
241.195	134.19
241.429	125.19
241.662	144.19
241.896	143.19
242.13	131.19
242.363	150.19
242.597	140.19
242.83	148.19
243.064	160.19
243.298	157.19
243.531	152.19
243.765	140.19
243.998	126.19
244.232	153.19
244.465	150.19
244.699	168.19
244.932	161.19
245.166	146.19
245.399	148.19
245.633	149.19
245.866	150.19
246.099	148.19
246.333	167.19
246.566	154.19
246.8	161.19
247.033	162.19
247.266	173.19
247.5	166.19
247.733	189.19
247.966	181.19
248.2	173.19
248.433	189.19
248.666	197.19
248.899	167.19
249.133	196.19
249.366	211.19
249.599	192.19
249.832	189.19
250.066	197.19
250.299	181.19
250.532	193.19
250.765	196.19
250.998	221.19
251.231	233.19
251.465	236.19
251.698	200.19
251.931	207.19
252.164	191.19
252.397	189.19
252.63	203.19
252.863	217.19
253.096	235.19
253.329	238.19
253.562	231.19
253.795	218.19
254.028	219.19
254.261	205.19
254.494	238.19
254.727	254.19
254.96	273.19
255.193	283.19
255.426	260.19
255.659	252.19
255.892	246.19
256.124	238.19
256.357	247.19
256.59	237.19
256.823	216.19
257.056	212.19
257.289	217.19
257.521	212.19
257.754	230.19
257.987	207.19
258.22	222.19
258.452	225.19
258.685	216.19
258.918	199.19
259.151	213.19
259.383	216.19
259.616	250.19
259.849	232.19
260.081	232.19
260.314	258.19
260.547	269.19
260.779	273.19
261.012	252.19
261.244	223.19
261.477	236.19
261.71	221.19
261.942	223.19
262.175	248.19
262.407	265.19
262.64	228.19
262.872	227.19
263.105	226.19
263.337	225.19
263.57	217.19
263.802	232.19
264.035	232.19
264.267	207.19
264.499	238.19
264.732	221.19
264.964	214.19
265.197	227.19
265.429	220.19
265.661	228.19
265.894	238.19
266.126	216.19
266.358	223.19
266.591	212.19
266.823	231.19
267.055	238.19
267.287	257.19
267.52	237.19
267.752	239.19
267.984	255.19
268.216	239.19
268.448	237.19
268.681	235.19
268.913	260.19
269.145	278.19
269.377	280.19
269.609	297.19
269.841	279.19
270.073	293.19
270.306	310.19
270.538	329.19
270.77	321.19
271.002	321.19
271.234	296.19
271.466	299.19
271.698	325.19
271.93	316.19
272.162	318.19
272.394	335.19
272.626	296.19
272.858	306.19
273.09	294.19
273.322	297.19
273.553	289.19
273.785	284.19
274.017	300.19
274.249	267.19
274.481	271.19
274.713	276.19
274.945	280.19
275.176	295.19
275.408	284.19
275.64	271.19
275.872	282.19
276.104	274.19
276.335	287.19
276.567	268.19
276.799	296.19
277.031	315.19
277.262	321.19
277.494	333.19
277.726	329.19
277.957	297.19
278.189	313.19
278.421	291.19
278.652	290.19
278.884	296.19
279.115	313.19
279.347	293.19
279.579	288.19
279.81	305.19
280.042	305.19
280.273	291.19
280.505	296.19
280.736	279.19
280.968	275.19
281.199	286.19
281.431	285.19
281.662	298.19
281.894	299.19
282.125	294.19
282.356	302.19
282.588	313.19
282.819	313.19
283.051	308.19
283.282	303.19
283.513	309.19
283.745	300.19
283.976	305.19
284.207	319.19
284.439	308.19
284.67	308.19
284.901	317.19
285.132	316.19
285.364	301.19
285.595	294.19
285.826	299.19
286.057	295.19
286.288	316.19
286.52	309.19
286.751	302.19
286.982	299.19
287.213	320.19
287.444	296.19
287.675	312.19
287.906	308.19
288.138	333.19
288.369	318.19
288.6	326.19
288.831	316.19
289.062	326.19
289.293	323.19
289.524	303.19
289.755	317.19
289.986	309.19
290.217	326.19
290.448	313.19
290.679	317.19
290.91	309.19
291.141	291.19
291.371	309.19
291.602	323.19
291.833	319.19
292.064	321.19
292.295	322.19
292.526	329.19
292.757	338.19
292.987	323.19
293.218	303.19
293.449	326.19
293.68	311.19
293.91	318.19
294.141	302.19
294.372	329.19
294.603	341.19
294.833	323.19
295.064	313.19
295.295	323.19
295.525	318.19
295.756	333.19
295.987	338.19
296.217	350.19
296.448	351.19
296.679	334.19
296.909	301.19
297.14	339.19
297.37	335.19
297.601	331.19
297.831	343.19
298.062	334.19
298.292	332.19
298.523	354.19
298.753	326.19
298.984	333.19
299.214	331.19
299.445	342.19
299.675	335.19
299.905	350.19
300.136	347.19
300.366	343.19
300.597	329.19
300.827	345.19
301.057	355.19
301.288	355.19
301.518	358.19
301.748	347.19
301.979	353.19
302.209	351.19
302.439	356.19
302.669	354.19
302.9	342.19
303.13	347.19
303.36	359.19
303.59	360.19
303.82	361.19
304.051	353.19
304.281	359.19
304.511	355.19
304.741	362.19
304.971	362.19
305.201	366.19
305.431	369.19
305.661	345.19
305.891	361.19
306.121	337.19
306.352	379.19
306.582	372.19
306.812	327.19
307.042	377.19
307.272	359.19
307.502	360.19
307.731	358.19
307.961	357.19
308.191	374.19
308.421	365.19
308.651	353.19
308.881	365.19
309.111	353.19
309.341	365.19
309.571	383.19
309.8	379.19
310.03	380.19
310.26	416.19
310.49	404.19
310.72	416.19
310.949	409.19
311.179	422.19
311.409	403.19
311.639	380.19
311.868	400.19
312.098	385.19
312.328	394.19
312.557	407.19
312.787	440.19
313.017	419.19
313.246	415.19
313.476	408.19
313.706	417.19
313.935	419.19
314.165	436.19
314.394	414.19
314.624	427.19
314.853	400.19
315.083	417.19
315.312	407.19
315.542	398.19
315.771	385.19
316.001	396.19
316.23	417.19
316.46	394.19
316.689	423.19
316.919	397.19
317.148	399.19
317.377	424.19
317.607	413.19
317.836	414.19
318.065	395.19
318.295	389.19
318.524	368.19
318.753	384.19
318.983	401.19
319.212	378.19
319.441	439.19
319.67	429.19
319.9	418.19
320.129	402.19
320.358	413.19
320.587	398.19
320.816	425.19
321.046	403.19
321.275	407.19
321.504	415.19
321.733	415.19
321.962	434.19
322.191	435.19
322.42	430.19
322.649	458.19
322.878	467.19
323.108	475.19
323.337	484.19
323.566	499.19
323.795	521.19
324.024	554.19
324.253	647.19
324.482	865.19
324.71	1325.19
324.939	1997.19
325.168	1743.19
325.397	873.19
325.626	610.19
325.855	532.19
326.084	513.19
326.313	493.19
326.542	531.19
326.77	547.19
326.999	609.19
327.228	804.19
327.457	1235.19
327.686	1524.19
327.914	997.19
328.143	697.19
328.372	602.19
328.6	559.19
328.829	540.19
329.058	570.19
329.287	557.19
329.515	557.19
329.744	499.19
329.972	520.19
330.201	532.19
330.43	583.19
330.658	598.19
330.887	621.19
331.115	587.19
331.344	531.19
331.572	505.19
331.801	525.19
332.03	522.19
332.258	511.19
332.486	490.19
332.715	489.19
332.943	488.19
333.172	498.19
333.4	510.19
333.629	535.19
333.857	533.19
334.085	531.19
334.314	537.19
334.542	549.19
334.771	584.19
334.999	544.19
335.227	510.19
335.455	469.19
335.684	502.19
335.912	483.19
336.14	474.19
336.369	482.19
336.597	498.19
336.825	500.19
337.053	484.19
337.281	456.19
337.51	459.19
337.738	469.19
337.966	453.19
338.194	448.19
338.422	485.19
338.65	494.19
338.878	459.19
339.106	467.19
339.334	456.19
339.562	468.19
339.79	454.19
340.018	461.19
340.246	479.19
340.474	463.19
340.702	480.19
340.93	484.19
341.158	452.19
341.386	454.19
341.614	466.19
341.842	461.19
342.07	458.19
342.298	462.19
342.526	436.19
342.754	462.19
342.981	455.19
343.209	441.19
343.437	469.19
343.665	477.19
343.893	499.19
344.12	495.19
344.348	479.19
344.576	486.19
344.804	481.19
345.031	455.19
345.259	486.19
345.487	460.19
345.714	453.19
345.942	440.19
346.17	446.19
346.397	446.19
346.625	440.19
346.853	440.19
347.08	407.19
347.308	442.19
347.535	458.19
347.763	458.19
347.99	467.19
348.218	430.19
348.445	432.19
348.673	445.19
348.9	442.19
349.128	427.19
349.355	433.19
349.583	411.19
349.81	435.19
350.037	439.19
350.265	419.19
350.492	423.19
350.72	427.19
350.947	455.19
351.174	449.19
351.402	449.19
351.629	439.19
351.856	440.19
352.083	461.19
352.311	444.19
352.538	453.19
352.765	463.19
352.992	454.19
353.22	420.19
353.447	426.19
353.674	423.19
353.901	427.19
354.128	435.19
354.355	422.19
354.583	403.19
354.81	415.19
355.037	412.19
355.264	410.19
355.491	427.19
355.718	427.19
355.945	418.19
356.172	425.19
356.399	419.19
356.626	398.19
356.853	417.19
357.08	404.19
357.307	415.19
357.534	390.19
357.761	422.19
357.988	430.19
358.215	434.19
358.441	419.19
358.668	421.19
358.895	427.19
359.122	421.19
359.349	440.19
359.576	465.19
359.802	461.19
360.029	470.19
360.256	475.19
360.483	456.19
360.709	430.19
360.936	426.19
361.163	451.19
361.39	442.19
361.616	428.19
361.843	424.19
362.07	452.19
362.296	454.19
362.523	437.19
362.749	438.19
362.976	461.19
363.203	445.19
363.429	448.19
363.656	434.19
363.882	413.19
364.109	407.19
364.335	419.19
364.562	435.19
364.788	421.19
365.015	441.19
365.241	427.19
365.468	426.19
365.694	430.19
365.92	431.19
366.147	427.19
366.373	430.19
366.599	399.19
366.826	412.19
367.052	412.19
367.278	417.19
367.505	419.19
367.731	439.19
367.957	422.19
368.184	427.19
368.41	456.19
368.636	425.19
368.862	415.19
369.089	440.19
369.315	419.19
369.541	426.19
369.767	422.19
369.993	437.19
370.219	444.19
370.445	438.19
370.672	428.19
370.898	441.19
371.124	445.19
371.35	419.19
371.576	422.19
371.802	438.19
372.028	421.19
372.254	428.19
372.48	455.19
372.706	442.19
372.932	444.19
373.158	428.19
373.384	427.19
373.61	431.19
373.835	416.19
374.061	429.19
374.287	449.19
374.513	424.19
374.739	453.19
374.965	447.19
375.191	460.19
375.416	457.19
375.642	439.19
375.868	436.19
376.094	438.19
376.319	421.19
376.545	427.19
376.771	411.19
376.997	433.19
377.222	435.19
377.448	419.19
377.674	425.19
377.899	438.19
378.125	424.19
378.35	423.19
378.576	425.19
378.802	425.19
379.027	433.19
379.253	439.19
379.478	441.19
379.704	421.19
379.929	423.19
380.155	423.19
380.38	434.19
380.606	413.19
380.831	445.19
381.057	445.19
381.282	440.19
381.507	435.19
381.733	430.19
381.958	434.19
382.184	435.19
382.409	432.19
382.634	437.19
382.86	445.19
383.085	444.19
383.31	449.19
383.535	457.19
383.761	454.19
383.986	447.19
384.211	461.19
384.436	477.19
384.662	477.19
384.887	476.19
385.112	483.19
385.337	467.19
385.562	473.19
385.787	459.19
386.013	497.19
386.238	478.19
386.463	471.19
386.688	480.19
386.913	475.19
387.138	475.19
387.363	483.19
387.588	461.19
387.813	478.19
388.038	463.19
388.263	486.19
388.488	465.19
388.713	476.19
388.938	464.19
389.163	470.19
389.387	475.19
389.612	488.19
389.837	474.19
390.062	478.19
390.287	475.19
390.512	473.19
390.736	471.19
390.961	464.19
391.186	473.19
391.411	477.19
391.636	468.19
391.86	513.19
392.085	480.19
392.31	525.19
392.534	504.19
392.759	492.19
392.984	492.19
393.208	478.19
393.433	487.19
393.658	480.19
393.882	482.19
394.107	494.19
394.331	516.19
394.556	480.19
394.78	495.19
395.005	501.19
395.229	498.19
395.454	505.19
395.678	502.19
395.903	504.19
396.127	529.19
396.352	534.19
396.576	518.19
396.801	487.19
397.025	496.19
397.249	524.19
397.474	513.19
397.698	505.19
397.922	506.19
398.147	532.19
398.371	540.19
398.595	565.19
398.82	537.19
399.044	575.19
399.268	601.19
399.492	621.19
399.717	692.19
399.941	726.19
400.165	714.19
400.389	686.19
400.613	636.19
400.837	602.19
401.062	589.19
401.286	572.19
401.51	592.19
401.734	588.19
401.958	583.19
402.182	558.19
402.406	576.19
402.63	586.19
402.854	572.19
403.078	601.19
403.302	592.19
403.526	579.19
403.75	577.19
403.974	604.19
404.198	604.19
404.422	597.19
404.645	584.19
404.869	594.19
405.093	641.19
405.317	652.19
405.541	709.19
405.765	651.19
405.988	623.19
406.212	615.19
406.436	637.19
406.66	639.19
406.883	630.19
407.107	685.19
407.331	707.19
407.555	794.19
407.778	771.19
408.002	728.19
408.226	675.19
408.449	658.19
408.673	636.19
408.896	679.19
409.12	708.19
409.344	664.19
409.567	619.19
409.791	590.19
410.014	586.19
410.238	581.19
410.461	571.19
410.685	588.19
410.908	613.19
411.132	624.19
411.355	675.19
411.578	637.19
411.802	590.19
412.025	582.19
412.249	621.19
412.472	619.19
412.695	653.19
412.919	629.19
413.142	582.19
413.365	549.19
413.589	569.19
413.812	544.19
414.035	539.19
414.258	537.19
414.482	540.19
414.705	556.19
414.928	591.19
415.151	553.19
415.374	539.19
415.597	549.19
415.821	531.19
416.044	537.19
416.267	548.19
416.49	555.19
416.713	545.19
416.936	535.19
417.159	549.19
417.382	564.19
417.605	585.19
417.828	559.19
418.051	586.19
418.274	555.19
418.497	548.19
418.72	550.19
418.943	554.19
419.166	583.19
419.389	590.19
419.611	579.19
419.834	611.19
420.057	599.19
420.28	576.19
420.503	582.19
420.726	589.19
420.948	579.19
421.171	616.19
421.394	661.19
421.617	596.19
421.839	566.19
422.062	576.19
422.285	592.19
422.507	629.19
422.73	697.19
422.953	709.19
423.175	635.19
423.398	595.19
423.621	589.19
423.843	598.19
424.066	635.19
424.288	629.19
424.511	617.19
424.733	674.19
424.956	773.19
425.178	742.19
425.401	724.19
425.623	771.19
425.846	642.19
426.068	637.19
426.291	579.19
426.513	598.19
426.735	608.19
426.958	641.19
427.18	716.19
427.402	863.19
427.625	925.19
427.847	823.19
428.069	705.19
428.292	644.19
428.514	609.19
428.736	552.19
428.958	564.19
429.181	548.19
429.403	535.19
429.625	581.19
429.847	593.19
430.069	689.19
430.292	635.19
430.514	591.19
430.736	557.19
430.958	535.19
431.18	539.19
431.402	558.19
431.624	539.19
431.846	531.19
432.068	537.19
432.29	514.19
432.512	520.19
432.734	546.19
432.956	532.19
433.178	553.19
433.4	556.19
433.622	533.19
433.844	526.19
434.066	537.19
434.287	527.19
434.509	543.19
434.731	539.19
434.953	550.19
435.175	578.19
435.397	599.19
435.618	616.19
435.84	645.19
436.062	717.19
436.284	805.19
436.505	687.19
436.727	617.19
436.949	595.19
437.17	587.19
437.392	558.19
437.614	553.19
437.835	569.19
438.057	684.19
438.278	779.19
438.5	783.19
438.721	882.19
438.943	825.19
439.165	673.19
439.386	618.19
439.608	614.19
439.829	603.19
440.05	616.19
440.272	661.19
440.493	630.19
440.715	575.19
440.936	571.19
441.158	575.19
441.379	543.19
441.6	585.19
441.822	609.19
442.043	642.19
442.264	718.19
442.486	771.19
442.707	681.19
442.928	611.19
443.149	639.19
443.371	649.19
443.592	683.19
443.813	770.19
444.034	829.19
444.255	714.19
444.476	638.19
444.698	636.19
444.919	620.19
445.14	731.19
445.361	686.19
445.582	674.19
445.803	724.19
446.024	791.19
446.245	806.19
446.466	757.19
446.687	651.19
446.908	607.19
447.129	583.19
447.35	550.19
447.571	556.19
447.792	554.19
448.013	546.19
448.234	567.19
448.455	583.19
448.675	702.19
448.896	822.19
449.117	697.19
449.338	669.19
449.559	783.19
449.779	881.19
450	719.19
450.221	616.19
450.442	556.19
450.662	540.19
450.883	538.19
451.104	532.19
451.324	549.19
451.545	505.19
451.766	523.19
451.986	516.19
452.207	468.19
452.428	486.19
452.648	502.19
452.869	485.19
453.089	503.19
453.31	503.19
453.53	497.19
453.751	497.19
453.971	474.19
454.192	485.19
454.412	466.19
454.633	484.19
454.853	491.19
455.073	483.19
455.294	508.19
455.514	571.19
455.734	561.19
455.955	474.19
456.175	474.19
456.395	462.19
456.616	459.19
456.836	450.19
457.056	470.19
457.276	450.19
457.497	481.19
457.717	477.19
457.937	458.19
458.157	479.19
458.377	470.19
458.598	510.19
458.818	557.19
459.038	645.19
459.258	645.19
459.478	572.19
459.698	554.19
459.918	513.19
460.138	527.19
460.358	542.19
460.578	546.19
460.798	579.19
461.018	562.19
461.238	548.19
461.458	544.19
461.678	539.19
461.898	557.19
462.118	556.19
462.338	583.19
462.558	585.19
462.777	577.19
462.997	600.19
463.217	649.19
463.437	621.19
463.657	608.19
463.876	606.19
464.096	590.19
464.316	569.19
464.536	587.19
464.755	591.19
464.975	607.19
465.195	590.19
465.414	635.19
465.634	618.19
465.854	566.19
466.073	541.19
466.293	515.19
466.512	496.19
466.732	498.19
466.951	507.19
467.171	516.19
467.391	516.19
467.61	516.19
467.829	518.19
468.049	508.19
468.268	519.19
468.488	490.19
468.707	490.19
468.927	498.19
469.146	485.19
469.365	482.19
469.585	501.19
469.804	509.19
470.023	516.19
470.243	524.19
470.462	503.19
470.681	543.19
470.901	527.19
471.12	535.19
471.339	530.19
471.558	527.19
471.777	493.19
471.997	514.19
472.216	520.19
472.435	532.19
472.654	520.19
472.873	504.19
473.092	481.19
473.311	518.19
473.53	523.19
473.749	537.19
473.968	540.19
474.187	654.19
474.406	665.19
474.625	583.19
474.844	541.19
475.063	508.19
475.282	489.19
475.501	515.19
475.72	519.19
475.939	514.19
476.158	533.19
476.377	553.19
476.596	519.19
476.814	523.19
477.033	531.19
477.252	534.19
477.471	553.19
477.69	539.19
477.908	563.19
478.127	580.19
478.346	565.19
478.564	585.19
478.783	577.19
479.002	574.19
479.22	578.19
479.439	596.19
479.658	599.19
479.876	604.19
480.095	612.19
480.313	655.19
480.532	652.19
480.751	646.19
480.969	637.19
481.188	665.19
481.406	695.19
481.624	638.19
481.843	628.19
482.061	617.19
482.28	583.19
482.498	594.19
482.717	590.19
482.935	589.19
483.153	574.19
483.372	585.19
483.59	597.19
483.808	605.19
484.027	586.19
484.245	601.19
484.463	590.19
484.681	602.19
484.9	597.19
485.118	592.19
485.336	610.19
485.554	609.19
485.772	646.19
485.99	618.19
486.209	623.19
486.427	629.19
486.645	632.19
486.863	651.19
487.081	650.19
487.299	618.19
487.517	639.19
487.735	626.19
487.953	627.19
488.171	615.19
488.389	650.19
488.607	638.19
488.825	641.19
489.043	621.19
489.261	630.19
489.479	643.19
489.696	629.19
489.914	653.19
490.132	649.19
490.35	663.19
490.568	686.19
490.786	681.19
491.003	668.19
491.221	689.19
491.439	699.19
491.657	729.19
491.874	715.19
492.092	713.19
492.31	741.19
492.527	741.19
492.745	730.19
492.963	736.19
493.18	753.19
493.398	761.19
493.615	751.19
493.833	756.19
494.05	737.19
494.268	746.19
494.485	755.19
494.703	735.19
494.92	745.19
495.138	756.19
495.355	761.19
495.573	757.19
495.79	765.19
496.008	761.19
496.225	750.19
496.442	744.19
496.66	733.19
496.877	734.19
497.094	790.19
497.312	765.19
497.529	783.19
497.746	803.19
497.963	822.19
498.181	835.19
498.398	854.19
498.615	842.19
498.832	882.19
499.049	902.19
499.267	935.19
499.484	971.19
499.701	1045.19
499.918	1093.19
500.135	1131.19
500.352	1227.19
500.569	1210.19
500.786	1216.19
501.003	1166.19
501.22	1142.19
501.437	1110.19
501.654	1046.19
