Data from 1976.PennyLincolnUp.Lamp.En5.5.200Scan.071719.P1.Changed Mount._HRD10591_16-02-31-861.txt Node
Date: Thu Jul 18 16:02:31 EDT 2019
User: cochatt
Spectrometer: HR+D1059
Trigger mode: 1
Integration Time (sec): 1.000000E-1
Scans to average: 1
Electric dark correction enabled: true
Nonlinearity correction enabled: false
Boxcar width: 0
XAxis mode: Wavelengths
Number of Pixels in Spectrum: 2048
>>>>>Begin Spectral Data<<<<<
223.165	-28.5
223.4	-28.5
223.635	-28.5
223.869	-10.5
224.104	-16.5
224.338	-9.5
224.573	-5.5
224.808	-14.5
225.042	2.5
225.277	-6.5
225.511	-3.5
225.746	7.5
225.98	13.5
226.215	4.5
226.449	8.5
226.683	8.5
226.918	18.5
227.152	31.5
227.387	42.5
227.621	35.5
227.856	43.5
228.09	39.5
228.324	59.5
228.559	46.5
228.793	73.5
229.027	87.5
229.262	105.5
229.496	112.5
229.73	144.5
229.964	157.5
230.199	132.5
230.433	108.5
230.667	113.5
230.901	122.5
231.136	120.5
231.37	105.5
231.604	118.5
231.838	102.5
232.072	116.5
232.306	121.5
232.541	124.5
232.775	110.5
233.009	111.5
233.243	117.5
233.477	117.5
233.711	132.5
233.945	118.5
234.179	119.5
234.413	123.5
234.647	128.5
234.881	136.5
235.115	134.5
235.349	117.5
235.583	119.5
235.817	127.5
236.051	121.5
236.285	131.5
236.519	125.5
236.753	141.5
236.987	150.5
237.221	188.5
237.455	243.5
237.689	191.5
237.922	147.5
238.156	139.5
238.39	150.5
238.624	121.5
238.858	131.5
239.091	144.5
239.325	125.5
239.559	141.5
239.793	144.5
240.027	130.5
240.26	151.5
240.494	161.5
240.728	160.5
240.961	152.5
241.195	152.5
241.429	158.5
241.662	135.5
241.896	133.5
242.13	137.5
242.363	152.5
242.597	123.5
242.83	135.5
243.064	157.5
243.298	157.5
243.531	139.5
243.765	150.5
243.998	166.5
244.232	148.5
244.465	156.5
244.699	154.5
244.932	159.5
245.166	149.5
245.399	151.5
245.633	156.5
245.866	170.5
246.099	141.5
246.333	159.5
246.566	163.5
246.8	158.5
247.033	165.5
247.266	157.5
247.5	162.5
247.733	167.5
247.966	175.5
248.2	173.5
248.433	176.5
248.666	185.5
248.899	200.5
249.133	209.5
249.366	222.5
249.599	207.5
249.832	214.5
250.066	200.5
250.299	184.5
250.532	199.5
250.765	222.5
250.998	235.5
251.231	243.5
251.465	222.5
251.698	226.5
251.931	208.5
252.164	206.5
252.397	200.5
252.63	222.5
252.863	208.5
253.096	230.5
253.329	245.5
253.562	238.5
253.795	247.5
254.028	219.5
254.261	227.5
254.494	244.5
254.727	250.5
254.96	304.5
255.193	295.5
255.426	275.5
255.659	240.5
255.892	230.5
256.124	242.5
256.357	267.5
256.59	231.5
256.823	243.5
257.056	239.5
257.289	217.5
257.521	225.5
257.754	197.5
257.987	227.5
258.22	220.5
258.452	221.5
258.685	238.5
258.918	204.5
259.151	230.5
259.383	232.5
259.616	241.5
259.849	248.5
260.081	257.5
260.314	296.5
260.547	283.5
260.779	257.5
261.012	257.5
261.244	251.5
261.477	244.5
261.71	231.5
261.942	225.5
262.175	236.5
262.407	246.5
262.64	239.5
262.872	238.5
263.105	246.5
263.337	228.5
263.57	231.5
263.802	230.5
264.035	247.5
264.267	234.5
264.499	232.5
264.732	219.5
264.964	229.5
265.197	225.5
265.429	255.5
265.661	232.5
265.894	251.5
266.126	240.5
266.358	226.5
266.591	247.5
266.823	252.5
267.055	255.5
267.287	264.5
267.52	243.5
267.752	243.5
267.984	248.5
268.216	236.5
268.448	245.5
268.681	265.5
268.913	270.5
269.145	284.5
269.377	303.5
269.609	309.5
269.841	290.5
270.073	305.5
270.306	315.5
270.538	334.5
270.77	349.5
271.002	315.5
271.234	322.5
271.466	328.5
271.698	332.5
271.93	360.5
272.162	340.5
272.394	348.5
272.626	315.5
272.858	301.5
273.09	300.5
273.322	288.5
273.553	293.5
273.785	274.5
274.017	296.5
274.249	296.5
274.481	298.5
274.713	307.5
274.945	293.5
275.176	297.5
275.408	281.5
275.64	278.5
275.872	301.5
276.104	283.5
276.335	297.5
276.567	304.5
276.799	305.5
277.031	335.5
277.262	360.5
277.494	350.5
277.726	335.5
277.957	321.5
278.189	312.5
278.421	291.5
278.652	291.5
278.884	315.5
279.115	298.5
279.347	285.5
279.579	291.5
279.81	303.5
280.042	295.5
280.273	286.5
280.505	303.5
280.736	293.5
280.968	302.5
281.199	309.5
281.431	307.5
281.662	306.5
281.894	294.5
282.125	310.5
282.356	330.5
282.588	329.5
282.819	324.5
283.051	326.5
283.282	284.5
283.513	312.5
283.745	313.5
283.976	303.5
284.207	310.5
284.439	313.5
284.67	317.5
284.901	308.5
285.132	322.5
285.364	312.5
285.595	311.5
285.826	326.5
286.057	307.5
286.288	304.5
286.52	310.5
286.751	301.5
286.982	317.5
287.213	332.5
287.444	325.5
287.675	311.5
287.906	335.5
288.138	346.5
288.369	331.5
288.6	332.5
288.831	333.5
289.062	329.5
289.293	326.5
289.524	341.5
289.755	343.5
289.986	315.5
290.217	328.5
290.448	322.5
290.679	325.5
290.91	333.5
291.141	310.5
291.371	295.5
291.602	311.5
291.833	315.5
292.064	310.5
292.295	307.5
292.526	320.5
292.757	316.5
292.987	319.5
293.218	344.5
293.449	315.5
293.68	335.5
293.91	320.5
294.141	320.5
294.372	333.5
294.603	327.5
294.833	320.5
295.064	321.5
295.295	325.5
295.525	331.5
295.756	336.5
295.987	333.5
296.217	361.5
296.448	375.5
296.679	353.5
296.909	320.5
297.14	342.5
297.37	337.5
297.601	351.5
297.831	340.5
298.062	317.5
298.292	344.5
298.523	347.5
298.753	343.5
298.984	330.5
299.214	351.5
299.445	336.5
299.675	343.5
299.905	365.5
300.136	343.5
300.366	354.5
300.597	349.5
300.827	357.5
301.057	361.5
301.288	363.5
301.518	363.5
301.748	364.5
301.979	380.5
302.209	372.5
302.439	372.5
302.669	374.5
302.9	384.5
303.13	373.5
303.36	355.5
303.59	380.5
303.82	379.5
304.051	388.5
304.281	379.5
304.511	360.5
304.741	359.5
304.971	359.5
305.201	339.5
305.431	356.5
305.661	371.5
305.891	363.5
306.121	378.5
306.352	379.5
306.582	373.5
306.812	378.5
307.042	361.5
307.272	347.5
307.502	363.5
307.731	377.5
307.961	377.5
308.191	375.5
308.421	341.5
308.651	376.5
308.881	393.5
309.111	367.5
309.341	369.5
309.571	383.5
309.8	395.5
310.03	396.5
310.26	399.5
310.49	391.5
310.72	412.5
310.949	417.5
311.179	439.5
311.409	420.5
311.639	418.5
311.868	409.5
312.098	404.5
312.328	424.5
312.557	432.5
312.787	415.5
313.017	442.5
313.246	433.5
313.476	415.5
313.706	421.5
313.935	399.5
314.165	430.5
314.394	439.5
314.624	429.5
314.853	408.5
315.083	415.5
315.312	421.5
315.542	425.5
315.771	436.5
316.001	397.5
316.23	409.5
316.46	398.5
316.689	417.5
316.919	408.5
317.148	419.5
317.377	427.5
317.607	428.5
317.836	398.5
318.065	421.5
318.295	407.5
318.524	430.5
318.753	421.5
318.983	407.5
319.212	412.5
319.441	424.5
319.67	440.5
319.9	417.5
320.129	409.5
320.358	417.5
320.587	407.5
320.816	403.5
321.046	409.5
321.275	440.5
321.504	417.5
321.733	425.5
321.962	449.5
322.191	454.5
322.42	451.5
322.649	490.5
322.878	493.5
323.108	492.5
323.337	505.5
323.566	501.5
323.795	541.5
324.024	573.5
324.253	682.5
324.482	939.5
324.71	1471.5
324.939	2169.5
325.168	1873.5
325.397	938.5
325.626	639.5
325.855	545.5
326.084	517.5
326.313	532.5
326.542	521.5
326.77	586.5
326.999	656.5
327.228	896.5
327.457	1315.5
327.686	1632.5
327.914	1080.5
328.143	744.5
328.372	636.5
328.6	598.5
328.829	587.5
329.058	578.5
329.287	606.5
329.515	565.5
329.744	525.5
329.972	537.5
330.201	557.5
330.43	592.5
330.658	584.5
330.887	606.5
331.115	606.5
331.344	555.5
331.572	528.5
331.801	523.5
332.03	519.5
332.258	499.5
332.486	515.5
332.715	506.5
332.943	508.5
333.172	524.5
333.4	518.5
333.629	544.5
333.857	512.5
334.085	558.5
334.314	558.5
334.542	600.5
334.771	597.5
334.999	549.5
335.227	544.5
335.455	525.5
335.684	494.5
335.912	487.5
336.14	502.5
336.369	479.5
336.597	482.5
336.825	487.5
337.053	490.5
337.281	485.5
337.51	457.5
337.738	500.5
337.966	494.5
338.194	467.5
338.422	481.5
338.65	469.5
338.878	489.5
339.106	485.5
339.334	487.5
339.562	468.5
339.79	473.5
340.018	463.5
340.246	489.5
340.474	461.5
340.702	471.5
340.93	458.5
341.158	466.5
341.386	445.5
341.614	456.5
341.842	451.5
342.07	461.5
342.298	467.5
342.526	470.5
342.754	483.5
342.981	454.5
343.209	455.5
343.437	464.5
343.665	475.5
343.893	484.5
344.12	500.5
344.348	511.5
344.576	488.5
344.804	490.5
345.031	495.5
345.259	468.5
345.487	473.5
345.714	449.5
345.942	447.5
346.17	437.5
346.397	453.5
346.625	450.5
346.853	456.5
347.08	449.5
347.308	450.5
347.535	460.5
347.763	471.5
347.99	447.5
348.218	449.5
348.445	452.5
348.673	457.5
348.9	452.5
349.128	435.5
349.355	445.5
349.583	445.5
349.81	445.5
350.037	422.5
350.265	427.5
350.492	415.5
350.72	457.5
350.947	430.5
351.174	454.5
351.402	453.5
351.629	445.5
351.856	452.5
352.083	443.5
352.311	467.5
352.538	445.5
352.765	472.5
352.992	456.5
353.22	444.5
353.447	453.5
353.674	439.5
353.901	431.5
354.128	425.5
354.355	422.5
354.583	427.5
354.81	433.5
355.037	425.5
355.264	411.5
355.491	428.5
355.718	426.5
355.945	404.5
356.172	416.5
356.399	427.5
356.626	406.5
356.853	430.5
357.08	414.5
357.307	409.5
357.534	415.5
357.761	409.5
357.988	412.5
358.215	420.5
358.441	437.5
358.668	423.5
358.895	430.5
359.122	435.5
359.349	446.5
359.576	455.5
359.802	446.5
360.029	486.5
360.256	497.5
360.483	491.5
360.709	451.5
360.936	440.5
361.163	441.5
361.39	440.5
361.616	456.5
361.843	437.5
362.07	430.5
362.296	445.5
362.523	450.5
362.749	468.5
362.976	439.5
363.203	438.5
363.429	432.5
363.656	439.5
363.882	437.5
364.109	425.5
364.335	440.5
364.562	442.5
364.788	423.5
365.015	443.5
365.241	415.5
365.468	436.5
365.694	451.5
365.92	446.5
366.147	439.5
366.373	419.5
366.599	435.5
366.826	423.5
367.052	429.5
367.278	425.5
367.505	424.5
367.731	423.5
367.957	421.5
368.184	439.5
368.41	439.5
368.636	443.5
368.862	461.5
369.089	451.5
369.315	452.5
369.541	438.5
369.767	439.5
369.993	420.5
370.219	423.5
370.445	424.5
370.672	446.5
370.898	438.5
371.124	444.5
371.35	442.5
371.576	447.5
371.802	448.5
372.028	436.5
372.254	425.5
372.48	433.5
372.706	439.5
372.932	422.5
373.158	444.5
373.384	464.5
373.61	437.5
373.835	446.5
374.061	435.5
374.287	430.5
374.513	455.5
374.739	461.5
374.965	443.5
375.191	457.5
375.416	446.5
375.642	444.5
375.868	451.5
376.094	430.5
376.319	440.5
376.545	411.5
376.771	429.5
376.997	428.5
377.222	428.5
377.448	449.5
377.674	432.5
377.899	449.5
378.125	422.5
378.35	413.5
378.576	443.5
378.802	444.5
379.027	431.5
379.253	421.5
379.478	429.5
379.704	438.5
379.929	424.5
380.155	444.5
380.38	432.5
380.606	444.5
380.831	446.5
381.057	460.5
381.282	435.5
381.507	455.5
381.733	468.5
381.958	429.5
382.184	445.5
382.409	437.5
382.634	452.5
382.86	446.5
383.085	456.5
383.31	469.5
383.535	462.5
383.761	477.5
383.986	451.5
384.211	484.5
384.436	451.5
384.662	480.5
384.887	467.5
385.112	466.5
385.337	502.5
385.562	467.5
385.787	484.5
386.013	491.5
386.238	486.5
386.463	501.5
386.688	495.5
386.913	471.5
387.138	465.5
387.363	472.5
387.588	472.5
387.813	467.5
388.038	480.5
388.263	499.5
388.488	503.5
388.713	481.5
388.938	472.5
389.163	487.5
389.387	499.5
389.612	495.5
389.837	492.5
390.062	487.5
390.287	475.5
390.512	504.5
390.736	483.5
390.961	492.5
391.186	503.5
391.411	490.5
391.636	497.5
391.86	511.5
392.085	516.5
392.31	525.5
392.534	501.5
392.759	507.5
392.984	505.5
393.208	472.5
393.433	486.5
393.658	501.5
393.882	511.5
394.107	516.5
394.331	482.5
394.556	491.5
394.78	496.5
395.005	492.5
395.229	491.5
395.454	519.5
395.678	510.5
395.903	529.5
396.127	544.5
396.352	527.5
396.576	511.5
396.801	481.5
397.025	529.5
397.249	535.5
397.474	547.5
397.698	541.5
397.922	541.5
398.147	534.5
398.371	560.5
398.595	538.5
398.82	581.5
399.044	554.5
399.268	600.5
399.492	643.5
399.717	682.5
399.941	697.5
400.165	713.5
400.389	718.5
400.613	663.5
400.837	601.5
401.062	605.5
401.286	573.5
401.51	551.5
401.734	571.5
401.958	571.5
402.182	582.5
402.406	583.5
402.63	573.5
402.854	597.5
403.078	585.5
403.302	568.5
403.526	589.5
403.75	599.5
403.974	592.5
404.198	616.5
404.422	601.5
404.645	604.5
404.869	611.5
405.093	631.5
405.317	667.5
405.541	715.5
405.765	665.5
405.988	625.5
406.212	622.5
406.436	630.5
406.66	661.5
406.883	638.5
407.107	677.5
407.331	704.5
407.555	787.5
407.778	779.5
408.002	715.5
408.226	672.5
408.449	650.5
408.673	638.5
408.896	671.5
409.12	709.5
409.344	709.5
409.567	630.5
409.791	624.5
410.014	612.5
410.238	589.5
410.461	600.5
410.685	597.5
410.908	604.5
411.132	654.5
411.355	675.5
411.578	647.5
411.802	582.5
412.025	592.5
412.249	609.5
412.472	614.5
412.695	658.5
412.919	652.5
413.142	585.5
413.365	584.5
413.589	583.5
413.812	593.5
414.035	582.5
414.258	549.5
414.482	565.5
414.705	546.5
414.928	571.5
415.151	575.5
415.374	544.5
415.597	544.5
415.821	561.5
416.044	564.5
416.267	573.5
416.49	542.5
416.713	541.5
416.936	561.5
417.159	544.5
417.382	542.5
417.605	553.5
417.828	589.5
418.051	560.5
418.274	571.5
418.497	566.5
418.72	547.5
418.943	562.5
419.166	583.5
419.389	595.5
419.611	600.5
419.834	596.5
420.057	580.5
420.28	596.5
420.503	577.5
420.726	577.5
420.948	593.5
421.171	650.5
421.394	681.5
421.617	609.5
421.839	586.5
422.062	615.5
422.285	614.5
422.507	655.5
422.73	721.5
422.953	715.5
423.175	649.5
423.398	634.5
423.621	615.5
423.843	625.5
424.066	637.5
424.288	595.5
424.511	647.5
424.733	711.5
424.956	787.5
425.178	737.5
425.401	707.5
425.623	765.5
425.846	648.5
426.068	594.5
426.291	629.5
426.513	597.5
426.735	622.5
426.958	660.5
427.18	775.5
427.402	892.5
427.625	947.5
427.847	809.5
428.069	735.5
428.292	653.5
428.514	591.5
428.736	566.5
428.958	582.5
429.181	575.5
429.403	560.5
429.625	560.5
429.847	594.5
430.069	691.5
430.292	672.5
430.514	575.5
430.736	575.5
430.958	558.5
431.18	541.5
431.402	558.5
431.624	529.5
431.846	535.5
432.068	555.5
432.29	545.5
432.512	547.5
432.734	527.5
432.956	535.5
433.178	540.5
433.4	554.5
433.622	551.5
433.844	561.5
434.066	540.5
434.287	546.5
434.509	550.5
434.731	572.5
434.953	575.5
435.175	575.5
435.397	623.5
435.618	619.5
435.84	654.5
436.062	735.5
436.284	813.5
436.505	677.5
436.727	604.5
436.949	581.5
437.17	559.5
437.392	554.5
437.614	568.5
437.835	615.5
438.057	659.5
438.278	834.5
438.5	805.5
438.721	894.5
438.943	867.5
439.165	665.5
439.386	629.5
439.608	621.5
439.829	610.5
440.05	649.5
440.272	695.5
440.493	640.5
440.715	598.5
440.936	590.5
441.158	566.5
441.379	565.5
441.6	569.5
441.822	630.5
442.043	663.5
442.264	745.5
442.486	793.5
442.707	670.5
442.928	636.5
443.149	627.5
443.371	666.5
443.592	672.5
443.813	798.5
444.034	864.5
444.255	716.5
444.476	649.5
444.698	639.5
444.919	629.5
445.14	733.5
445.361	675.5
445.582	676.5
445.803	725.5
446.024	809.5
446.245	840.5
446.466	785.5
446.687	642.5
446.908	589.5
447.129	579.5
447.35	533.5
447.571	586.5
447.792	565.5
448.013	549.5
448.234	556.5
448.455	623.5
448.675	779.5
448.896	887.5
449.117	747.5
449.338	710.5
449.559	817.5
449.779	921.5
450	755.5
450.221	602.5
450.442	548.5
450.662	556.5
450.883	519.5
451.104	550.5
451.324	544.5
451.545	514.5
451.766	512.5
451.986	492.5
452.207	495.5
452.428	487.5
452.648	482.5
452.869	479.5
453.089	510.5
453.31	517.5
453.53	511.5
453.751	517.5
453.971	518.5
454.192	512.5
454.412	503.5
454.633	516.5
454.853	496.5
455.073	495.5
455.294	528.5
455.514	594.5
455.734	580.5
455.955	503.5
456.175	474.5
456.395	466.5
456.616	476.5
456.836	459.5
457.056	447.5
457.276	466.5
457.497	459.5
457.717	476.5
457.937	460.5
458.157	490.5
458.377	493.5
458.598	523.5
458.818	563.5
459.038	626.5
459.258	677.5
459.478	543.5
459.698	546.5
459.918	551.5
460.138	545.5
460.358	533.5
460.578	567.5
460.798	578.5
461.018	564.5
461.238	550.5
461.458	555.5
461.678	553.5
461.898	584.5
462.118	551.5
462.338	578.5
462.558	575.5
462.777	609.5
462.997	608.5
463.217	625.5
463.437	629.5
463.657	604.5
463.876	617.5
464.096	596.5
464.316	601.5
464.536	601.5
464.755	599.5
464.975	613.5
465.195	625.5
465.414	684.5
465.634	607.5
465.854	575.5
466.073	564.5
466.293	524.5
466.512	523.5
466.732	508.5
466.951	511.5
467.171	503.5
467.391	537.5
467.61	520.5
467.829	518.5
468.049	528.5
468.268	545.5
468.488	524.5
468.707	503.5
468.927	495.5
469.146	504.5
469.365	506.5
469.585	502.5
469.804	502.5
470.023	513.5
470.243	521.5
470.462	532.5
470.681	514.5
470.901	551.5
471.12	529.5
471.339	542.5
471.558	519.5
471.777	524.5
471.997	525.5
472.216	520.5
472.435	555.5
472.654	552.5
472.873	534.5
473.092	503.5
473.311	528.5
473.53	494.5
473.749	537.5
473.968	576.5
474.187	673.5
474.406	706.5
474.625	579.5
474.844	532.5
475.063	501.5
475.282	540.5
475.501	527.5
475.72	528.5
475.939	512.5
476.158	529.5
476.377	542.5
476.596	527.5
476.814	534.5
477.033	561.5
477.252	552.5
477.471	555.5
477.69	547.5
477.908	565.5
478.127	579.5
478.346	570.5
478.564	565.5
478.783	580.5
479.002	566.5
479.22	597.5
479.439	608.5
479.658	612.5
479.876	631.5
480.095	648.5
480.313	669.5
480.532	659.5
480.751	643.5
480.969	673.5
481.188	704.5
481.406	716.5
481.624	667.5
481.843	623.5
482.061	609.5
482.28	597.5
482.498	599.5
482.717	563.5
482.935	602.5
483.153	613.5
483.372	607.5
483.59	604.5
483.808	605.5
484.027	600.5
484.245	614.5
484.463	604.5
484.681	626.5
484.9	607.5
485.118	616.5
485.336	620.5
485.554	611.5
485.772	620.5
485.99	611.5
486.209	608.5
486.427	631.5
486.645	647.5
486.863	656.5
487.081	657.5
487.299	639.5
487.517	645.5
487.735	635.5
487.953	677.5
488.171	663.5
488.389	671.5
488.607	659.5
488.825	667.5
489.043	654.5
489.261	665.5
489.479	671.5
489.696	663.5
489.914	655.5
490.132	641.5
490.35	663.5
490.568	685.5
490.786	677.5
491.003	685.5
491.221	713.5
491.439	701.5
491.657	739.5
491.874	729.5
492.092	735.5
492.31	734.5
492.527	773.5
492.745	748.5
492.963	735.5
493.18	723.5
493.398	773.5
493.615	754.5
493.833	732.5
494.05	753.5
494.268	749.5
494.485	775.5
494.703	738.5
494.92	771.5
495.138	773.5
495.355	748.5
495.573	748.5
495.79	775.5
496.008	769.5
496.225	790.5
496.442	762.5
496.66	793.5
496.877	797.5
497.094	805.5
497.312	802.5
497.529	808.5
497.746	822.5
497.963	810.5
498.181	833.5
498.398	853.5
498.615	875.5
498.832	869.5
499.049	900.5
499.267	943.5
499.484	1010.5
499.701	1036.5
499.918	1053.5
500.135	1141.5
500.352	1195.5
500.569	1233.5
500.786	1252.5
501.003	1203.5
501.22	1178.5
501.437	1124.5
501.654	1091.5
501.871	1025.5
502.088	971.5
502.305	934.5
502.522	895.5
502.739	901.5
502.956	825.5
503.172	816.5
503.389	812.5
503.606	789.5
503.823	802.5
504.04	793.5
504.256	790.5
504.473	776.5
504.69	787.5
504.907	768.5
505.123	797.5
505.34	732.5
505.557	734.5
505.773	728.5
505.99	734.5
506.207	741.5
506.423	751.5
506.64	732.5
506.856	702.5
507.073	711.5
507.289	684.5
507.506	713.5
507.722	687.5
507.939	720.5
508.155	722.5
508.372	678.5
508.588	676.5
508.805	667.5
509.021	681.5
509.238	683.5
509.454	684.5
509.67	699.5
509.887	656.5
510.103	643.5
510.319	670.5
510.536	737.5
510.752	1120.5
510.968	916.5
511.184	669.5
511.401	655.5
511.617	653.5
511.833	640.5
512.049	643.5
512.265	622.5
512.481	639.5
512.698	639.5
512.914	630.5
513.13	617.5
513.346	647.5
513.562	631.5
513.778	623.5
513.994	639.5
514.21	646.5
514.426	665.5
514.642	689.5
514.858	677.5
515.074	747.5
515.29	851.5
515.506	1166.5
515.721	952.5
515.937	731.5
516.153	712.5
516.369	671.5
516.585	681.5
516.801	670.5
517.016	684.5
517.232	680.5
517.448	672.5
517.664	688.5
517.879	671.5
518.095	681.5
518.311	694.5
518.527	669.5
518.742	663.5
518.958	679.5
519.173	676.5
519.389	653.5
519.605	647.5
