Data from 1976.PennyLincolnUp.Lamp.En5.5.200Scan.071719.P1.Changed Mount._HRD10591_16-02-37-864.txt Node
Date: Thu Jul 18 16:02:37 EDT 2019
User: cochatt
Spectrometer: HR+D1059
Trigger mode: 1
Integration Time (sec): 1.000000E-1
Scans to average: 1
Electric dark correction enabled: true
Nonlinearity correction enabled: false
Boxcar width: 0
XAxis mode: Wavelengths
Number of Pixels in Spectrum: 2048
>>>>>Begin Spectral Data<<<<<
223.165	-11.88
223.4	-11.88
223.635	-11.88
223.869	-5.88
224.104	-17.88
224.338	-20.88
224.573	6.12
224.808	-11.88
225.042	-16.88
225.277	-9.88
225.511	-6.88
225.746	-14.88
225.98	1.12
226.215	14.12
226.449	16.12
226.683	16.12
226.918	29.12
227.152	34.12
227.387	25.12
227.621	21.12
227.856	54.12
228.09	51.12
228.324	62.12
228.559	54.12
228.793	62.12
229.027	98.12
229.262	108.12
229.496	105.12
229.73	132.12
229.964	139.12
230.199	118.12
230.433	108.12
230.667	118.12
230.901	103.12
231.136	110.12
231.37	108.12
231.604	98.12
231.838	119.12
232.072	107.12
232.306	121.12
232.541	121.12
232.775	117.12
233.009	113.12
233.243	114.12
233.477	107.12
233.711	113.12
233.945	116.12
234.179	112.12
234.413	130.12
234.647	124.12
234.881	118.12
235.115	122.12
235.349	124.12
235.583	124.12
235.817	115.12
236.051	121.12
236.285	133.12
236.519	137.12
236.753	130.12
236.987	149.12
237.221	167.12
237.455	218.12
237.689	161.12
237.922	141.12
238.156	136.12
238.39	133.12
238.624	118.12
238.858	132.12
239.091	125.12
239.325	143.12
239.559	148.12
239.793	135.12
240.027	137.12
240.26	133.12
240.494	153.12
240.728	162.12
240.961	157.12
241.195	133.12
241.429	139.12
241.662	135.12
241.896	135.12
242.13	132.12
242.363	146.12
242.597	141.12
242.83	141.12
243.064	127.12
243.298	133.12
243.531	139.12
243.765	149.12
243.998	125.12
244.232	156.12
244.465	153.12
244.699	154.12
244.932	166.12
245.166	142.12
245.399	147.12
245.633	151.12
245.866	146.12
246.099	165.12
246.333	148.12
246.566	155.12
246.8	149.12
247.033	149.12
247.266	172.12
247.5	170.12
247.733	178.12
247.966	189.12
248.2	186.12
248.433	180.12
248.666	185.12
248.899	182.12
249.133	216.12
249.366	218.12
249.599	198.12
249.832	194.12
250.066	196.12
250.299	196.12
250.532	200.12
250.765	220.12
250.998	234.12
251.231	235.12
251.465	216.12
251.698	207.12
251.931	203.12
252.164	204.12
252.397	208.12
252.63	201.12
252.863	220.12
253.096	215.12
253.329	231.12
253.562	225.12
253.795	225.12
254.028	237.12
254.261	222.12
254.494	218.12
254.727	265.12
254.96	288.12
255.193	280.12
255.426	265.12
255.659	235.12
255.892	235.12
256.124	244.12
256.357	245.12
256.59	235.12
256.823	214.12
257.056	228.12
257.289	212.12
257.521	229.12
257.754	224.12
257.987	228.12
258.22	225.12
258.452	225.12
258.685	220.12
258.918	213.12
259.151	200.12
259.383	231.12
259.616	233.12
259.849	243.12
260.081	241.12
260.314	267.12
260.547	287.12
260.779	262.12
261.012	232.12
261.244	225.12
261.477	226.12
261.71	244.12
261.942	227.12
262.175	261.12
262.407	244.12
262.64	233.12
262.872	217.12
263.105	234.12
263.337	233.12
263.57	218.12
263.802	215.12
264.035	225.12
264.267	209.12
264.499	225.12
264.732	238.12
264.964	229.12
265.197	204.12
265.429	234.12
265.661	229.12
265.894	208.12
266.126	229.12
266.358	234.12
266.591	250.12
266.823	268.12
267.055	252.12
267.287	248.12
267.52	243.12
267.752	236.12
267.984	247.12
268.216	243.12
268.448	253.12
268.681	257.12
268.913	271.12
269.145	269.12
269.377	286.12
269.609	302.12
269.841	287.12
270.073	278.12
270.306	304.12
270.538	334.12
270.77	342.12
271.002	315.12
271.234	301.12
271.466	319.12
271.698	329.12
271.93	343.12
272.162	342.12
272.394	339.12
272.626	332.12
272.858	309.12
273.09	311.12
273.322	294.12
273.553	289.12
273.785	270.12
274.017	284.12
274.249	314.12
274.481	290.12
274.713	279.12
274.945	278.12
275.176	285.12
275.408	292.12
275.64	280.12
275.872	274.12
276.104	269.12
276.335	285.12
276.567	291.12
276.799	313.12
277.031	321.12
277.262	344.12
277.494	327.12
277.726	325.12
277.957	307.12
278.189	300.12
278.421	299.12
278.652	292.12
278.884	295.12
279.115	302.12
279.347	292.12
279.579	291.12
279.81	284.12
280.042	285.12
280.273	283.12
280.505	309.12
280.736	294.12
280.968	307.12
281.199	291.12
281.431	308.12
281.662	279.12
281.894	284.12
282.125	297.12
282.356	316.12
282.588	324.12
282.819	330.12
283.051	312.12
283.282	309.12
283.513	315.12
283.745	305.12
283.976	319.12
284.207	302.12
284.439	311.12
284.67	315.12
284.901	308.12
285.132	320.12
285.364	306.12
285.595	327.12
285.826	306.12
286.057	310.12
286.288	301.12
286.52	298.12
286.751	305.12
286.982	313.12
287.213	302.12
287.444	335.12
287.675	327.12
287.906	301.12
288.138	333.12
288.369	317.12
288.6	347.12
288.831	339.12
289.062	315.12
289.293	317.12
289.524	309.12
289.755	321.12
289.986	309.12
290.217	320.12
290.448	337.12
290.679	322.12
290.91	316.12
291.141	312.12
291.371	309.12
291.602	307.12
291.833	325.12
292.064	335.12
292.295	328.12
292.526	315.12
292.757	320.12
292.987	296.12
293.218	319.12
293.449	324.12
293.68	308.12
293.91	316.12
294.141	315.12
294.372	330.12
294.603	319.12
294.833	308.12
295.064	325.12
295.295	325.12
295.525	310.12
295.756	327.12
295.987	325.12
296.217	355.12
296.448	352.12
296.679	336.12
296.909	339.12
297.14	334.12
297.37	333.12
297.601	319.12
297.831	339.12
298.062	332.12
298.292	333.12
298.523	319.12
298.753	355.12
298.984	329.12
299.214	355.12
299.445	329.12
299.675	353.12
299.905	330.12
300.136	349.12
300.366	357.12
300.597	350.12
300.827	347.12
301.057	356.12
301.288	360.12
301.518	362.12
301.748	350.12
301.979	364.12
302.209	363.12
302.439	362.12
302.669	364.12
302.9	371.12
303.13	371.12
303.36	363.12
303.59	362.12
303.82	384.12
304.051	364.12
304.281	347.12
304.511	366.12
304.741	341.12
304.971	328.12
305.201	345.12
305.431	336.12
305.661	371.12
305.891	365.12
306.121	359.12
306.352	343.12
306.582	352.12
306.812	359.12
307.042	363.12
307.272	378.12
307.502	366.12
307.731	362.12
307.961	369.12
308.191	361.12
308.421	371.12
308.651	365.12
308.881	383.12
309.111	375.12
309.341	358.12
309.571	373.12
309.8	393.12
310.03	392.12
310.26	401.12
310.49	417.12
310.72	408.12
310.949	426.12
311.179	432.12
311.409	395.12
311.639	407.12
311.868	399.12
312.098	418.12
312.328	400.12
312.557	414.12
312.787	436.12
313.017	417.12
313.246	411.12
313.476	396.12
313.706	419.12
313.935	398.12
314.165	398.12
314.394	438.12
314.624	394.12
314.853	413.12
315.083	409.12
315.312	390.12
315.542	383.12
315.771	401.12
316.001	417.12
316.23	390.12
316.46	404.12
316.689	399.12
316.919	397.12
317.148	403.12
317.377	420.12
317.607	410.12
317.836	424.12
318.065	398.12
318.295	396.12
318.524	406.12
318.753	400.12
318.983	394.12
319.212	406.12
319.441	408.12
319.67	413.12
319.9	412.12
320.129	420.12
320.358	409.12
320.587	397.12
320.816	406.12
321.046	421.12
321.275	431.12
321.504	430.12
321.733	417.12
321.962	415.12
322.191	462.12
322.42	443.12
322.649	449.12
322.878	484.12
323.108	478.12
323.337	492.12
323.566	479.12
323.795	503.12
324.024	566.12
324.253	659.12
324.482	919.12
324.71	1434.12
324.939	2085.12
325.168	1831.12
325.397	918.12
325.626	649.12
325.855	551.12
326.084	525.12
326.313	522.12
326.542	530.12
326.77	557.12
326.999	634.12
327.228	833.12
327.457	1292.12
327.686	1613.12
327.914	1043.12
328.143	676.12
328.372	636.12
328.6	581.12
328.829	571.12
329.058	568.12
329.287	580.12
329.515	562.12
329.744	536.12
329.972	522.12
330.201	563.12
330.43	567.12
330.658	584.12
330.887	602.12
331.115	590.12
331.344	507.12
331.572	506.12
331.801	517.12
332.03	522.12
332.258	497.12
332.486	481.12
332.715	505.12
332.943	500.12
333.172	500.12
333.4	508.12
333.629	490.12
333.857	537.12
334.085	535.12
334.314	537.12
334.542	567.12
334.771	574.12
334.999	568.12
335.227	521.12
335.455	510.12
335.684	494.12
335.912	488.12
336.14	472.12
336.369	491.12
336.597	480.12
336.825	499.12
337.053	478.12
337.281	482.12
337.51	477.12
337.738	481.12
337.966	493.12
338.194	485.12
338.422	486.12
338.65	479.12
338.878	463.12
339.106	453.12
339.334	449.12
339.562	477.12
339.79	450.12
340.018	499.12
340.246	455.12
340.474	451.12
340.702	461.12
340.93	458.12
341.158	452.12
341.386	480.12
341.614	495.12
341.842	457.12
342.07	460.12
342.298	460.12
342.526	446.12
342.754	446.12
342.981	447.12
343.209	458.12
343.437	447.12
343.665	468.12
343.893	478.12
344.12	485.12
344.348	484.12
344.576	459.12
344.804	476.12
345.031	475.12
345.259	484.12
345.487	475.12
345.714	451.12
345.942	438.12
346.17	455.12
346.397	443.12
346.625	447.12
346.853	459.12
347.08	452.12
347.308	456.12
347.535	445.12
347.763	478.12
347.99	446.12
348.218	455.12
348.445	456.12
348.673	424.12
348.9	446.12
349.128	443.12
349.355	464.12
349.583	441.12
349.81	429.12
350.037	424.12
350.265	436.12
350.492	435.12
350.72	446.12
350.947	420.12
351.174	423.12
351.402	468.12
351.629	449.12
351.856	447.12
352.083	454.12
352.311	438.12
352.538	468.12
352.765	449.12
352.992	438.12
353.22	441.12
353.447	437.12
353.674	452.12
353.901	437.12
354.128	429.12
354.355	415.12
354.583	421.12
354.81	414.12
355.037	428.12
355.264	432.12
355.491	419.12
355.718	412.12
355.945	433.12
356.172	432.12
356.399	411.12
356.626	404.12
356.853	407.12
357.08	407.12
357.307	408.12
357.534	413.12
357.761	430.12
357.988	420.12
358.215	423.12
358.441	449.12
358.668	424.12
358.895	450.12
359.122	428.12
359.349	449.12
359.576	440.12
359.802	466.12
360.029	479.12
360.256	477.12
360.483	478.12
360.709	448.12
360.936	455.12
361.163	437.12
361.39	430.12
361.616	425.12
361.843	433.12
362.07	438.12
362.296	443.12
362.523	444.12
362.749	434.12
362.976	433.12
363.203	433.12
363.429	428.12
363.656	421.12
363.882	410.12
364.109	428.12
364.335	412.12
364.562	415.12
364.788	417.12
365.015	413.12
365.241	437.12
365.468	428.12
365.694	411.12
365.92	438.12
366.147	428.12
366.373	417.12
366.599	437.12
366.826	424.12
367.052	419.12
367.278	421.12
367.505	436.12
367.731	435.12
367.957	426.12
368.184	430.12
368.41	430.12
368.636	423.12
368.862	457.12
369.089	445.12
369.315	443.12
369.541	442.12
369.767	443.12
369.993	427.12
370.219	433.12
370.445	430.12
370.672	428.12
370.898	411.12
371.124	434.12
371.35	443.12
371.576	441.12
371.802	438.12
372.028	417.12
372.254	433.12
372.48	436.12
372.706	419.12
372.932	440.12
373.158	447.12
373.384	426.12
373.61	426.12
373.835	436.12
374.061	439.12
374.287	442.12
374.513	450.12
374.739	427.12
374.965	449.12
375.191	444.12
375.416	462.12
375.642	445.12
375.868	454.12
376.094	440.12
376.319	446.12
376.545	447.12
376.771	444.12
376.997	411.12
377.222	409.12
377.448	413.12
377.674	430.12
377.899	427.12
378.125	445.12
378.35	412.12
378.576	437.12
378.802	421.12
379.027	425.12
379.253	430.12
379.478	425.12
379.704	424.12
379.929	459.12
380.155	425.12
380.38	435.12
380.606	429.12
380.831	449.12
381.057	447.12
381.282	425.12
381.507	433.12
381.733	442.12
381.958	413.12
382.184	407.12
382.409	446.12
382.634	445.12
382.86	446.12
383.085	450.12
383.31	439.12
383.535	447.12
383.761	457.12
383.986	443.12
384.211	461.12
384.436	482.12
384.662	465.12
384.887	475.12
385.112	465.12
385.337	478.12
385.562	453.12
385.787	493.12
386.013	492.12
386.238	501.12
386.463	486.12
386.688	477.12
386.913	481.12
387.138	474.12
387.363	482.12
387.588	499.12
387.813	477.12
388.038	453.12
388.263	476.12
388.488	462.12
388.713	486.12
388.938	464.12
389.163	483.12
389.387	478.12
389.612	500.12
389.837	482.12
390.062	463.12
390.287	475.12
390.512	475.12
390.736	481.12
390.961	508.12
391.186	502.12
391.411	480.12
391.636	480.12
391.86	514.12
392.085	511.12
392.31	490.12
392.534	502.12
392.759	482.12
392.984	495.12
393.208	491.12
393.433	494.12
393.658	466.12
393.882	481.12
394.107	482.12
394.331	489.12
394.556	497.12
394.78	492.12
395.005	513.12
395.229	496.12
395.454	489.12
395.678	522.12
395.903	515.12
396.127	531.12
396.352	533.12
396.576	505.12
396.801	513.12
397.025	497.12
397.249	510.12
397.474	494.12
397.698	519.12
397.922	525.12
398.147	554.12
398.371	573.12
398.595	536.12
398.82	533.12
399.044	562.12
399.268	601.12
399.492	637.12
399.717	671.12
399.941	721.12
400.165	699.12
400.389	724.12
400.613	647.12
400.837	579.12
401.062	567.12
401.286	570.12
401.51	561.12
401.734	548.12
401.958	557.12
402.182	569.12
402.406	564.12
402.63	583.12
402.854	577.12
403.078	595.12
403.302	586.12
403.526	573.12
403.75	601.12
403.974	591.12
404.198	605.12
404.422	600.12
404.645	595.12
404.869	605.12
405.093	610.12
405.317	667.12
405.541	697.12
405.765	619.12
405.988	605.12
406.212	639.12
406.436	635.12
406.66	608.12
406.883	634.12
407.107	634.12
407.331	694.12
407.555	771.12
407.778	795.12
408.002	701.12
408.226	667.12
408.449	642.12
408.673	637.12
408.896	661.12
409.12	708.12
409.344	719.12
409.567	610.12
409.791	601.12
410.014	584.12
410.238	563.12
410.461	589.12
410.685	597.12
410.908	595.12
411.132	628.12
411.355	639.12
411.578	632.12
411.802	586.12
412.025	590.12
412.249	589.12
412.472	610.12
412.695	647.12
412.919	635.12
413.142	574.12
413.365	583.12
413.589	581.12
413.812	559.12
414.035	538.12
414.258	546.12
414.482	550.12
414.705	533.12
414.928	544.12
415.151	555.12
415.374	539.12
415.597	539.12
415.821	542.12
416.044	554.12
416.267	542.12
416.49	563.12
416.713	545.12
416.936	537.12
417.159	542.12
417.382	549.12
417.605	553.12
417.828	572.12
418.051	582.12
418.274	566.12
418.497	553.12
418.72	561.12
418.943	577.12
419.166	563.12
419.389	586.12
419.611	608.12
419.834	579.12
420.057	584.12
420.28	566.12
420.503	561.12
420.726	571.12
420.948	577.12
421.171	608.12
421.394	655.12
421.617	597.12
421.839	559.12
422.062	563.12
422.285	574.12
422.507	646.12
422.73	712.12
422.953	691.12
423.175	637.12
423.398	598.12
423.621	597.12
423.843	619.12
424.066	609.12
424.288	608.12
424.511	625.12
424.733	671.12
424.956	758.12
425.178	740.12
425.401	725.12
425.623	781.12
425.846	643.12
426.068	597.12
426.291	585.12
426.513	584.12
426.735	604.12
426.958	622.12
427.18	713.12
427.402	875.12
427.625	933.12
427.847	827.12
428.069	713.12
428.292	618.12
428.514	604.12
428.736	557.12
428.958	575.12
429.181	553.12
429.403	569.12
429.625	577.12
429.847	600.12
430.069	651.12
430.292	656.12
430.514	585.12
430.736	525.12
430.958	570.12
431.18	543.12
431.402	525.12
431.624	516.12
431.846	494.12
432.068	539.12
432.29	525.12
432.512	530.12
432.734	562.12
432.956	549.12
433.178	546.12
433.4	551.12
433.622	563.12
433.844	542.12
434.066	551.12
434.287	533.12
434.509	537.12
434.731	564.12
434.953	544.12
435.175	563.12
435.397	587.12
435.618	622.12
435.84	658.12
436.062	721.12
436.284	802.12
436.505	667.12
436.727	621.12
436.949	583.12
437.17	562.12
437.392	562.12
437.614	564.12
437.835	591.12
438.057	660.12
438.278	799.12
438.5	783.12
438.721	855.12
438.943	831.12
439.165	700.12
439.386	597.12
439.608	606.12
439.829	582.12
440.05	636.12
440.272	659.12
440.493	621.12
440.715	610.12
440.936	570.12
441.158	566.12
441.379	565.12
441.6	554.12
441.822	591.12
442.043	632.12
442.264	729.12
442.486	796.12
442.707	671.12
442.928	609.12
443.149	619.12
443.371	662.12
443.592	687.12
443.813	786.12
444.034	862.12
444.255	706.12
444.476	657.12
444.698	633.12
444.919	634.12
445.14	700.12
445.361	675.12
445.582	659.12
445.803	713.12
446.024	791.12
446.245	833.12
446.466	746.12
446.687	670.12
446.908	612.12
447.129	584.12
447.35	550.12
447.571	552.12
447.792	573.12
448.013	557.12
448.234	559.12
448.455	599.12
448.675	755.12
448.896	858.12
449.117	725.12
449.338	692.12
449.559	776.12
449.779	869.12
450	722.12
450.221	603.12
450.442	534.12
450.662	539.12
450.883	546.12
451.104	551.12
451.324	537.12
451.545	530.12
451.766	494.12
451.986	497.12
452.207	503.12
452.428	509.12
452.648	479.12
452.869	491.12
453.089	514.12
453.31	484.12
453.53	488.12
453.751	487.12
453.971	494.12
454.192	510.12
454.412	497.12
454.633	484.12
454.853	509.12
455.073	517.12
455.294	514.12
455.514	593.12
455.734	570.12
455.955	487.12
456.175	485.12
456.395	443.12
456.616	471.12
456.836	466.12
457.056	468.12
457.276	455.12
457.497	469.12
457.717	478.12
457.937	465.12
458.157	499.12
458.377	475.12
458.598	518.12
458.818	549.12
459.038	597.12
459.258	645.12
459.478	553.12
459.698	533.12
459.918	515.12
460.138	547.12
460.358	545.12
460.578	533.12
460.798	558.12
461.018	550.12
461.238	548.12
461.458	538.12
461.678	531.12
461.898	565.12
462.118	542.12
462.338	559.12
462.558	587.12
462.777	599.12
462.997	614.12
463.217	622.12
463.437	654.12
463.657	616.12
463.876	603.12
464.096	607.12
464.316	586.12
464.536	596.12
464.755	609.12
464.975	579.12
465.195	607.12
465.414	620.12
465.634	599.12
465.854	570.12
466.073	534.12
466.293	542.12
466.512	530.12
466.732	505.12
466.951	506.12
467.171	523.12
467.391	515.12
467.61	523.12
467.829	508.12
468.049	516.12
468.268	526.12
468.488	517.12
468.707	502.12
468.927	498.12
469.146	511.12
469.365	491.12
469.585	490.12
469.804	515.12
470.023	535.12
470.243	506.12
470.462	540.12
470.681	541.12
470.901	542.12
471.12	509.12
471.339	504.12
471.558	518.12
471.777	517.12
471.997	505.12
472.216	518.12
472.435	543.12
472.654	539.12
472.873	505.12
473.092	507.12
473.311	498.12
473.53	513.12
473.749	503.12
473.968	551.12
474.187	673.12
474.406	698.12
474.625	560.12
474.844	523.12
475.063	503.12
475.282	478.12
475.501	510.12
475.72	502.12
475.939	510.12
476.158	558.12
476.377	501.12
476.596	507.12
476.814	531.12
477.033	502.12
477.252	539.12
477.471	543.12
477.69	551.12
477.908	538.12
478.127	569.12
478.346	572.12
478.564	549.12
478.783	603.12
479.002	586.12
479.22	572.12
479.439	581.12
479.658	615.12
479.876	627.12
480.095	615.12
480.313	651.12
480.532	653.12
480.751	622.12
480.969	641.12
481.188	680.12
481.406	714.12
481.624	636.12
481.843	603.12
482.061	601.12
482.28	606.12
482.498	623.12
482.717	589.12
482.935	602.12
483.153	588.12
483.372	601.12
483.59	600.12
483.808	596.12
484.027	589.12
484.245	584.12
484.463	592.12
484.681	619.12
484.9	596.12
485.118	598.12
485.336	609.12
485.554	599.12
485.772	626.12
485.99	633.12
486.209	612.12
486.427	612.12
486.645	619.12
486.863	649.12
487.081	639.12
487.299	638.12
487.517	623.12
487.735	632.12
487.953	653.12
488.171	652.12
488.389	623.12
488.607	647.12
488.825	637.12
489.043	603.12
489.261	623.12
489.479	638.12
489.696	625.12
489.914	640.12
490.132	661.12
490.35	666.12
490.568	651.12
490.786	652.12
491.003	709.12
491.221	706.12
491.439	699.12
491.657	717.12
491.874	716.12
492.092	727.12
492.31	743.12
492.527	736.12
492.745	733.12
492.963	753.12
493.18	733.12
493.398	742.12
493.615	745.12
493.833	742.12
494.05	729.12
494.268	707.12
494.485	756.12
494.703	747.12
494.92	749.12
495.138	753.12
495.355	731.12
495.573	770.12
495.79	732.12
496.008	774.12
496.225	746.12
496.442	739.12
496.66	778.12
496.877	752.12
497.094	765.12
497.312	768.12
497.529	798.12
497.746	787.12
497.963	831.12
498.181	825.12
498.398	826.12
498.615	834.12
498.832	894.12
499.049	907.12
499.267	929.12
499.484	974.12
499.701	991.12
499.918	1064.12
500.135	1126.12
500.352	1201.12
500.569	1217.12
500.786	1237.12
501.003	1214.12
501.22	1148.12
501.437	1088.12
501.654	1025.12
