Data from 1976.PennyLincolnUp.Lamp.En5.5.200Scan.071719.P1.Changed Mount._HRD10591_16-02-16-866.txt Node
Date: Thu Jul 18 16:02:16 EDT 2019
User: cochatt
Spectrometer: HR+D1059
Trigger mode: 1
Integration Time (sec): 1.000000E-1
Scans to average: 1
Electric dark correction enabled: true
Nonlinearity correction enabled: false
Boxcar width: 0
XAxis mode: Wavelengths
Number of Pixels in Spectrum: 2048
>>>>>Begin Spectral Data<<<<<
223.165	-17.25
223.4	-17.25
223.635	-17.25
223.869	-14.25
224.104	-1.25
224.338	-13.25
224.573	-23.25
224.808	-18.25
225.042	-9.25
225.277	-11.25
225.511	-0.25
225.746	5.75
225.98	15.75
226.215	11.75
226.449	8.75
226.683	19.75
226.918	25.75
227.152	20.75
227.387	36.75
227.621	53.75
227.856	27.75
228.09	25.75
228.324	51.75
228.559	50.75
228.793	70.75
229.027	94.75
229.262	118.75
229.496	125.75
229.73	122.75
229.964	153.75
230.199	133.75
230.433	123.75
230.667	100.75
230.901	103.75
231.136	113.75
231.37	101.75
231.604	127.75
231.838	116.75
232.072	94.75
232.306	105.75
232.541	113.75
232.775	109.75
233.009	120.75
233.243	107.75
233.477	112.75
233.711	107.75
233.945	114.75
234.179	133.75
234.413	124.75
234.647	126.75
234.881	124.75
235.115	128.75
235.349	106.75
235.583	113.75
235.817	124.75
236.051	127.75
236.285	132.75
236.519	141.75
236.753	136.75
236.987	138.75
237.221	194.75
237.455	220.75
237.689	166.75
237.922	138.75
238.156	148.75
238.39	127.75
238.624	130.75
238.858	130.75
239.091	131.75
239.325	125.75
239.559	124.75
239.793	110.75
240.027	132.75
240.26	138.75
240.494	162.75
240.728	159.75
240.961	161.75
241.195	150.75
241.429	132.75
241.662	144.75
241.896	140.75
242.13	141.75
242.363	140.75
242.597	128.75
242.83	130.75
243.064	148.75
243.298	154.75
243.531	148.75
243.765	148.75
243.998	147.75
244.232	135.75
244.465	157.75
244.699	126.75
244.932	161.75
245.166	134.75
245.399	147.75
245.633	147.75
245.866	141.75
246.099	153.75
246.333	157.75
246.566	150.75
246.8	153.75
247.033	149.75
247.266	157.75
247.5	155.75
247.733	159.75
247.966	171.75
248.2	166.75
248.433	181.75
248.666	169.75
248.899	194.75
249.133	208.75
249.366	218.75
249.599	208.75
249.832	196.75
250.066	191.75
250.299	201.75
250.532	206.75
250.765	200.75
250.998	234.75
251.231	235.75
251.465	227.75
251.698	223.75
251.931	200.75
252.164	206.75
252.397	200.75
252.63	193.75
252.863	214.75
253.096	220.75
253.329	228.75
253.562	227.75
253.795	228.75
254.028	205.75
254.261	221.75
254.494	231.75
254.727	271.75
254.96	275.75
255.193	268.75
255.426	264.75
255.659	233.75
255.892	222.75
256.124	232.75
256.357	240.75
256.59	221.75
256.823	203.75
257.056	214.75
257.289	222.75
257.521	206.75
257.754	226.75
257.987	202.75
258.22	218.75
258.452	213.75
258.685	217.75
258.918	220.75
259.151	206.75
259.383	227.75
259.616	223.75
259.849	250.75
260.081	240.75
260.314	257.75
260.547	284.75
260.779	261.75
261.012	262.75
261.244	233.75
261.477	233.75
261.71	241.75
261.942	246.75
262.175	233.75
262.407	251.75
262.64	226.75
262.872	222.75
263.105	230.75
263.337	238.75
263.57	229.75
263.802	220.75
264.035	220.75
264.267	235.75
264.499	229.75
264.732	244.75
264.964	222.75
265.197	233.75
265.429	247.75
265.661	242.75
265.894	230.75
266.126	224.75
266.358	212.75
266.591	249.75
266.823	254.75
267.055	260.75
267.287	252.75
267.52	240.75
267.752	251.75
267.984	248.75
268.216	265.75
268.448	229.75
268.681	262.75
268.913	258.75
269.145	266.75
269.377	292.75
269.609	292.75
269.841	283.75
270.073	289.75
270.306	322.75
270.538	344.75
270.77	343.75
271.002	310.75
271.234	312.75
271.466	310.75
271.698	311.75
271.93	334.75
272.162	334.75
272.394	338.75
272.626	324.75
272.858	315.75
273.09	296.75
273.322	287.75
273.553	281.75
273.785	297.75
274.017	277.75
274.249	280.75
274.481	299.75
274.713	288.75
274.945	306.75
275.176	300.75
275.408	291.75
275.64	291.75
275.872	270.75
276.104	297.75
276.335	283.75
276.567	266.75
276.799	301.75
277.031	351.75
277.262	331.75
277.494	346.75
277.726	343.75
277.957	339.75
278.189	287.75
278.421	291.75
278.652	265.75
278.884	278.75
279.115	296.75
279.347	296.75
279.579	302.75
279.81	276.75
280.042	286.75
280.273	296.75
280.505	284.75
280.736	284.75
280.968	281.75
281.199	294.75
281.431	298.75
281.662	308.75
281.894	290.75
282.125	284.75
282.356	316.75
282.588	325.75
282.819	329.75
283.051	296.75
283.282	301.75
283.513	289.75
283.745	301.75
283.976	295.75
284.207	294.75
284.439	320.75
284.67	319.75
284.901	294.75
285.132	306.75
285.364	302.75
285.595	286.75
285.826	298.75
286.057	284.75
286.288	312.75
286.52	313.75
286.751	326.75
286.982	296.75
287.213	313.75
287.444	317.75
287.675	314.75
287.906	328.75
288.138	320.75
288.369	346.75
288.6	314.75
288.831	320.75
289.062	314.75
289.293	333.75
289.524	324.75
289.755	312.75
289.986	332.75
290.217	317.75
290.448	332.75
290.679	330.75
290.91	315.75
291.141	299.75
291.371	326.75
291.602	329.75
291.833	324.75
292.064	330.75
292.295	336.75
292.526	324.75
292.757	328.75
292.987	318.75
293.218	308.75
293.449	334.75
293.68	313.75
293.91	308.75
294.141	329.75
294.372	333.75
294.603	333.75
294.833	332.75
295.064	334.75
295.295	323.75
295.525	317.75
295.756	324.75
295.987	322.75
296.217	331.75
296.448	350.75
296.679	336.75
296.909	333.75
297.14	341.75
297.37	346.75
297.601	322.75
297.831	327.75
298.062	317.75
298.292	328.75
298.523	339.75
298.753	330.75
298.984	334.75
299.214	340.75
299.445	315.75
299.675	343.75
299.905	362.75
300.136	334.75
300.366	372.75
300.597	341.75
300.827	333.75
301.057	333.75
301.288	363.75
301.518	345.75
301.748	342.75
301.979	371.75
302.209	345.75
302.439	365.75
302.669	350.75
302.9	356.75
303.13	335.75
303.36	352.75
303.59	354.75
303.82	388.75
304.051	362.75
304.281	368.75
304.511	356.75
304.741	362.75
304.971	354.75
305.201	354.75
305.431	363.75
305.661	339.75
305.891	356.75
306.121	373.75
306.352	375.75
306.582	375.75
306.812	359.75
307.042	348.75
307.272	352.75
307.502	373.75
307.731	365.75
307.961	372.75
308.191	356.75
308.421	365.75
308.651	368.75
308.881	365.75
309.111	370.75
309.341	352.75
309.571	375.75
309.8	398.75
310.03	388.75
310.26	397.75
310.49	382.75
310.72	401.75
310.949	434.75
311.179	413.75
311.409	404.75
311.639	409.75
311.868	403.75
312.098	369.75
312.328	408.75
312.557	434.75
312.787	432.75
313.017	434.75
313.246	403.75
313.476	397.75
313.706	392.75
313.935	404.75
314.165	422.75
314.394	418.75
314.624	416.75
314.853	401.75
315.083	404.75
315.312	416.75
315.542	389.75
315.771	397.75
316.001	401.75
316.23	386.75
316.46	410.75
316.689	417.75
316.919	418.75
317.148	434.75
317.377	412.75
317.607	408.75
317.836	412.75
318.065	389.75
318.295	383.75
318.524	377.75
318.753	389.75
318.983	399.75
319.212	394.75
319.441	402.75
319.67	400.75
319.9	397.75
320.129	418.75
320.358	386.75
320.587	429.75
320.816	410.75
321.046	414.75
321.275	421.75
321.504	419.75
321.733	433.75
321.962	439.75
322.191	429.75
322.42	415.75
322.649	461.75
322.878	466.75
323.108	469.75
323.337	485.75
323.566	485.75
323.795	524.75
324.024	546.75
324.253	650.75
324.482	909.75
324.71	1412.75
324.939	2072.75
325.168	1808.75
325.397	925.75
325.626	620.75
325.855	572.75
326.084	499.75
326.313	490.75
326.542	520.75
326.77	559.75
326.999	626.75
327.228	844.75
327.457	1254.75
327.686	1568.75
327.914	1050.75
328.143	683.75
328.372	620.75
328.6	590.75
328.829	555.75
329.058	557.75
329.287	573.75
329.515	532.75
329.744	529.75
329.972	544.75
330.201	542.75
330.43	562.75
330.658	586.75
330.887	586.75
331.115	582.75
331.344	529.75
331.572	516.75
331.801	493.75
332.03	489.75
332.258	483.75
332.486	483.75
332.715	498.75
332.943	483.75
333.172	486.75
333.4	511.75
333.629	522.75
333.857	517.75
334.085	544.75
334.314	533.75
334.542	553.75
334.771	582.75
334.999	533.75
335.227	519.75
335.455	485.75
335.684	480.75
335.912	494.75
336.14	487.75
336.369	490.75
336.597	483.75
336.825	490.75
337.053	483.75
337.281	452.75
337.51	458.75
337.738	463.75
337.966	459.75
338.194	454.75
338.422	480.75
338.65	462.75
338.878	473.75
339.106	470.75
339.334	462.75
339.562	466.75
339.79	467.75
340.018	458.75
340.246	464.75
340.474	460.75
340.702	466.75
340.93	445.75
341.158	459.75
341.386	439.75
341.614	473.75
341.842	453.75
342.07	436.75
342.298	455.75
342.526	418.75
342.754	443.75
342.981	438.75
343.209	438.75
343.437	466.75
343.665	462.75
343.893	478.75
344.12	493.75
344.348	492.75
344.576	474.75
344.804	480.75
345.031	462.75
345.259	468.75
345.487	469.75
345.714	450.75
345.942	456.75
346.17	463.75
346.397	456.75
346.625	428.75
346.853	446.75
347.08	458.75
347.308	427.75
347.535	456.75
347.763	455.75
347.99	468.75
348.218	452.75
348.445	458.75
348.673	455.75
348.9	449.75
349.128	432.75
349.355	424.75
349.583	440.75
349.81	427.75
350.037	404.75
350.265	434.75
350.492	422.75
350.72	444.75
350.947	434.75
351.174	438.75
351.402	416.75
351.629	432.75
351.856	451.75
352.083	450.75
352.311	440.75
352.538	433.75
352.765	443.75
352.992	459.75
353.22	440.75
353.447	441.75
353.674	430.75
353.901	434.75
354.128	404.75
354.355	420.75
354.583	421.75
354.81	437.75
355.037	424.75
355.264	397.75
355.491	417.75
355.718	406.75
355.945	416.75
356.172	421.75
356.399	422.75
356.626	422.75
356.853	426.75
357.08	432.75
357.307	412.75
357.534	415.75
357.761	413.75
357.988	420.75
358.215	425.75
358.441	415.75
358.668	415.75
358.895	424.75
359.122	416.75
359.349	438.75
359.576	459.75
359.802	458.75
360.029	454.75
360.256	496.75
360.483	485.75
360.709	456.75
360.936	446.75
361.163	440.75
361.39	436.75
361.616	437.75
361.843	424.75
362.07	427.75
362.296	420.75
362.523	445.75
362.749	429.75
362.976	419.75
363.203	438.75
363.429	410.75
363.656	437.75
363.882	423.75
364.109	413.75
364.335	424.75
364.562	419.75
364.788	434.75
365.015	429.75
365.241	436.75
365.468	409.75
365.694	434.75
365.92	433.75
366.147	442.75
366.373	410.75
366.599	405.75
366.826	418.75
367.052	409.75
367.278	442.75
367.505	421.75
367.731	432.75
367.957	418.75
368.184	427.75
368.41	410.75
368.636	436.75
368.862	473.75
369.089	448.75
369.315	433.75
369.541	434.75
369.767	425.75
369.993	412.75
370.219	444.75
370.445	424.75
370.672	406.75
370.898	411.75
371.124	438.75
371.35	426.75
371.576	436.75
371.802	423.75
372.028	417.75
372.254	435.75
372.48	442.75
372.706	439.75
372.932	439.75
373.158	428.75
373.384	413.75
373.61	433.75
373.835	440.75
374.061	429.75
374.287	457.75
374.513	432.75
374.739	451.75
374.965	449.75
375.191	457.75
375.416	420.75
375.642	428.75
375.868	439.75
376.094	426.75
376.319	418.75
376.545	417.75
376.771	429.75
376.997	434.75
377.222	435.75
377.448	426.75
377.674	420.75
377.899	416.75
378.125	416.75
378.35	422.75
378.576	397.75
378.802	428.75
379.027	408.75
379.253	429.75
379.478	420.75
379.704	412.75
379.929	416.75
380.155	407.75
380.38	421.75
380.606	423.75
380.831	435.75
381.057	442.75
381.282	434.75
381.507	436.75
381.733	419.75
381.958	425.75
382.184	429.75
382.409	436.75
382.634	434.75
382.86	440.75
383.085	436.75
383.31	450.75
383.535	430.75
383.761	446.75
383.986	462.75
384.211	480.75
384.436	457.75
384.662	481.75
384.887	451.75
385.112	481.75
385.337	493.75
385.562	482.75
385.787	454.75
386.013	486.75
386.238	482.75
386.463	473.75
386.688	489.75
386.913	493.75
387.138	461.75
387.363	465.75
387.588	474.75
387.813	478.75
388.038	465.75
388.263	457.75
388.488	480.75
388.713	488.75
388.938	489.75
389.163	485.75
389.387	477.75
389.612	470.75
389.837	458.75
390.062	480.75
390.287	466.75
390.512	488.75
390.736	501.75
390.961	461.75
391.186	492.75
391.411	496.75
391.636	512.75
391.86	507.75
392.085	497.75
392.31	515.75
392.534	480.75
392.759	469.75
392.984	496.75
393.208	497.75
393.433	477.75
393.658	500.75
393.882	478.75
394.107	480.75
394.331	483.75
394.556	476.75
394.78	498.75
395.005	488.75
395.229	494.75
395.454	499.75
395.678	514.75
395.903	499.75
396.127	537.75
396.352	511.75
396.576	500.75
396.801	490.75
397.025	489.75
397.249	512.75
397.474	535.75
397.698	520.75
397.922	522.75
398.147	527.75
398.371	554.75
398.595	541.75
398.82	549.75
399.044	553.75
399.268	587.75
399.492	622.75
399.717	653.75
399.941	692.75
400.165	719.75
400.389	713.75
400.613	630.75
400.837	622.75
401.062	609.75
401.286	564.75
401.51	557.75
401.734	551.75
401.958	558.75
402.182	566.75
402.406	576.75
402.63	576.75
402.854	583.75
403.078	567.75
403.302	585.75
403.526	599.75
403.75	604.75
403.974	589.75
404.198	569.75
404.422	584.75
404.645	585.75
404.869	587.75
405.093	618.75
405.317	674.75
405.541	677.75
405.765	619.75
405.988	602.75
406.212	591.75
406.436	633.75
406.66	636.75
406.883	633.75
407.107	653.75
407.331	665.75
407.555	761.75
407.778	768.75
408.002	675.75
408.226	633.75
408.449	641.75
408.673	650.75
408.896	648.75
409.12	715.75
409.344	653.75
409.567	594.75
409.791	589.75
410.014	573.75
410.238	570.75
410.461	572.75
410.685	600.75
410.908	594.75
411.132	652.75
411.355	657.75
411.578	633.75
411.802	582.75
412.025	568.75
412.249	589.75
412.472	619.75
412.695	635.75
412.919	633.75
413.142	562.75
413.365	567.75
413.589	589.75
413.812	552.75
414.035	532.75
414.258	556.75
414.482	536.75
414.705	537.75
414.928	551.75
415.151	557.75
415.374	550.75
415.597	532.75
415.821	535.75
416.044	538.75
416.267	537.75
416.49	533.75
416.713	534.75
416.936	565.75
417.159	530.75
417.382	550.75
417.605	552.75
417.828	576.75
418.051	581.75
418.274	555.75
418.497	557.75
418.72	534.75
418.943	544.75
419.166	565.75
419.389	606.75
419.611	585.75
419.834	568.75
420.057	563.75
420.28	571.75
420.503	588.75
420.726	564.75
420.948	579.75
421.171	602.75
421.394	651.75
421.617	605.75
421.839	560.75
422.062	577.75
422.285	576.75
422.507	653.75
422.73	698.75
422.953	716.75
423.175	626.75
423.398	598.75
423.621	598.75
423.843	603.75
424.066	653.75
424.288	621.75
424.511	608.75
424.733	698.75
424.956	740.75
425.178	733.75
425.401	732.75
425.623	735.75
425.846	644.75
426.068	610.75
426.291	596.75
426.513	600.75
426.735	606.75
426.958	645.75
427.18	724.75
427.402	850.75
427.625	936.75
427.847	801.75
428.069	702.75
428.292	636.75
428.514	595.75
428.736	566.75
428.958	546.75
429.181	545.75
429.403	542.75
429.625	528.75
429.847	580.75
430.069	654.75
430.292	650.75
430.514	584.75
430.736	532.75
430.958	527.75
431.18	531.75
431.402	557.75
431.624	522.75
431.846	522.75
432.068	510.75
432.29	523.75
432.512	523.75
432.734	529.75
432.956	523.75
433.178	539.75
433.4	556.75
433.622	541.75
433.844	538.75
434.066	528.75
434.287	522.75
434.509	524.75
434.731	536.75
434.953	548.75
435.175	574.75
435.397	604.75
435.618	605.75
435.84	645.75
436.062	735.75
436.284	810.75
436.505	667.75
436.727	602.75
436.949	560.75
437.17	574.75
437.392	548.75
437.614	565.75
437.835	594.75
438.057	694.75
438.278	792.75
438.5	788.75
438.721	870.75
438.943	837.75
439.165	653.75
439.386	612.75
439.608	591.75
439.829	572.75
440.05	616.75
440.272	671.75
440.493	631.75
440.715	568.75
440.936	585.75
441.158	587.75
441.379	567.75
441.6	580.75
441.822	601.75
442.043	649.75
442.264	745.75
442.486	757.75
442.707	664.75
442.928	618.75
443.149	640.75
443.371	660.75
443.592	689.75
443.813	802.75
444.034	858.75
444.255	720.75
444.476	606.75
444.698	658.75
444.919	629.75
445.14	668.75
445.361	646.75
445.582	647.75
445.803	710.75
446.024	810.75
446.245	826.75
446.466	734.75
446.687	650.75
446.908	600.75
447.129	538.75
447.35	537.75
447.571	547.75
447.792	545.75
448.013	540.75
448.234	569.75
448.455	598.75
448.675	740.75
448.896	843.75
449.117	722.75
449.338	660.75
449.559	773.75
449.779	902.75
450	709.75
450.221	596.75
450.442	574.75
450.662	520.75
450.883	529.75
451.104	542.75
451.324	519.75
451.545	502.75
451.766	500.75
451.986	493.75
452.207	500.75
452.428	504.75
452.648	468.75
452.869	489.75
453.089	484.75
453.31	492.75
453.53	493.75
453.751	496.75
453.971	500.75
454.192	516.75
454.412	492.75
454.633	466.75
454.853	483.75
455.073	469.75
455.294	516.75
455.514	576.75
455.734	570.75
455.955	503.75
456.175	470.75
456.395	462.75
456.616	459.75
456.836	454.75
457.056	450.75
457.276	473.75
457.497	451.75
457.717	476.75
457.937	455.75
458.157	468.75
458.377	467.75
458.598	501.75
458.818	535.75
459.038	603.75
459.258	653.75
459.478	566.75
459.698	534.75
459.918	539.75
460.138	517.75
460.358	532.75
460.578	546.75
460.798	550.75
461.018	532.75
461.238	537.75
461.458	542.75
461.678	544.75
461.898	551.75
462.118	541.75
462.338	558.75
462.558	557.75
462.777	579.75
462.997	583.75
463.217	637.75
463.437	642.75
463.657	589.75
463.876	587.75
464.096	613.75
464.316	583.75
464.536	605.75
464.755	568.75
464.975	577.75
465.195	600.75
465.414	622.75
465.634	609.75
465.854	555.75
466.073	534.75
466.293	503.75
466.512	494.75
466.732	511.75
466.951	537.75
467.171	487.75
467.391	488.75
467.61	512.75
467.829	513.75
468.049	504.75
468.268	493.75
468.488	492.75
468.707	486.75
468.927	492.75
469.146	491.75
469.365	486.75
469.585	494.75
469.804	510.75
470.023	512.75
470.243	498.75
470.462	515.75
470.681	510.75
470.901	501.75
471.12	507.75
471.339	501.75
471.558	519.75
471.777	500.75
471.997	485.75
472.216	480.75
472.435	554.75
472.654	509.75
472.873	525.75
473.092	484.75
473.311	502.75
473.53	508.75
473.749	520.75
473.968	562.75
474.187	650.75
474.406	674.75
474.625	576.75
474.844	534.75
475.063	504.75
475.282	518.75
475.501	513.75
475.72	509.75
475.939	506.75
476.158	516.75
476.377	518.75
476.596	524.75
476.814	516.75
477.033	535.75
477.252	527.75
477.471	545.75
477.69	533.75
477.908	570.75
478.127	564.75
478.346	564.75
478.564	555.75
478.783	592.75
479.002	601.75
479.22	576.75
479.439	576.75
479.658	618.75
479.876	611.75
480.095	626.75
480.313	651.75
480.532	647.75
480.751	649.75
480.969	630.75
481.188	663.75
481.406	704.75
481.624	640.75
481.843	619.75
482.061	621.75
482.28	615.75
482.498	608.75
482.717	573.75
482.935	598.75
483.153	585.75
483.372	581.75
483.59	589.75
483.808	596.75
484.027	570.75
484.245	604.75
484.463	586.75
484.681	611.75
484.9	564.75
485.118	632.75
485.336	630.75
485.554	600.75
485.772	604.75
485.99	611.75
486.209	620.75
486.427	627.75
486.645	634.75
486.863	645.75
487.081	636.75
487.299	631.75
487.517	640.75
487.735	628.75
487.953	624.75
488.171	625.75
488.389	632.75
488.607	657.75
488.825	648.75
489.043	621.75
489.261	632.75
489.479	643.75
489.696	613.75
489.914	669.75
490.132	638.75
490.35	656.75
490.568	680.75
490.786	666.75
491.003	666.75
491.221	699.75
491.439	719.75
491.657	721.75
491.874	728.75
492.092	714.75
492.31	694.75
492.527	732.75
492.745	724.75
492.963	710.75
493.18	720.75
493.398	745.75
493.615	747.75
493.833	737.75
494.05	754.75
494.268	755.75
494.485	745.75
494.703	738.75
494.92	744.75
495.138	752.75
495.355	729.75
495.573	754.75
495.79	731.75
496.008	755.75
496.225	758.75
496.442	718.75
496.66	760.75
496.877	731.75
497.094	758.75
497.312	725.75
497.529	774.75
497.746	785.75
497.963	813.75
498.181	833.75
498.398	840.75
498.615	860.75
498.832	875.75
499.049	873.75
499.267	927.75
499.484	962.75
499.701	997.75
499.918	1045.75
500.135	1139.75
500.352	1153.75
500.569	1208.75
500.786	1198.75
501.003	1158.75
501.22	1125.75
501.437	1076.75
501.654	1045.75
