Data from 1976.PennyLincolnUp.Lamp.En5.5.200Scan.071719.P1.Changed Mount._HRD10591_15-59-49-861.txt Node
Date: Thu Jul 18 15:59:49 EDT 2019
User: cochatt
Spectrometer: HR+D1059
Trigger mode: 1
Integration Time (sec): 1.000000E-1
Scans to average: 1
Electric dark correction enabled: true
Nonlinearity correction enabled: false
Boxcar width: 0
XAxis mode: Wavelengths
Number of Pixels in Spectrum: 2048
>>>>>Begin Spectral Data<<<<<
223.165	-10.81
223.4	-10.81
223.635	-10.81
223.869	-17.81
224.104	-18.81
224.338	-29.81
224.573	-9.81
224.808	-16.81
225.042	-15.81
225.277	5.19
225.511	15.19
225.746	1.19
225.98	5.19
226.215	5.19
226.449	14.19
226.683	17.19
226.918	25.19
227.152	31.19
227.387	23.19
227.621	48.19
227.856	57.19
228.09	35.19
228.324	54.19
228.559	50.19
228.793	65.19
229.027	107.19
229.262	110.19
229.496	124.19
229.73	136.19
229.964	157.19
230.199	117.19
230.433	97.19
230.667	111.19
230.901	112.19
231.136	104.19
231.37	103.19
231.604	123.19
231.838	114.19
232.072	109.19
232.306	102.19
232.541	98.19
232.775	104.19
233.009	112.19
233.243	118.19
233.477	103.19
233.711	119.19
233.945	123.19
234.179	134.19
234.413	112.19
234.647	120.19
234.881	112.19
235.115	110.19
235.349	123.19
235.583	109.19
235.817	119.19
236.051	129.19
236.285	125.19
236.519	129.19
236.753	133.19
236.987	144.19
237.221	161.19
237.455	213.19
237.689	177.19
237.922	143.19
238.156	137.19
238.39	131.19
238.624	127.19
238.858	125.19
239.091	143.19
239.325	125.19
239.559	119.19
239.793	123.19
240.027	127.19
240.26	147.19
240.494	148.19
240.728	137.19
240.961	131.19
241.195	146.19
241.429	150.19
241.662	130.19
241.896	134.19
242.13	146.19
242.363	134.19
242.597	153.19
242.83	129.19
243.064	123.19
243.298	136.19
243.531	142.19
243.765	135.19
243.998	160.19
244.232	141.19
244.465	147.19
244.699	130.19
244.932	146.19
245.166	154.19
245.399	146.19
245.633	173.19
245.866	135.19
246.099	142.19
246.333	146.19
246.566	159.19
246.8	141.19
247.033	145.19
247.266	153.19
247.5	167.19
247.733	165.19
247.966	180.19
248.2	168.19
248.433	174.19
248.666	177.19
248.899	166.19
249.133	190.19
249.366	185.19
249.599	191.19
249.832	187.19
250.066	181.19
250.299	182.19
250.532	186.19
250.765	200.19
250.998	231.19
251.231	229.19
251.465	210.19
251.698	207.19
251.931	206.19
252.164	186.19
252.397	192.19
252.63	204.19
252.863	202.19
253.096	231.19
253.329	216.19
253.562	211.19
253.795	210.19
254.028	217.19
254.261	209.19
254.494	222.19
254.727	251.19
254.96	263.19
255.193	258.19
255.426	235.19
255.659	225.19
255.892	230.19
256.124	223.19
256.357	236.19
256.59	227.19
256.823	211.19
257.056	202.19
257.289	220.19
257.521	207.19
257.754	215.19
257.987	221.19
258.22	195.19
258.452	203.19
258.685	206.19
258.918	208.19
259.151	209.19
259.383	225.19
259.616	226.19
259.849	219.19
260.081	221.19
260.314	233.19
260.547	253.19
260.779	241.19
261.012	236.19
261.244	225.19
261.477	233.19
261.71	210.19
261.942	208.19
262.175	232.19
262.407	208.19
262.64	223.19
262.872	224.19
263.105	217.19
263.337	212.19
263.57	215.19
263.802	210.19
264.035	227.19
264.267	208.19
264.499	218.19
264.732	212.19
264.964	222.19
265.197	233.19
265.429	212.19
265.661	215.19
265.894	216.19
266.126	222.19
266.358	238.19
266.591	212.19
266.823	238.19
267.055	227.19
267.287	223.19
267.52	237.19
267.752	222.19
267.984	222.19
268.216	228.19
268.448	223.19
268.681	240.19
268.913	256.19
269.145	257.19
269.377	255.19
269.609	270.19
269.841	269.19
270.073	281.19
270.306	290.19
270.538	300.19
270.77	297.19
271.002	290.19
271.234	281.19
271.466	278.19
271.698	296.19
271.93	303.19
272.162	308.19
272.394	296.19
272.626	297.19
272.858	280.19
273.09	279.19
273.322	269.19
273.553	266.19
273.785	281.19
274.017	265.19
274.249	261.19
274.481	234.19
274.713	267.19
274.945	270.19
275.176	259.19
275.408	279.19
275.64	278.19
275.872	249.19
276.104	267.19
276.335	269.19
276.567	285.19
276.799	288.19
277.031	295.19
277.262	320.19
277.494	313.19
277.726	301.19
277.957	281.19
278.189	278.19
278.421	285.19
278.652	273.19
278.884	267.19
279.115	254.19
279.347	285.19
279.579	276.19
279.81	278.19
280.042	268.19
280.273	250.19
280.505	279.19
280.736	278.19
280.968	268.19
281.199	281.19
281.431	281.19
281.662	278.19
281.894	271.19
282.125	276.19
282.356	288.19
282.588	293.19
282.819	294.19
283.051	287.19
283.282	279.19
283.513	296.19
283.745	288.19
283.976	293.19
284.207	294.19
284.439	296.19
284.67	287.19
284.901	284.19
285.132	309.19
285.364	277.19
285.595	274.19
285.826	281.19
286.057	299.19
286.288	288.19
286.52	287.19
286.751	313.19
286.982	287.19
287.213	300.19
287.444	293.19
287.675	298.19
287.906	291.19
288.138	322.19
288.369	322.19
288.6	324.19
288.831	315.19
289.062	304.19
289.293	310.19
289.524	306.19
289.755	299.19
289.986	300.19
290.217	303.19
290.448	290.19
290.679	289.19
290.91	313.19
291.141	291.19
291.371	287.19
291.602	316.19
291.833	305.19
292.064	288.19
292.295	311.19
292.526	311.19
292.757	285.19
292.987	291.19
293.218	286.19
293.449	321.19
293.68	303.19
293.91	302.19
294.141	305.19
294.372	314.19
294.603	306.19
294.833	295.19
295.064	312.19
295.295	320.19
295.525	302.19
295.756	308.19
295.987	317.19
296.217	333.19
296.448	329.19
296.679	326.19
296.909	314.19
297.14	300.19
297.37	321.19
297.601	307.19
297.831	311.19
298.062	311.19
298.292	324.19
298.523	313.19
298.753	317.19
298.984	328.19
299.214	333.19
299.445	334.19
299.675	318.19
299.905	322.19
300.136	327.19
300.366	315.19
300.597	333.19
300.827	331.19
301.057	347.19
301.288	354.19
301.518	330.19
301.748	328.19
301.979	346.19
302.209	345.19
302.439	326.19
302.669	333.19
302.9	344.19
303.13	328.19
303.36	337.19
303.59	343.19
303.82	336.19
304.051	346.19
304.281	331.19
304.511	338.19
304.741	329.19
304.971	368.19
305.201	339.19
305.431	345.19
305.661	339.19
305.891	348.19
306.121	341.19
306.352	345.19
306.582	332.19
306.812	330.19
307.042	320.19
307.272	326.19
307.502	354.19
307.731	337.19
307.961	343.19
308.191	341.19
308.421	342.19
308.651	342.19
308.881	343.19
309.111	326.19
309.341	346.19
309.571	346.19
309.8	359.19
310.03	351.19
310.26	379.19
310.49	366.19
310.72	370.19
310.949	378.19
311.179	379.19
311.409	375.19
311.639	374.19
311.868	352.19
312.098	375.19
312.328	378.19
312.557	400.19
312.787	397.19
313.017	393.19
313.246	368.19
313.476	368.19
313.706	370.19
313.935	373.19
314.165	393.19
314.394	399.19
314.624	401.19
314.853	396.19
315.083	384.19
315.312	380.19
315.542	390.19
315.771	353.19
316.001	384.19
316.23	362.19
316.46	373.19
316.689	377.19
316.919	371.19
317.148	383.19
317.377	385.19
317.607	380.19
317.836	376.19
318.065	407.19
318.295	375.19
318.524	359.19
318.753	381.19
318.983	364.19
319.212	378.19
319.441	387.19
319.67	377.19
319.9	375.19
320.129	377.19
320.358	384.19
320.587	393.19
320.816	388.19
321.046	383.19
321.275	394.19
321.504	387.19
321.733	380.19
321.962	402.19
322.191	401.19
322.42	416.19
322.649	426.19
322.878	423.19
323.108	448.19
323.337	415.19
323.566	458.19
323.795	483.19
324.024	498.19
324.253	583.19
324.482	774.19
324.71	1148.19
324.939	1662.19
325.168	1459.19
325.397	729.19
325.626	525.19
325.855	461.19
326.084	449.19
326.313	439.19
326.542	444.19
326.77	495.19
326.999	543.19
327.228	721.19
327.457	1029.19
327.686	1255.19
327.914	860.19
328.143	585.19
328.372	531.19
328.6	501.19
328.829	484.19
329.058	485.19
329.287	483.19
329.515	465.19
329.744	466.19
329.972	473.19
330.201	479.19
330.43	498.19
330.658	504.19
330.887	557.19
331.115	548.19
331.344	495.19
331.572	464.19
331.801	468.19
332.03	474.19
332.258	463.19
332.486	459.19
332.715	441.19
332.943	459.19
333.172	467.19
333.4	467.19
333.629	472.19
333.857	470.19
334.085	466.19
334.314	490.19
334.542	517.19
334.771	521.19
334.999	488.19
335.227	463.19
335.455	469.19
335.684	453.19
335.912	442.19
336.14	455.19
336.369	465.19
336.597	470.19
336.825	448.19
337.053	449.19
337.281	434.19
337.51	413.19
337.738	440.19
337.966	444.19
338.194	425.19
338.422	434.19
338.65	447.19
338.878	434.19
339.106	438.19
339.334	455.19
339.562	444.19
339.79	433.19
340.018	426.19
340.246	442.19
340.474	427.19
340.702	407.19
340.93	433.19
341.158	430.19
341.386	406.19
341.614	403.19
341.842	418.19
342.07	423.19
342.298	410.19
342.526	440.19
342.754	430.19
342.981	433.19
343.209	408.19
343.437	416.19
343.665	445.19
343.893	439.19
344.12	453.19
344.348	415.19
344.576	462.19
344.804	431.19
345.031	447.19
345.259	447.19
345.487	431.19
345.714	426.19
345.942	420.19
346.17	418.19
346.397	407.19
346.625	414.19
346.853	414.19
347.08	398.19
347.308	400.19
347.535	409.19
347.763	405.19
347.99	403.19
348.218	415.19
348.445	425.19
348.673	418.19
348.9	415.19
349.128	429.19
349.355	399.19
349.583	395.19
349.81	404.19
350.037	397.19
350.265	402.19
350.492	398.19
350.72	393.19
350.947	404.19
351.174	403.19
351.402	410.19
351.629	412.19
351.856	406.19
352.083	403.19
352.311	425.19
352.538	403.19
352.765	416.19
352.992	398.19
353.22	411.19
353.447	422.19
353.674	397.19
353.901	381.19
354.128	393.19
354.355	410.19
354.583	400.19
354.81	377.19
355.037	385.19
355.264	406.19
355.491	407.19
355.718	389.19
355.945	364.19
356.172	404.19
356.399	391.19
356.626	373.19
356.853	391.19
357.08	392.19
357.307	388.19
357.534	396.19
357.761	379.19
357.988	377.19
358.215	395.19
358.441	395.19
358.668	389.19
358.895	395.19
359.122	390.19
359.349	402.19
359.576	402.19
359.802	418.19
360.029	430.19
360.256	442.19
360.483	439.19
360.709	422.19
360.936	422.19
361.163	427.19
361.39	401.19
361.616	402.19
361.843	405.19
362.07	423.19
362.296	407.19
362.523	409.19
362.749	413.19
362.976	412.19
363.203	388.19
363.429	394.19
363.656	397.19
363.882	404.19
364.109	393.19
364.335	401.19
364.562	389.19
364.788	391.19
365.015	401.19
365.241	411.19
365.468	386.19
365.694	391.19
365.92	389.19
366.147	390.19
366.373	403.19
366.599	398.19
366.826	398.19
367.052	395.19
367.278	393.19
367.505	388.19
367.731	402.19
367.957	395.19
368.184	400.19
368.41	415.19
368.636	412.19
368.862	418.19
369.089	421.19
369.315	393.19
369.541	399.19
369.767	400.19
369.993	402.19
370.219	386.19
370.445	398.19
370.672	412.19
370.898	404.19
371.124	395.19
371.35	392.19
371.576	391.19
371.802	411.19
372.028	395.19
372.254	408.19
372.48	405.19
372.706	413.19
372.932	411.19
373.158	427.19
373.384	412.19
373.61	426.19
373.835	416.19
374.061	396.19
374.287	412.19
374.513	414.19
374.739	415.19
374.965	433.19
375.191	433.19
375.416	404.19
375.642	418.19
375.868	410.19
376.094	422.19
376.319	403.19
376.545	408.19
376.771	413.19
376.997	406.19
377.222	397.19
377.448	407.19
377.674	415.19
377.899	392.19
378.125	421.19
378.35	411.19
378.576	398.19
378.802	405.19
379.027	401.19
379.253	393.19
379.478	411.19
379.704	395.19
379.929	416.19
380.155	415.19
380.38	416.19
380.606	407.19
380.831	400.19
381.057	424.19
381.282	403.19
381.507	434.19
381.733	410.19
381.958	418.19
382.184	409.19
382.409	417.19
382.634	422.19
382.86	423.19
383.085	432.19
383.31	421.19
383.535	446.19
383.761	417.19
383.986	418.19
384.211	439.19
384.436	430.19
384.662	458.19
384.887	458.19
385.112	446.19
385.337	462.19
385.562	458.19
385.787	451.19
386.013	470.19
386.238	457.19
386.463	473.19
386.688	458.19
386.913	451.19
387.138	459.19
387.363	464.19
387.588	448.19
387.813	426.19
388.038	455.19
388.263	462.19
388.488	457.19
388.713	470.19
388.938	460.19
389.163	459.19
389.387	462.19
389.612	450.19
389.837	460.19
390.062	458.19
390.287	459.19
390.512	454.19
390.736	457.19
390.961	433.19
391.186	442.19
391.411	467.19
391.636	464.19
391.86	464.19
392.085	476.19
392.31	465.19
392.534	470.19
392.759	453.19
392.984	467.19
393.208	439.19
393.433	464.19
393.658	453.19
393.882	457.19
394.107	456.19
394.331	462.19
394.556	467.19
394.78	460.19
395.005	454.19
395.229	471.19
395.454	474.19
395.678	478.19
395.903	494.19
396.127	499.19
396.352	494.19
396.576	462.19
396.801	466.19
397.025	475.19
397.249	458.19
397.474	480.19
397.698	501.19
397.922	482.19
398.147	518.19
398.371	515.19
398.595	532.19
398.82	513.19
399.044	541.19
399.268	549.19
399.492	597.19
399.717	614.19
399.941	647.19
400.165	666.19
400.389	665.19
400.613	598.19
400.837	571.19
401.062	553.19
401.286	513.19
401.51	495.19
401.734	530.19
401.958	507.19
402.182	542.19
402.406	527.19
402.63	557.19
402.854	526.19
403.078	541.19
403.302	535.19
403.526	552.19
403.75	549.19
403.974	544.19
404.198	544.19
404.422	555.19
404.645	570.19
404.869	572.19
405.093	601.19
405.317	613.19
405.541	635.19
405.765	602.19
405.988	578.19
406.212	557.19
406.436	590.19
406.66	607.19
406.883	585.19
407.107	607.19
407.331	660.19
407.555	739.19
407.778	737.19
408.002	639.19
408.226	618.19
408.449	601.19
408.673	580.19
408.896	631.19
409.12	634.19
409.344	623.19
409.567	571.19
409.791	568.19
410.014	527.19
410.238	541.19
410.461	545.19
410.685	553.19
410.908	575.19
411.132	575.19
411.355	641.19
411.578	606.19
411.802	537.19
412.025	553.19
412.249	560.19
412.472	572.19
412.695	598.19
412.919	588.19
413.142	531.19
413.365	533.19
413.589	519.19
413.812	524.19
414.035	509.19
414.258	524.19
414.482	509.19
414.705	518.19
414.928	519.19
415.151	534.19
415.374	513.19
415.597	522.19
415.821	500.19
416.044	510.19
416.267	514.19
416.49	525.19
416.713	513.19
416.936	501.19
417.159	502.19
417.382	479.19
417.605	531.19
417.828	508.19
418.051	538.19
418.274	539.19
418.497	515.19
418.72	507.19
418.943	539.19
419.166	536.19
419.389	591.19
419.611	558.19
419.834	529.19
420.057	549.19
420.28	542.19
420.503	532.19
420.726	535.19
420.948	525.19
421.171	588.19
421.394	610.19
421.617	559.19
421.839	532.19
422.062	532.19
422.285	546.19
422.507	595.19
422.73	695.19
422.953	649.19
423.175	576.19
423.398	554.19
423.621	559.19
423.843	563.19
424.066	574.19
424.288	551.19
424.511	590.19
424.733	620.19
424.956	670.19
425.178	677.19
425.401	668.19
425.623	712.19
425.846	592.19
426.068	566.19
426.291	537.19
426.513	542.19
426.735	539.19
426.958	592.19
427.18	655.19
427.402	803.19
427.625	855.19
427.847	733.19
428.069	621.19
428.292	569.19
428.514	541.19
428.736	530.19
428.958	537.19
429.181	508.19
429.403	497.19
429.625	508.19
429.847	544.19
430.069	623.19
430.292	610.19
430.514	531.19
430.736	505.19
430.958	500.19
431.18	480.19
431.402	482.19
431.624	490.19
431.846	472.19
432.068	490.19
432.29	493.19
432.512	509.19
432.734	499.19
432.956	502.19
433.178	504.19
433.4	500.19
433.622	497.19
433.844	496.19
434.066	495.19
434.287	506.19
434.509	514.19
434.731	518.19
434.953	503.19
435.175	539.19
435.397	555.19
435.618	557.19
435.84	598.19
436.062	656.19
436.284	740.19
436.505	601.19
436.727	569.19
436.949	496.19
437.17	516.19
437.392	489.19
437.614	522.19
437.835	558.19
438.057	608.19
438.278	733.19
438.5	723.19
438.721	807.19
438.943	759.19
439.165	613.19
439.386	561.19
439.608	545.19
439.829	531.19
440.05	567.19
440.272	609.19
440.493	575.19
440.715	529.19
440.936	547.19
441.158	537.19
441.379	529.19
441.6	547.19
441.822	541.19
442.043	589.19
442.264	654.19
442.486	717.19
442.707	608.19
442.928	570.19
443.149	578.19
443.371	598.19
443.592	636.19
443.813	743.19
444.034	786.19
444.255	657.19
444.476	614.19
444.698	580.19
444.919	575.19
445.14	681.19
445.361	627.19
445.582	609.19
445.803	632.19
446.024	717.19
446.245	735.19
446.466	654.19
446.687	594.19
446.908	567.19
447.129	537.19
447.35	532.19
447.571	497.19
447.792	495.19
448.013	500.19
448.234	528.19
448.455	568.19
448.675	668.19
448.896	761.19
449.117	647.19
449.338	621.19
449.559	720.19
449.779	815.19
450	659.19
450.221	545.19
450.442	522.19
450.662	481.19
450.883	507.19
451.104	517.19
451.324	485.19
451.545	474.19
451.766	470.19
451.986	463.19
452.207	441.19
452.428	449.19
452.648	464.19
452.869	455.19
453.089	457.19
453.31	473.19
453.53	462.19
453.751	476.19
453.971	444.19
454.192	473.19
454.412	456.19
454.633	445.19
454.853	445.19
455.073	449.19
455.294	472.19
455.514	541.19
455.734	511.19
455.955	461.19
456.175	448.19
456.395	400.19
456.616	419.19
456.836	431.19
457.056	419.19
457.276	414.19
457.497	424.19
457.717	429.19
457.937	419.19
458.157	443.19
458.377	447.19
458.598	449.19
458.818	473.19
459.038	534.19
459.258	600.19
459.478	527.19
459.698	479.19
459.918	498.19
460.138	503.19
460.358	505.19
460.578	503.19
460.798	521.19
461.018	515.19
461.238	515.19
461.458	507.19
461.678	546.19
461.898	515.19
462.118	519.19
462.338	551.19
462.558	543.19
462.777	568.19
462.997	570.19
463.217	545.19
463.437	591.19
463.657	552.19
463.876	562.19
464.096	581.19
464.316	529.19
464.536	561.19
464.755	565.19
464.975	576.19
465.195	563.19
465.414	595.19
465.634	530.19
465.854	512.19
466.073	498.19
466.293	493.19
466.512	465.19
466.732	462.19
466.951	471.19
467.171	454.19
467.391	477.19
467.61	487.19
467.829	491.19
468.049	473.19
468.268	482.19
468.488	466.19
468.707	460.19
468.927	479.19
469.146	459.19
469.365	445.19
469.585	467.19
469.804	454.19
470.023	489.19
470.243	491.19
470.462	465.19
470.681	504.19
470.901	495.19
471.12	475.19
471.339	472.19
471.558	478.19
471.777	484.19
471.997	472.19
472.216	473.19
472.435	491.19
472.654	481.19
472.873	470.19
473.092	469.19
473.311	478.19
473.53	486.19
473.749	475.19
473.968	515.19
474.187	595.19
474.406	626.19
474.625	535.19
474.844	518.19
475.063	485.19
475.282	492.19
475.501	458.19
475.72	478.19
475.939	490.19
476.158	496.19
476.377	496.19
476.596	494.19
476.814	478.19
477.033	471.19
477.252	488.19
477.471	501.19
477.69	528.19
477.908	524.19
478.127	501.19
478.346	541.19
478.564	531.19
478.783	520.19
479.002	555.19
479.22	547.19
479.439	570.19
479.658	560.19
479.876	579.19
480.095	589.19
480.313	630.19
480.532	602.19
480.751	567.19
480.969	582.19
481.188	610.19
481.406	631.19
481.624	597.19
481.843	596.19
482.061	554.19
482.28	554.19
482.498	561.19
482.717	562.19
482.935	565.19
483.153	553.19
483.372	533.19
483.59	551.19
483.808	554.19
484.027	550.19
484.245	552.19
484.463	567.19
484.681	583.19
484.9	545.19
485.118	581.19
485.336	552.19
485.554	577.19
485.772	574.19
485.99	563.19
486.209	599.19
486.427	582.19
486.645	559.19
486.863	608.19
487.081	601.19
487.299	615.19
487.517	569.19
487.735	598.19
487.953	560.19
488.171	588.19
488.389	599.19
488.607	589.19
488.825	574.19
489.043	583.19
489.261	577.19
489.479	601.19
489.696	601.19
489.914	616.19
490.132	627.19
490.35	590.19
490.568	621.19
490.786	657.19
491.003	636.19
491.221	642.19
491.439	616.19
491.657	660.19
491.874	656.19
492.092	651.19
492.31	671.19
492.527	681.19
492.745	663.19
492.963	682.19
493.18	687.19
493.398	697.19
493.615	705.19
493.833	695.19
494.05	674.19
494.268	663.19
494.485	664.19
494.703	680.19
494.92	708.19
495.138	702.19
495.355	697.19
495.573	701.19
495.79	699.19
496.008	707.19
496.225	713.19
496.442	699.19
496.66	698.19
496.877	672.19
497.094	714.19
497.312	730.19
497.529	719.19
497.746	736.19
497.963	723.19
498.181	746.19
498.398	752.19
498.615	800.19
498.832	830.19
499.049	843.19
499.267	859.19
499.484	905.19
499.701	941.19
499.918	978.19
500.135	1047.19
500.352	1095.19
500.569	1135.19
500.786	1118.19
501.003	1102.19
501.22	1067.19
501.437	1020.19
501.654	965.19
