Data from 1976.PennyLincolnUp.Lamp.En5.5.200Scan.071719.P1.Changed Mount._HRD10591_15-59-51-860.txt Node
Date: Thu Jul 18 15:59:51 EDT 2019
User: cochatt
Spectrometer: HR+D1059
Trigger mode: 1
Integration Time (sec): 1.000000E-1
Scans to average: 1
Electric dark correction enabled: true
Nonlinearity correction enabled: false
Boxcar width: 0
XAxis mode: Wavelengths
Number of Pixels in Spectrum: 2048
>>>>>Begin Spectral Data<<<<<
223.165	-16.06
223.4	-16.06
223.635	-16.06
223.869	-30.06
224.104	-15.06
224.338	-19.06
224.573	-18.06
224.808	-26.06
225.042	-4.06
225.277	-10.06
225.511	3.94
225.746	7.94
225.98	4.94
226.215	9.94
226.449	24.94
226.683	30.94
226.918	20.94
227.152	34.94
227.387	40.94
227.621	41.94
227.856	56.94
228.09	42.94
228.324	51.94
228.559	61.94
228.793	72.94
229.027	84.94
229.262	104.94
229.496	102.94
229.73	115.94
229.964	130.94
230.199	107.94
230.433	99.94
230.667	126.94
230.901	120.94
231.136	115.94
231.37	95.94
231.604	108.94
231.838	114.94
232.072	110.94
232.306	106.94
232.541	127.94
232.775	119.94
233.009	111.94
233.243	102.94
233.477	103.94
233.711	112.94
233.945	123.94
234.179	122.94
234.413	111.94
234.647	117.94
234.881	116.94
235.115	138.94
235.349	115.94
235.583	120.94
235.817	135.94
236.051	130.94
236.285	122.94
236.519	120.94
236.753	127.94
236.987	128.94
237.221	165.94
237.455	207.94
237.689	186.94
237.922	142.94
238.156	141.94
238.39	119.94
238.624	112.94
238.858	128.94
239.091	122.94
239.325	110.94
239.559	137.94
239.793	118.94
240.027	135.94
240.26	130.94
240.494	139.94
240.728	147.94
240.961	144.94
241.195	126.94
241.429	138.94
241.662	139.94
241.896	122.94
242.13	135.94
242.363	126.94
242.597	132.94
242.83	134.94
243.064	137.94
243.298	134.94
243.531	141.94
243.765	135.94
243.998	135.94
244.232	139.94
244.465	153.94
244.699	139.94
244.932	134.94
245.166	126.94
245.399	146.94
245.633	138.94
245.866	135.94
246.099	153.94
246.333	142.94
246.566	151.94
246.8	151.94
247.033	154.94
247.266	158.94
247.5	156.94
247.733	172.94
247.966	160.94
248.2	178.94
248.433	174.94
248.666	159.94
248.899	182.94
249.133	191.94
249.366	192.94
249.599	186.94
249.832	174.94
250.066	173.94
250.299	171.94
250.532	171.94
250.765	176.94
250.998	195.94
251.231	196.94
251.465	218.94
251.698	207.94
251.931	192.94
252.164	185.94
252.397	201.94
252.63	184.94
252.863	195.94
253.096	202.94
253.329	202.94
253.562	212.94
253.795	206.94
254.028	192.94
254.261	198.94
254.494	197.94
254.727	222.94
254.96	270.94
255.193	231.94
255.426	231.94
255.659	225.94
255.892	221.94
256.124	226.94
256.357	208.94
256.59	210.94
256.823	223.94
257.056	199.94
257.289	198.94
257.521	201.94
257.754	198.94
257.987	225.94
258.22	208.94
258.452	214.94
258.685	204.94
258.918	210.94
259.151	214.94
259.383	202.94
259.616	195.94
259.849	211.94
260.081	205.94
260.314	238.94
260.547	246.94
260.779	221.94
261.012	214.94
261.244	212.94
261.477	214.94
261.71	210.94
261.942	222.94
262.175	232.94
262.407	226.94
262.64	217.94
262.872	204.94
263.105	205.94
263.337	219.94
263.57	203.94
263.802	218.94
264.035	208.94
264.267	215.94
264.499	196.94
264.732	203.94
264.964	201.94
265.197	206.94
265.429	222.94
265.661	215.94
265.894	205.94
266.126	209.94
266.358	218.94
266.591	214.94
266.823	239.94
267.055	213.94
267.287	234.94
267.52	228.94
267.752	215.94
267.984	226.94
268.216	227.94
268.448	226.94
268.681	224.94
268.913	244.94
269.145	258.94
269.377	257.94
269.609	258.94
269.841	257.94
270.073	259.94
270.306	286.94
270.538	306.94
270.77	292.94
271.002	300.94
271.234	245.94
271.466	297.94
271.698	292.94
271.93	299.94
272.162	300.94
272.394	295.94
272.626	274.94
272.858	264.94
273.09	277.94
273.322	263.94
273.553	269.94
273.785	265.94
274.017	245.94
274.249	257.94
274.481	255.94
274.713	258.94
274.945	267.94
275.176	262.94
275.408	261.94
275.64	263.94
275.872	265.94
276.104	253.94
276.335	247.94
276.567	260.94
276.799	272.94
277.031	290.94
277.262	285.94
277.494	293.94
277.726	296.94
277.957	289.94
278.189	283.94
278.421	271.94
278.652	254.94
278.884	263.94
279.115	276.94
279.347	279.94
279.579	266.94
279.81	259.94
280.042	268.94
280.273	269.94
280.505	258.94
280.736	265.94
280.968	263.94
281.199	267.94
281.431	263.94
281.662	266.94
281.894	285.94
282.125	265.94
282.356	280.94
282.588	298.94
282.819	306.94
283.051	285.94
283.282	280.94
283.513	297.94
283.745	267.94
283.976	294.94
284.207	280.94
284.439	285.94
284.67	284.94
284.901	282.94
285.132	288.94
285.364	271.94
285.595	293.94
285.826	279.94
286.057	280.94
286.288	278.94
286.52	288.94
286.751	282.94
286.982	272.94
287.213	298.94
287.444	285.94
287.675	278.94
287.906	306.94
288.138	298.94
288.369	298.94
288.6	296.94
288.831	288.94
289.062	294.94
289.293	289.94
289.524	284.94
289.755	292.94
289.986	289.94
290.217	293.94
290.448	288.94
290.679	289.94
290.91	301.94
291.141	290.94
291.371	294.94
291.602	303.94
291.833	282.94
292.064	301.94
292.295	290.94
292.526	294.94
292.757	281.94
292.987	295.94
293.218	306.94
293.449	290.94
293.68	286.94
293.91	301.94
294.141	290.94
294.372	291.94
294.603	292.94
294.833	287.94
295.064	278.94
295.295	295.94
295.525	308.94
295.756	313.94
295.987	304.94
296.217	317.94
296.448	307.94
296.679	309.94
296.909	288.94
297.14	298.94
297.37	319.94
297.601	310.94
297.831	313.94
298.062	310.94
298.292	316.94
298.523	310.94
298.753	323.94
298.984	314.94
299.214	335.94
299.445	312.94
299.675	298.94
299.905	302.94
300.136	298.94
300.366	320.94
300.597	317.94
300.827	333.94
301.057	310.94
301.288	348.94
301.518	334.94
301.748	344.94
301.979	336.94
302.209	342.94
302.439	327.94
302.669	329.94
302.9	312.94
303.13	334.94
303.36	326.94
303.59	334.94
303.82	341.94
304.051	349.94
304.281	355.94
304.511	338.94
304.741	338.94
304.971	329.94
305.201	340.94
305.431	322.94
305.661	312.94
305.891	327.94
306.121	320.94
306.352	349.94
306.582	319.94
306.812	329.94
307.042	331.94
307.272	330.94
307.502	325.94
307.731	323.94
307.961	329.94
308.191	321.94
308.421	336.94
308.651	350.94
308.881	347.94
309.111	332.94
309.341	331.94
309.571	336.94
309.8	326.94
310.03	370.94
310.26	371.94
310.49	352.94
310.72	368.94
310.949	351.94
311.179	365.94
311.409	364.94
311.639	371.94
311.868	362.94
312.098	356.94
312.328	360.94
312.557	368.94
312.787	391.94
313.017	379.94
313.246	358.94
313.476	358.94
313.706	363.94
313.935	374.94
314.165	378.94
314.394	385.94
314.624	384.94
314.853	361.94
315.083	369.94
315.312	380.94
315.542	378.94
315.771	348.94
316.001	378.94
316.23	365.94
316.46	363.94
316.689	362.94
316.919	363.94
317.148	386.94
317.377	384.94
317.607	370.94
317.836	381.94
318.065	356.94
318.295	351.94
318.524	389.94
318.753	354.94
318.983	365.94
319.212	380.94
319.441	383.94
319.67	365.94
319.9	377.94
320.129	366.94
320.358	378.94
320.587	386.94
320.816	392.94
321.046	419.94
321.275	381.94
321.504	386.94
321.733	376.94
321.962	392.94
322.191	393.94
322.42	391.94
322.649	395.94
322.878	389.94
323.108	427.94
323.337	425.94
323.566	439.94
323.795	441.94
324.024	471.94
324.253	550.94
324.482	745.94
324.71	1104.94
324.939	1652.94
325.168	1442.94
325.397	740.94
325.626	527.94
325.855	451.94
326.084	455.94
326.313	439.94
326.542	456.94
326.77	497.94
326.999	534.94
327.228	668.94
327.457	1012.94
327.686	1244.94
327.914	827.94
328.143	592.94
328.372	524.94
328.6	502.94
328.829	472.94
329.058	481.94
329.287	499.94
329.515	470.94
329.744	444.94
329.972	462.94
330.201	466.94
330.43	478.94
330.658	501.94
330.887	499.94
331.115	514.94
331.344	461.94
331.572	466.94
331.801	461.94
332.03	456.94
332.258	430.94
332.486	441.94
332.715	434.94
332.943	456.94
333.172	422.94
333.4	467.94
333.629	461.94
333.857	487.94
334.085	496.94
334.314	473.94
334.542	494.94
334.771	491.94
334.999	486.94
335.227	478.94
335.455	487.94
335.684	455.94
335.912	451.94
336.14	440.94
336.369	424.94
336.597	461.94
336.825	440.94
337.053	428.94
337.281	430.94
337.51	440.94
337.738	435.94
337.966	418.94
338.194	442.94
338.422	440.94
338.65	435.94
338.878	419.94
339.106	437.94
339.334	413.94
339.562	412.94
339.79	405.94
340.018	431.94
340.246	406.94
340.474	428.94
340.702	419.94
340.93	415.94
341.158	412.94
341.386	427.94
341.614	416.94
341.842	418.94
342.07	422.94
342.298	426.94
342.526	424.94
342.754	406.94
342.981	420.94
343.209	404.94
343.437	405.94
343.665	425.94
343.893	425.94
344.12	459.94
344.348	441.94
344.576	448.94
344.804	435.94
345.031	449.94
345.259	438.94
345.487	426.94
345.714	405.94
345.942	390.94
346.17	406.94
346.397	403.94
346.625	429.94
346.853	406.94
347.08	414.94
347.308	403.94
347.535	404.94
347.763	410.94
347.99	412.94
348.218	438.94
348.445	412.94
348.673	388.94
348.9	394.94
349.128	403.94
349.355	376.94
349.583	382.94
349.81	385.94
350.037	396.94
350.265	402.94
350.492	397.94
350.72	396.94
350.947	390.94
351.174	399.94
351.402	427.94
351.629	420.94
351.856	414.94
352.083	394.94
352.311	399.94
352.538	415.94
352.765	421.94
352.992	397.94
353.22	408.94
353.447	402.94
353.674	396.94
353.901	415.94
354.128	379.94
354.355	380.94
354.583	390.94
354.81	379.94
355.037	394.94
355.264	403.94
355.491	388.94
355.718	409.94
355.945	405.94
356.172	375.94
356.399	395.94
356.626	363.94
356.853	379.94
357.08	407.94
357.307	410.94
357.534	396.94
357.761	384.94
357.988	384.94
358.215	363.94
358.441	384.94
358.668	367.94
358.895	398.94
359.122	400.94
359.349	400.94
359.576	432.94
359.802	420.94
360.029	422.94
360.256	448.94
360.483	421.94
360.709	408.94
360.936	420.94
361.163	415.94
361.39	397.94
361.616	407.94
361.843	412.94
362.07	389.94
362.296	415.94
362.523	395.94
362.749	408.94
362.976	406.94
363.203	388.94
363.429	378.94
363.656	394.94
363.882	382.94
364.109	393.94
364.335	395.94
364.562	380.94
364.788	395.94
365.015	400.94
365.241	385.94
365.468	388.94
365.694	395.94
365.92	378.94
366.147	403.94
366.373	397.94
366.599	381.94
366.826	386.94
367.052	406.94
367.278	378.94
367.505	392.94
367.731	392.94
367.957	398.94
368.184	391.94
368.41	420.94
368.636	390.94
368.862	400.94
369.089	400.94
369.315	399.94
369.541	427.94
369.767	403.94
369.993	396.94
370.219	399.94
370.445	403.94
370.672	404.94
370.898	401.94
371.124	383.94
371.35	398.94
371.576	388.94
371.802	396.94
372.028	420.94
372.254	404.94
372.48	380.94
372.706	393.94
372.932	396.94
373.158	412.94
373.384	399.94
373.61	384.94
373.835	413.94
374.061	392.94
374.287	403.94
374.513	416.94
374.739	426.94
374.965	404.94
375.191	419.94
375.416	431.94
375.642	411.94
375.868	413.94
376.094	400.94
376.319	383.94
376.545	399.94
376.771	398.94
376.997	390.94
377.222	408.94
377.448	394.94
377.674	406.94
377.899	376.94
378.125	399.94
378.35	402.94
378.576	398.94
378.802	403.94
379.027	385.94
379.253	397.94
379.478	409.94
379.704	387.94
379.929	418.94
380.155	382.94
380.38	391.94
380.606	415.94
380.831	390.94
381.057	405.94
381.282	398.94
381.507	383.94
381.733	398.94
381.958	399.94
382.184	395.94
382.409	416.94
382.634	421.94
382.86	408.94
383.085	403.94
383.31	423.94
383.535	446.94
383.761	429.94
383.986	447.94
384.211	438.94
384.436	422.94
384.662	447.94
384.887	458.94
385.112	434.94
385.337	439.94
385.562	439.94
385.787	446.94
386.013	461.94
386.238	464.94
386.463	451.94
386.688	443.94
386.913	448.94
387.138	448.94
387.363	426.94
387.588	428.94
387.813	448.94
388.038	430.94
388.263	434.94
388.488	454.94
388.713	449.94
388.938	470.94
389.163	453.94
389.387	460.94
389.612	442.94
389.837	443.94
390.062	431.94
390.287	430.94
390.512	432.94
390.736	449.94
390.961	448.94
391.186	437.94
391.411	450.94
391.636	444.94
391.86	461.94
392.085	458.94
392.31	444.94
392.534	467.94
392.759	463.94
392.984	463.94
393.208	457.94
393.433	452.94
393.658	455.94
393.882	456.94
394.107	459.94
394.331	429.94
394.556	464.94
394.78	467.94
395.005	456.94
395.229	453.94
395.454	475.94
395.678	463.94
395.903	477.94
396.127	495.94
396.352	502.94
396.576	486.94
396.801	451.94
397.025	451.94
397.249	476.94
397.474	458.94
397.698	469.94
397.922	491.94
398.147	476.94
398.371	513.94
398.595	519.94
398.82	512.94
399.044	524.94
399.268	560.94
399.492	572.94
399.717	620.94
399.941	672.94
400.165	648.94
400.389	652.94
400.613	607.94
400.837	540.94
401.062	566.94
401.286	543.94
401.51	508.94
401.734	517.94
401.958	524.94
402.182	505.94
402.406	510.94
402.63	525.94
402.854	519.94
403.078	540.94
403.302	536.94
403.526	527.94
403.75	532.94
403.974	531.94
404.198	532.94
404.422	547.94
404.645	540.94
404.869	542.94
405.093	586.94
405.317	627.94
405.541	669.94
405.765	584.94
405.988	580.94
406.212	546.94
406.436	571.94
406.66	580.94
406.883	591.94
407.107	603.94
407.331	652.94
407.555	738.94
407.778	708.94
408.002	618.94
408.226	590.94
408.449	596.94
408.673	558.94
408.896	600.94
409.12	634.94
409.344	628.94
409.567	545.94
409.791	567.94
410.014	550.94
410.238	543.94
410.461	559.94
410.685	560.94
410.908	546.94
411.132	598.94
411.355	602.94
411.578	590.94
411.802	534.94
412.025	554.94
412.249	553.94
412.472	580.94
412.695	584.94
412.919	576.94
413.142	551.94
413.365	530.94
413.589	541.94
413.812	522.94
414.035	510.94
414.258	508.94
414.482	525.94
414.705	525.94
414.928	527.94
415.151	503.94
415.374	521.94
415.597	502.94
415.821	516.94
416.044	522.94
416.267	493.94
416.49	510.94
416.713	485.94
416.936	495.94
417.159	495.94
417.382	506.94
417.605	505.94
417.828	532.94
418.051	529.94
418.274	521.94
418.497	520.94
418.72	500.94
418.943	506.94
419.166	523.94
419.389	544.94
419.611	556.94
419.834	542.94
420.057	550.94
420.28	555.94
420.503	528.94
420.726	523.94
420.948	548.94
421.171	559.94
421.394	607.94
421.617	559.94
421.839	526.94
422.062	523.94
422.285	544.94
422.507	578.94
422.73	634.94
422.953	614.94
423.175	578.94
423.398	557.94
423.621	542.94
423.843	541.94
424.066	553.94
424.288	556.94
424.511	580.94
424.733	639.94
424.956	682.94
425.178	685.94
425.401	645.94
425.623	688.94
425.846	611.94
426.068	540.94
426.291	530.94
426.513	545.94
426.735	526.94
426.958	575.94
427.18	664.94
427.402	787.94
427.625	839.94
427.847	725.94
428.069	644.94
428.292	568.94
428.514	528.94
428.736	510.94
428.958	490.94
429.181	500.94
429.403	476.94
429.625	480.94
429.847	539.94
430.069	623.94
430.292	613.94
430.514	520.94
430.736	506.94
430.958	483.94
431.18	483.94
431.402	509.94
431.624	484.94
431.846	484.94
432.068	494.94
432.29	498.94
432.512	476.94
432.734	493.94
432.956	479.94
433.178	501.94
433.4	492.94
433.622	484.94
433.844	481.94
434.066	494.94
434.287	482.94
434.509	493.94
434.731	503.94
434.953	523.94
435.175	521.94
435.397	552.94
435.618	554.94
435.84	566.94
436.062	666.94
436.284	743.94
436.505	600.94
436.727	568.94
436.949	520.94
437.17	508.94
437.392	518.94
437.614	509.94
437.835	524.94
438.057	620.94
438.278	711.94
438.5	681.94
438.721	776.94
438.943	741.94
439.165	582.94
439.386	540.94
439.608	560.94
439.829	551.94
440.05	589.94
440.272	602.94
440.493	571.94
440.715	532.94
440.936	520.94
441.158	520.94
441.379	515.94
441.6	523.94
441.822	522.94
442.043	572.94
442.264	642.94
442.486	705.94
442.707	584.94
442.928	549.94
443.149	555.94
443.371	575.94
443.592	627.94
443.813	687.94
444.034	762.94
444.255	646.94
444.476	586.94
444.698	571.94
444.919	572.94
445.14	691.94
445.361	636.94
445.582	582.94
445.803	644.94
446.024	742.94
446.245	716.94
446.466	660.94
446.687	584.94
446.908	534.94
447.129	524.94
447.35	514.94
447.571	509.94
447.792	507.94
448.013	518.94
448.234	510.94
448.455	549.94
448.675	654.94
448.896	780.94
449.117	633.94
449.338	599.94
449.559	697.94
449.779	809.94
450	645.94
450.221	527.94
450.442	479.94
450.662	479.94
450.883	490.94
451.104	474.94
451.324	477.94
451.545	502.94
451.766	455.94
451.986	470.94
452.207	458.94
452.428	422.94
452.648	446.94
452.869	444.94
453.089	424.94
453.31	468.94
453.53	445.94
453.751	451.94
453.971	453.94
454.192	457.94
454.412	442.94
454.633	447.94
454.853	434.94
455.073	436.94
455.294	471.94
455.514	507.94
455.734	527.94
455.955	446.94
456.175	427.94
456.395	438.94
456.616	427.94
456.836	410.94
457.056	424.94
457.276	428.94
457.497	422.94
457.717	421.94
457.937	423.94
458.157	441.94
458.377	442.94
458.598	446.94
458.818	500.94
459.038	542.94
459.258	596.94
459.478	507.94
459.698	469.94
459.918	482.94
460.138	503.94
460.358	516.94
460.578	518.94
460.798	503.94
461.018	527.94
461.238	505.94
461.458	485.94
461.678	496.94
461.898	517.94
462.118	514.94
462.338	525.94
462.558	535.94
462.777	534.94
462.997	550.94
463.217	600.94
463.437	576.94
463.657	567.94
463.876	565.94
464.096	567.94
464.316	553.94
464.536	552.94
464.755	572.94
464.975	555.94
465.195	556.94
465.414	591.94
465.634	540.94
465.854	500.94
466.073	506.94
466.293	485.94
466.512	474.94
466.732	483.94
466.951	470.94
467.171	470.94
467.391	469.94
467.61	468.94
467.829	462.94
468.049	454.94
468.268	468.94
468.488	444.94
468.707	471.94
468.927	463.94
469.146	443.94
469.365	453.94
469.585	452.94
469.804	448.94
470.023	477.94
470.243	496.94
470.462	470.94
470.681	484.94
470.901	473.94
471.12	494.94
471.339	470.94
471.558	483.94
471.777	454.94
471.997	463.94
472.216	485.94
472.435	468.94
472.654	482.94
472.873	450.94
473.092	459.94
473.311	478.94
473.53	483.94
473.749	479.94
473.968	485.94
474.187	588.94
474.406	607.94
474.625	505.94
474.844	462.94
475.063	472.94
475.282	469.94
475.501	475.94
475.72	478.94
475.939	460.94
476.158	494.94
476.377	495.94
476.596	482.94
476.814	491.94
477.033	482.94
477.252	478.94
477.471	484.94
477.69	516.94
477.908	533.94
478.127	517.94
478.346	518.94
478.564	526.94
478.783	553.94
479.002	524.94
479.22	543.94
479.439	543.94
479.658	587.94
479.876	569.94
480.095	568.94
480.313	596.94
480.532	591.94
480.751	574.94
480.969	583.94
481.188	604.94
481.406	624.94
481.624	574.94
481.843	559.94
482.061	549.94
482.28	547.94
482.498	547.94
482.717	538.94
482.935	562.94
483.153	522.94
483.372	528.94
483.59	549.94
483.808	568.94
484.027	555.94
484.245	564.94
484.463	532.94
484.681	557.94
484.9	568.94
485.118	579.94
485.336	550.94
485.554	550.94
485.772	553.94
485.99	542.94
486.209	552.94
486.427	552.94
486.645	574.94
486.863	606.94
487.081	585.94
487.299	592.94
487.517	589.94
487.735	595.94
487.953	600.94
488.171	582.94
488.389	579.94
488.607	588.94
488.825	570.94
489.043	588.94
489.261	584.94
489.479	582.94
489.696	579.94
489.914	609.94
490.132	598.94
490.35	582.94
490.568	612.94
490.786	599.94
491.003	642.94
491.221	650.94
491.439	650.94
491.657	640.94
491.874	637.94
492.092	653.94
492.31	675.94
492.527	674.94
492.745	680.94
492.963	687.94
493.18	671.94
493.398	670.94
493.615	679.94
493.833	682.94
494.05	662.94
494.268	694.94
494.485	700.94
494.703	679.94
494.92	678.94
495.138	697.94
495.355	700.94
495.573	679.94
495.79	689.94
496.008	689.94
496.225	702.94
496.442	686.94
496.66	675.94
496.877	669.94
497.094	735.94
497.312	717.94
497.529	733.94
497.746	708.94
497.963	728.94
498.181	735.94
498.398	759.94
498.615	743.94
498.832	802.94
499.049	840.94
499.267	846.94
499.484	904.94
499.701	936.94
499.918	967.94
500.135	1032.94
500.352	1096.94
500.569	1126.94
500.786	1090.94
501.003	1109.94
501.22	1063.94
501.437	997.94
501.654	953.94
