Data from 1976.PennyLincolnUp.Lamp.En5.5.200Scan.071719.P1.Changed Mount._HRD10591_16-02-23-862.txt Node
Date: Thu Jul 18 16:02:23 EDT 2019
User: cochatt
Spectrometer: HR+D1059
Trigger mode: 1
Integration Time (sec): 1.000000E-1
Scans to average: 1
Electric dark correction enabled: true
Nonlinearity correction enabled: false
Boxcar width: 0
XAxis mode: Wavelengths
Number of Pixels in Spectrum: 2048
>>>>>Begin Spectral Data<<<<<
223.165	-1.06
223.4	-1.06
223.635	-1.06
223.869	-19.06
224.104	-16.06
224.338	-5.06
224.573	-17.06
224.808	-37.06
225.042	-17.06
225.277	-11.06
225.511	6.94
225.746	2.94
225.98	12.94
226.215	13.94
226.449	12.94
226.683	24.94
226.918	14.94
227.152	33.94
227.387	26.94
227.621	44.94
227.856	45.94
228.09	53.94
228.324	54.94
228.559	58.94
228.793	67.94
229.027	97.94
229.262	116.94
229.496	116.94
229.73	123.94
229.964	166.94
230.199	117.94
230.433	114.94
230.667	106.94
230.901	118.94
231.136	121.94
231.37	113.94
231.604	123.94
231.838	122.94
232.072	117.94
232.306	108.94
232.541	109.94
232.775	115.94
233.009	122.94
233.243	122.94
233.477	110.94
233.711	103.94
233.945	106.94
234.179	118.94
234.413	126.94
234.647	120.94
234.881	116.94
235.115	128.94
235.349	118.94
235.583	107.94
235.817	115.94
236.051	132.94
236.285	129.94
236.519	134.94
236.753	127.94
236.987	138.94
237.221	184.94
237.455	226.94
237.689	194.94
237.922	141.94
238.156	144.94
238.39	130.94
238.624	129.94
238.858	133.94
239.091	129.94
239.325	125.94
239.559	125.94
239.793	126.94
240.027	144.94
240.26	147.94
240.494	170.94
240.728	150.94
240.961	161.94
241.195	151.94
241.429	139.94
241.662	132.94
241.896	149.94
242.13	151.94
242.363	127.94
242.597	143.94
242.83	133.94
243.064	125.94
243.298	147.94
243.531	130.94
243.765	142.94
243.998	133.94
244.232	133.94
244.465	132.94
244.699	146.94
244.932	151.94
245.166	161.94
245.399	145.94
245.633	143.94
245.866	156.94
246.099	157.94
246.333	154.94
246.566	164.94
246.8	144.94
247.033	146.94
247.266	157.94
247.5	167.94
247.733	168.94
247.966	184.94
248.2	178.94
248.433	173.94
248.666	177.94
248.899	186.94
249.133	190.94
249.366	209.94
249.599	191.94
249.832	177.94
250.066	182.94
250.299	190.94
250.532	205.94
250.765	202.94
250.998	212.94
251.231	233.94
251.465	201.94
251.698	207.94
251.931	215.94
252.164	198.94
252.397	217.94
252.63	202.94
252.863	206.94
253.096	219.94
253.329	229.94
253.562	215.94
253.795	226.94
254.028	210.94
254.261	226.94
254.494	233.94
254.727	274.94
254.96	291.94
255.193	250.94
255.426	247.94
255.659	234.94
255.892	261.94
256.124	265.94
256.357	250.94
256.59	239.94
256.823	234.94
257.056	211.94
257.289	223.94
257.521	225.94
257.754	210.94
257.987	219.94
258.22	223.94
258.452	209.94
258.685	206.94
258.918	210.94
259.151	232.94
259.383	236.94
259.616	227.94
259.849	229.94
260.081	255.94
260.314	264.94
260.547	265.94
260.779	265.94
261.012	228.94
261.244	229.94
261.477	219.94
261.71	233.94
261.942	248.94
262.175	239.94
262.407	255.94
262.64	242.94
262.872	225.94
263.105	231.94
263.337	221.94
263.57	227.94
263.802	222.94
264.035	235.94
264.267	223.94
264.499	223.94
264.732	225.94
264.964	226.94
265.197	228.94
265.429	224.94
265.661	229.94
265.894	229.94
266.126	230.94
266.358	226.94
266.591	245.94
266.823	233.94
267.055	245.94
267.287	247.94
267.52	235.94
267.752	247.94
267.984	237.94
268.216	243.94
268.448	245.94
268.681	262.94
268.913	237.94
269.145	281.94
269.377	284.94
269.609	283.94
269.841	289.94
270.073	305.94
270.306	289.94
270.538	317.94
270.77	316.94
271.002	316.94
271.234	310.94
271.466	319.94
271.698	318.94
271.93	318.94
272.162	326.94
272.394	314.94
272.626	321.94
272.858	305.94
273.09	275.94
273.322	297.94
273.553	271.94
273.785	278.94
274.017	281.94
274.249	263.94
274.481	279.94
274.713	292.94
274.945	297.94
275.176	287.94
275.408	267.94
275.64	291.94
275.872	291.94
276.104	290.94
276.335	278.94
276.567	300.94
276.799	305.94
277.031	311.94
277.262	337.94
277.494	355.94
277.726	309.94
277.957	332.94
278.189	305.94
278.421	289.94
278.652	292.94
278.884	306.94
279.115	283.94
279.347	281.94
279.579	285.94
279.81	284.94
280.042	293.94
280.273	284.94
280.505	281.94
280.736	275.94
280.968	275.94
281.199	275.94
281.431	271.94
281.662	298.94
281.894	284.94
282.125	295.94
282.356	301.94
282.588	334.94
282.819	335.94
283.051	308.94
283.282	288.94
283.513	283.94
283.745	291.94
283.976	305.94
284.207	314.94
284.439	298.94
284.67	285.94
284.901	287.94
285.132	306.94
285.364	307.94
285.595	310.94
285.826	303.94
286.057	296.94
286.288	302.94
286.52	307.94
286.751	300.94
286.982	300.94
287.213	310.94
287.444	307.94
287.675	331.94
287.906	332.94
288.138	329.94
288.369	331.94
288.6	331.94
288.831	319.94
289.062	317.94
289.293	324.94
289.524	317.94
289.755	309.94
289.986	309.94
290.217	338.94
290.448	323.94
290.679	318.94
290.91	316.94
291.141	297.94
291.371	321.94
291.602	324.94
291.833	332.94
292.064	315.94
292.295	323.94
292.526	316.94
292.757	319.94
292.987	320.94
293.218	305.94
293.449	331.94
293.68	310.94
293.91	341.94
294.141	319.94
294.372	313.94
294.603	357.94
294.833	319.94
295.064	321.94
295.295	341.94
295.525	297.94
295.756	339.94
295.987	325.94
296.217	330.94
296.448	346.94
296.679	338.94
296.909	314.94
297.14	330.94
297.37	319.94
297.601	340.94
297.831	330.94
298.062	336.94
298.292	350.94
298.523	339.94
298.753	338.94
298.984	332.94
299.214	321.94
299.445	353.94
299.675	342.94
299.905	345.94
300.136	333.94
300.366	348.94
300.597	345.94
300.827	347.94
301.057	367.94
301.288	379.94
301.518	381.94
301.748	365.94
301.979	363.94
302.209	345.94
302.439	364.94
302.669	321.94
302.9	341.94
303.13	349.94
303.36	363.94
303.59	372.94
303.82	362.94
304.051	375.94
304.281	348.94
304.511	363.94
304.741	372.94
304.971	377.94
305.201	356.94
305.431	360.94
305.661	361.94
305.891	365.94
306.121	373.94
306.352	367.94
306.582	372.94
306.812	369.94
307.042	353.94
307.272	371.94
307.502	366.94
307.731	362.94
307.961	364.94
308.191	372.94
308.421	355.94
308.651	373.94
308.881	369.94
309.111	357.94
309.341	381.94
309.571	389.94
309.8	385.94
310.03	382.94
310.26	407.94
310.49	380.94
310.72	403.94
310.949	403.94
311.179	435.94
311.409	403.94
311.639	394.94
311.868	400.94
312.098	403.94
312.328	389.94
312.557	423.94
312.787	407.94
313.017	431.94
313.246	431.94
313.476	388.94
313.706	411.94
313.935	410.94
314.165	409.94
314.394	418.94
314.624	431.94
314.853	416.94
315.083	414.94
315.312	415.94
315.542	412.94
315.771	393.94
316.001	391.94
316.23	400.94
316.46	392.94
316.689	412.94
316.919	403.94
317.148	416.94
317.377	405.94
317.607	412.94
317.836	405.94
318.065	417.94
318.295	386.94
318.524	393.94
318.753	407.94
318.983	406.94
319.212	397.94
319.441	431.94
319.67	416.94
319.9	387.94
320.129	402.94
320.358	411.94
320.587	398.94
320.816	413.94
321.046	407.94
321.275	426.94
321.504	427.94
321.733	418.94
321.962	418.94
322.191	445.94
322.42	441.94
322.649	445.94
322.878	477.94
323.108	472.94
323.337	477.94
323.566	499.94
323.795	521.94
324.024	550.94
324.253	666.94
324.482	892.94
324.71	1389.94
324.939	2031.94
325.168	1805.94
325.397	907.94
325.626	619.94
325.855	524.94
326.084	514.94
326.313	484.94
326.542	498.94
326.77	554.94
326.999	608.94
327.228	822.94
327.457	1224.94
327.686	1517.94
327.914	1033.94
328.143	660.94
328.372	604.94
328.6	555.94
328.829	571.94
329.058	558.94
329.287	560.94
329.515	545.94
329.744	506.94
329.972	509.94
330.201	532.94
330.43	568.94
330.658	572.94
330.887	608.94
331.115	577.94
331.344	520.94
331.572	490.94
331.801	503.94
332.03	506.94
332.258	501.94
332.486	487.94
332.715	482.94
332.943	507.94
333.172	502.94
333.4	495.94
333.629	499.94
333.857	515.94
334.085	548.94
334.314	515.94
334.542	582.94
334.771	579.94
334.999	537.94
335.227	539.94
335.455	500.94
335.684	497.94
335.912	487.94
336.14	479.94
336.369	488.94
336.597	489.94
336.825	485.94
337.053	474.94
337.281	492.94
337.51	463.94
337.738	473.94
337.966	475.94
338.194	469.94
338.422	477.94
338.65	457.94
338.878	479.94
339.106	441.94
339.334	455.94
339.562	447.94
339.79	456.94
340.018	449.94
340.246	443.94
340.474	475.94
340.702	471.94
340.93	439.94
341.158	448.94
341.386	466.94
341.614	479.94
341.842	457.94
342.07	426.94
342.298	463.94
342.526	444.94
342.754	446.94
342.981	434.94
343.209	451.94
343.437	468.94
343.665	468.94
343.893	490.94
344.12	501.94
344.348	484.94
344.576	461.94
344.804	459.94
345.031	464.94
345.259	490.94
345.487	473.94
345.714	447.94
345.942	454.94
346.17	461.94
346.397	436.94
346.625	436.94
346.853	438.94
347.08	439.94
347.308	456.94
347.535	460.94
347.763	450.94
347.99	451.94
348.218	459.94
348.445	443.94
348.673	455.94
348.9	433.94
349.128	430.94
349.355	428.94
349.583	426.94
349.81	432.94
350.037	425.94
350.265	457.94
350.492	425.94
350.72	443.94
350.947	442.94
351.174	434.94
351.402	436.94
351.629	445.94
351.856	447.94
352.083	451.94
352.311	465.94
352.538	435.94
352.765	461.94
352.992	435.94
353.22	428.94
353.447	425.94
353.674	441.94
353.901	438.94
354.128	435.94
354.355	391.94
354.583	413.94
354.81	406.94
355.037	417.94
355.264	404.94
355.491	418.94
355.718	391.94
355.945	418.94
356.172	437.94
356.399	422.94
356.626	422.94
356.853	421.94
357.08	403.94
357.307	422.94
357.534	417.94
357.761	427.94
357.988	421.94
358.215	438.94
358.441	395.94
358.668	427.94
358.895	426.94
359.122	431.94
359.349	423.94
359.576	450.94
359.802	455.94
360.029	482.94
360.256	470.94
360.483	459.94
360.709	420.94
360.936	427.94
361.163	442.94
361.39	462.94
361.616	441.94
361.843	443.94
362.07	412.94
362.296	449.94
362.523	434.94
362.749	430.94
362.976	434.94
363.203	441.94
363.429	421.94
363.656	415.94
363.882	439.94
364.109	415.94
364.335	407.94
364.562	396.94
364.788	397.94
365.015	425.94
365.241	428.94
365.468	434.94
365.694	428.94
365.92	450.94
366.147	430.94
366.373	418.94
366.599	435.94
366.826	404.94
367.052	408.94
367.278	418.94
367.505	412.94
367.731	386.94
367.957	412.94
368.184	418.94
368.41	420.94
368.636	429.94
368.862	430.94
369.089	442.94
369.315	420.94
369.541	414.94
369.767	405.94
369.993	428.94
370.219	420.94
370.445	421.94
370.672	436.94
370.898	427.94
371.124	437.94
371.35	434.94
371.576	421.94
371.802	433.94
372.028	413.94
372.254	427.94
372.48	400.94
372.706	425.94
372.932	440.94
373.158	435.94
373.384	421.94
373.61	436.94
373.835	407.94
374.061	442.94
374.287	437.94
374.513	441.94
374.739	424.94
374.965	428.94
375.191	459.94
375.416	445.94
375.642	441.94
375.868	440.94
376.094	405.94
376.319	433.94
376.545	439.94
376.771	434.94
376.997	418.94
377.222	434.94
377.448	446.94
377.674	421.94
377.899	414.94
378.125	418.94
378.35	417.94
378.576	424.94
378.802	437.94
379.027	421.94
379.253	440.94
379.478	425.94
379.704	448.94
379.929	433.94
380.155	421.94
380.38	433.94
380.606	423.94
380.831	418.94
381.057	421.94
381.282	434.94
381.507	423.94
381.733	445.94
381.958	459.94
382.184	427.94
382.409	438.94
382.634	432.94
382.86	440.94
383.085	460.94
383.31	435.94
383.535	454.94
383.761	453.94
383.986	442.94
384.211	439.94
384.436	461.94
384.662	471.94
384.887	458.94
385.112	443.94
385.337	477.94
385.562	467.94
385.787	474.94
386.013	479.94
386.238	472.94
386.463	469.94
386.688	472.94
386.913	457.94
387.138	484.94
387.363	478.94
387.588	458.94
387.813	477.94
388.038	474.94
388.263	467.94
388.488	480.94
388.713	474.94
388.938	475.94
389.163	477.94
389.387	490.94
389.612	495.94
389.837	470.94
390.062	481.94
390.287	487.94
390.512	482.94
390.736	494.94
390.961	471.94
391.186	483.94
391.411	485.94
391.636	487.94
391.86	515.94
392.085	509.94
392.31	499.94
392.534	477.94
392.759	479.94
392.984	484.94
393.208	488.94
393.433	474.94
393.658	490.94
393.882	502.94
394.107	501.94
394.331	477.94
394.556	475.94
394.78	470.94
395.005	483.94
395.229	484.94
395.454	503.94
395.678	523.94
395.903	506.94
396.127	522.94
396.352	533.94
396.576	495.94
396.801	501.94
397.025	494.94
397.249	499.94
397.474	515.94
397.698	535.94
397.922	526.94
398.147	541.94
398.371	560.94
398.595	546.94
398.82	561.94
399.044	570.94
399.268	592.94
399.492	637.94
399.717	660.94
399.941	682.94
400.165	706.94
400.389	714.94
400.613	642.94
400.837	633.94
401.062	558.94
401.286	572.94
401.51	557.94
401.734	535.94
401.958	561.94
402.182	564.94
402.406	569.94
402.63	579.94
402.854	565.94
403.078	585.94
403.302	563.94
403.526	599.94
403.75	582.94
403.974	588.94
404.198	586.94
404.422	583.94
404.645	585.94
404.869	600.94
405.093	603.94
405.317	654.94
405.541	702.94
405.765	637.94
405.988	579.94
406.212	614.94
406.436	619.94
406.66	632.94
406.883	597.94
407.107	668.94
407.331	714.94
407.555	750.94
407.778	782.94
408.002	701.94
408.226	671.94
408.449	638.94
408.673	642.94
408.896	678.94
409.12	708.94
409.344	668.94
409.567	586.94
409.791	608.94
410.014	567.94
410.238	582.94
410.461	569.94
410.685	579.94
410.908	594.94
411.132	631.94
411.355	659.94
411.578	654.94
411.802	577.94
412.025	585.94
412.249	596.94
412.472	595.94
412.695	645.94
412.919	633.94
413.142	590.94
413.365	575.94
413.589	569.94
413.812	551.94
414.035	543.94
414.258	565.94
414.482	527.94
414.705	550.94
414.928	508.94
415.151	563.94
415.374	549.94
415.597	553.94
415.821	542.94
416.044	547.94
416.267	535.94
416.49	549.94
416.713	533.94
416.936	556.94
417.159	542.94
417.382	539.94
417.605	565.94
417.828	573.94
418.051	572.94
418.274	563.94
418.497	549.94
418.72	549.94
418.943	543.94
419.166	590.94
419.389	597.94
419.611	595.94
419.834	582.94
420.057	578.94
420.28	574.94
420.503	561.94
420.726	563.94
420.948	579.94
421.171	633.94
421.394	648.94
421.617	582.94
421.839	573.94
422.062	591.94
422.285	582.94
422.507	623.94
422.73	710.94
422.953	662.94
423.175	618.94
423.398	611.94
423.621	597.94
423.843	617.94
424.066	600.94
424.288	600.94
424.511	633.94
424.733	674.94
424.956	762.94
425.178	715.94
425.401	682.94
425.623	749.94
425.846	641.94
426.068	599.94
426.291	611.94
426.513	591.94
426.735	624.94
426.958	636.94
427.18	708.94
427.402	826.94
427.625	910.94
427.847	799.94
428.069	705.94
428.292	632.94
428.514	609.94
428.736	550.94
428.958	565.94
429.181	556.94
429.403	555.94
429.625	565.94
429.847	581.94
430.069	670.94
430.292	675.94
430.514	563.94
430.736	553.94
430.958	540.94
431.18	495.94
431.402	508.94
431.624	526.94
431.846	533.94
432.068	504.94
432.29	538.94
432.512	533.94
432.734	550.94
432.956	526.94
433.178	515.94
433.4	533.94
433.622	546.94
433.844	536.94
434.066	533.94
434.287	543.94
434.509	539.94
434.731	538.94
434.953	558.94
435.175	581.94
435.397	606.94
435.618	606.94
435.84	642.94
436.062	729.94
436.284	801.94
436.505	676.94
436.727	604.94
436.949	547.94
437.17	539.94
437.392	551.94
437.614	580.94
437.835	589.94
438.057	696.94
438.278	793.94
438.5	767.94
438.721	868.94
438.943	853.94
439.165	667.94
439.386	595.94
439.608	620.94
439.829	579.94
440.05	635.94
440.272	667.94
440.493	611.94
440.715	581.94
440.936	561.94
441.158	546.94
441.379	567.94
441.6	575.94
441.822	604.94
442.043	636.94
442.264	716.94
442.486	777.94
442.707	659.94
442.928	622.94
443.149	616.94
443.371	643.94
443.592	656.94
443.813	803.94
444.034	830.94
444.255	705.94
444.476	629.94
444.698	634.94
444.919	620.94
445.14	718.94
445.361	654.94
445.582	640.94
445.803	693.94
446.024	804.94
446.245	833.94
446.466	760.94
446.687	625.94
446.908	621.94
447.129	572.94
447.35	546.94
447.571	521.94
447.792	534.94
448.013	541.94
448.234	566.94
448.455	609.94
448.675	739.94
448.896	852.94
449.117	733.94
449.338	682.94
449.559	783.94
449.779	933.94
450	714.94
450.221	577.94
450.442	554.94
450.662	521.94
450.883	557.94
451.104	542.94
451.324	537.94
451.545	507.94
451.766	497.94
451.986	471.94
452.207	493.94
452.428	471.94
452.648	497.94
452.869	493.94
453.089	499.94
453.31	508.94
453.53	504.94
453.751	492.94
453.971	506.94
454.192	483.94
454.412	490.94
454.633	500.94
454.853	489.94
455.073	482.94
455.294	513.94
455.514	571.94
455.734	578.94
455.955	478.94
456.175	463.94
456.395	442.94
456.616	457.94
456.836	474.94
457.056	460.94
457.276	457.94
457.497	484.94
457.717	463.94
457.937	451.94
458.157	477.94
458.377	487.94
458.598	502.94
458.818	532.94
459.038	635.94
459.258	643.94
459.478	574.94
459.698	530.94
459.918	525.94
460.138	523.94
460.358	533.94
460.578	529.94
460.798	541.94
461.018	559.94
461.238	553.94
461.458	520.94
461.678	537.94
461.898	554.94
462.118	542.94
462.338	540.94
462.558	591.94
462.777	584.94
462.997	615.94
463.217	619.94
463.437	618.94
463.657	599.94
463.876	600.94
464.096	598.94
464.316	591.94
464.536	615.94
464.755	593.94
464.975	587.94
465.195	589.94
465.414	647.94
465.634	588.94
465.854	571.94
466.073	541.94
466.293	547.94
466.512	517.94
466.732	515.94
466.951	497.94
467.171	501.94
467.391	484.94
467.61	503.94
467.829	501.94
468.049	515.94
468.268	533.94
468.488	498.94
468.707	491.94
468.927	489.94
469.146	479.94
469.365	491.94
469.585	493.94
469.804	512.94
470.023	502.94
470.243	510.94
470.462	502.94
470.681	515.94
470.901	527.94
471.12	505.94
471.339	520.94
471.558	506.94
471.777	516.94
471.997	509.94
472.216	486.94
472.435	559.94
472.654	540.94
472.873	492.94
473.092	489.94
473.311	492.94
473.53	500.94
473.749	494.94
473.968	545.94
474.187	636.94
474.406	688.94
474.625	553.94
474.844	529.94
475.063	511.94
475.282	503.94
475.501	482.94
475.72	517.94
475.939	502.94
476.158	534.94
476.377	523.94
476.596	525.94
476.814	527.94
477.033	537.94
477.252	544.94
477.471	539.94
477.69	522.94
477.908	547.94
478.127	566.94
478.346	551.94
478.564	572.94
478.783	582.94
479.002	576.94
479.22	582.94
479.439	611.94
479.658	609.94
479.876	591.94
480.095	609.94
480.313	641.94
480.532	633.94
480.751	609.94
480.969	627.94
481.188	663.94
481.406	723.94
481.624	634.94
481.843	590.94
482.061	607.94
482.28	610.94
482.498	590.94
482.717	610.94
482.935	596.94
483.153	589.94
483.372	612.94
483.59	601.94
483.808	601.94
484.027	590.94
484.245	577.94
484.463	616.94
484.681	623.94
484.9	603.94
485.118	611.94
485.336	600.94
485.554	618.94
485.772	607.94
485.99	610.94
486.209	616.94
486.427	626.94
486.645	612.94
486.863	634.94
487.081	649.94
487.299	613.94
487.517	604.94
487.735	623.94
487.953	633.94
488.171	639.94
488.389	642.94
488.607	625.94
488.825	643.94
489.043	630.94
489.261	662.94
489.479	634.94
489.696	658.94
489.914	615.94
490.132	645.94
490.35	654.94
490.568	663.94
490.786	693.94
491.003	702.94
491.221	702.94
491.439	721.94
491.657	727.94
491.874	723.94
492.092	740.94
492.31	743.94
492.527	727.94
492.745	735.94
492.963	714.94
493.18	708.94
493.398	732.94
493.615	741.94
493.833	741.94
494.05	748.94
494.268	741.94
494.485	753.94
494.703	749.94
494.92	751.94
495.138	778.94
495.355	755.94
495.573	739.94
495.79	757.94
496.008	748.94
496.225	747.94
496.442	757.94
496.66	742.94
496.877	751.94
497.094	787.94
497.312	802.94
497.529	812.94
497.746	789.94
497.963	797.94
498.181	845.94
498.398	856.94
498.615	875.94
498.832	910.94
499.049	907.94
499.267	907.94
499.484	975.94
499.701	1014.94
499.918	1077.94
500.135	1107.94
500.352	1159.94
500.569	1191.94
500.786	1191.94
501.003	1212.94
501.22	1140.94
501.437	1061.94
501.654	1009.94
