Data from 1976.PennyLincolnUp.Lamp.En5.5.200Scan.071719.P1.Changed Mount._HRD10591_16-01-16-861.txt Node
Date: Thu Jul 18 16:01:16 EDT 2019
User: cochatt
Spectrometer: HR+D1059
Trigger mode: 1
Integration Time (sec): 1.000000E-1
Scans to average: 1
Electric dark correction enabled: true
Nonlinearity correction enabled: false
Boxcar width: 0
XAxis mode: Wavelengths
Number of Pixels in Spectrum: 2048
>>>>>Begin Spectral Data<<<<<
223.165	-17.38
223.4	-17.38
223.635	-17.38
223.869	-20.38
224.104	-7.38
224.338	-17.38
224.573	-16.38
224.808	-1.38
225.042	-10.38
225.277	-6.38
225.511	-3.38
225.746	5.62
225.98	17.62
226.215	14.62
226.449	2.62
226.683	26.62
226.918	19.62
227.152	13.62
227.387	28.62
227.621	35.62
227.856	36.62
228.09	45.62
228.324	51.62
228.559	64.62
228.793	59.62
229.027	94.62
229.262	116.62
229.496	105.62
229.73	137.62
229.964	154.62
230.199	121.62
230.433	122.62
230.667	101.62
230.901	109.62
231.136	101.62
231.37	115.62
231.604	109.62
231.838	122.62
232.072	129.62
232.306	97.62
232.541	118.62
232.775	119.62
233.009	109.62
233.243	118.62
233.477	110.62
233.711	111.62
233.945	124.62
234.179	122.62
234.413	132.62
234.647	125.62
234.881	106.62
235.115	115.62
235.349	123.62
235.583	123.62
235.817	116.62
236.051	121.62
236.285	103.62
236.519	125.62
236.753	145.62
236.987	135.62
237.221	175.62
237.455	245.62
237.689	187.62
237.922	157.62
238.156	126.62
238.39	121.62
238.624	126.62
238.858	123.62
239.091	136.62
239.325	119.62
239.559	125.62
239.793	133.62
240.027	113.62
240.26	134.62
240.494	153.62
240.728	131.62
240.961	161.62
241.195	141.62
241.429	136.62
241.662	128.62
241.896	132.62
242.13	149.62
242.363	131.62
242.597	138.62
242.83	141.62
243.064	135.62
243.298	150.62
243.531	141.62
243.765	139.62
243.998	130.62
244.232	142.62
244.465	153.62
244.699	158.62
244.932	146.62
245.166	142.62
245.399	143.62
245.633	151.62
245.866	145.62
246.099	155.62
246.333	158.62
246.566	163.62
246.8	156.62
247.033	151.62
247.266	164.62
247.5	166.62
247.733	172.62
247.966	173.62
248.2	185.62
248.433	168.62
248.666	171.62
248.899	182.62
249.133	199.62
249.366	202.62
249.599	206.62
249.832	198.62
250.066	191.62
250.299	190.62
250.532	201.62
250.765	206.62
250.998	220.62
251.231	227.62
251.465	221.62
251.698	214.62
251.931	197.62
252.164	196.62
252.397	186.62
252.63	197.62
252.863	220.62
253.096	204.62
253.329	236.62
253.562	217.62
253.795	215.62
254.028	217.62
254.261	223.62
254.494	230.62
254.727	257.62
254.96	300.62
255.193	276.62
255.426	244.62
255.659	225.62
255.892	236.62
256.124	234.62
256.357	241.62
256.59	225.62
256.823	228.62
257.056	230.62
257.289	219.62
257.521	233.62
257.754	219.62
257.987	220.62
258.22	207.62
258.452	205.62
258.685	230.62
258.918	220.62
259.151	215.62
259.383	241.62
259.616	224.62
259.849	241.62
260.081	241.62
260.314	257.62
260.547	268.62
260.779	256.62
261.012	261.62
261.244	221.62
261.477	232.62
261.71	225.62
261.942	238.62
262.175	231.62
262.407	226.62
262.64	218.62
262.872	209.62
263.105	243.62
263.337	221.62
263.57	223.62
263.802	215.62
264.035	230.62
264.267	236.62
264.499	221.62
264.732	211.62
264.964	237.62
265.197	249.62
265.429	226.62
265.661	223.62
265.894	234.62
266.126	239.62
266.358	227.62
266.591	216.62
266.823	223.62
267.055	216.62
267.287	230.62
267.52	244.62
267.752	241.62
267.984	204.62
268.216	228.62
268.448	242.62
268.681	238.62
268.913	265.62
269.145	267.62
269.377	289.62
269.609	263.62
269.841	274.62
270.073	278.62
270.306	288.62
270.538	311.62
270.77	324.62
271.002	309.62
271.234	312.62
271.466	309.62
271.698	317.62
271.93	335.62
272.162	321.62
272.394	339.62
272.626	315.62
272.858	296.62
273.09	303.62
273.322	279.62
273.553	298.62
273.785	278.62
274.017	287.62
274.249	270.62
274.481	264.62
274.713	266.62
274.945	284.62
275.176	287.62
275.408	272.62
275.64	285.62
275.872	285.62
276.104	278.62
276.335	296.62
276.567	282.62
276.799	283.62
277.031	321.62
277.262	316.62
277.494	329.62
277.726	295.62
277.957	296.62
278.189	295.62
278.421	302.62
278.652	294.62
278.884	276.62
279.115	281.62
279.347	293.62
279.579	284.62
279.81	279.62
280.042	297.62
280.273	295.62
280.505	302.62
280.736	283.62
280.968	289.62
281.199	299.62
281.431	285.62
281.662	295.62
281.894	296.62
282.125	301.62
282.356	302.62
282.588	323.62
282.819	332.62
283.051	288.62
283.282	285.62
283.513	295.62
283.745	306.62
283.976	300.62
284.207	310.62
284.439	310.62
284.67	308.62
284.901	311.62
285.132	292.62
285.364	289.62
285.595	322.62
285.826	305.62
286.057	287.62
286.288	294.62
286.52	301.62
286.751	308.62
286.982	315.62
287.213	293.62
287.444	318.62
287.675	316.62
287.906	324.62
288.138	310.62
288.369	326.62
288.6	321.62
288.831	312.62
289.062	327.62
289.293	312.62
289.524	305.62
289.755	301.62
289.986	317.62
290.217	311.62
290.448	312.62
290.679	335.62
290.91	311.62
291.141	324.62
291.371	311.62
291.602	311.62
291.833	313.62
292.064	322.62
292.295	316.62
292.526	307.62
292.757	317.62
292.987	313.62
293.218	302.62
293.449	334.62
293.68	317.62
293.91	315.62
294.141	319.62
294.372	335.62
294.603	312.62
294.833	309.62
295.064	297.62
295.295	330.62
295.525	326.62
295.756	327.62
295.987	327.62
296.217	328.62
296.448	344.62
296.679	329.62
296.909	327.62
297.14	346.62
297.37	332.62
297.601	307.62
297.831	317.62
298.062	318.62
298.292	325.62
298.523	324.62
298.753	331.62
298.984	332.62
299.214	335.62
299.445	341.62
299.675	341.62
299.905	341.62
300.136	334.62
300.366	333.62
300.597	351.62
300.827	344.62
301.057	353.62
301.288	358.62
301.518	359.62
301.748	334.62
301.979	368.62
302.209	365.62
302.439	348.62
302.669	358.62
302.9	353.62
303.13	377.62
303.36	350.62
303.59	331.62
303.82	369.62
304.051	355.62
304.281	356.62
304.511	337.62
304.741	354.62
304.971	344.62
305.201	374.62
305.431	349.62
305.661	345.62
305.891	350.62
306.121	359.62
306.352	389.62
306.582	350.62
306.812	345.62
307.042	375.62
307.272	382.62
307.502	349.62
307.731	379.62
307.961	369.62
308.191	369.62
308.421	357.62
308.651	363.62
308.881	367.62
309.111	381.62
309.341	371.62
309.571	360.62
309.8	375.62
310.03	373.62
310.26	387.62
310.49	398.62
310.72	389.62
310.949	402.62
311.179	404.62
311.409	389.62
311.639	402.62
311.868	381.62
312.098	399.62
312.328	403.62
312.557	405.62
312.787	416.62
313.017	426.62
313.246	417.62
313.476	392.62
313.706	389.62
313.935	391.62
314.165	410.62
314.394	442.62
314.624	426.62
314.853	411.62
315.083	400.62
315.312	416.62
315.542	400.62
315.771	395.62
316.001	403.62
316.23	391.62
316.46	394.62
316.689	383.62
316.919	403.62
317.148	419.62
317.377	414.62
317.607	389.62
317.836	433.62
318.065	390.62
318.295	410.62
318.524	383.62
318.753	377.62
318.983	385.62
319.212	381.62
319.441	397.62
319.67	398.62
319.9	391.62
320.129	419.62
320.358	399.62
320.587	397.62
320.816	414.62
321.046	411.62
321.275	405.62
321.504	422.62
321.733	429.62
321.962	411.62
322.191	443.62
322.42	456.62
322.649	441.62
322.878	465.62
323.108	471.62
323.337	501.62
323.566	498.62
323.795	516.62
324.024	526.62
324.253	620.62
324.482	878.62
324.71	1351.62
324.939	1918.62
325.168	1687.62
325.397	874.62
325.626	602.62
325.855	508.62
326.084	501.62
326.313	504.62
326.542	482.62
326.77	525.62
326.999	595.62
327.228	823.62
327.457	1194.62
327.686	1454.62
327.914	951.62
328.143	672.62
328.372	606.62
328.6	565.62
328.829	534.62
329.058	561.62
329.287	563.62
329.515	553.62
329.744	505.62
329.972	503.62
330.201	535.62
330.43	557.62
330.658	562.62
330.887	583.62
331.115	556.62
331.344	505.62
331.572	490.62
331.801	509.62
332.03	537.62
332.258	498.62
332.486	486.62
332.715	478.62
332.943	489.62
333.172	491.62
333.4	489.62
333.629	519.62
333.857	500.62
334.085	511.62
334.314	528.62
334.542	573.62
334.771	553.62
334.999	513.62
335.227	514.62
335.455	499.62
335.684	505.62
335.912	463.62
336.14	471.62
336.369	485.62
336.597	481.62
336.825	491.62
337.053	474.62
337.281	473.62
337.51	454.62
337.738	472.62
337.966	481.62
338.194	476.62
338.422	463.62
338.65	462.62
338.878	463.62
339.106	448.62
339.334	467.62
339.562	442.62
339.79	460.62
340.018	441.62
340.246	476.62
340.474	445.62
340.702	468.62
340.93	458.62
341.158	433.62
341.386	444.62
341.614	454.62
341.842	478.62
342.07	437.62
342.298	443.62
342.526	446.62
342.754	440.62
342.981	429.62
343.209	439.62
343.437	462.62
343.665	483.62
343.893	469.62
344.12	490.62
344.348	474.62
344.576	464.62
344.804	467.62
345.031	489.62
345.259	480.62
345.487	475.62
345.714	462.62
345.942	437.62
346.17	429.62
346.397	429.62
346.625	432.62
346.853	433.62
347.08	436.62
347.308	441.62
347.535	438.62
347.763	441.62
347.99	447.62
348.218	430.62
348.445	460.62
348.673	450.62
348.9	429.62
349.128	461.62
349.355	436.62
349.583	421.62
349.81	425.62
350.037	415.62
350.265	434.62
350.492	437.62
350.72	437.62
350.947	427.62
351.174	423.62
351.402	453.62
351.629	442.62
351.856	430.62
352.083	433.62
352.311	435.62
352.538	459.62
352.765	430.62
352.992	464.62
353.22	438.62
353.447	449.62
353.674	433.62
353.901	415.62
354.128	406.62
354.355	411.62
354.583	415.62
354.81	423.62
355.037	412.62
355.264	423.62
355.491	406.62
355.718	411.62
355.945	408.62
356.172	413.62
356.399	416.62
356.626	413.62
356.853	424.62
357.08	405.62
357.307	415.62
357.534	404.62
357.761	427.62
357.988	413.62
358.215	420.62
358.441	422.62
358.668	431.62
358.895	434.62
359.122	427.62
359.349	437.62
359.576	439.62
359.802	461.62
360.029	462.62
360.256	463.62
360.483	457.62
360.709	437.62
360.936	423.62
361.163	447.62
361.39	431.62
361.616	446.62
361.843	422.62
362.07	438.62
362.296	419.62
362.523	408.62
362.749	429.62
362.976	425.62
363.203	419.62
363.429	426.62
363.656	417.62
363.882	438.62
364.109	424.62
364.335	413.62
364.562	438.62
364.788	417.62
365.015	422.62
365.241	426.62
365.468	422.62
365.694	424.62
365.92	416.62
366.147	408.62
366.373	429.62
366.599	407.62
366.826	411.62
367.052	417.62
367.278	409.62
367.505	412.62
367.731	417.62
367.957	411.62
368.184	426.62
368.41	425.62
368.636	420.62
368.862	425.62
369.089	417.62
369.315	427.62
369.541	417.62
369.767	396.62
369.993	419.62
370.219	425.62
370.445	422.62
370.672	405.62
370.898	417.62
371.124	426.62
371.35	418.62
371.576	407.62
371.802	413.62
372.028	420.62
372.254	430.62
372.48	456.62
372.706	426.62
372.932	429.62
373.158	437.62
373.384	436.62
373.61	444.62
373.835	438.62
374.061	435.62
374.287	414.62
374.513	442.62
374.739	435.62
374.965	446.62
375.191	445.62
375.416	451.62
375.642	438.62
375.868	436.62
376.094	423.62
376.319	414.62
376.545	430.62
376.771	425.62
376.997	419.62
377.222	430.62
377.448	407.62
377.674	416.62
377.899	427.62
378.125	430.62
378.35	420.62
378.576	432.62
378.802	407.62
379.027	422.62
379.253	430.62
379.478	415.62
379.704	413.62
379.929	424.62
380.155	428.62
380.38	399.62
380.606	423.62
380.831	437.62
381.057	439.62
381.282	427.62
381.507	424.62
381.733	430.62
381.958	422.62
382.184	429.62
382.409	453.62
382.634	470.62
382.86	449.62
383.085	449.62
383.31	448.62
383.535	445.62
383.761	439.62
383.986	437.62
384.211	450.62
384.436	452.62
384.662	437.62
384.887	474.62
385.112	466.62
385.337	473.62
385.562	470.62
385.787	469.62
386.013	486.62
386.238	484.62
386.463	461.62
386.688	463.62
386.913	478.62
387.138	470.62
387.363	474.62
387.588	471.62
387.813	456.62
388.038	463.62
388.263	476.62
388.488	465.62
388.713	483.62
388.938	479.62
389.163	475.62
389.387	498.62
389.612	478.62
389.837	460.62
390.062	454.62
390.287	466.62
390.512	471.62
390.736	461.62
390.961	477.62
391.186	474.62
391.411	477.62
391.636	514.62
391.86	499.62
392.085	497.62
392.31	522.62
392.534	495.62
392.759	495.62
392.984	483.62
393.208	481.62
393.433	459.62
393.658	489.62
393.882	468.62
394.107	474.62
394.331	469.62
394.556	485.62
394.78	463.62
395.005	477.62
395.229	477.62
395.454	480.62
395.678	484.62
395.903	499.62
396.127	527.62
396.352	542.62
396.576	498.62
396.801	502.62
397.025	492.62
397.249	495.62
397.474	505.62
397.698	523.62
397.922	530.62
398.147	553.62
398.371	550.62
398.595	532.62
398.82	547.62
399.044	565.62
399.268	602.62
399.492	636.62
399.717	658.62
399.941	695.62
400.165	681.62
400.389	689.62
400.613	631.62
400.837	606.62
401.062	565.62
401.286	558.62
401.51	552.62
401.734	564.62
401.958	559.62
402.182	549.62
402.406	549.62
402.63	573.62
402.854	558.62
403.078	563.62
403.302	587.62
403.526	591.62
403.75	581.62
403.974	603.62
404.198	585.62
404.422	582.62
404.645	582.62
404.869	606.62
405.093	626.62
405.317	661.62
405.541	680.62
405.765	613.62
405.988	593.62
406.212	612.62
406.436	612.62
406.66	632.62
406.883	631.62
407.107	618.62
407.331	689.62
407.555	763.62
407.778	744.62
408.002	680.62
408.226	656.62
408.449	637.62
408.673	650.62
408.896	650.62
409.12	678.62
409.344	668.62
409.567	587.62
409.791	588.62
410.014	561.62
410.238	579.62
410.461	582.62
410.685	568.62
410.908	585.62
411.132	633.62
411.355	667.62
411.578	630.62
411.802	588.62
412.025	571.62
412.249	550.62
412.472	597.62
412.695	655.62
412.919	643.62
413.142	570.62
413.365	535.62
413.589	551.62
413.812	563.62
414.035	558.62
414.258	541.62
414.482	562.62
414.705	575.62
414.928	554.62
415.151	558.62
415.374	548.62
415.597	543.62
415.821	529.62
416.044	547.62
416.267	557.62
416.49	536.62
416.713	526.62
416.936	533.62
417.159	535.62
417.382	552.62
417.605	527.62
417.828	549.62
418.051	580.62
418.274	569.62
418.497	549.62
418.72	568.62
418.943	529.62
419.166	565.62
419.389	606.62
419.611	584.62
419.834	587.62
420.057	568.62
420.28	573.62
420.503	579.62
420.726	570.62
420.948	583.62
421.171	625.62
421.394	648.62
421.617	571.62
421.839	547.62
422.062	579.62
422.285	581.62
422.507	658.62
422.73	701.62
422.953	674.62
423.175	602.62
423.398	598.62
423.621	586.62
423.843	610.62
424.066	641.62
424.288	620.62
424.511	625.62
424.733	670.62
424.956	722.62
425.178	701.62
425.401	718.62
425.623	727.62
425.846	616.62
426.068	598.62
426.291	589.62
426.513	593.62
426.735	609.62
426.958	638.62
427.18	715.62
427.402	875.62
427.625	937.62
427.847	784.62
428.069	682.62
428.292	635.62
428.514	589.62
428.736	567.62
428.958	545.62
429.181	555.62
429.403	547.62
429.625	542.62
429.847	603.62
430.069	642.62
430.292	651.62
430.514	562.62
430.736	544.62
430.958	558.62
431.18	540.62
431.402	523.62
431.624	530.62
431.846	508.62
432.068	514.62
432.29	531.62
432.512	534.62
432.734	538.62
432.956	543.62
433.178	540.62
433.4	535.62
433.622	533.62
433.844	542.62
434.066	528.62
434.287	543.62
434.509	504.62
434.731	528.62
434.953	539.62
435.175	563.62
435.397	603.62
435.618	596.62
435.84	631.62
436.062	718.62
436.284	795.62
436.505	675.62
436.727	577.62
436.949	545.62
437.17	540.62
437.392	543.62
437.614	558.62
437.835	570.62
438.057	679.62
438.278	758.62
438.5	754.62
438.721	832.62
438.943	835.62
439.165	652.62
439.386	620.62
439.608	594.62
439.829	601.62
440.05	622.62
440.272	650.62
440.493	607.62
440.715	583.62
440.936	554.62
441.158	564.62
441.379	557.62
441.6	566.62
441.822	602.62
442.043	639.62
442.264	713.62
442.486	763.62
442.707	653.62
442.928	604.62
443.149	612.62
443.371	634.62
443.592	668.62
443.813	761.62
444.034	819.62
444.255	691.62
444.476	645.62
444.698	625.62
444.919	612.62
445.14	737.62
445.361	685.62
445.582	658.62
445.803	694.62
446.024	814.62
446.245	814.62
446.466	712.62
446.687	635.62
446.908	575.62
447.129	575.62
447.35	557.62
447.571	557.62
447.792	545.62
448.013	531.62
448.234	556.62
448.455	607.62
448.675	721.62
448.896	820.62
449.117	702.62
449.338	661.62
449.559	780.62
449.779	901.62
450	696.62
450.221	587.62
450.442	563.62
450.662	538.62
450.883	530.62
451.104	545.62
451.324	536.62
451.545	485.62
451.766	521.62
451.986	483.62
452.207	478.62
452.428	471.62
452.648	468.62
452.869	493.62
453.089	500.62
453.31	485.62
453.53	467.62
453.751	487.62
453.971	492.62
454.192	470.62
454.412	478.62
454.633	472.62
454.853	457.62
455.073	467.62
455.294	519.62
455.514	573.62
455.734	551.62
455.955	493.62
456.175	471.62
456.395	445.62
456.616	429.62
456.836	465.62
457.056	449.62
457.276	448.62
457.497	468.62
457.717	457.62
457.937	442.62
458.157	457.62
458.377	467.62
458.598	475.62
458.818	536.62
459.038	630.62
459.258	654.62
459.478	549.62
459.698	515.62
459.918	517.62
460.138	548.62
460.358	538.62
460.578	523.62
460.798	528.62
461.018	549.62
461.238	557.62
461.458	544.62
461.678	526.62
461.898	552.62
462.118	536.62
462.338	578.62
462.558	561.62
462.777	567.62
462.997	591.62
463.217	628.62
463.437	619.62
463.657	595.62
463.876	573.62
464.096	591.62
464.316	579.62
464.536	582.62
464.755	602.62
464.975	594.62
465.195	607.62
465.414	635.62
465.634	582.62
465.854	552.62
466.073	544.62
466.293	549.62
466.512	505.62
466.732	503.62
466.951	499.62
467.171	509.62
467.391	504.62
467.61	491.62
467.829	514.62
468.049	498.62
468.268	501.62
468.488	506.62
468.707	477.62
468.927	495.62
469.146	462.62
469.365	491.62
469.585	461.62
469.804	490.62
470.023	508.62
470.243	493.62
470.462	517.62
470.681	531.62
470.901	516.62
471.12	516.62
471.339	516.62
471.558	523.62
471.777	513.62
471.997	506.62
472.216	479.62
472.435	517.62
472.654	515.62
472.873	504.62
473.092	494.62
473.311	482.62
473.53	486.62
473.749	522.62
473.968	553.62
474.187	615.62
474.406	644.62
474.625	568.62
474.844	531.62
475.063	486.62
475.282	517.62
475.501	485.62
475.72	519.62
475.939	500.62
476.158	509.62
476.377	525.62
476.596	534.62
476.814	512.62
477.033	519.62
477.252	533.62
477.471	527.62
477.69	557.62
477.908	543.62
478.127	562.62
478.346	569.62
478.564	574.62
478.783	567.62
479.002	575.62
479.22	586.62
479.439	581.62
479.658	579.62
479.876	598.62
480.095	592.62
480.313	633.62
480.532	631.62
480.751	614.62
480.969	637.62
481.188	677.62
481.406	691.62
481.624	635.62
481.843	603.62
482.061	593.62
482.28	582.62
482.498	572.62
482.717	579.62
482.935	593.62
483.153	587.62
483.372	615.62
483.59	583.62
483.808	567.62
484.027	580.62
484.245	602.62
484.463	577.62
484.681	592.62
484.9	586.62
485.118	604.62
485.336	606.62
485.554	595.62
485.772	613.62
485.99	612.62
486.209	628.62
486.427	613.62
486.645	623.62
486.863	648.62
487.081	617.62
487.299	604.62
487.517	615.62
487.735	609.62
487.953	628.62
488.171	643.62
488.389	647.62
488.607	632.62
488.825	636.62
489.043	628.62
489.261	637.62
489.479	605.62
489.696	629.62
489.914	623.62
490.132	657.62
490.35	647.62
490.568	638.62
490.786	679.62
491.003	675.62
491.221	696.62
491.439	701.62
491.657	713.62
491.874	705.62
492.092	679.62
492.31	690.62
492.527	705.62
492.745	727.62
492.963	707.62
493.18	745.62
493.398	700.62
493.615	742.62
493.833	734.62
494.05	753.62
494.268	747.62
494.485	737.62
494.703	748.62
494.92	739.62
495.138	732.62
495.355	758.62
495.573	738.62
495.79	734.62
496.008	750.62
496.225	716.62
496.442	744.62
496.66	783.62
496.877	766.62
497.094	750.62
497.312	758.62
497.529	773.62
497.746	777.62
497.963	779.62
498.181	811.62
498.398	841.62
498.615	843.62
498.832	883.62
499.049	889.62
499.267	927.62
499.484	949.62
499.701	997.62
499.918	1014.62
500.135	1086.62
500.352	1193.62
500.569	1193.62
500.786	1195.62
501.003	1177.62
501.22	1122.62
501.437	1055.62
501.654	1017.62
