Data from 1976.PennyLincolnUp.Lamp.En5.5.200Scan.071719.P1.Changed Mount._HRD10591_16-00-33-861.txt Node
Date: Thu Jul 18 16:00:33 EDT 2019
User: cochatt
Spectrometer: HR+D1059
Trigger mode: 1
Integration Time (sec): 1.000000E-1
Scans to average: 1
Electric dark correction enabled: true
Nonlinearity correction enabled: false
Boxcar width: 0
XAxis mode: Wavelengths
Number of Pixels in Spectrum: 2048
>>>>>Begin Spectral Data<<<<<
223.165	-20.88
223.4	-20.88
223.635	-20.88
223.869	-14.88
224.104	7.12
224.338	-20.88
224.573	-17.88
224.808	-16.88
225.042	-11.88
225.277	2.12
225.511	-5.88
225.746	0.12
225.98	18.12
226.215	5.12
226.449	9.12
226.683	16.12
226.918	21.12
227.152	30.12
227.387	38.12
227.621	27.12
227.856	37.12
228.09	45.12
228.324	42.12
228.559	56.12
228.793	60.12
229.027	91.12
229.262	106.12
229.496	125.12
229.73	127.12
229.964	160.12
230.199	130.12
230.433	115.12
230.667	110.12
230.901	117.12
231.136	101.12
231.37	112.12
231.604	92.12
231.838	109.12
232.072	124.12
232.306	115.12
232.541	103.12
232.775	108.12
233.009	105.12
233.243	117.12
233.477	120.12
233.711	119.12
233.945	122.12
234.179	108.12
234.413	108.12
234.647	137.12
234.881	129.12
235.115	127.12
235.349	118.12
235.583	124.12
235.817	135.12
236.051	102.12
236.285	135.12
236.519	137.12
236.753	123.12
236.987	152.12
237.221	183.12
237.455	228.12
237.689	200.12
237.922	151.12
238.156	123.12
238.39	142.12
238.624	127.12
238.858	128.12
239.091	131.12
239.325	123.12
239.559	132.12
239.793	137.12
240.027	118.12
240.26	146.12
240.494	176.12
240.728	159.12
240.961	156.12
241.195	151.12
241.429	154.12
241.662	150.12
241.896	134.12
242.13	139.12
242.363	134.12
242.597	143.12
242.83	134.12
243.064	138.12
243.298	150.12
243.531	139.12
243.765	164.12
243.998	145.12
244.232	157.12
244.465	143.12
244.699	153.12
244.932	149.12
245.166	151.12
245.399	151.12
245.633	148.12
245.866	170.12
246.099	160.12
246.333	142.12
246.566	152.12
246.8	155.12
247.033	160.12
247.266	159.12
247.5	145.12
247.733	164.12
247.966	179.12
248.2	185.12
248.433	166.12
248.666	163.12
248.899	186.12
249.133	218.12
249.366	214.12
249.599	212.12
249.832	200.12
250.066	180.12
250.299	172.12
250.532	192.12
250.765	202.12
250.998	224.12
251.231	260.12
251.465	203.12
251.698	207.12
251.931	217.12
252.164	181.12
252.397	184.12
252.63	199.12
252.863	208.12
253.096	215.12
253.329	236.12
253.562	213.12
253.795	206.12
254.028	222.12
254.261	219.12
254.494	249.12
254.727	256.12
254.96	281.12
255.193	273.12
255.426	253.12
255.659	228.12
255.892	212.12
256.124	236.12
256.357	237.12
256.59	236.12
256.823	243.12
257.056	209.12
257.289	220.12
257.521	231.12
257.754	205.12
257.987	212.12
258.22	213.12
258.452	196.12
258.685	228.12
258.918	208.12
259.151	234.12
259.383	241.12
259.616	235.12
259.849	229.12
260.081	244.12
260.314	250.12
260.547	262.12
260.779	246.12
261.012	238.12
261.244	234.12
261.477	239.12
261.71	245.12
261.942	236.12
262.175	247.12
262.407	232.12
262.64	237.12
262.872	226.12
263.105	223.12
263.337	218.12
263.57	232.12
263.802	223.12
264.035	225.12
264.267	237.12
264.499	218.12
264.732	245.12
264.964	245.12
265.197	217.12
265.429	223.12
265.661	230.12
265.894	224.12
266.126	228.12
266.358	229.12
266.591	232.12
266.823	224.12
267.055	236.12
267.287	249.12
267.52	255.12
267.752	233.12
267.984	257.12
268.216	265.12
268.448	260.12
268.681	244.12
268.913	233.12
269.145	277.12
269.377	284.12
269.609	305.12
269.841	278.12
270.073	288.12
270.306	331.12
270.538	329.12
270.77	328.12
271.002	317.12
271.234	306.12
271.466	298.12
271.698	316.12
271.93	351.12
272.162	327.12
272.394	322.12
272.626	323.12
272.858	296.12
273.09	278.12
273.322	281.12
273.553	284.12
273.785	273.12
274.017	281.12
274.249	287.12
274.481	289.12
274.713	277.12
274.945	286.12
275.176	277.12
275.408	279.12
275.64	271.12
275.872	280.12
276.104	286.12
276.335	274.12
276.567	291.12
276.799	316.12
277.031	296.12
277.262	311.12
277.494	313.12
277.726	324.12
277.957	305.12
278.189	273.12
278.421	283.12
278.652	287.12
278.884	304.12
279.115	293.12
279.347	294.12
279.579	277.12
279.81	280.12
280.042	300.12
280.273	284.12
280.505	284.12
280.736	282.12
280.968	288.12
281.199	278.12
281.431	284.12
281.662	295.12
281.894	302.12
282.125	300.12
282.356	293.12
282.588	338.12
282.819	335.12
283.051	304.12
283.282	286.12
283.513	287.12
283.745	307.12
283.976	310.12
284.207	326.12
284.439	305.12
284.67	320.12
284.901	312.12
285.132	299.12
285.364	307.12
285.595	303.12
285.826	291.12
286.057	319.12
286.288	306.12
286.52	302.12
286.751	307.12
286.982	308.12
287.213	309.12
287.444	316.12
287.675	327.12
287.906	344.12
288.138	328.12
288.369	333.12
288.6	305.12
288.831	310.12
289.062	319.12
289.293	308.12
289.524	318.12
289.755	299.12
289.986	311.12
290.217	337.12
290.448	301.12
290.679	314.12
290.91	309.12
291.141	294.12
291.371	325.12
291.602	318.12
291.833	318.12
292.064	313.12
292.295	311.12
292.526	311.12
292.757	312.12
292.987	297.12
293.218	314.12
293.449	320.12
293.68	314.12
293.91	302.12
294.141	297.12
294.372	313.12
294.603	325.12
294.833	326.12
295.064	318.12
295.295	362.12
295.525	325.12
295.756	299.12
295.987	313.12
296.217	339.12
296.448	359.12
296.679	342.12
296.909	328.12
297.14	318.12
297.37	312.12
297.601	337.12
297.831	328.12
298.062	335.12
298.292	328.12
298.523	349.12
298.753	331.12
298.984	325.12
299.214	339.12
299.445	336.12
299.675	332.12
299.905	342.12
300.136	348.12
300.366	329.12
300.597	343.12
300.827	352.12
301.057	365.12
301.288	369.12
301.518	356.12
301.748	338.12
301.979	363.12
302.209	339.12
302.439	356.12
302.669	376.12
302.9	358.12
303.13	358.12
303.36	358.12
303.59	346.12
303.82	381.12
304.051	363.12
304.281	348.12
304.511	357.12
304.741	342.12
304.971	344.12
305.201	357.12
305.431	369.12
305.661	344.12
305.891	360.12
306.121	368.12
306.352	363.12
306.582	360.12
306.812	360.12
307.042	355.12
307.272	377.12
307.502	351.12
307.731	345.12
307.961	347.12
308.191	377.12
308.421	345.12
308.651	355.12
308.881	362.12
309.111	374.12
309.341	366.12
309.571	378.12
309.8	391.12
310.03	365.12
310.26	397.12
310.49	384.12
310.72	379.12
310.949	399.12
311.179	403.12
311.409	400.12
311.639	395.12
311.868	408.12
312.098	413.12
312.328	420.12
312.557	402.12
312.787	426.12
313.017	396.12
313.246	397.12
313.476	393.12
313.706	405.12
313.935	400.12
314.165	412.12
314.394	413.12
314.624	424.12
314.853	419.12
315.083	395.12
315.312	396.12
315.542	400.12
315.771	406.12
316.001	387.12
316.23	411.12
316.46	392.12
316.689	405.12
316.919	398.12
317.148	411.12
317.377	407.12
317.607	397.12
317.836	403.12
318.065	395.12
318.295	369.12
318.524	395.12
318.753	399.12
318.983	395.12
319.212	412.12
319.441	407.12
319.67	415.12
319.9	412.12
320.129	410.12
320.358	421.12
320.587	421.12
320.816	406.12
321.046	425.12
321.275	406.12
321.504	417.12
321.733	414.12
321.962	426.12
322.191	420.12
322.42	431.12
322.649	445.12
322.878	449.12
323.108	463.12
323.337	481.12
323.566	507.12
323.795	503.12
324.024	553.12
324.253	672.12
324.482	885.12
324.71	1323.12
324.939	1928.12
325.168	1654.12
325.397	869.12
325.626	598.12
325.855	525.12
326.084	505.12
326.313	479.12
326.542	499.12
326.77	536.12
326.999	595.12
327.228	779.12
327.457	1198.12
327.686	1470.12
327.914	963.12
328.143	647.12
328.372	586.12
328.6	546.12
328.829	541.12
329.058	544.12
329.287	572.12
329.515	539.12
329.744	483.12
329.972	501.12
330.201	504.12
330.43	552.12
330.658	566.12
330.887	597.12
331.115	590.12
331.344	536.12
331.572	516.12
331.801	506.12
332.03	495.12
332.258	475.12
332.486	480.12
332.715	470.12
332.943	482.12
333.172	504.12
333.4	499.12
333.629	496.12
333.857	505.12
334.085	534.12
334.314	559.12
334.542	560.12
334.771	563.12
334.999	504.12
335.227	503.12
335.455	507.12
335.684	501.12
335.912	488.12
336.14	487.12
336.369	485.12
336.597	485.12
336.825	464.12
337.053	454.12
337.281	480.12
337.51	470.12
337.738	476.12
337.966	454.12
338.194	461.12
338.422	451.12
338.65	464.12
338.878	462.12
339.106	450.12
339.334	456.12
339.562	458.12
339.79	449.12
340.018	448.12
340.246	463.12
340.474	469.12
340.702	473.12
340.93	466.12
341.158	453.12
341.386	459.12
341.614	453.12
341.842	442.12
342.07	449.12
342.298	450.12
342.526	453.12
342.754	440.12
342.981	437.12
343.209	435.12
343.437	458.12
343.665	475.12
343.893	450.12
344.12	492.12
344.348	489.12
344.576	468.12
344.804	476.12
345.031	481.12
345.259	482.12
345.487	460.12
345.714	464.12
345.942	459.12
346.17	458.12
346.397	427.12
346.625	441.12
346.853	414.12
347.08	415.12
347.308	430.12
347.535	420.12
347.763	456.12
347.99	458.12
348.218	456.12
348.445	443.12
348.673	437.12
348.9	454.12
349.128	425.12
349.355	432.12
349.583	416.12
349.81	397.12
350.037	427.12
350.265	429.12
350.492	443.12
350.72	423.12
350.947	413.12
351.174	436.12
351.402	419.12
351.629	426.12
351.856	442.12
352.083	441.12
352.311	445.12
352.538	440.12
352.765	452.12
352.992	433.12
353.22	437.12
353.447	448.12
353.674	433.12
353.901	403.12
354.128	421.12
354.355	418.12
354.583	425.12
354.81	429.12
355.037	421.12
355.264	410.12
355.491	412.12
355.718	408.12
355.945	408.12
356.172	408.12
356.399	435.12
356.626	408.12
356.853	413.12
357.08	408.12
357.307	414.12
357.534	411.12
357.761	423.12
357.988	407.12
358.215	420.12
358.441	418.12
358.668	424.12
358.895	415.12
359.122	428.12
359.349	419.12
359.576	441.12
359.802	435.12
360.029	454.12
360.256	473.12
360.483	461.12
360.709	443.12
360.936	437.12
361.163	423.12
361.39	435.12
361.616	429.12
361.843	423.12
362.07	450.12
362.296	439.12
362.523	418.12
362.749	420.12
362.976	428.12
363.203	428.12
363.429	427.12
363.656	432.12
363.882	425.12
364.109	424.12
364.335	407.12
364.562	411.12
364.788	412.12
365.015	430.12
365.241	422.12
365.468	425.12
365.694	410.12
365.92	430.12
366.147	440.12
366.373	423.12
366.599	435.12
366.826	415.12
367.052	424.12
367.278	416.12
367.505	424.12
367.731	408.12
367.957	426.12
368.184	441.12
368.41	417.12
368.636	421.12
368.862	448.12
369.089	434.12
369.315	426.12
369.541	414.12
369.767	423.12
369.993	420.12
370.219	408.12
370.445	421.12
370.672	412.12
370.898	430.12
371.124	404.12
371.35	430.12
371.576	396.12
371.802	414.12
372.028	428.12
372.254	419.12
372.48	419.12
372.706	432.12
372.932	445.12
373.158	447.12
373.384	445.12
373.61	434.12
373.835	431.12
374.061	448.12
374.287	426.12
374.513	424.12
374.739	427.12
374.965	453.12
375.191	437.12
375.416	442.12
375.642	427.12
375.868	438.12
376.094	419.12
376.319	417.12
376.545	419.12
376.771	448.12
376.997	423.12
377.222	425.12
377.448	430.12
377.674	428.12
377.899	444.12
378.125	399.12
378.35	414.12
378.576	433.12
378.802	424.12
379.027	440.12
379.253	422.12
379.478	411.12
379.704	431.12
379.929	453.12
380.155	416.12
380.38	429.12
380.606	435.12
380.831	437.12
381.057	415.12
381.282	432.12
381.507	435.12
381.733	445.12
381.958	429.12
382.184	436.12
382.409	475.12
382.634	423.12
382.86	425.12
383.085	436.12
383.31	451.12
383.535	443.12
383.761	458.12
383.986	476.12
384.211	471.12
384.436	439.12
384.662	477.12
384.887	463.12
385.112	496.12
385.337	460.12
385.562	459.12
385.787	464.12
386.013	485.12
386.238	487.12
386.463	467.12
386.688	502.12
386.913	492.12
387.138	487.12
387.363	478.12
387.588	451.12
387.813	477.12
388.038	471.12
388.263	467.12
388.488	455.12
388.713	484.12
388.938	464.12
389.163	484.12
389.387	459.12
389.612	467.12
389.837	482.12
390.062	456.12
390.287	444.12
390.512	451.12
390.736	466.12
390.961	495.12
391.186	475.12
391.411	478.12
391.636	488.12
391.86	485.12
392.085	499.12
392.31	504.12
392.534	505.12
392.759	475.12
392.984	475.12
393.208	492.12
393.433	496.12
393.658	462.12
393.882	468.12
394.107	506.12
394.331	483.12
394.556	478.12
394.78	488.12
395.005	487.12
395.229	479.12
395.454	508.12
395.678	504.12
395.903	523.12
396.127	537.12
396.352	515.12
396.576	528.12
396.801	482.12
397.025	479.12
397.249	511.12
397.474	518.12
397.698	530.12
397.922	526.12
398.147	545.12
398.371	575.12
398.595	535.12
398.82	553.12
399.044	585.12
399.268	610.12
399.492	632.12
399.717	665.12
399.941	702.12
400.165	723.12
400.389	687.12
400.613	627.12
400.837	601.12
401.062	577.12
401.286	542.12
401.51	543.12
401.734	561.12
401.958	550.12
402.182	568.12
402.406	558.12
402.63	561.12
402.854	572.12
403.078	571.12
403.302	575.12
403.526	605.12
403.75	604.12
403.974	577.12
404.198	587.12
404.422	594.12
404.645	587.12
404.869	595.12
405.093	619.12
405.317	653.12
405.541	658.12
405.765	645.12
405.988	634.12
406.212	622.12
406.436	620.12
406.66	644.12
406.883	632.12
407.107	645.12
407.331	704.12
407.555	744.12
407.778	768.12
408.002	685.12
408.226	646.12
408.449	635.12
408.673	640.12
408.896	653.12
409.12	692.12
409.344	680.12
409.567	620.12
409.791	589.12
410.014	577.12
410.238	545.12
410.461	580.12
410.685	592.12
410.908	581.12
411.132	607.12
411.355	647.12
411.578	638.12
411.802	593.12
412.025	575.12
412.249	581.12
412.472	605.12
412.695	637.12
412.919	624.12
413.142	575.12
413.365	582.12
413.589	572.12
413.812	575.12
414.035	541.12
414.258	555.12
414.482	539.12
414.705	556.12
414.928	540.12
415.151	547.12
415.374	535.12
415.597	540.12
415.821	534.12
416.044	556.12
416.267	549.12
416.49	520.12
416.713	534.12
416.936	534.12
417.159	551.12
417.382	552.12
417.605	544.12
417.828	546.12
418.051	571.12
418.274	531.12
418.497	550.12
418.72	563.12
418.943	565.12
419.166	580.12
419.389	601.12
419.611	603.12
419.834	583.12
420.057	575.12
420.28	594.12
420.503	552.12
420.726	543.12
420.948	576.12
421.171	597.12
421.394	655.12
421.617	601.12
421.839	563.12
422.062	551.12
422.285	574.12
422.507	633.12
422.73	679.12
422.953	674.12
423.175	616.12
423.398	575.12
423.621	588.12
423.843	600.12
424.066	619.12
424.288	596.12
424.511	623.12
424.733	665.12
424.956	760.12
425.178	716.12
425.401	685.12
425.623	727.12
425.846	646.12
426.068	597.12
426.291	587.12
426.513	588.12
426.735	604.12
426.958	659.12
427.18	747.12
427.402	845.12
427.625	923.12
427.847	792.12
428.069	688.12
428.292	627.12
428.514	589.12
428.736	570.12
428.958	572.12
429.181	547.12
429.403	540.12
429.625	533.12
429.847	576.12
430.069	639.12
430.292	634.12
430.514	557.12
430.736	547.12
430.958	547.12
431.18	536.12
431.402	517.12
431.624	508.12
431.846	528.12
432.068	502.12
432.29	524.12
432.512	520.12
432.734	533.12
432.956	530.12
433.178	534.12
433.4	542.12
433.622	543.12
433.844	543.12
434.066	540.12
434.287	527.12
434.509	528.12
434.731	525.12
434.953	574.12
435.175	553.12
435.397	609.12
435.618	585.12
435.84	611.12
436.062	715.12
436.284	789.12
436.505	667.12
436.727	612.12
436.949	568.12
437.17	540.12
437.392	543.12
437.614	559.12
437.835	575.12
438.057	668.12
438.278	764.12
438.5	792.12
438.721	819.12
438.943	820.12
439.165	627.12
439.386	599.12
439.608	595.12
439.829	582.12
440.05	611.12
440.272	656.12
440.493	603.12
440.715	571.12
440.936	579.12
441.158	555.12
441.379	559.12
441.6	564.12
441.822	601.12
442.043	619.12
442.264	727.12
442.486	759.12
442.707	659.12
442.928	599.12
443.149	602.12
443.371	638.12
443.592	668.12
443.813	744.12
444.034	817.12
444.255	691.12
444.476	637.12
444.698	637.12
444.919	624.12
445.14	739.12
445.361	678.12
445.582	668.12
445.803	700.12
446.024	801.12
446.245	799.12
446.466	728.12
446.687	636.12
446.908	569.12
447.129	575.12
447.35	535.12
447.571	542.12
447.792	524.12
448.013	557.12
448.234	557.12
448.455	614.12
448.675	706.12
448.896	831.12
449.117	673.12
449.338	669.12
449.559	781.12
449.779	886.12
450	707.12
450.221	593.12
450.442	525.12
450.662	528.12
450.883	532.12
451.104	541.12
451.324	529.12
451.545	519.12
451.766	488.12
451.986	468.12
452.207	484.12
452.428	473.12
452.648	485.12
452.869	483.12
453.089	478.12
453.31	496.12
453.53	488.12
453.751	472.12
453.971	489.12
454.192	495.12
454.412	478.12
454.633	473.12
454.853	477.12
455.073	464.12
455.294	480.12
455.514	551.12
455.734	549.12
455.955	485.12
456.175	464.12
456.395	457.12
456.616	462.12
456.836	453.12
457.056	462.12
457.276	447.12
457.497	455.12
457.717	454.12
457.937	468.12
458.157	469.12
458.377	474.12
458.598	476.12
458.818	539.12
459.038	591.12
459.258	638.12
459.478	587.12
459.698	535.12
459.918	519.12
460.138	540.12
460.358	552.12
460.578	534.12
460.798	518.12
461.018	564.12
461.238	535.12
461.458	557.12
461.678	540.12
461.898	560.12
462.118	538.12
462.338	547.12
462.558	573.12
462.777	590.12
462.997	632.12
463.217	623.12
463.437	622.12
463.657	593.12
463.876	579.12
464.096	591.12
464.316	591.12
464.536	608.12
464.755	604.12
464.975	592.12
465.195	611.12
465.414	620.12
465.634	586.12
465.854	532.12
466.073	545.12
466.293	514.12
466.512	499.12
466.732	502.12
466.951	517.12
467.171	506.12
467.391	512.12
467.61	523.12
467.829	526.12
468.049	511.12
468.268	494.12
468.488	483.12
468.707	505.12
468.927	490.12
469.146	495.12
469.365	487.12
469.585	486.12
469.804	490.12
470.023	515.12
470.243	510.12
470.462	514.12
470.681	527.12
470.901	502.12
471.12	522.12
471.339	524.12
471.558	506.12
471.777	517.12
471.997	499.12
472.216	521.12
472.435	527.12
472.654	521.12
472.873	507.12
473.092	495.12
473.311	511.12
473.53	511.12
473.749	505.12
473.968	546.12
474.187	627.12
474.406	667.12
474.625	579.12
474.844	506.12
475.063	501.12
475.282	502.12
475.501	507.12
475.72	514.12
475.939	517.12
476.158	497.12
476.377	519.12
476.596	500.12
476.814	517.12
477.033	536.12
477.252	543.12
477.471	537.12
477.69	556.12
477.908	573.12
478.127	565.12
478.346	576.12
478.564	569.12
478.783	562.12
479.002	576.12
479.22	570.12
479.439	600.12
479.658	591.12
479.876	587.12
480.095	591.12
480.313	649.12
480.532	627.12
480.751	633.12
480.969	631.12
481.188	648.12
481.406	666.12
481.624	641.12
481.843	596.12
482.061	607.12
482.28	586.12
482.498	601.12
482.717	555.12
482.935	587.12
483.153	597.12
483.372	583.12
483.59	575.12
483.808	598.12
484.027	601.12
484.245	587.12
484.463	602.12
484.681	608.12
484.9	581.12
485.118	618.12
485.336	601.12
485.554	599.12
485.772	622.12
485.99	618.12
486.209	608.12
486.427	611.12
486.645	612.12
486.863	631.12
487.081	635.12
487.299	619.12
487.517	647.12
487.735	618.12
487.953	633.12
488.171	627.12
488.389	615.12
488.607	623.12
488.825	641.12
489.043	630.12
489.261	642.12
489.479	629.12
489.696	661.12
489.914	631.12
490.132	643.12
490.35	652.12
490.568	643.12
490.786	646.12
491.003	662.12
491.221	678.12
491.439	702.12
491.657	725.12
491.874	715.12
492.092	724.12
492.31	718.12
492.527	755.12
492.745	717.12
492.963	703.12
493.18	709.12
493.398	742.12
493.615	722.12
493.833	730.12
494.05	724.12
494.268	724.12
494.485	752.12
494.703	742.12
494.92	719.12
495.138	738.12
495.355	767.12
495.573	739.12
495.79	761.12
496.008	769.12
496.225	751.12
496.442	747.12
496.66	774.12
496.877	747.12
497.094	759.12
497.312	750.12
497.529	775.12
497.746	777.12
497.963	783.12
498.181	812.12
498.398	835.12
498.615	879.12
498.832	864.12
499.049	897.12
499.267	903.12
499.484	959.12
499.701	981.12
499.918	1061.12
500.135	1103.12
500.352	1177.12
500.569	1213.12
500.786	1205.12
501.003	1157.12
501.22	1129.12
501.437	1108.12
501.654	1029.12
