Data from 1976.PennyLincolnUp.Lamp.En5.5.200Scan.071719.P1.Changed Mount._HRD10591_16-01-12-863.txt Node
Date: Thu Jul 18 16:01:12 EDT 2019
User: cochatt
Spectrometer: HR+D1059
Trigger mode: 1
Integration Time (sec): 1.000000E-1
Scans to average: 1
Electric dark correction enabled: true
Nonlinearity correction enabled: false
Boxcar width: 0
XAxis mode: Wavelengths
Number of Pixels in Spectrum: 2048
>>>>>Begin Spectral Data<<<<<
223.165	-17.44
223.4	-17.44
223.635	-17.44
223.869	-13.44
224.104	-13.44
224.338	-14.44
224.573	-16.44
224.808	-17.44
225.042	-10.44
225.277	-5.44
225.511	-8.44
225.746	-5.44
225.98	7.56
226.215	21.56
226.449	16.56
226.683	11.56
226.918	33.56
227.152	31.56
227.387	30.56
227.621	39.56
227.856	40.56
228.09	49.56
228.324	40.56
228.559	48.56
228.793	61.56
229.027	101.56
229.262	95.56
229.496	117.56
229.73	122.56
229.964	138.56
230.199	145.56
230.433	109.56
230.667	121.56
230.901	122.56
231.136	108.56
231.37	105.56
231.604	108.56
231.838	111.56
232.072	111.56
232.306	117.56
232.541	117.56
232.775	108.56
233.009	117.56
233.243	118.56
233.477	109.56
233.711	118.56
233.945	122.56
234.179	123.56
234.413	122.56
234.647	105.56
234.881	116.56
235.115	111.56
235.349	123.56
235.583	133.56
235.817	146.56
236.051	115.56
236.285	132.56
236.519	121.56
236.753	127.56
236.987	150.56
237.221	179.56
237.455	229.56
237.689	190.56
237.922	151.56
238.156	132.56
238.39	140.56
238.624	135.56
238.858	122.56
239.091	114.56
239.325	109.56
239.559	113.56
239.793	119.56
240.027	145.56
240.26	152.56
240.494	177.56
240.728	161.56
240.961	165.56
241.195	151.56
241.429	130.56
241.662	133.56
241.896	160.56
242.13	115.56
242.363	141.56
242.597	149.56
242.83	143.56
243.064	157.56
243.298	152.56
243.531	152.56
243.765	141.56
243.998	135.56
244.232	132.56
244.465	156.56
244.699	155.56
244.932	151.56
245.166	149.56
245.399	154.56
245.633	161.56
245.866	152.56
246.099	144.56
246.333	145.56
246.566	149.56
246.8	163.56
247.033	152.56
247.266	171.56
247.5	162.56
247.733	160.56
247.966	191.56
248.2	177.56
248.433	180.56
248.666	170.56
248.899	195.56
249.133	213.56
249.366	216.56
249.599	191.56
249.832	192.56
250.066	185.56
250.299	195.56
250.532	203.56
250.765	221.56
250.998	228.56
251.231	229.56
251.465	226.56
251.698	219.56
251.931	212.56
252.164	186.56
252.397	213.56
252.63	200.56
252.863	215.56
253.096	195.56
253.329	239.56
253.562	224.56
253.795	217.56
254.028	227.56
254.261	209.56
254.494	234.56
254.727	263.56
254.96	300.56
255.193	277.56
255.426	261.56
255.659	242.56
255.892	252.56
256.124	249.56
256.357	224.56
256.59	227.56
256.823	234.56
257.056	229.56
257.289	227.56
257.521	225.56
257.754	216.56
257.987	210.56
258.22	210.56
258.452	228.56
258.685	210.56
258.918	210.56
259.151	208.56
259.383	223.56
259.616	246.56
259.849	253.56
260.081	243.56
260.314	267.56
260.547	273.56
260.779	248.56
261.012	266.56
261.244	242.56
261.477	239.56
261.71	233.56
261.942	223.56
262.175	228.56
262.407	227.56
262.64	230.56
262.872	224.56
263.105	222.56
263.337	208.56
263.57	232.56
263.802	229.56
264.035	212.56
264.267	225.56
264.499	228.56
264.732	224.56
264.964	219.56
265.197	249.56
265.429	214.56
265.661	214.56
265.894	222.56
266.126	231.56
266.358	240.56
266.591	224.56
266.823	228.56
267.055	245.56
267.287	241.56
267.52	260.56
267.752	243.56
267.984	232.56
268.216	249.56
268.448	247.56
268.681	245.56
268.913	258.56
269.145	290.56
269.377	300.56
269.609	287.56
269.841	293.56
270.073	287.56
270.306	306.56
270.538	335.56
270.77	346.56
271.002	329.56
271.234	314.56
271.466	319.56
271.698	329.56
271.93	340.56
272.162	340.56
272.394	328.56
272.626	328.56
272.858	309.56
273.09	293.56
273.322	288.56
273.553	274.56
273.785	296.56
274.017	270.56
274.249	287.56
274.481	277.56
274.713	275.56
274.945	292.56
275.176	261.56
275.408	291.56
275.64	292.56
275.872	305.56
276.104	292.56
276.335	294.56
276.567	307.56
276.799	307.56
277.031	311.56
277.262	316.56
277.494	328.56
277.726	330.56
277.957	316.56
278.189	303.56
278.421	309.56
278.652	303.56
278.884	300.56
279.115	305.56
279.347	292.56
279.579	291.56
279.81	289.56
280.042	306.56
280.273	293.56
280.505	308.56
280.736	274.56
280.968	282.56
281.199	283.56
281.431	291.56
281.662	284.56
281.894	267.56
282.125	284.56
282.356	326.56
282.588	324.56
282.819	324.56
283.051	317.56
283.282	296.56
283.513	294.56
283.745	294.56
283.976	304.56
284.207	314.56
284.439	307.56
284.67	305.56
284.901	311.56
285.132	311.56
285.364	312.56
285.595	312.56
285.826	312.56
286.057	311.56
286.288	319.56
286.52	311.56
286.751	299.56
286.982	324.56
287.213	324.56
287.444	312.56
287.675	313.56
287.906	323.56
288.138	331.56
288.369	336.56
288.6	328.56
288.831	314.56
289.062	332.56
289.293	317.56
289.524	323.56
289.755	326.56
289.986	310.56
290.217	317.56
290.448	326.56
290.679	321.56
290.91	320.56
291.141	303.56
291.371	332.56
291.602	312.56
291.833	315.56
292.064	307.56
292.295	336.56
292.526	332.56
292.757	322.56
292.987	325.56
293.218	333.56
293.449	337.56
293.68	305.56
293.91	313.56
294.141	328.56
294.372	327.56
294.603	325.56
294.833	324.56
295.064	337.56
295.295	323.56
295.525	329.56
295.756	320.56
295.987	342.56
296.217	347.56
296.448	344.56
296.679	331.56
296.909	336.56
297.14	322.56
297.37	341.56
297.601	333.56
297.831	343.56
298.062	351.56
298.292	343.56
298.523	332.56
298.753	322.56
298.984	346.56
299.214	334.56
299.445	345.56
299.675	335.56
299.905	341.56
300.136	354.56
300.366	336.56
300.597	337.56
300.827	340.56
301.057	356.56
301.288	351.56
301.518	385.56
301.748	358.56
301.979	367.56
302.209	347.56
302.439	349.56
302.669	356.56
302.9	372.56
303.13	371.56
303.36	375.56
303.59	376.56
303.82	363.56
304.051	373.56
304.281	386.56
304.511	371.56
304.741	355.56
304.971	356.56
305.201	359.56
305.431	343.56
305.661	351.56
305.891	348.56
306.121	359.56
306.352	364.56
306.582	375.56
306.812	348.56
307.042	361.56
307.272	363.56
307.502	345.56
307.731	376.56
307.961	391.56
308.191	392.56
308.421	363.56
308.651	367.56
308.881	357.56
309.111	379.56
309.341	360.56
309.571	383.56
309.8	392.56
310.03	384.56
310.26	413.56
310.49	392.56
310.72	404.56
310.949	418.56
311.179	411.56
311.409	409.56
311.639	398.56
311.868	395.56
312.098	408.56
312.328	421.56
312.557	430.56
312.787	438.56
313.017	419.56
313.246	403.56
313.476	372.56
313.706	414.56
313.935	397.56
314.165	421.56
314.394	431.56
314.624	419.56
314.853	410.56
315.083	410.56
315.312	408.56
315.542	412.56
315.771	420.56
316.001	406.56
316.23	398.56
316.46	406.56
316.689	410.56
316.919	410.56
317.148	392.56
317.377	423.56
317.607	409.56
317.836	399.56
318.065	412.56
318.295	404.56
318.524	396.56
318.753	410.56
318.983	394.56
319.212	411.56
319.441	419.56
319.67	421.56
319.9	408.56
320.129	403.56
320.358	400.56
320.587	408.56
320.816	423.56
321.046	429.56
321.275	421.56
321.504	411.56
321.733	413.56
321.962	432.56
322.191	432.56
322.42	447.56
322.649	462.56
322.878	465.56
323.108	459.56
323.337	474.56
323.566	507.56
323.795	510.56
324.024	569.56
324.253	651.56
324.482	894.56
324.71	1371.56
324.939	2079.56
325.168	1740.56
325.397	869.56
325.626	614.56
325.855	555.56
326.084	528.56
326.313	520.56
326.542	529.56
326.77	533.56
326.999	582.56
327.228	817.56
327.457	1253.56
327.686	1543.56
327.914	1015.56
328.143	700.56
328.372	606.56
328.6	576.56
328.829	555.56
329.058	557.56
329.287	586.56
329.515	555.56
329.744	549.56
329.972	518.56
330.201	550.56
330.43	565.56
330.658	605.56
330.887	593.56
331.115	570.56
331.344	539.56
331.572	522.56
331.801	523.56
332.03	491.56
332.258	498.56
332.486	492.56
332.715	484.56
332.943	499.56
333.172	521.56
333.4	501.56
333.629	515.56
333.857	521.56
334.085	553.56
334.314	559.56
334.542	563.56
334.771	560.56
334.999	537.56
335.227	532.56
335.455	516.56
335.684	498.56
335.912	509.56
336.14	489.56
336.369	487.56
336.597	502.56
336.825	484.56
337.053	485.56
337.281	475.56
337.51	469.56
337.738	473.56
337.966	502.56
338.194	484.56
338.422	492.56
338.65	477.56
338.878	482.56
339.106	463.56
339.334	466.56
339.562	474.56
339.79	461.56
340.018	469.56
340.246	462.56
340.474	469.56
340.702	479.56
340.93	465.56
341.158	458.56
341.386	461.56
341.614	457.56
341.842	473.56
342.07	466.56
342.298	443.56
342.526	465.56
342.754	433.56
342.981	459.56
343.209	445.56
343.437	479.56
343.665	465.56
343.893	468.56
344.12	490.56
344.348	468.56
344.576	504.56
344.804	485.56
345.031	501.56
345.259	488.56
345.487	479.56
345.714	459.56
345.942	462.56
346.17	451.56
346.397	443.56
346.625	460.56
346.853	469.56
347.08	447.56
347.308	451.56
347.535	450.56
347.763	451.56
347.99	468.56
348.218	435.56
348.445	449.56
348.673	464.56
348.9	454.56
349.128	457.56
349.355	444.56
349.583	435.56
349.81	413.56
350.037	429.56
350.265	418.56
350.492	422.56
350.72	449.56
350.947	441.56
351.174	447.56
351.402	440.56
351.629	430.56
351.856	447.56
352.083	459.56
352.311	455.56
352.538	463.56
352.765	455.56
352.992	453.56
353.22	436.56
353.447	434.56
353.674	434.56
353.901	436.56
354.128	437.56
354.355	428.56
354.583	416.56
354.81	436.56
355.037	430.56
355.264	422.56
355.491	431.56
355.718	407.56
355.945	403.56
356.172	428.56
356.399	427.56
356.626	418.56
356.853	401.56
357.08	416.56
357.307	433.56
357.534	389.56
357.761	420.56
357.988	433.56
358.215	438.56
358.441	416.56
358.668	417.56
358.895	436.56
359.122	432.56
359.349	408.56
359.576	440.56
359.802	469.56
360.029	478.56
360.256	480.56
360.483	459.56
360.709	455.56
360.936	458.56
361.163	421.56
361.39	425.56
361.616	462.56
361.843	452.56
362.07	449.56
362.296	439.56
362.523	451.56
362.749	450.56
362.976	449.56
363.203	443.56
363.429	406.56
363.656	427.56
363.882	412.56
364.109	452.56
364.335	439.56
364.562	429.56
364.788	425.56
365.015	432.56
365.241	423.56
365.468	420.56
365.694	458.56
365.92	414.56
366.147	393.56
366.373	435.56
366.599	416.56
366.826	409.56
367.052	430.56
367.278	422.56
367.505	427.56
367.731	439.56
367.957	442.56
368.184	434.56
368.41	433.56
368.636	444.56
368.862	448.56
369.089	447.56
369.315	403.56
369.541	424.56
369.767	451.56
369.993	439.56
370.219	422.56
370.445	437.56
370.672	421.56
370.898	436.56
371.124	439.56
371.35	449.56
371.576	441.56
371.802	439.56
372.028	421.56
372.254	427.56
372.48	436.56
372.706	435.56
372.932	426.56
373.158	466.56
373.384	433.56
373.61	434.56
373.835	450.56
374.061	430.56
374.287	454.56
374.513	437.56
374.739	474.56
374.965	455.56
375.191	445.56
375.416	447.56
375.642	418.56
375.868	452.56
376.094	441.56
376.319	420.56
376.545	423.56
376.771	426.56
376.997	409.56
377.222	409.56
377.448	457.56
377.674	429.56
377.899	440.56
378.125	429.56
378.35	421.56
378.576	420.56
378.802	428.56
379.027	429.56
379.253	417.56
379.478	424.56
379.704	453.56
379.929	459.56
380.155	432.56
380.38	428.56
380.606	444.56
380.831	439.56
381.057	425.56
381.282	445.56
381.507	439.56
381.733	444.56
381.958	426.56
382.184	451.56
382.409	451.56
382.634	424.56
382.86	426.56
383.085	461.56
383.31	453.56
383.535	464.56
383.761	414.56
383.986	455.56
384.211	463.56
384.436	447.56
384.662	454.56
384.887	440.56
385.112	468.56
385.337	465.56
385.562	475.56
385.787	477.56
386.013	484.56
386.238	500.56
386.463	513.56
386.688	455.56
386.913	470.56
387.138	466.56
387.363	480.56
387.588	479.56
387.813	487.56
388.038	459.56
388.263	482.56
388.488	491.56
388.713	466.56
388.938	495.56
389.163	497.56
389.387	465.56
389.612	454.56
389.837	485.56
390.062	455.56
390.287	464.56
390.512	459.56
390.736	496.56
390.961	474.56
391.186	487.56
391.411	493.56
391.636	500.56
391.86	519.56
392.085	484.56
392.31	507.56
392.534	502.56
392.759	513.56
392.984	479.56
393.208	489.56
393.433	499.56
393.658	490.56
393.882	465.56
394.107	477.56
394.331	493.56
394.556	480.56
394.78	507.56
395.005	504.56
395.229	491.56
395.454	495.56
395.678	533.56
395.903	521.56
396.127	526.56
396.352	539.56
396.576	519.56
396.801	504.56
397.025	502.56
397.249	504.56
397.474	535.56
397.698	512.56
397.922	524.56
398.147	564.56
398.371	595.56
398.595	547.56
398.82	550.56
399.044	580.56
399.268	605.56
399.492	619.56
399.717	659.56
399.941	712.56
400.165	715.56
400.389	713.56
400.613	660.56
400.837	592.56
401.062	571.56
401.286	571.56
401.51	557.56
401.734	561.56
401.958	572.56
402.182	563.56
402.406	568.56
402.63	549.56
402.854	584.56
403.078	585.56
403.302	594.56
403.526	607.56
403.75	569.56
403.974	594.56
404.198	589.56
404.422	607.56
404.645	618.56
404.869	628.56
405.093	640.56
405.317	679.56
405.541	703.56
405.765	639.56
405.988	605.56
406.212	619.56
406.436	609.56
406.66	661.56
406.883	623.56
407.107	654.56
407.331	717.56
407.555	767.56
407.778	767.56
408.002	708.56
408.226	671.56
408.449	651.56
408.673	644.56
408.896	683.56
409.12	722.56
409.344	678.56
409.567	619.56
409.791	589.56
410.014	598.56
410.238	568.56
410.461	577.56
410.685	597.56
410.908	607.56
411.132	628.56
411.355	675.56
411.578	634.56
411.802	587.56
412.025	557.56
412.249	613.56
412.472	605.56
412.695	636.56
412.919	636.56
413.142	601.56
413.365	587.56
413.589	567.56
413.812	565.56
414.035	561.56
414.258	567.56
414.482	559.56
414.705	526.56
414.928	559.56
415.151	528.56
415.374	548.56
415.597	543.56
415.821	536.56
416.044	550.56
416.267	543.56
416.49	524.56
416.713	541.56
416.936	559.56
417.159	544.56
417.382	548.56
417.605	562.56
417.828	563.56
418.051	612.56
418.274	579.56
418.497	547.56
418.72	570.56
418.943	571.56
419.166	587.56
419.389	613.56
419.611	589.56
419.834	594.56
420.057	591.56
420.28	606.56
420.503	593.56
420.726	572.56
420.948	588.56
421.171	620.56
421.394	660.56
421.617	610.56
421.839	585.56
422.062	574.56
422.285	610.56
422.507	646.56
422.73	695.56
422.953	703.56
423.175	613.56
423.398	587.56
423.621	584.56
423.843	604.56
424.066	624.56
424.288	622.56
424.511	623.56
424.733	680.56
424.956	804.56
425.178	723.56
425.401	731.56
425.623	733.56
425.846	656.56
426.068	621.56
426.291	581.56
426.513	584.56
426.735	618.56
426.958	677.56
427.18	723.56
427.402	863.56
427.625	931.56
427.847	796.56
428.069	715.56
428.292	641.56
428.514	593.56
428.736	569.56
428.958	572.56
429.181	569.56
429.403	551.56
429.625	559.56
429.847	598.56
430.069	680.56
430.292	659.56
430.514	575.56
430.736	540.56
430.958	548.56
431.18	563.56
431.402	529.56
431.624	505.56
431.846	525.56
432.068	529.56
432.29	548.56
432.512	541.56
432.734	531.56
432.956	549.56
433.178	541.56
433.4	553.56
433.622	541.56
433.844	519.56
434.066	553.56
434.287	516.56
434.509	552.56
434.731	576.56
434.953	572.56
435.175	593.56
435.397	621.56
435.618	595.56
435.84	636.56
436.062	743.56
436.284	836.56
436.505	674.56
436.727	602.56
436.949	585.56
437.17	551.56
437.392	569.56
437.614	555.56
437.835	597.56
438.057	680.56
438.278	801.56
438.5	794.56
438.721	864.56
438.943	861.56
439.165	662.56
439.386	613.56
439.608	623.56
439.829	597.56
440.05	625.56
440.272	684.56
440.493	651.56
440.715	607.56
440.936	581.56
441.158	563.56
441.379	568.56
441.6	596.56
441.822	614.56
442.043	672.56
442.264	739.56
442.486	810.56
442.707	668.56
442.928	607.56
443.149	620.56
443.371	639.56
443.592	682.56
443.813	789.56
444.034	875.56
444.255	710.56
444.476	650.56
444.698	656.56
444.919	642.56
445.14	769.56
445.361	677.56
445.582	640.56
445.803	711.56
446.024	836.56
446.245	799.56
446.466	759.56
446.687	653.56
446.908	592.56
447.129	551.56
447.35	556.56
447.571	549.56
447.792	553.56
448.013	543.56
448.234	572.56
448.455	619.56
448.675	741.56
448.896	879.56
449.117	732.56
449.338	672.56
449.559	761.56
449.779	911.56
450	726.56
450.221	586.56
450.442	549.56
450.662	531.56
450.883	537.56
451.104	561.56
451.324	538.56
451.545	532.56
451.766	511.56
451.986	500.56
452.207	495.56
452.428	489.56
452.648	505.56
452.869	470.56
453.089	515.56
453.31	516.56
453.53	499.56
453.751	483.56
453.971	488.56
454.192	507.56
454.412	493.56
454.633	484.56
454.853	492.56
455.073	468.56
455.294	519.56
455.514	593.56
455.734	586.56
455.955	495.56
456.175	463.56
456.395	472.56
456.616	453.56
456.836	467.56
457.056	463.56
457.276	447.56
457.497	460.56
457.717	495.56
457.937	475.56
458.157	471.56
458.377	476.56
458.598	500.56
458.818	525.56
459.038	620.56
459.258	659.56
459.478	566.56
459.698	540.56
459.918	540.56
460.138	541.56
460.358	537.56
460.578	540.56
460.798	548.56
461.018	553.56
461.238	563.56
461.458	541.56
461.678	524.56
461.898	548.56
462.118	565.56
462.338	577.56
462.558	568.56
462.777	583.56
462.997	606.56
463.217	595.56
463.437	617.56
463.657	612.56
463.876	615.56
464.096	605.56
464.316	596.56
464.536	599.56
464.755	580.56
464.975	595.56
465.195	634.56
465.414	663.56
465.634	590.56
465.854	581.56
466.073	531.56
466.293	506.56
466.512	495.56
466.732	495.56
466.951	511.56
467.171	513.56
467.391	518.56
467.61	521.56
467.829	536.56
468.049	535.56
468.268	525.56
468.488	502.56
468.707	490.56
468.927	519.56
469.146	512.56
469.365	503.56
469.585	491.56
469.804	496.56
470.023	515.56
470.243	526.56
470.462	533.56
470.681	522.56
470.901	540.56
471.12	484.56
471.339	539.56
471.558	518.56
471.777	517.56
471.997	490.56
472.216	511.56
472.435	541.56
472.654	529.56
472.873	511.56
473.092	513.56
473.311	504.56
473.53	503.56
473.749	497.56
473.968	547.56
474.187	667.56
474.406	674.56
474.625	568.56
474.844	519.56
475.063	502.56
475.282	542.56
475.501	517.56
475.72	533.56
475.939	521.56
476.158	515.56
476.377	525.56
476.596	518.56
476.814	551.56
477.033	520.56
477.252	545.56
477.471	543.56
477.69	565.56
477.908	557.56
478.127	582.56
478.346	579.56
478.564	588.56
478.783	581.56
479.002	613.56
479.22	586.56
479.439	596.56
479.658	599.56
479.876	615.56
480.095	617.56
480.313	661.56
480.532	653.56
480.751	641.56
480.969	632.56
481.188	659.56
481.406	709.56
481.624	639.56
481.843	610.56
482.061	603.56
482.28	583.56
482.498	580.56
482.717	593.56
482.935	632.56
483.153	617.56
483.372	591.56
483.59	583.56
483.808	601.56
484.027	572.56
484.245	621.56
484.463	584.56
484.681	597.56
484.9	611.56
485.118	644.56
485.336	632.56
485.554	631.56
485.772	610.56
485.99	618.56
486.209	616.56
486.427	609.56
486.645	640.56
486.863	616.56
487.081	641.56
487.299	657.56
487.517	650.56
487.735	625.56
487.953	641.56
488.171	649.56
488.389	652.56
488.607	649.56
488.825	657.56
489.043	640.56
489.261	652.56
489.479	638.56
489.696	641.56
489.914	652.56
490.132	670.56
490.35	688.56
490.568	656.56
490.786	667.56
491.003	682.56
491.221	700.56
491.439	709.56
491.657	727.56
491.874	725.56
492.092	755.56
492.31	752.56
492.527	740.56
492.745	737.56
492.963	754.56
493.18	767.56
493.398	754.56
493.615	754.56
493.833	773.56
494.05	759.56
494.268	751.56
494.485	751.56
494.703	738.56
494.92	772.56
495.138	773.56
495.355	754.56
495.573	769.56
495.79	777.56
496.008	769.56
496.225	781.56
496.442	772.56
496.66	792.56
496.877	786.56
497.094	763.56
497.312	778.56
497.529	803.56
497.746	790.56
497.963	823.56
498.181	829.56
498.398	834.56
498.615	877.56
498.832	895.56
499.049	913.56
499.267	939.56
499.484	984.56
499.701	1027.56
499.918	1075.56
500.135	1134.56
500.352	1233.56
500.569	1231.56
500.786	1225.56
501.003	1189.56
501.22	1165.56
501.437	1105.56
501.654	1057.56
