Data from 1976.PennyLincolnUp.Lamp.En5.5.200Scan.071719.P1.Changed Mount._HRD10591_16-02-13-862.txt Node
Date: Thu Jul 18 16:02:13 EDT 2019
User: cochatt
Spectrometer: HR+D1059
Trigger mode: 1
Integration Time (sec): 1.000000E-1
Scans to average: 1
Electric dark correction enabled: true
Nonlinearity correction enabled: false
Boxcar width: 0
XAxis mode: Wavelengths
Number of Pixels in Spectrum: 2048
>>>>>Begin Spectral Data<<<<<
223.165	-12.19
223.4	-12.19
223.635	-12.19
223.869	-17.19
224.104	-15.19
224.338	0.81
224.573	-5.19
224.808	-19.19
225.042	-22.19
225.277	10.81
225.511	4.81
225.746	-2.19
225.98	9.81
226.215	9.81
226.449	-5.19
226.683	14.81
226.918	9.81
227.152	37.81
227.387	37.81
227.621	38.81
227.856	49.81
228.09	58.81
228.324	41.81
228.559	56.81
228.793	67.81
229.027	89.81
229.262	102.81
229.496	108.81
229.73	134.81
229.964	150.81
230.199	117.81
230.433	127.81
230.667	124.81
230.901	132.81
231.136	120.81
231.37	117.81
231.604	114.81
231.838	101.81
232.072	113.81
232.306	122.81
232.541	119.81
232.775	109.81
233.009	121.81
233.243	113.81
233.477	117.81
233.711	125.81
233.945	107.81
234.179	126.81
234.413	123.81
234.647	116.81
234.881	121.81
235.115	115.81
235.349	128.81
235.583	136.81
235.817	113.81
236.051	113.81
236.285	128.81
236.519	122.81
236.753	121.81
236.987	146.81
237.221	179.81
237.455	252.81
237.689	184.81
237.922	141.81
238.156	138.81
238.39	128.81
238.624	126.81
238.858	116.81
239.091	126.81
239.325	141.81
239.559	139.81
239.793	127.81
240.027	131.81
240.26	152.81
240.494	146.81
240.728	154.81
240.961	154.81
241.195	151.81
241.429	148.81
241.662	139.81
241.896	144.81
242.13	136.81
242.363	143.81
242.597	134.81
242.83	144.81
243.064	148.81
243.298	146.81
243.531	143.81
243.765	144.81
243.998	141.81
244.232	140.81
244.465	116.81
244.699	139.81
244.932	152.81
245.166	152.81
245.399	146.81
245.633	149.81
245.866	152.81
246.099	160.81
246.333	134.81
246.566	136.81
246.8	170.81
247.033	149.81
247.266	166.81
247.5	171.81
247.733	177.81
247.966	171.81
248.2	171.81
248.433	170.81
248.666	173.81
248.899	196.81
249.133	210.81
249.366	214.81
249.599	201.81
249.832	185.81
250.066	187.81
250.299	180.81
250.532	201.81
250.765	208.81
250.998	230.81
251.231	233.81
251.465	214.81
251.698	208.81
251.931	205.81
252.164	198.81
252.397	206.81
252.63	207.81
252.863	214.81
253.096	216.81
253.329	220.81
253.562	233.81
253.795	206.81
254.028	227.81
254.261	209.81
254.494	230.81
254.727	248.81
254.96	297.81
255.193	272.81
255.426	244.81
255.659	241.81
255.892	243.81
256.124	222.81
256.357	232.81
256.59	233.81
256.823	223.81
257.056	212.81
257.289	222.81
257.521	224.81
257.754	214.81
257.987	220.81
258.22	202.81
258.452	214.81
258.685	221.81
258.918	206.81
259.151	216.81
259.383	240.81
259.616	231.81
259.849	240.81
260.081	240.81
260.314	252.81
260.547	271.81
260.779	258.81
261.012	252.81
261.244	240.81
261.477	230.81
261.71	233.81
261.942	237.81
262.175	237.81
262.407	249.81
262.64	232.81
262.872	234.81
263.105	217.81
263.337	244.81
263.57	208.81
263.802	226.81
264.035	211.81
264.267	228.81
264.499	219.81
264.732	222.81
264.964	241.81
265.197	234.81
265.429	233.81
265.661	233.81
265.894	237.81
266.126	218.81
266.358	233.81
266.591	227.81
266.823	238.81
267.055	253.81
267.287	233.81
267.52	230.81
267.752	230.81
267.984	245.81
268.216	233.81
268.448	244.81
268.681	242.81
268.913	261.81
269.145	284.81
269.377	311.81
269.609	282.81
269.841	291.81
270.073	280.81
270.306	312.81
270.538	322.81
270.77	345.81
271.002	332.81
271.234	330.81
271.466	317.81
271.698	324.81
271.93	348.81
272.162	327.81
272.394	343.81
272.626	320.81
272.858	310.81
273.09	290.81
273.322	308.81
273.553	281.81
273.785	285.81
274.017	290.81
274.249	270.81
274.481	277.81
274.713	282.81
274.945	271.81
275.176	291.81
275.408	304.81
275.64	296.81
275.872	295.81
276.104	306.81
276.335	307.81
276.567	291.81
276.799	309.81
277.031	318.81
277.262	341.81
277.494	340.81
277.726	331.81
277.957	300.81
278.189	280.81
278.421	299.81
278.652	289.81
278.884	309.81
279.115	313.81
279.347	295.81
279.579	292.81
279.81	284.81
280.042	288.81
280.273	296.81
280.505	296.81
280.736	292.81
280.968	292.81
281.199	279.81
281.431	283.81
281.662	311.81
281.894	297.81
282.125	293.81
282.356	317.81
282.588	313.81
282.819	321.81
283.051	308.81
283.282	301.81
283.513	310.81
283.745	313.81
283.976	308.81
284.207	326.81
284.439	312.81
284.67	322.81
284.901	309.81
285.132	316.81
285.364	297.81
285.595	312.81
285.826	298.81
286.057	307.81
286.288	288.81
286.52	312.81
286.751	307.81
286.982	344.81
287.213	292.81
287.444	317.81
287.675	304.81
287.906	314.81
288.138	340.81
288.369	340.81
288.6	332.81
288.831	318.81
289.062	332.81
289.293	324.81
289.524	320.81
289.755	314.81
289.986	331.81
290.217	321.81
290.448	328.81
290.679	322.81
290.91	325.81
291.141	327.81
291.371	326.81
291.602	326.81
291.833	326.81
292.064	314.81
292.295	311.81
292.526	329.81
292.757	317.81
292.987	301.81
293.218	317.81
293.449	335.81
293.68	333.81
293.91	312.81
294.141	320.81
294.372	326.81
294.603	316.81
294.833	308.81
295.064	332.81
295.295	346.81
295.525	325.81
295.756	332.81
295.987	331.81
296.217	332.81
296.448	354.81
296.679	360.81
296.909	336.81
297.14	315.81
297.37	334.81
297.601	328.81
297.831	309.81
298.062	327.81
298.292	351.81
298.523	341.81
298.753	329.81
298.984	341.81
299.214	346.81
299.445	341.81
299.675	344.81
299.905	364.81
300.136	358.81
300.366	337.81
300.597	363.81
300.827	344.81
301.057	354.81
301.288	369.81
301.518	345.81
301.748	341.81
301.979	350.81
302.209	345.81
302.439	376.81
302.669	349.81
302.9	329.81
303.13	364.81
303.36	344.81
303.59	353.81
303.82	379.81
304.051	362.81
304.281	338.81
304.511	354.81
304.741	339.81
304.971	365.81
305.201	372.81
305.431	374.81
305.661	365.81
305.891	358.81
306.121	358.81
306.352	359.81
306.582	351.81
306.812	339.81
307.042	374.81
307.272	352.81
307.502	359.81
307.731	354.81
307.961	364.81
308.191	340.81
308.421	363.81
308.651	359.81
308.881	386.81
309.111	379.81
309.341	355.81
309.571	357.81
309.8	391.81
310.03	390.81
310.26	405.81
310.49	396.81
310.72	401.81
310.949	392.81
311.179	414.81
311.409	389.81
311.639	411.81
311.868	392.81
312.098	401.81
312.328	403.81
312.557	419.81
312.787	417.81
313.017	420.81
313.246	411.81
313.476	391.81
313.706	396.81
313.935	412.81
314.165	399.81
314.394	415.81
314.624	416.81
314.853	416.81
315.083	420.81
315.312	388.81
315.542	409.81
315.771	376.81
316.001	399.81
316.23	410.81
316.46	403.81
316.689	408.81
316.919	422.81
317.148	410.81
317.377	423.81
317.607	388.81
317.836	409.81
318.065	402.81
318.295	409.81
318.524	407.81
318.753	406.81
318.983	397.81
319.212	402.81
319.441	428.81
319.67	414.81
319.9	405.81
320.129	419.81
320.358	404.81
320.587	416.81
320.816	413.81
321.046	426.81
321.275	424.81
321.504	432.81
321.733	432.81
321.962	428.81
322.191	448.81
322.42	454.81
322.649	449.81
322.878	467.81
323.108	480.81
323.337	484.81
323.566	491.81
323.795	549.81
324.024	564.81
324.253	658.81
324.482	926.81
324.71	1428.81
324.939	2130.81
325.168	1854.81
325.397	891.81
325.626	624.81
325.855	550.81
326.084	528.81
326.313	508.81
326.542	537.81
326.77	534.81
326.999	638.81
327.228	846.81
327.457	1285.81
327.686	1590.81
327.914	1057.81
328.143	688.81
328.372	604.81
328.6	596.81
328.829	548.81
329.058	578.81
329.287	571.81
329.515	560.81
329.744	524.81
329.972	534.81
330.201	558.81
330.43	583.81
330.658	578.81
330.887	597.81
331.115	615.81
331.344	545.81
331.572	510.81
331.801	526.81
332.03	520.81
332.258	494.81
332.486	508.81
332.715	498.81
332.943	494.81
333.172	498.81
333.4	514.81
333.629	500.81
333.857	531.81
334.085	536.81
334.314	536.81
334.542	561.81
334.771	584.81
334.999	558.81
335.227	544.81
335.455	486.81
335.684	493.81
335.912	492.81
336.14	456.81
336.369	482.81
336.597	525.81
336.825	502.81
337.053	494.81
337.281	478.81
337.51	473.81
337.738	473.81
337.966	462.81
338.194	476.81
338.422	469.81
338.65	470.81
338.878	474.81
339.106	465.81
339.334	467.81
339.562	457.81
339.79	466.81
340.018	473.81
340.246	452.81
340.474	476.81
340.702	475.81
340.93	462.81
341.158	473.81
341.386	454.81
341.614	474.81
341.842	451.81
342.07	456.81
342.298	437.81
342.526	453.81
342.754	437.81
342.981	436.81
343.209	474.81
343.437	456.81
343.665	482.81
343.893	466.81
344.12	488.81
344.348	468.81
344.576	486.81
344.804	480.81
345.031	468.81
345.259	489.81
345.487	474.81
345.714	449.81
345.942	451.81
346.17	448.81
346.397	458.81
346.625	457.81
346.853	454.81
347.08	428.81
347.308	445.81
347.535	453.81
347.763	470.81
347.99	445.81
348.218	438.81
348.445	460.81
348.673	452.81
348.9	421.81
349.128	428.81
349.355	440.81
349.583	404.81
349.81	442.81
350.037	418.81
350.265	429.81
350.492	449.81
350.72	426.81
350.947	446.81
351.174	438.81
351.402	454.81
351.629	455.81
351.856	460.81
352.083	446.81
352.311	462.81
352.538	434.81
352.765	456.81
352.992	439.81
353.22	427.81
353.447	434.81
353.674	432.81
353.901	436.81
354.128	424.81
354.355	418.81
354.583	432.81
354.81	429.81
355.037	421.81
355.264	434.81
355.491	440.81
355.718	421.81
355.945	422.81
356.172	427.81
356.399	416.81
356.626	402.81
356.853	421.81
357.08	430.81
357.307	438.81
357.534	420.81
357.761	414.81
357.988	411.81
358.215	429.81
358.441	417.81
358.668	412.81
358.895	424.81
359.122	426.81
359.349	418.81
359.576	417.81
359.802	453.81
360.029	472.81
360.256	478.81
360.483	465.81
360.709	451.81
360.936	446.81
361.163	427.81
361.39	425.81
361.616	438.81
361.843	436.81
362.07	417.81
362.296	434.81
362.523	448.81
362.749	426.81
362.976	437.81
363.203	435.81
363.429	434.81
363.656	426.81
363.882	444.81
364.109	416.81
364.335	413.81
364.562	425.81
364.788	406.81
365.015	425.81
365.241	397.81
365.468	425.81
365.694	442.81
365.92	450.81
366.147	435.81
366.373	428.81
366.599	396.81
366.826	421.81
367.052	429.81
367.278	423.81
367.505	421.81
367.731	440.81
367.957	445.81
368.184	428.81
368.41	440.81
368.636	450.81
368.862	454.81
369.089	430.81
369.315	428.81
369.541	424.81
369.767	439.81
369.993	417.81
370.219	408.81
370.445	420.81
370.672	433.81
370.898	440.81
371.124	436.81
371.35	452.81
371.576	428.81
371.802	409.81
372.028	450.81
372.254	432.81
372.48	425.81
372.706	448.81
372.932	436.81
373.158	435.81
373.384	444.81
373.61	439.81
373.835	442.81
374.061	413.81
374.287	442.81
374.513	436.81
374.739	448.81
374.965	426.81
375.191	440.81
375.416	427.81
375.642	443.81
375.868	442.81
376.094	417.81
376.319	441.81
376.545	424.81
376.771	448.81
376.997	434.81
377.222	434.81
377.448	442.81
377.674	433.81
377.899	431.81
378.125	434.81
378.35	420.81
378.576	416.81
378.802	417.81
379.027	441.81
379.253	421.81
379.478	421.81
379.704	422.81
379.929	446.81
380.155	437.81
380.38	439.81
380.606	432.81
380.831	439.81
381.057	436.81
381.282	429.81
381.507	451.81
381.733	422.81
381.958	413.81
382.184	456.81
382.409	432.81
382.634	438.81
382.86	449.81
383.085	424.81
383.31	442.81
383.535	451.81
383.761	458.81
383.986	442.81
384.211	457.81
384.436	467.81
384.662	456.81
384.887	481.81
385.112	470.81
385.337	476.81
385.562	481.81
385.787	492.81
386.013	514.81
386.238	473.81
386.463	486.81
386.688	496.81
386.913	471.81
387.138	457.81
387.363	484.81
387.588	480.81
387.813	477.81
388.038	482.81
388.263	487.81
388.488	486.81
388.713	480.81
388.938	498.81
389.163	485.81
389.387	486.81
389.612	488.81
389.837	457.81
390.062	481.81
390.287	462.81
390.512	458.81
390.736	468.81
390.961	487.81
391.186	476.81
391.411	517.81
391.636	474.81
391.86	493.81
392.085	513.81
392.31	506.81
392.534	496.81
392.759	497.81
392.984	502.81
393.208	492.81
393.433	491.81
393.658	501.81
393.882	468.81
394.107	473.81
394.331	492.81
394.556	489.81
394.78	493.81
395.005	493.81
395.229	482.81
395.454	497.81
395.678	520.81
395.903	533.81
396.127	524.81
396.352	535.81
396.576	531.81
396.801	496.81
397.025	499.81
397.249	513.81
397.474	508.81
397.698	521.81
397.922	534.81
398.147	539.81
398.371	557.81
398.595	543.81
398.82	558.81
399.044	587.81
399.268	599.81
399.492	635.81
399.717	674.81
399.941	677.81
400.165	740.81
400.389	715.81
400.613	635.81
400.837	603.81
401.062	567.81
401.286	564.81
401.51	574.81
401.734	555.81
401.958	558.81
402.182	574.81
402.406	573.81
402.63	578.81
402.854	557.81
403.078	564.81
403.302	576.81
403.526	596.81
403.75	586.81
403.974	586.81
404.198	596.81
404.422	584.81
404.645	594.81
404.869	598.81
405.093	629.81
405.317	697.81
405.541	718.81
405.765	662.81
405.988	616.81
406.212	611.81
406.436	615.81
406.66	647.81
406.883	649.81
407.107	646.81
407.331	683.81
407.555	788.81
407.778	755.81
408.002	712.81
408.226	672.81
408.449	667.81
408.673	652.81
408.896	695.81
409.12	698.81
409.344	679.81
409.567	586.81
409.791	605.81
410.014	600.81
410.238	576.81
410.461	588.81
410.685	605.81
410.908	590.81
411.132	624.81
411.355	650.81
411.578	640.81
411.802	605.81
412.025	579.81
412.249	590.81
412.472	590.81
412.695	657.81
412.919	648.81
413.142	614.81
413.365	609.81
413.589	564.81
413.812	564.81
414.035	543.81
414.258	567.81
414.482	540.81
414.705	549.81
414.928	563.81
415.151	537.81
415.374	549.81
415.597	557.81
415.821	563.81
416.044	558.81
416.267	554.81
416.49	537.81
416.713	533.81
416.936	540.81
417.159	534.81
417.382	556.81
417.605	555.81
417.828	569.81
418.051	574.81
418.274	567.81
418.497	540.81
418.72	565.81
418.943	547.81
419.166	564.81
419.389	594.81
419.611	579.81
419.834	574.81
420.057	583.81
420.28	582.81
420.503	592.81
420.726	586.81
420.948	611.81
421.171	640.81
421.394	674.81
421.617	592.81
421.839	577.81
422.062	575.81
422.285	598.81
422.507	638.81
422.73	723.81
422.953	684.81
423.175	600.81
423.398	604.81
423.621	597.81
423.843	601.81
424.066	625.81
424.288	628.81
424.511	627.81
424.733	702.81
424.956	770.81
425.178	703.81
425.401	763.81
425.623	758.81
425.846	662.81
426.068	607.81
426.291	602.81
426.513	605.81
426.735	624.81
426.958	649.81
427.18	725.81
427.402	856.81
427.625	938.81
427.847	829.81
428.069	710.81
428.292	654.81
428.514	600.81
428.736	572.81
428.958	576.81
429.181	557.81
429.403	538.81
429.625	553.81
429.847	588.81
430.069	661.81
430.292	651.81
430.514	576.81
430.736	549.81
430.958	554.81
431.18	544.81
431.402	534.81
431.624	535.81
431.846	526.81
432.068	537.81
432.29	549.81
432.512	536.81
432.734	543.81
432.956	540.81
433.178	558.81
433.4	541.81
433.622	524.81
433.844	532.81
434.066	507.81
434.287	546.81
434.509	540.81
434.731	579.81
434.953	577.81
435.175	568.81
435.397	594.81
435.618	623.81
435.84	635.81
436.062	761.81
436.284	813.81
436.505	674.81
436.727	597.81
436.949	554.81
437.17	534.81
437.392	556.81
437.614	584.81
437.835	587.81
438.057	678.81
438.278	787.81
438.5	787.81
438.721	873.81
438.943	830.81
439.165	661.81
439.386	600.81
439.608	604.81
439.829	618.81
440.05	632.81
440.272	684.81
440.493	640.81
440.715	581.81
440.936	563.81
441.158	578.81
441.379	564.81
441.6	582.81
441.822	597.81
442.043	664.81
442.264	733.81
442.486	795.81
442.707	669.81
442.928	622.81
443.149	622.81
443.371	633.81
443.592	696.81
443.813	792.81
444.034	854.81
444.255	716.81
444.476	629.81
444.698	634.81
444.919	649.81
445.14	713.81
445.361	652.81
445.582	657.81
445.803	725.81
446.024	816.81
446.245	818.81
446.466	754.81
446.687	628.81
446.908	601.81
447.129	572.81
447.35	585.81
447.571	530.81
447.792	555.81
448.013	544.81
448.234	589.81
448.455	614.81
448.675	729.81
448.896	844.81
449.117	754.81
449.338	704.81
449.559	798.81
449.779	926.81
450	725.81
450.221	599.81
450.442	551.81
450.662	546.81
450.883	548.81
451.104	562.81
451.324	546.81
451.545	508.81
451.766	483.81
451.986	498.81
452.207	474.81
452.428	480.81
452.648	489.81
452.869	486.81
453.089	501.81
453.31	514.81
453.53	477.81
453.751	468.81
453.971	490.81
454.192	502.81
454.412	493.81
454.633	498.81
454.853	492.81
455.073	487.81
455.294	524.81
455.514	560.81
455.734	532.81
455.955	489.81
456.175	470.81
456.395	462.81
456.616	483.81
456.836	464.81
457.056	468.81
457.276	456.81
457.497	473.81
457.717	472.81
457.937	476.81
458.157	461.81
458.377	494.81
458.598	506.81
458.818	530.81
459.038	611.81
459.258	633.81
459.478	572.81
459.698	545.81
459.918	525.81
460.138	550.81
460.358	557.81
460.578	531.81
460.798	574.81
461.018	574.81
461.238	553.81
461.458	552.81
461.678	551.81
461.898	540.81
462.118	557.81
462.338	591.81
462.558	590.81
462.777	594.81
462.997	598.81
463.217	615.81
463.437	620.81
463.657	634.81
463.876	598.81
464.096	594.81
464.316	580.81
464.536	589.81
464.755	573.81
464.975	585.81
465.195	601.81
465.414	677.81
465.634	597.81
465.854	581.81
466.073	542.81
466.293	522.81
466.512	512.81
466.732	514.81
466.951	529.81
467.171	516.81
467.391	513.81
467.61	538.81
467.829	506.81
468.049	516.81
468.268	523.81
468.488	477.81
468.707	478.81
468.927	489.81
469.146	481.81
469.365	485.81
469.585	502.81
469.804	489.81
470.023	518.81
470.243	501.81
470.462	534.81
470.681	527.81
470.901	533.81
471.12	517.81
471.339	498.81
471.558	504.81
471.777	513.81
471.997	519.81
472.216	525.81
472.435	538.81
472.654	516.81
472.873	530.81
473.092	520.81
473.311	484.81
473.53	516.81
473.749	518.81
473.968	538.81
474.187	651.81
474.406	658.81
474.625	556.81
474.844	526.81
475.063	503.81
475.282	518.81
475.501	529.81
475.72	505.81
475.939	514.81
476.158	511.81
476.377	521.81
476.596	527.81
476.814	548.81
477.033	546.81
477.252	545.81
477.471	559.81
477.69	544.81
477.908	563.81
478.127	560.81
478.346	561.81
478.564	563.81
478.783	573.81
479.002	610.81
479.22	577.81
479.439	593.81
479.658	609.81
479.876	624.81
480.095	640.81
480.313	651.81
480.532	648.81
480.751	632.81
480.969	646.81
481.188	669.81
481.406	676.81
481.624	650.81
481.843	626.81
482.061	622.81
482.28	612.81
482.498	600.81
482.717	591.81
482.935	598.81
483.153	603.81
483.372	593.81
483.59	583.81
483.808	580.81
484.027	594.81
484.245	578.81
484.463	590.81
484.681	605.81
484.9	603.81
485.118	608.81
485.336	591.81
485.554	619.81
485.772	589.81
485.99	621.81
486.209	633.81
486.427	619.81
486.645	640.81
486.863	642.81
487.081	638.81
487.299	640.81
487.517	642.81
487.735	643.81
487.953	640.81
488.171	629.81
488.389	632.81
488.607	640.81
488.825	637.81
489.043	638.81
489.261	644.81
489.479	646.81
489.696	637.81
489.914	662.81
490.132	646.81
490.35	664.81
490.568	662.81
490.786	689.81
491.003	702.81
491.221	711.81
491.439	718.81
491.657	728.81
491.874	731.81
492.092	745.81
492.31	747.81
492.527	729.81
492.745	766.81
492.963	764.81
493.18	725.81
493.398	738.81
493.615	762.81
493.833	748.81
494.05	766.81
494.268	750.81
494.485	768.81
494.703	777.81
494.92	749.81
495.138	741.81
495.355	783.81
495.573	750.81
495.79	761.81
496.008	776.81
496.225	772.81
496.442	731.81
496.66	782.81
496.877	752.81
497.094	763.81
497.312	765.81
497.529	782.81
497.746	794.81
497.963	798.81
498.181	814.81
498.398	836.81
498.615	864.81
498.832	901.81
499.049	925.81
499.267	949.81
499.484	953.81
499.701	1010.81
499.918	1064.81
500.135	1123.81
500.352	1172.81
500.569	1215.81
500.786	1208.81
501.003	1223.81
501.22	1146.81
501.437	1105.81
501.654	1081.81
