Data from 1976.PennyLincolnUp.Lamp.En5.5.200Scan.071719.P1.Changed Mount._HRD10591_16-00-31-860.txt Node
Date: Thu Jul 18 16:00:31 EDT 2019
User: cochatt
Spectrometer: HR+D1059
Trigger mode: 1
Integration Time (sec): 1.000000E-1
Scans to average: 1
Electric dark correction enabled: true
Nonlinearity correction enabled: false
Boxcar width: 0
XAxis mode: Wavelengths
Number of Pixels in Spectrum: 2048
>>>>>Begin Spectral Data<<<<<
223.165	-20.62
223.4	-20.62
223.635	-20.62
223.869	-29.62
224.104	-16.62
224.338	-11.62
224.573	-9.62
224.808	-21.62
225.042	-10.62
225.277	0.38
225.511	-8.62
225.746	6.38
225.98	11.38
226.215	28.38
226.449	18.38
226.683	11.38
226.918	20.38
227.152	32.38
227.387	35.38
227.621	38.38
227.856	41.38
228.09	44.38
228.324	42.38
228.559	58.38
228.793	64.38
229.027	97.38
229.262	110.38
229.496	112.38
229.73	128.38
229.964	138.38
230.199	130.38
230.433	118.38
230.667	113.38
230.901	100.38
231.136	119.38
231.37	109.38
231.604	116.38
231.838	102.38
232.072	115.38
232.306	116.38
232.541	121.38
232.775	114.38
233.009	119.38
233.243	123.38
233.477	107.38
233.711	112.38
233.945	124.38
234.179	126.38
234.413	119.38
234.647	124.38
234.881	104.38
235.115	107.38
235.349	123.38
235.583	122.38
235.817	126.38
236.051	128.38
236.285	130.38
236.519	130.38
236.753	134.38
236.987	149.38
237.221	160.38
237.455	208.38
237.689	182.38
237.922	138.38
238.156	128.38
238.39	122.38
238.624	129.38
238.858	124.38
239.091	121.38
239.325	138.38
239.559	128.38
239.793	124.38
240.027	121.38
240.26	134.38
240.494	146.38
240.728	156.38
240.961	162.38
241.195	146.38
241.429	125.38
241.662	129.38
241.896	142.38
242.13	143.38
242.363	132.38
242.597	129.38
242.83	120.38
243.064	120.38
243.298	130.38
243.531	141.38
243.765	148.38
243.998	153.38
244.232	130.38
244.465	140.38
244.699	151.38
244.932	141.38
245.166	148.38
245.399	150.38
245.633	157.38
245.866	147.38
246.099	147.38
246.333	136.38
246.566	139.38
246.8	152.38
247.033	160.38
247.266	158.38
247.5	161.38
247.733	164.38
247.966	182.38
248.2	172.38
248.433	162.38
248.666	179.38
248.899	164.38
249.133	190.38
249.366	197.38
249.599	198.38
249.832	180.38
250.066	192.38
250.299	165.38
250.532	210.38
250.765	196.38
250.998	210.38
251.231	222.38
251.465	209.38
251.698	206.38
251.931	204.38
252.164	194.38
252.397	190.38
252.63	197.38
252.863	190.38
253.096	219.38
253.329	224.38
253.562	216.38
253.795	218.38
254.028	216.38
254.261	211.38
254.494	220.38
254.727	229.38
254.96	278.38
255.193	268.38
255.426	259.38
255.659	227.38
255.892	229.38
256.124	225.38
256.357	246.38
256.59	220.38
256.823	218.38
257.056	209.38
257.289	200.38
257.521	190.38
257.754	217.38
257.987	205.38
258.22	208.38
258.452	211.38
258.685	197.38
258.918	206.38
259.151	205.38
259.383	216.38
259.616	216.38
259.849	226.38
260.081	229.38
260.314	252.38
260.547	256.38
260.779	246.38
261.012	243.38
261.244	228.38
261.477	245.38
261.71	216.38
261.942	226.38
262.175	237.38
262.407	218.38
262.64	206.38
262.872	220.38
263.105	215.38
263.337	221.38
263.57	228.38
263.802	215.38
264.035	216.38
264.267	230.38
264.499	209.38
264.732	227.38
264.964	214.38
265.197	233.38
265.429	221.38
265.661	219.38
265.894	224.38
266.126	234.38
266.358	217.38
266.591	226.38
266.823	231.38
267.055	224.38
267.287	243.38
267.52	244.38
267.752	242.38
267.984	240.38
268.216	232.38
268.448	226.38
268.681	235.38
268.913	241.38
269.145	270.38
269.377	284.38
269.609	280.38
269.841	291.38
270.073	286.38
270.306	295.38
270.538	312.38
270.77	317.38
271.002	298.38
271.234	288.38
271.466	309.38
271.698	297.38
271.93	325.38
272.162	328.38
272.394	329.38
272.626	319.38
272.858	299.38
273.09	284.38
273.322	295.38
273.553	281.38
273.785	278.38
274.017	282.38
274.249	262.38
274.481	281.38
274.713	284.38
274.945	291.38
275.176	284.38
275.408	271.38
275.64	278.38
275.872	278.38
276.104	266.38
276.335	261.38
276.567	291.38
276.799	299.38
277.031	315.38
277.262	314.38
277.494	298.38
277.726	313.38
277.957	289.38
278.189	276.38
278.421	283.38
278.652	282.38
278.884	275.38
279.115	280.38
279.347	278.38
279.579	269.38
279.81	296.38
280.042	267.38
280.273	283.38
280.505	270.38
280.736	283.38
280.968	284.38
281.199	274.38
281.431	290.38
281.662	279.38
281.894	276.38
282.125	273.38
282.356	290.38
282.588	328.38
282.819	296.38
283.051	285.38
283.282	292.38
283.513	301.38
283.745	284.38
283.976	290.38
284.207	277.38
284.439	301.38
284.67	299.38
284.901	310.38
285.132	292.38
285.364	293.38
285.595	283.38
285.826	288.38
286.057	299.38
286.288	286.38
286.52	310.38
286.751	301.38
286.982	295.38
287.213	321.38
287.444	314.38
287.675	304.38
287.906	342.38
288.138	320.38
288.369	329.38
288.6	317.38
288.831	304.38
289.062	317.38
289.293	328.38
289.524	310.38
289.755	301.38
289.986	305.38
290.217	314.38
290.448	328.38
290.679	306.38
290.91	301.38
291.141	302.38
291.371	319.38
291.602	309.38
291.833	325.38
292.064	303.38
292.295	298.38
292.526	312.38
292.757	308.38
292.987	328.38
293.218	317.38
293.449	313.38
293.68	320.38
293.91	323.38
294.141	310.38
294.372	305.38
294.603	307.38
294.833	304.38
295.064	325.38
295.295	306.38
295.525	316.38
295.756	321.38
295.987	325.38
296.217	334.38
296.448	338.38
296.679	328.38
296.909	328.38
297.14	310.38
297.37	312.38
297.601	338.38
297.831	304.38
298.062	322.38
298.292	321.38
298.523	324.38
298.753	325.38
298.984	326.38
299.214	330.38
299.445	308.38
299.675	333.38
299.905	336.38
300.136	344.38
300.366	331.38
300.597	322.38
300.827	333.38
301.057	344.38
301.288	356.38
301.518	355.38
301.748	355.38
301.979	350.38
302.209	350.38
302.439	344.38
302.669	346.38
302.9	362.38
303.13	372.38
303.36	376.38
303.59	335.38
303.82	364.38
304.051	353.38
304.281	340.38
304.511	363.38
304.741	338.38
304.971	324.38
305.201	351.38
305.431	340.38
305.661	339.38
305.891	349.38
306.121	341.38
306.352	353.38
306.582	357.38
306.812	365.38
307.042	351.38
307.272	344.38
307.502	344.38
307.731	362.38
307.961	346.38
308.191	345.38
308.421	364.38
308.651	351.38
308.881	336.38
309.111	345.38
309.341	371.38
309.571	366.38
309.8	366.38
310.03	389.38
310.26	384.38
310.49	356.38
310.72	386.38
310.949	388.38
311.179	391.38
311.409	380.38
311.639	392.38
311.868	390.38
312.098	391.38
312.328	395.38
312.557	390.38
312.787	389.38
313.017	391.38
313.246	402.38
313.476	394.38
313.706	392.38
313.935	377.38
314.165	397.38
314.394	414.38
314.624	414.38
314.853	388.38
315.083	393.38
315.312	374.38
315.542	399.38
315.771	388.38
316.001	365.38
316.23	380.38
316.46	390.38
316.689	402.38
316.919	405.38
317.148	398.38
317.377	403.38
317.607	396.38
317.836	399.38
318.065	396.38
318.295	392.38
318.524	377.38
318.753	374.38
318.983	392.38
319.212	372.38
319.441	398.38
319.67	404.38
319.9	395.38
320.129	399.38
320.358	386.38
320.587	400.38
320.816	399.38
321.046	422.38
321.275	421.38
321.504	411.38
321.733	414.38
321.962	429.38
322.191	425.38
322.42	438.38
322.649	429.38
322.878	455.38
323.108	452.38
323.337	465.38
323.566	479.38
323.795	486.38
324.024	530.38
324.253	629.38
324.482	825.38
324.71	1234.38
324.939	1825.38
325.168	1614.38
325.397	818.38
325.626	606.38
325.855	525.38
326.084	477.38
326.313	485.38
326.542	486.38
326.77	520.38
326.999	618.38
327.228	799.38
327.457	1129.38
327.686	1386.38
327.914	958.38
328.143	644.38
328.372	570.38
328.6	540.38
328.829	534.38
329.058	523.38
329.287	546.38
329.515	536.38
329.744	497.38
329.972	479.38
330.201	516.38
330.43	522.38
330.658	564.38
330.887	575.38
331.115	555.38
331.344	486.38
331.572	480.38
331.801	496.38
332.03	523.38
332.258	485.38
332.486	465.38
332.715	482.38
332.943	467.38
333.172	503.38
333.4	477.38
333.629	513.38
333.857	493.38
334.085	510.38
334.314	505.38
334.542	554.38
334.771	560.38
334.999	505.38
335.227	507.38
335.455	490.38
335.684	473.38
335.912	443.38
336.14	474.38
336.369	454.38
336.597	500.38
336.825	490.38
337.053	461.38
337.281	467.38
337.51	453.38
337.738	454.38
337.966	457.38
338.194	474.38
338.422	460.38
338.65	448.38
338.878	442.38
339.106	426.38
339.334	461.38
339.562	445.38
339.79	441.38
340.018	440.38
340.246	445.38
340.474	457.38
340.702	442.38
340.93	422.38
341.158	451.38
341.386	446.38
341.614	444.38
341.842	440.38
342.07	428.38
342.298	429.38
342.526	428.38
342.754	442.38
342.981	427.38
343.209	427.38
343.437	411.38
343.665	450.38
343.893	475.38
344.12	478.38
344.348	478.38
344.576	465.38
344.804	446.38
345.031	440.38
345.259	451.38
345.487	469.38
345.714	460.38
345.942	429.38
346.17	435.38
346.397	427.38
346.625	425.38
346.853	429.38
347.08	430.38
347.308	436.38
347.535	429.38
347.763	444.38
347.99	429.38
348.218	442.38
348.445	461.38
348.673	418.38
348.9	425.38
349.128	392.38
349.355	414.38
349.583	423.38
349.81	440.38
350.037	420.38
350.265	406.38
350.492	404.38
350.72	426.38
350.947	422.38
351.174	447.38
351.402	416.38
351.629	411.38
351.856	426.38
352.083	428.38
352.311	438.38
352.538	443.38
352.765	438.38
352.992	433.38
353.22	417.38
353.447	432.38
353.674	435.38
353.901	416.38
354.128	410.38
354.355	399.38
354.583	410.38
354.81	411.38
355.037	406.38
355.264	400.38
355.491	403.38
355.718	381.38
355.945	385.38
356.172	390.38
356.399	403.38
356.626	387.38
356.853	401.38
357.08	408.38
357.307	414.38
357.534	389.38
357.761	399.38
357.988	417.38
358.215	406.38
358.441	401.38
358.668	396.38
358.895	416.38
359.122	403.38
359.349	414.38
359.576	435.38
359.802	451.38
360.029	450.38
360.256	459.38
360.483	459.38
360.709	422.38
360.936	444.38
361.163	434.38
361.39	412.38
361.616	411.38
361.843	421.38
362.07	422.38
362.296	434.38
362.523	413.38
362.749	422.38
362.976	406.38
363.203	428.38
363.429	432.38
363.656	393.38
363.882	410.38
364.109	429.38
364.335	420.38
364.562	403.38
364.788	410.38
365.015	415.38
365.241	404.38
365.468	418.38
365.694	417.38
365.92	426.38
366.147	413.38
366.373	431.38
366.599	417.38
366.826	424.38
367.052	420.38
367.278	412.38
367.505	408.38
367.731	404.38
367.957	399.38
368.184	418.38
368.41	419.38
368.636	410.38
368.862	444.38
369.089	408.38
369.315	417.38
369.541	392.38
369.767	438.38
369.993	428.38
370.219	404.38
370.445	439.38
370.672	413.38
370.898	425.38
371.124	434.38
371.35	423.38
371.576	413.38
371.802	419.38
372.028	422.38
372.254	412.38
372.48	421.38
372.706	425.38
372.932	442.38
373.158	424.38
373.384	411.38
373.61	428.38
373.835	440.38
374.061	423.38
374.287	429.38
374.513	423.38
374.739	445.38
374.965	443.38
375.191	451.38
375.416	424.38
375.642	444.38
375.868	418.38
376.094	421.38
376.319	429.38
376.545	411.38
376.771	435.38
376.997	423.38
377.222	420.38
377.448	415.38
377.674	422.38
377.899	432.38
378.125	404.38
378.35	424.38
378.576	427.38
378.802	405.38
379.027	404.38
379.253	435.38
379.478	425.38
379.704	419.38
379.929	417.38
380.155	422.38
380.38	425.38
380.606	417.38
380.831	427.38
381.057	435.38
381.282	435.38
381.507	416.38
381.733	420.38
381.958	417.38
382.184	419.38
382.409	426.38
382.634	422.38
382.86	441.38
383.085	430.38
383.31	434.38
383.535	448.38
383.761	438.38
383.986	450.38
384.211	452.38
384.436	423.38
384.662	460.38
384.887	463.38
385.112	444.38
385.337	459.38
385.562	440.38
385.787	484.38
386.013	477.38
386.238	472.38
386.463	485.38
386.688	472.38
386.913	458.38
387.138	488.38
387.363	442.38
387.588	477.38
387.813	466.38
388.038	482.38
388.263	454.38
388.488	471.38
388.713	492.38
388.938	446.38
389.163	454.38
389.387	463.38
389.612	448.38
389.837	484.38
390.062	451.38
390.287	467.38
390.512	465.38
390.736	464.38
390.961	461.38
391.186	468.38
391.411	477.38
391.636	488.38
391.86	491.38
392.085	505.38
392.31	499.38
392.534	491.38
392.759	494.38
392.984	484.38
393.208	479.38
393.433	485.38
393.658	488.38
393.882	470.38
394.107	451.38
394.331	461.38
394.556	485.38
394.78	488.38
395.005	484.38
395.229	495.38
395.454	502.38
395.678	516.38
395.903	508.38
396.127	517.38
396.352	512.38
396.576	497.38
396.801	491.38
397.025	496.38
397.249	504.38
397.474	524.38
397.698	504.38
397.922	515.38
398.147	521.38
398.371	525.38
398.595	551.38
398.82	535.38
399.044	577.38
399.268	598.38
399.492	632.38
399.717	641.38
399.941	676.38
400.165	689.38
400.389	697.38
400.613	610.38
400.837	578.38
401.062	577.38
401.286	542.38
401.51	536.38
401.734	553.38
401.958	531.38
402.182	564.38
402.406	542.38
402.63	530.38
402.854	542.38
403.078	547.38
403.302	557.38
403.526	555.38
403.75	565.38
403.974	581.38
404.198	588.38
404.422	548.38
404.645	588.38
404.869	587.38
405.093	613.38
405.317	651.38
405.541	703.38
405.765	640.38
405.988	613.38
406.212	603.38
406.436	613.38
406.66	640.38
406.883	621.38
407.107	630.38
407.331	646.38
407.555	725.38
407.778	722.38
408.002	691.38
408.226	618.38
408.449	634.38
408.673	619.38
408.896	636.38
409.12	694.38
409.344	659.38
409.567	601.38
409.791	592.38
410.014	560.38
410.238	572.38
410.461	589.38
410.685	573.38
410.908	562.38
411.132	602.38
411.355	647.38
411.578	620.38
411.802	568.38
412.025	565.38
412.249	566.38
412.472	605.38
412.695	626.38
412.919	644.38
413.142	602.38
413.365	547.38
413.589	561.38
413.812	539.38
414.035	524.38
414.258	525.38
414.482	526.38
414.705	516.38
414.928	531.38
415.151	529.38
415.374	529.38
415.597	518.38
415.821	541.38
416.044	539.38
416.267	542.38
416.49	526.38
416.713	524.38
416.936	555.38
417.159	552.38
417.382	509.38
417.605	522.38
417.828	538.38
418.051	542.38
418.274	546.38
418.497	508.38
418.72	565.38
418.943	534.38
419.166	553.38
419.389	597.38
419.611	590.38
419.834	577.38
420.057	565.38
420.28	565.38
420.503	540.38
420.726	556.38
420.948	569.38
421.171	619.38
421.394	646.38
421.617	590.38
421.839	541.38
422.062	562.38
422.285	578.38
422.507	613.38
422.73	700.38
422.953	668.38
423.175	612.38
423.398	592.38
423.621	566.38
423.843	592.38
424.066	616.38
424.288	616.38
424.511	624.38
424.733	661.38
424.956	733.38
425.178	710.38
425.401	698.38
425.623	716.38
425.846	617.38
426.068	587.38
426.291	588.38
426.513	593.38
426.735	608.38
426.958	615.38
427.18	691.38
427.402	836.38
427.625	885.38
427.847	786.38
428.069	694.38
428.292	605.38
428.514	601.38
428.736	547.38
428.958	550.38
429.181	547.38
429.403	537.38
429.625	544.38
429.847	546.38
430.069	654.38
430.292	634.38
430.514	582.38
430.736	521.38
430.958	530.38
431.18	507.38
431.402	506.38
431.624	497.38
431.846	502.38
432.068	523.38
432.29	531.38
432.512	497.38
432.734	528.38
432.956	524.38
433.178	534.38
433.4	523.38
433.622	526.38
433.844	502.38
434.066	519.38
434.287	516.38
434.509	547.38
434.731	553.38
434.953	557.38
435.175	558.38
435.397	583.38
435.618	585.38
435.84	628.38
436.062	712.38
436.284	764.38
436.505	665.38
436.727	571.38
436.949	557.38
437.17	553.38
437.392	528.38
437.614	552.38
437.835	571.38
438.057	651.38
438.278	786.38
438.5	736.38
438.721	842.38
438.943	794.38
439.165	633.38
439.386	589.38
439.608	581.38
439.829	578.38
440.05	584.38
440.272	624.38
440.493	600.38
440.715	546.38
440.936	554.38
441.158	561.38
441.379	554.38
441.6	557.38
441.822	579.38
442.043	632.38
442.264	712.38
442.486	753.38
442.707	632.38
442.928	585.38
443.149	600.38
443.371	621.38
443.592	650.38
443.813	754.38
444.034	813.38
444.255	679.38
444.476	607.38
444.698	600.38
444.919	610.38
445.14	720.38
445.361	679.38
445.582	648.38
445.803	666.38
446.024	751.38
446.245	782.38
446.466	724.38
446.687	630.38
446.908	568.38
447.129	540.38
447.35	543.38
447.571	541.38
447.792	512.38
448.013	534.38
448.234	560.38
448.455	572.38
448.675	697.38
448.896	813.38
449.117	700.38
449.338	660.38
449.559	736.38
449.779	866.38
450	691.38
450.221	574.38
450.442	533.38
450.662	526.38
450.883	504.38
451.104	529.38
451.324	514.38
451.545	511.38
451.766	512.38
451.986	476.38
452.207	461.38
452.428	471.38
452.648	482.38
452.869	486.38
453.089	498.38
453.31	512.38
453.53	475.38
453.751	473.38
453.971	462.38
454.192	493.38
454.412	482.38
454.633	445.38
454.853	480.38
455.073	471.38
455.294	501.38
455.514	553.38
455.734	545.38
455.955	467.38
456.175	472.38
456.395	453.38
456.616	459.38
456.836	457.38
457.056	460.38
457.276	450.38
457.497	450.38
457.717	439.38
457.937	444.38
458.157	449.38
458.377	465.38
458.598	474.38
458.818	531.38
459.038	594.38
459.258	640.38
459.478	560.38
459.698	528.38
459.918	510.38
460.138	497.38
460.358	530.38
460.578	531.38
460.798	537.38
461.018	556.38
461.238	548.38
461.458	538.38
461.678	526.38
461.898	536.38
462.118	547.38
462.338	572.38
462.558	557.38
462.777	602.38
462.997	602.38
463.217	633.38
463.437	638.38
463.657	592.38
463.876	589.38
464.096	590.38
464.316	590.38
464.536	581.38
464.755	600.38
464.975	573.38
465.195	609.38
465.414	629.38
465.634	587.38
465.854	565.38
466.073	556.38
466.293	512.38
466.512	481.38
466.732	484.38
466.951	496.38
467.171	499.38
467.391	516.38
467.61	523.38
467.829	487.38
468.049	529.38
468.268	500.38
468.488	465.38
468.707	477.38
468.927	476.38
469.146	462.38
469.365	486.38
469.585	454.38
469.804	481.38
470.023	512.38
470.243	501.38
470.462	513.38
470.681	524.38
470.901	507.38
471.12	486.38
471.339	521.38
471.558	499.38
471.777	506.38
471.997	507.38
472.216	509.38
472.435	501.38
472.654	506.38
472.873	489.38
473.092	470.38
473.311	498.38
473.53	514.38
473.749	508.38
473.968	530.38
474.187	633.38
474.406	657.38
474.625	547.38
474.844	516.38
475.063	529.38
475.282	502.38
475.501	510.38
475.72	504.38
475.939	498.38
476.158	536.38
476.377	502.38
476.596	526.38
476.814	500.38
477.033	532.38
477.252	538.38
477.471	528.38
477.69	534.38
477.908	528.38
478.127	569.38
478.346	560.38
478.564	557.38
478.783	569.38
479.002	579.38
479.22	578.38
479.439	609.38
479.658	600.38
479.876	607.38
480.095	595.38
480.313	644.38
480.532	632.38
480.751	616.38
480.969	608.38
481.188	683.38
481.406	684.38
481.624	602.38
481.843	592.38
482.061	562.38
482.28	600.38
482.498	586.38
482.717	593.38
482.935	578.38
483.153	573.38
483.372	593.38
483.59	588.38
483.808	588.38
484.027	597.38
484.245	565.38
484.463	570.38
484.681	574.38
484.9	598.38
485.118	603.38
485.336	618.38
485.554	604.38
485.772	601.38
485.99	582.38
486.209	604.38
486.427	600.38
486.645	590.38
486.863	619.38
487.081	636.38
487.299	624.38
487.517	616.38
487.735	616.38
487.953	615.38
488.171	630.38
488.389	602.38
488.607	614.38
488.825	608.38
489.043	634.38
489.261	627.38
489.479	641.38
489.696	641.38
489.914	636.38
490.132	624.38
490.35	642.38
490.568	646.38
490.786	646.38
491.003	651.38
491.221	675.38
491.439	677.38
491.657	712.38
491.874	692.38
492.092	700.38
492.31	725.38
492.527	728.38
492.745	704.38
492.963	723.38
493.18	713.38
493.398	715.38
493.615	727.38
493.833	712.38
494.05	712.38
494.268	737.38
494.485	713.38
494.703	757.38
494.92	728.38
495.138	741.38
495.355	733.38
495.573	738.38
495.79	743.38
496.008	736.38
496.225	738.38
496.442	739.38
496.66	752.38
496.877	725.38
497.094	731.38
497.312	772.38
497.529	755.38
497.746	774.38
497.963	770.38
498.181	807.38
498.398	798.38
498.615	858.38
498.832	858.38
499.049	887.38
499.267	910.38
499.484	956.38
499.701	985.38
499.918	1051.38
500.135	1101.38
500.352	1166.38
500.569	1188.38
500.786	1178.38
501.003	1159.38
501.22	1113.38
501.437	1056.38
501.654	1038.38
