Data from 1976.PennyLincolnUp.Lamp.En5.5.200Scan.071719.P1.Changed Mount._HRD10591_16-02-41-862.txt Node
Date: Thu Jul 18 16:02:41 EDT 2019
User: cochatt
Spectrometer: HR+D1059
Trigger mode: 1
Integration Time (sec): 1.000000E-1
Scans to average: 1
Electric dark correction enabled: true
Nonlinearity correction enabled: false
Boxcar width: 0
XAxis mode: Wavelengths
Number of Pixels in Spectrum: 2048
>>>>>Begin Spectral Data<<<<<
223.165	-6.12
223.4	-6.12
223.635	-6.12
223.869	-15.12
224.104	-24.12
224.338	-9.12
224.573	-10.12
224.808	-17.12
225.042	-13.12
225.277	-15.12
225.511	-12.12
225.746	-9.12
225.98	3.88
226.215	10.88
226.449	28.88
226.683	24.88
226.918	31.88
227.152	30.88
227.387	43.88
227.621	54.88
227.856	48.88
228.09	56.88
228.324	60.88
228.559	57.88
228.793	71.88
229.027	86.88
229.262	108.88
229.496	107.88
229.73	126.88
229.964	170.88
230.199	143.88
230.433	112.88
230.667	119.88
230.901	101.88
231.136	105.88
231.37	120.88
231.604	128.88
231.838	127.88
232.072	103.88
232.306	122.88
232.541	107.88
232.775	105.88
233.009	110.88
233.243	117.88
233.477	128.88
233.711	125.88
233.945	132.88
234.179	128.88
234.413	123.88
234.647	114.88
234.881	113.88
235.115	123.88
235.349	119.88
235.583	131.88
235.817	117.88
236.051	134.88
236.285	134.88
236.519	120.88
236.753	122.88
236.987	152.88
237.221	167.88
237.455	251.88
237.689	210.88
237.922	157.88
238.156	138.88
238.39	129.88
238.624	139.88
238.858	118.88
239.091	136.88
239.325	120.88
239.559	120.88
239.793	129.88
240.027	136.88
240.26	140.88
240.494	167.88
240.728	147.88
240.961	155.88
241.195	145.88
241.429	135.88
241.662	140.88
241.896	139.88
242.13	128.88
242.363	132.88
242.597	158.88
242.83	127.88
243.064	150.88
243.298	149.88
243.531	147.88
243.765	147.88
243.998	150.88
244.232	134.88
244.465	165.88
244.699	149.88
244.932	155.88
245.166	155.88
245.399	140.88
245.633	146.88
245.866	149.88
246.099	151.88
246.333	154.88
246.566	153.88
246.8	161.88
247.033	153.88
247.266	160.88
247.5	184.88
247.733	187.88
247.966	175.88
248.2	162.88
248.433	192.88
248.666	195.88
248.899	208.88
249.133	205.88
249.366	218.88
249.599	217.88
249.832	191.88
250.066	188.88
250.299	173.88
250.532	203.88
250.765	205.88
250.998	241.88
251.231	242.88
251.465	226.88
251.698	232.88
251.931	202.88
252.164	198.88
252.397	202.88
252.63	207.88
252.863	196.88
253.096	230.88
253.329	247.88
253.562	252.88
253.795	241.88
254.028	218.88
254.261	234.88
254.494	226.88
254.727	265.88
254.96	287.88
255.193	296.88
255.426	263.88
255.659	252.88
255.892	252.88
256.124	248.88
256.357	244.88
256.59	252.88
256.823	227.88
257.056	213.88
257.289	227.88
257.521	224.88
257.754	212.88
257.987	224.88
258.22	216.88
258.452	220.88
258.685	221.88
258.918	221.88
259.151	224.88
259.383	227.88
259.616	228.88
259.849	233.88
260.081	248.88
260.314	268.88
260.547	266.88
260.779	263.88
261.012	254.88
261.244	245.88
261.477	240.88
261.71	228.88
261.942	231.88
262.175	254.88
262.407	224.88
262.64	231.88
262.872	243.88
263.105	222.88
263.337	244.88
263.57	228.88
263.802	233.88
264.035	226.88
264.267	197.88
264.499	232.88
264.732	232.88
264.964	222.88
265.197	229.88
265.429	245.88
265.661	221.88
265.894	239.88
266.126	237.88
266.358	236.88
266.591	235.88
266.823	242.88
267.055	249.88
267.287	266.88
267.52	241.88
267.752	245.88
267.984	247.88
268.216	264.88
268.448	246.88
268.681	257.88
268.913	269.88
269.145	278.88
269.377	308.88
269.609	309.88
269.841	295.88
270.073	290.88
270.306	311.88
270.538	335.88
270.77	330.88
271.002	339.88
271.234	320.88
271.466	320.88
271.698	331.88
271.93	350.88
272.162	340.88
272.394	346.88
272.626	332.88
272.858	331.88
273.09	310.88
273.322	280.88
273.553	271.88
273.785	290.88
274.017	279.88
274.249	280.88
274.481	268.88
274.713	282.88
274.945	292.88
275.176	284.88
275.408	288.88
275.64	278.88
275.872	299.88
276.104	290.88
276.335	284.88
276.567	296.88
276.799	328.88
277.031	341.88
277.262	341.88
277.494	336.88
277.726	330.88
277.957	330.88
278.189	327.88
278.421	296.88
278.652	316.88
278.884	291.88
279.115	298.88
279.347	294.88
279.579	301.88
279.81	293.88
280.042	289.88
280.273	307.88
280.505	298.88
280.736	292.88
280.968	287.88
281.199	282.88
281.431	299.88
281.662	295.88
281.894	316.88
282.125	316.88
282.356	309.88
282.588	322.88
282.819	324.88
283.051	315.88
283.282	283.88
283.513	306.88
283.745	329.88
283.976	322.88
284.207	309.88
284.439	328.88
284.67	320.88
284.901	317.88
285.132	307.88
285.364	314.88
285.595	320.88
285.826	306.88
286.057	314.88
286.288	311.88
286.52	324.88
286.751	323.88
286.982	327.88
287.213	314.88
287.444	312.88
287.675	332.88
287.906	326.88
288.138	311.88
288.369	328.88
288.6	338.88
288.831	345.88
289.062	351.88
289.293	320.88
289.524	324.88
289.755	324.88
289.986	319.88
290.217	345.88
290.448	332.88
290.679	344.88
290.91	328.88
291.141	325.88
291.371	333.88
291.602	330.88
291.833	348.88
292.064	329.88
292.295	338.88
292.526	324.88
292.757	323.88
292.987	339.88
293.218	343.88
293.449	349.88
293.68	338.88
293.91	340.88
294.141	310.88
294.372	351.88
294.603	334.88
294.833	327.88
295.064	317.88
295.295	326.88
295.525	334.88
295.756	333.88
295.987	311.88
296.217	354.88
296.448	348.88
296.679	350.88
296.909	344.88
297.14	363.88
297.37	333.88
297.601	328.88
297.831	352.88
298.062	344.88
298.292	358.88
298.523	340.88
298.753	350.88
298.984	347.88
299.214	342.88
299.445	360.88
299.675	346.88
299.905	363.88
300.136	386.88
300.366	351.88
300.597	346.88
300.827	362.88
301.057	386.88
301.288	370.88
301.518	345.88
301.748	380.88
301.979	367.88
302.209	386.88
302.439	366.88
302.669	379.88
302.9	380.88
303.13	378.88
303.36	360.88
303.59	380.88
303.82	370.88
304.051	371.88
304.281	367.88
304.511	372.88
304.741	376.88
304.971	371.88
305.201	371.88
305.431	377.88
305.661	367.88
305.891	370.88
306.121	384.88
306.352	361.88
306.582	370.88
306.812	372.88
307.042	364.88
307.272	380.88
307.502	365.88
307.731	375.88
307.961	342.88
308.191	359.88
308.421	368.88
308.651	368.88
308.881	372.88
309.111	382.88
309.341	378.88
309.571	387.88
309.8	402.88
310.03	404.88
310.26	401.88
310.49	404.88
310.72	436.88
310.949	427.88
311.179	410.88
311.409	411.88
311.639	395.88
311.868	409.88
312.098	409.88
312.328	414.88
312.557	430.88
312.787	452.88
313.017	430.88
313.246	425.88
313.476	415.88
313.706	416.88
313.935	406.88
314.165	418.88
314.394	435.88
314.624	443.88
314.853	430.88
315.083	432.88
315.312	408.88
315.542	410.88
315.771	380.88
316.001	419.88
316.23	418.88
316.46	421.88
316.689	386.88
316.919	406.88
317.148	442.88
317.377	427.88
317.607	411.88
317.836	395.88
318.065	390.88
318.295	408.88
318.524	400.88
318.753	392.88
318.983	403.88
319.212	434.88
319.441	424.88
319.67	436.88
319.9	437.88
320.129	426.88
320.358	414.88
320.587	411.88
320.816	428.88
321.046	437.88
321.275	454.88
321.504	427.88
321.733	432.88
321.962	433.88
322.191	459.88
322.42	461.88
322.649	470.88
322.878	477.88
323.108	473.88
323.337	493.88
323.566	524.88
323.795	536.88
324.024	555.88
324.253	675.88
324.482	937.88
324.71	1459.88
324.939	2188.88
325.168	1860.88
325.397	943.88
325.626	640.88
325.855	571.88
326.084	549.88
326.313	520.88
326.542	554.88
326.77	571.88
326.999	640.88
327.228	864.88
327.457	1329.88
327.686	1654.88
327.914	1084.88
328.143	698.88
328.372	617.88
328.6	598.88
328.829	572.88
329.058	570.88
329.287	637.88
329.515	568.88
329.744	546.88
329.972	550.88
330.201	560.88
330.43	609.88
330.658	610.88
330.887	632.88
331.115	627.88
331.344	555.88
331.572	535.88
331.801	506.88
332.03	544.88
332.258	535.88
332.486	535.88
332.715	505.88
332.943	494.88
333.172	524.88
333.4	501.88
333.629	529.88
333.857	544.88
334.085	549.88
334.314	568.88
334.542	584.88
334.771	579.88
334.999	547.88
335.227	539.88
335.455	490.88
335.684	502.88
335.912	498.88
336.14	511.88
336.369	487.88
336.597	492.88
336.825	516.88
337.053	490.88
337.281	487.88
337.51	510.88
337.738	480.88
337.966	475.88
338.194	509.88
338.422	491.88
338.65	498.88
338.878	467.88
339.106	480.88
339.334	490.88
339.562	480.88
339.79	465.88
340.018	467.88
340.246	490.88
340.474	482.88
340.702	484.88
340.93	500.88
341.158	488.88
341.386	478.88
341.614	485.88
341.842	467.88
342.07	468.88
342.298	464.88
342.526	455.88
342.754	457.88
342.981	459.88
343.209	450.88
343.437	463.88
343.665	473.88
343.893	483.88
344.12	510.88
344.348	490.88
344.576	464.88
344.804	491.88
345.031	495.88
345.259	504.88
345.487	467.88
345.714	477.88
345.942	461.88
346.17	458.88
346.397	455.88
346.625	468.88
346.853	458.88
347.08	447.88
347.308	474.88
347.535	444.88
347.763	447.88
347.99	487.88
348.218	450.88
348.445	462.88
348.673	451.88
348.9	467.88
349.128	451.88
349.355	422.88
349.583	437.88
349.81	401.88
350.037	439.88
350.265	458.88
350.492	447.88
350.72	440.88
350.947	423.88
351.174	449.88
351.402	444.88
351.629	457.88
351.856	452.88
352.083	479.88
352.311	464.88
352.538	452.88
352.765	458.88
352.992	450.88
353.22	464.88
353.447	452.88
353.674	426.88
353.901	429.88
354.128	443.88
354.355	429.88
354.583	412.88
354.81	423.88
355.037	426.88
355.264	412.88
355.491	416.88
355.718	455.88
355.945	429.88
356.172	432.88
356.399	421.88
356.626	441.88
356.853	436.88
357.08	431.88
357.307	438.88
357.534	424.88
357.761	422.88
357.988	424.88
358.215	442.88
358.441	447.88
358.668	445.88
358.895	441.88
359.122	452.88
359.349	429.88
359.576	457.88
359.802	452.88
360.029	486.88
360.256	504.88
360.483	479.88
360.709	442.88
360.936	450.88
361.163	453.88
361.39	447.88
361.616	452.88
361.843	462.88
362.07	454.88
362.296	461.88
362.523	469.88
362.749	465.88
362.976	455.88
363.203	453.88
363.429	455.88
363.656	443.88
363.882	438.88
364.109	430.88
364.335	411.88
364.562	443.88
364.788	441.88
365.015	448.88
365.241	424.88
365.468	436.88
365.694	460.88
365.92	453.88
366.147	440.88
366.373	442.88
366.599	423.88
366.826	428.88
367.052	436.88
367.278	440.88
367.505	448.88
367.731	447.88
367.957	420.88
368.184	454.88
368.41	439.88
368.636	448.88
368.862	462.88
369.089	449.88
369.315	444.88
369.541	418.88
369.767	440.88
369.993	440.88
370.219	455.88
370.445	430.88
370.672	431.88
370.898	442.88
371.124	434.88
371.35	439.88
371.576	458.88
371.802	462.88
372.028	425.88
372.254	432.88
372.48	445.88
372.706	452.88
372.932	447.88
373.158	426.88
373.384	448.88
373.61	432.88
373.835	437.88
374.061	452.88
374.287	446.88
374.513	456.88
374.739	455.88
374.965	467.88
375.191	468.88
375.416	453.88
375.642	447.88
375.868	460.88
376.094	431.88
376.319	438.88
376.545	436.88
376.771	474.88
376.997	436.88
377.222	446.88
377.448	436.88
377.674	430.88
377.899	416.88
378.125	443.88
378.35	427.88
378.576	418.88
378.802	435.88
379.027	423.88
379.253	437.88
379.478	442.88
379.704	450.88
379.929	428.88
380.155	449.88
380.38	434.88
380.606	460.88
380.831	430.88
381.057	447.88
381.282	452.88
381.507	451.88
381.733	435.88
381.958	463.88
382.184	444.88
382.409	447.88
382.634	458.88
382.86	467.88
383.085	453.88
383.31	463.88
383.535	460.88
383.761	458.88
383.986	471.88
384.211	463.88
384.436	480.88
384.662	472.88
384.887	470.88
385.112	474.88
385.337	494.88
385.562	489.88
385.787	499.88
386.013	490.88
386.238	507.88
386.463	512.88
386.688	514.88
386.913	482.88
387.138	494.88
387.363	499.88
387.588	496.88
387.813	491.88
388.038	486.88
388.263	489.88
388.488	495.88
388.713	482.88
388.938	488.88
389.163	491.88
389.387	489.88
389.612	483.88
389.837	504.88
390.062	483.88
390.287	491.88
390.512	495.88
390.736	489.88
390.961	487.88
391.186	500.88
391.411	504.88
391.636	528.88
391.86	533.88
392.085	516.88
392.31	522.88
392.534	534.88
392.759	526.88
392.984	509.88
393.208	500.88
393.433	510.88
393.658	506.88
393.882	500.88
394.107	494.88
394.331	489.88
394.556	510.88
394.78	492.88
395.005	506.88
395.229	504.88
395.454	518.88
395.678	520.88
395.903	516.88
396.127	554.88
396.352	554.88
396.576	511.88
396.801	529.88
397.025	507.88
397.249	521.88
397.474	544.88
397.698	567.88
397.922	555.88
398.147	570.88
398.371	564.88
398.595	540.88
398.82	559.88
399.044	586.88
399.268	610.88
399.492	665.88
399.717	695.88
399.941	723.88
400.165	742.88
400.389	713.88
400.613	660.88
400.837	616.88
401.062	594.88
401.286	590.88
401.51	557.88
401.734	559.88
401.958	575.88
402.182	597.88
402.406	575.88
402.63	580.88
402.854	576.88
403.078	582.88
403.302	588.88
403.526	595.88
403.75	601.88
403.974	630.88
404.198	606.88
404.422	609.88
404.645	622.88
404.869	627.88
405.093	651.88
405.317	686.88
405.541	727.88
405.765	654.88
405.988	644.88
406.212	642.88
406.436	619.88
406.66	655.88
406.883	623.88
407.107	700.88
407.331	721.88
407.555	797.88
407.778	810.88
408.002	734.88
408.226	670.88
408.449	667.88
408.673	670.88
408.896	680.88
409.12	729.88
409.344	684.88
409.567	637.88
409.791	616.88
410.014	634.88
410.238	590.88
410.461	600.88
410.685	619.88
410.908	634.88
411.132	635.88
411.355	666.88
411.578	638.88
411.802	620.88
412.025	595.88
412.249	613.88
412.472	618.88
412.695	660.88
412.919	653.88
413.142	590.88
413.365	584.88
413.589	586.88
413.812	579.88
414.035	571.88
414.258	549.88
414.482	576.88
414.705	558.88
414.928	563.88
415.151	551.88
415.374	569.88
415.597	565.88
415.821	551.88
416.044	565.88
416.267	536.88
416.49	580.88
416.713	581.88
416.936	548.88
417.159	552.88
417.382	566.88
417.605	557.88
417.828	568.88
418.051	598.88
418.274	578.88
418.497	558.88
418.72	564.88
418.943	559.88
419.166	607.88
419.389	618.88
419.611	596.88
419.834	603.88
420.057	617.88
420.28	616.88
420.503	583.88
420.726	589.88
420.948	586.88
421.171	632.88
421.394	684.88
421.617	607.88
421.839	586.88
422.062	612.88
422.285	590.88
422.507	662.88
422.73	739.88
422.953	742.88
423.175	649.88
423.398	628.88
423.621	591.88
423.843	636.88
424.066	639.88
424.288	606.88
424.511	640.88
424.733	668.88
424.956	786.88
425.178	732.88
425.401	733.88
425.623	784.88
425.846	692.88
426.068	645.88
426.291	597.88
426.513	616.88
426.735	620.88
426.958	666.88
427.18	758.88
427.402	896.88
427.625	987.88
427.847	842.88
428.069	742.88
428.292	667.88
428.514	601.88
428.736	582.88
428.958	576.88
429.181	579.88
429.403	581.88
429.625	558.88
429.847	591.88
430.069	660.88
430.292	657.88
430.514	592.88
430.736	570.88
430.958	546.88
431.18	567.88
431.402	537.88
431.624	516.88
431.846	542.88
432.068	562.88
432.29	539.88
432.512	549.88
432.734	551.88
432.956	535.88
433.178	568.88
433.4	575.88
433.622	553.88
433.844	562.88
434.066	562.88
434.287	526.88
434.509	546.88
434.731	580.88
434.953	576.88
435.175	603.88
435.397	594.88
435.618	615.88
435.84	642.88
436.062	760.88
436.284	826.88
436.505	706.88
436.727	645.88
436.949	599.88
437.17	552.88
437.392	589.88
437.614	591.88
437.835	624.88
438.057	674.88
438.278	804.88
438.5	806.88
438.721	912.88
438.943	859.88
439.165	667.88
439.386	620.88
439.608	646.88
439.829	604.88
440.05	652.88
440.272	687.88
440.493	654.88
440.715	587.88
440.936	593.88
441.158	567.88
441.379	589.88
441.6	594.88
441.822	606.88
442.043	655.88
442.264	728.88
442.486	800.88
442.707	680.88
442.928	646.88
443.149	662.88
443.371	663.88
443.592	690.88
443.813	822.88
444.034	891.88
444.255	728.88
444.476	657.88
444.698	662.88
444.919	652.88
445.14	721.88
445.361	693.88
445.582	680.88
445.803	751.88
446.024	849.88
446.245	853.88
446.466	785.88
446.687	673.88
446.908	634.88
447.129	594.88
447.35	582.88
447.571	551.88
447.792	543.88
448.013	571.88
448.234	603.88
448.455	639.88
448.675	773.88
448.896	855.88
449.117	763.88
449.338	713.88
449.559	838.88
449.779	948.88
450	732.88
450.221	603.88
450.442	595.88
450.662	538.88
450.883	549.88
451.104	536.88
451.324	527.88
451.545	537.88
451.766	516.88
451.986	507.88
452.207	512.88
452.428	491.88
452.648	509.88
452.869	514.88
453.089	499.88
453.31	534.88
453.53	526.88
453.751	517.88
453.971	516.88
454.192	517.88
454.412	493.88
454.633	502.88
454.853	494.88
455.073	480.88
455.294	516.88
455.514	579.88
455.734	566.88
455.955	518.88
456.175	483.88
456.395	482.88
456.616	463.88
456.836	481.88
457.056	453.88
457.276	458.88
457.497	503.88
457.717	500.88
457.937	498.88
458.157	479.88
458.377	499.88
458.598	523.88
458.818	571.88
459.038	644.88
459.258	664.88
459.478	600.88
459.698	562.88
459.918	526.88
460.138	549.88
460.358	569.88
460.578	570.88
460.798	564.88
461.018	569.88
461.238	576.88
461.458	565.88
461.678	550.88
461.898	548.88
462.118	554.88
462.338	602.88
462.558	585.88
462.777	598.88
462.997	607.88
463.217	630.88
463.437	629.88
463.657	619.88
463.876	614.88
464.096	585.88
464.316	616.88
464.536	611.88
464.755	611.88
464.975	606.88
465.195	624.88
465.414	678.88
465.634	617.88
465.854	591.88
466.073	540.88
466.293	539.88
466.512	518.88
466.732	521.88
466.951	551.88
467.171	509.88
467.391	498.88
467.61	527.88
467.829	546.88
468.049	529.88
468.268	531.88
468.488	521.88
468.707	512.88
468.927	511.88
469.146	495.88
469.365	524.88
469.585	507.88
469.804	520.88
470.023	550.88
470.243	511.88
470.462	512.88
470.681	566.88
470.901	509.88
471.12	521.88
471.339	529.88
471.558	504.88
471.777	522.88
471.997	540.88
472.216	521.88
472.435	563.88
472.654	540.88
472.873	522.88
473.092	505.88
473.311	515.88
473.53	515.88
473.749	517.88
473.968	570.88
474.187	682.88
474.406	702.88
474.625	603.88
474.844	529.88
475.063	538.88
475.282	525.88
475.501	518.88
475.72	530.88
475.939	531.88
476.158	520.88
476.377	524.88
476.596	539.88
476.814	542.88
477.033	552.88
477.252	580.88
477.471	555.88
477.69	587.88
477.908	575.88
478.127	575.88
478.346	578.88
478.564	583.88
478.783	600.88
479.002	618.88
479.22	618.88
479.439	631.88
479.658	608.88
479.876	642.88
480.095	654.88
480.313	680.88
480.532	653.88
480.751	690.88
480.969	662.88
481.188	713.88
481.406	688.88
481.624	642.88
481.843	634.88
482.061	629.88
482.28	627.88
482.498	632.88
482.717	613.88
482.935	606.88
483.153	603.88
483.372	615.88
483.59	611.88
483.808	616.88
484.027	611.88
484.245	628.88
484.463	622.88
484.681	651.88
484.9	621.88
485.118	621.88
485.336	611.88
485.554	643.88
485.772	633.88
485.99	626.88
486.209	638.88
486.427	655.88
486.645	638.88
486.863	642.88
487.081	668.88
487.299	662.88
487.517	636.88
487.735	651.88
487.953	667.88
488.171	666.88
488.389	676.88
488.607	656.88
488.825	672.88
489.043	658.88
489.261	670.88
489.479	666.88
489.696	674.88
489.914	664.88
490.132	662.88
490.35	676.88
490.568	698.88
490.786	678.88
491.003	694.88
491.221	724.88
491.439	772.88
491.657	732.88
491.874	740.88
492.092	726.88
492.31	713.88
492.527	744.88
492.745	739.88
492.963	771.88
493.18	768.88
493.398	758.88
493.615	766.88
493.833	779.88
494.05	751.88
494.268	736.88
494.485	780.88
494.703	779.88
494.92	804.88
495.138	780.88
495.355	765.88
495.573	788.88
495.79	796.88
496.008	767.88
496.225	781.88
496.442	755.88
496.66	775.88
496.877	777.88
497.094	778.88
497.312	784.88
497.529	809.88
497.746	824.88
497.963	810.88
498.181	847.88
498.398	860.88
498.615	871.88
498.832	886.88
499.049	922.88
499.267	954.88
499.484	995.88
499.701	1052.88
499.918	1055.88
500.135	1160.88
500.352	1191.88
500.569	1242.88
500.786	1262.88
501.003	1190.88
501.22	1191.88
501.437	1117.88
501.654	1058.88
