Data from 1976.PennyLincolnUp.Lamp.En5.5.200Scan.071719.P1.Changed Mount._HRD10591_16-00-19-861.txt Node
Date: Thu Jul 18 16:00:19 EDT 2019
User: cochatt
Spectrometer: HR+D1059
Trigger mode: 1
Integration Time (sec): 1.000000E-1
Scans to average: 1
Electric dark correction enabled: true
Nonlinearity correction enabled: false
Boxcar width: 0
XAxis mode: Wavelengths
Number of Pixels in Spectrum: 2048
>>>>>Begin Spectral Data<<<<<
223.165	-34.94
223.4	-34.94
223.635	-34.94
223.869	-17.94
224.104	-24.94
224.338	-32.94
224.573	-7.94
224.808	-2.94
225.042	-3.94
225.277	0.06
225.511	-5.94
225.746	15.06
225.98	11.06
226.215	11.06
226.449	8.06
226.683	38.06
226.918	18.06
227.152	30.06
227.387	25.06
227.621	25.06
227.856	34.06
228.09	35.06
228.324	38.06
228.559	42.06
228.793	62.06
229.027	93.06
229.262	109.06
229.496	97.06
229.73	125.06
229.964	140.06
230.199	121.06
230.433	110.06
230.667	110.06
230.901	106.06
231.136	114.06
231.37	98.06
231.604	105.06
231.838	114.06
232.072	90.06
232.306	93.06
232.541	116.06
232.775	106.06
233.009	112.06
233.243	106.06
233.477	121.06
233.711	114.06
233.945	114.06
234.179	104.06
234.413	113.06
234.647	104.06
234.881	104.06
235.115	131.06
235.349	109.06
235.583	119.06
235.817	121.06
236.051	118.06
236.285	114.06
236.519	126.06
236.753	116.06
236.987	141.06
237.221	173.06
237.455	214.06
237.689	182.06
237.922	138.06
238.156	131.06
238.39	128.06
238.624	118.06
238.858	117.06
239.091	118.06
239.325	117.06
239.559	109.06
239.793	130.06
240.027	134.06
240.26	142.06
240.494	159.06
240.728	158.06
240.961	154.06
241.195	155.06
241.429	142.06
241.662	107.06
241.896	123.06
242.13	126.06
242.363	142.06
242.597	131.06
242.83	129.06
243.064	136.06
243.298	140.06
243.531	138.06
243.765	140.06
243.998	139.06
244.232	127.06
244.465	149.06
244.699	138.06
244.932	152.06
245.166	146.06
245.399	156.06
245.633	131.06
245.866	159.06
246.099	153.06
246.333	146.06
246.566	150.06
246.8	157.06
247.033	152.06
247.266	145.06
247.5	163.06
247.733	168.06
247.966	158.06
248.2	168.06
248.433	165.06
248.666	174.06
248.899	175.06
249.133	184.06
249.366	202.06
249.599	200.06
249.832	184.06
250.066	184.06
250.299	194.06
250.532	195.06
250.765	187.06
250.998	202.06
251.231	220.06
251.465	224.06
251.698	197.06
251.931	198.06
252.164	194.06
252.397	186.06
252.63	180.06
252.863	202.06
253.096	194.06
253.329	211.06
253.562	229.06
253.795	220.06
254.028	223.06
254.261	221.06
254.494	214.06
254.727	253.06
254.96	267.06
255.193	270.06
255.426	234.06
255.659	221.06
255.892	242.06
256.124	223.06
256.357	238.06
256.59	220.06
256.823	221.06
257.056	207.06
257.289	209.06
257.521	222.06
257.754	206.06
257.987	219.06
258.22	202.06
258.452	215.06
258.685	209.06
258.918	199.06
259.151	207.06
259.383	206.06
259.616	222.06
259.849	224.06
260.081	221.06
260.314	239.06
260.547	259.06
260.779	258.06
261.012	246.06
261.244	240.06
261.477	222.06
261.71	221.06
261.942	226.06
262.175	219.06
262.407	220.06
262.64	211.06
262.872	218.06
263.105	221.06
263.337	219.06
263.57	229.06
263.802	209.06
264.035	218.06
264.267	221.06
264.499	213.06
264.732	229.06
264.964	198.06
265.197	221.06
265.429	215.06
265.661	221.06
265.894	221.06
266.126	223.06
266.358	245.06
266.591	237.06
266.823	231.06
267.055	225.06
267.287	239.06
267.52	238.06
267.752	222.06
267.984	234.06
268.216	226.06
268.448	242.06
268.681	229.06
268.913	241.06
269.145	257.06
269.377	271.06
269.609	280.06
269.841	282.06
270.073	264.06
270.306	293.06
270.538	317.06
270.77	307.06
271.002	307.06
271.234	296.06
271.466	310.06
271.698	299.06
271.93	330.06
272.162	306.06
272.394	300.06
272.626	308.06
272.858	280.06
273.09	294.06
273.322	264.06
273.553	272.06
273.785	262.06
274.017	268.06
274.249	273.06
274.481	281.06
274.713	272.06
274.945	249.06
275.176	270.06
275.408	276.06
275.64	273.06
275.872	271.06
276.104	273.06
276.335	297.06
276.567	274.06
276.799	289.06
277.031	301.06
277.262	295.06
277.494	317.06
277.726	303.06
277.957	295.06
278.189	309.06
278.421	267.06
278.652	281.06
278.884	271.06
279.115	294.06
279.347	290.06
279.579	290.06
279.81	280.06
280.042	284.06
280.273	273.06
280.505	288.06
280.736	283.06
280.968	281.06
281.199	290.06
281.431	298.06
281.662	267.06
281.894	277.06
282.125	288.06
282.356	298.06
282.588	298.06
282.819	311.06
283.051	280.06
283.282	274.06
283.513	274.06
283.745	292.06
283.976	282.06
284.207	294.06
284.439	294.06
284.67	295.06
284.901	313.06
285.132	291.06
285.364	277.06
285.595	288.06
285.826	298.06
286.057	298.06
286.288	284.06
286.52	291.06
286.751	316.06
286.982	293.06
287.213	288.06
287.444	290.06
287.675	308.06
287.906	307.06
288.138	325.06
288.369	321.06
288.6	317.06
288.831	336.06
289.062	298.06
289.293	319.06
289.524	315.06
289.755	318.06
289.986	303.06
290.217	306.06
290.448	291.06
290.679	295.06
290.91	297.06
291.141	297.06
291.371	306.06
291.602	313.06
291.833	321.06
292.064	318.06
292.295	307.06
292.526	321.06
292.757	301.06
292.987	301.06
293.218	319.06
293.449	336.06
293.68	320.06
293.91	320.06
294.141	323.06
294.372	294.06
294.603	317.06
294.833	312.06
295.064	301.06
295.295	314.06
295.525	317.06
295.756	323.06
295.987	321.06
296.217	320.06
296.448	327.06
296.679	311.06
296.909	301.06
297.14	319.06
297.37	316.06
297.601	323.06
297.831	326.06
298.062	333.06
298.292	327.06
298.523	333.06
298.753	340.06
298.984	340.06
299.214	315.06
299.445	329.06
299.675	346.06
299.905	334.06
300.136	330.06
300.366	317.06
300.597	335.06
300.827	344.06
301.057	356.06
301.288	366.06
301.518	343.06
301.748	346.06
301.979	350.06
302.209	362.06
302.439	360.06
302.669	343.06
302.9	337.06
303.13	359.06
303.36	353.06
303.59	355.06
303.82	355.06
304.051	366.06
304.281	347.06
304.511	383.06
304.741	360.06
304.971	339.06
305.201	349.06
305.431	350.06
305.661	350.06
305.891	345.06
306.121	341.06
306.352	344.06
306.582	332.06
306.812	337.06
307.042	340.06
307.272	352.06
307.502	338.06
307.731	355.06
307.961	349.06
308.191	358.06
308.421	352.06
308.651	344.06
308.881	355.06
309.111	357.06
309.341	361.06
309.571	366.06
309.8	369.06
310.03	377.06
310.26	369.06
310.49	356.06
310.72	387.06
310.949	381.06
311.179	392.06
311.409	390.06
311.639	386.06
311.868	394.06
312.098	375.06
312.328	388.06
312.557	399.06
312.787	406.06
313.017	421.06
313.246	411.06
313.476	376.06
313.706	396.06
313.935	386.06
314.165	407.06
314.394	416.06
314.624	429.06
314.853	401.06
315.083	402.06
315.312	388.06
315.542	378.06
315.771	377.06
316.001	374.06
316.23	385.06
316.46	398.06
316.689	377.06
316.919	387.06
317.148	403.06
317.377	393.06
317.607	389.06
317.836	400.06
318.065	383.06
318.295	360.06
318.524	400.06
318.753	385.06
318.983	387.06
319.212	401.06
319.441	391.06
319.67	401.06
319.9	387.06
320.129	385.06
320.358	400.06
320.587	386.06
320.816	400.06
321.046	396.06
321.275	408.06
321.504	415.06
321.733	405.06
321.962	414.06
322.191	439.06
322.42	424.06
322.649	447.06
322.878	440.06
323.108	436.06
323.337	446.06
323.566	481.06
323.795	467.06
324.024	521.06
324.253	599.06
324.482	803.06
324.71	1254.06
324.939	1873.06
325.168	1596.06
325.397	826.06
325.626	582.06
325.855	521.06
326.084	481.06
326.313	481.06
326.542	460.06
326.77	498.06
326.999	595.06
327.228	780.06
327.457	1139.06
327.686	1395.06
327.914	944.06
328.143	619.06
328.372	583.06
328.6	541.06
328.829	527.06
329.058	528.06
329.287	544.06
329.515	523.06
329.744	499.06
329.972	499.06
330.201	487.06
330.43	520.06
330.658	549.06
330.887	559.06
331.115	554.06
331.344	509.06
331.572	503.06
331.801	508.06
332.03	482.06
332.258	475.06
332.486	463.06
332.715	473.06
332.943	474.06
333.172	486.06
333.4	474.06
333.629	515.06
333.857	497.06
334.085	519.06
334.314	537.06
334.542	558.06
334.771	566.06
334.999	526.06
335.227	492.06
335.455	494.06
335.684	483.06
335.912	465.06
336.14	476.06
336.369	469.06
336.597	467.06
336.825	473.06
337.053	469.06
337.281	460.06
337.51	441.06
337.738	464.06
337.966	471.06
338.194	475.06
338.422	468.06
338.65	471.06
338.878	470.06
339.106	466.06
339.334	455.06
339.562	437.06
339.79	441.06
340.018	448.06
340.246	439.06
340.474	462.06
340.702	425.06
340.93	464.06
341.158	443.06
341.386	450.06
341.614	431.06
341.842	441.06
342.07	439.06
342.298	436.06
342.526	440.06
342.754	433.06
342.981	448.06
343.209	442.06
343.437	453.06
343.665	442.06
343.893	460.06
344.12	481.06
344.348	461.06
344.576	458.06
344.804	463.06
345.031	475.06
345.259	467.06
345.487	447.06
345.714	441.06
345.942	451.06
346.17	409.06
346.397	435.06
346.625	432.06
346.853	414.06
347.08	433.06
347.308	429.06
347.535	425.06
347.763	426.06
347.99	422.06
348.218	449.06
348.445	433.06
348.673	422.06
348.9	422.06
349.128	422.06
349.355	419.06
349.583	409.06
349.81	424.06
350.037	414.06
350.265	418.06
350.492	418.06
350.72	399.06
350.947	418.06
351.174	426.06
351.402	441.06
351.629	439.06
351.856	457.06
352.083	434.06
352.311	447.06
352.538	456.06
352.765	440.06
352.992	442.06
353.22	439.06
353.447	426.06
353.674	420.06
353.901	420.06
354.128	399.06
354.355	375.06
354.583	413.06
354.81	413.06
355.037	408.06
355.264	402.06
355.491	388.06
355.718	397.06
355.945	393.06
356.172	395.06
356.399	405.06
356.626	409.06
356.853	389.06
357.08	392.06
357.307	394.06
357.534	392.06
357.761	410.06
357.988	399.06
358.215	400.06
358.441	396.06
358.668	405.06
358.895	409.06
359.122	413.06
359.349	410.06
359.576	430.06
359.802	430.06
360.029	447.06
360.256	463.06
360.483	445.06
360.709	434.06
360.936	434.06
361.163	421.06
361.39	418.06
361.616	411.06
361.843	434.06
362.07	417.06
362.296	415.06
362.523	425.06
362.749	430.06
362.976	432.06
363.203	401.06
363.429	408.06
363.656	414.06
363.882	403.06
364.109	426.06
364.335	397.06
364.562	389.06
364.788	403.06
365.015	411.06
365.241	396.06
365.468	413.06
365.694	437.06
365.92	414.06
366.147	421.06
366.373	403.06
366.599	398.06
366.826	409.06
367.052	404.06
367.278	413.06
367.505	416.06
367.731	424.06
367.957	416.06
368.184	410.06
368.41	423.06
368.636	428.06
368.862	413.06
369.089	413.06
369.315	434.06
369.541	414.06
369.767	412.06
369.993	395.06
370.219	449.06
370.445	407.06
370.672	419.06
370.898	388.06
371.124	414.06
371.35	433.06
371.576	414.06
371.802	421.06
372.028	399.06
372.254	435.06
372.48	413.06
372.706	413.06
372.932	417.06
373.158	435.06
373.384	427.06
373.61	407.06
373.835	425.06
374.061	420.06
374.287	435.06
374.513	426.06
374.739	430.06
374.965	415.06
375.191	426.06
375.416	434.06
375.642	445.06
375.868	429.06
376.094	425.06
376.319	413.06
376.545	401.06
376.771	410.06
376.997	396.06
377.222	439.06
377.448	398.06
377.674	427.06
377.899	433.06
378.125	399.06
378.35	422.06
378.576	404.06
378.802	404.06
379.027	403.06
379.253	401.06
379.478	417.06
379.704	432.06
379.929	426.06
380.155	410.06
380.38	419.06
380.606	422.06
380.831	423.06
381.057	418.06
381.282	401.06
381.507	408.06
381.733	418.06
381.958	418.06
382.184	420.06
382.409	425.06
382.634	415.06
382.86	415.06
383.085	462.06
383.31	434.06
383.535	453.06
383.761	437.06
383.986	445.06
384.211	446.06
384.436	440.06
384.662	448.06
384.887	448.06
385.112	454.06
385.337	468.06
385.562	462.06
385.787	469.06
386.013	477.06
386.238	458.06
386.463	471.06
386.688	458.06
386.913	453.06
387.138	456.06
387.363	472.06
387.588	469.06
387.813	449.06
388.038	468.06
388.263	487.06
388.488	460.06
388.713	469.06
388.938	477.06
389.163	486.06
389.387	464.06
389.612	464.06
389.837	472.06
390.062	466.06
390.287	460.06
390.512	467.06
390.736	463.06
390.961	482.06
391.186	468.06
391.411	477.06
391.636	495.06
391.86	498.06
392.085	495.06
392.31	495.06
392.534	524.06
392.759	483.06
392.984	459.06
393.208	494.06
393.433	486.06
393.658	467.06
393.882	471.06
394.107	469.06
394.331	467.06
394.556	473.06
394.78	461.06
395.005	479.06
395.229	484.06
395.454	475.06
395.678	495.06
395.903	500.06
396.127	514.06
396.352	522.06
396.576	495.06
396.801	493.06
397.025	484.06
397.249	484.06
397.474	503.06
397.698	493.06
397.922	509.06
398.147	539.06
398.371	529.06
398.595	542.06
398.82	551.06
399.044	553.06
399.268	579.06
399.492	595.06
399.717	619.06
399.941	683.06
400.165	694.06
400.389	675.06
400.613	614.06
400.837	591.06
401.062	570.06
401.286	557.06
401.51	573.06
401.734	541.06
401.958	564.06
402.182	547.06
402.406	545.06
402.63	558.06
402.854	567.06
403.078	559.06
403.302	563.06
403.526	586.06
403.75	589.06
403.974	581.06
404.198	588.06
404.422	577.06
404.645	591.06
404.869	580.06
405.093	627.06
405.317	639.06
405.541	663.06
405.765	612.06
405.988	585.06
406.212	575.06
406.436	621.06
406.66	633.06
406.883	611.06
407.107	628.06
407.331	682.06
407.555	729.06
407.778	744.06
408.002	687.06
408.226	650.06
408.449	618.06
408.673	597.06
408.896	633.06
409.12	672.06
409.344	643.06
409.567	590.06
409.791	600.06
410.014	593.06
410.238	547.06
410.461	569.06
410.685	549.06
410.908	566.06
411.132	610.06
411.355	662.06
411.578	593.06
411.802	578.06
412.025	563.06
412.249	584.06
412.472	597.06
412.695	655.06
412.919	637.06
413.142	550.06
413.365	577.06
413.589	548.06
413.812	535.06
414.035	550.06
414.258	534.06
414.482	530.06
414.705	543.06
414.928	531.06
415.151	543.06
415.374	549.06
415.597	527.06
415.821	521.06
416.044	523.06
416.267	540.06
416.49	537.06
416.713	537.06
416.936	531.06
417.159	507.06
417.382	520.06
417.605	533.06
417.828	532.06
418.051	539.06
418.274	551.06
418.497	523.06
418.72	532.06
418.943	543.06
419.166	545.06
419.389	575.06
419.611	595.06
419.834	567.06
420.057	546.06
420.28	579.06
420.503	597.06
420.726	539.06
420.948	553.06
421.171	616.06
421.394	655.06
421.617	580.06
421.839	569.06
422.062	598.06
422.285	573.06
422.507	625.06
422.73	703.06
422.953	710.06
423.175	593.06
423.398	577.06
423.621	603.06
423.843	593.06
424.066	595.06
424.288	609.06
424.511	588.06
424.733	665.06
424.956	709.06
425.178	718.06
425.401	693.06
425.623	733.06
425.846	649.06
426.068	600.06
426.291	571.06
426.513	600.06
426.735	605.06
426.958	600.06
427.18	707.06
427.402	831.06
427.625	912.06
427.847	757.06
428.069	668.06
428.292	621.06
428.514	561.06
428.736	568.06
428.958	531.06
429.181	522.06
429.403	523.06
429.625	551.06
429.847	569.06
430.069	618.06
430.292	630.06
430.514	559.06
430.736	530.06
430.958	521.06
431.18	519.06
431.402	488.06
431.624	470.06
431.846	524.06
432.068	511.06
432.29	506.06
432.512	509.06
432.734	533.06
432.956	524.06
433.178	535.06
433.4	530.06
433.622	522.06
433.844	497.06
434.066	513.06
434.287	526.06
434.509	529.06
434.731	535.06
434.953	513.06
435.175	558.06
435.397	570.06
435.618	571.06
435.84	615.06
436.062	689.06
436.284	789.06
436.505	681.06
436.727	577.06
436.949	533.06
437.17	521.06
437.392	537.06
437.614	521.06
437.835	549.06
438.057	646.06
438.278	752.06
438.5	773.06
438.721	847.06
438.943	824.06
439.165	651.06
439.386	601.06
439.608	588.06
439.829	569.06
440.05	600.06
440.272	667.06
440.493	607.06
440.715	559.06
440.936	559.06
441.158	563.06
441.379	549.06
441.6	564.06
441.822	589.06
442.043	614.06
442.264	689.06
442.486	718.06
442.707	645.06
442.928	617.06
443.149	599.06
443.371	617.06
443.592	659.06
443.813	751.06
444.034	818.06
444.255	699.06
444.476	606.06
444.698	581.06
444.919	612.06
445.14	714.06
445.361	657.06
445.582	633.06
445.803	673.06
446.024	783.06
446.245	761.06
446.466	719.06
446.687	602.06
446.908	580.06
447.129	561.06
447.35	537.06
447.571	551.06
447.792	538.06
448.013	523.06
448.234	553.06
448.455	587.06
448.675	708.06
448.896	831.06
449.117	691.06
449.338	641.06
449.559	739.06
449.779	897.06
450	669.06
450.221	568.06
450.442	510.06
450.662	523.06
450.883	501.06
451.104	514.06
451.324	501.06
451.545	495.06
451.766	461.06
451.986	467.06
452.207	467.06
452.428	469.06
452.648	489.06
452.869	479.06
453.089	494.06
453.31	499.06
453.53	493.06
453.751	477.06
453.971	456.06
454.192	482.06
454.412	457.06
454.633	457.06
454.853	458.06
455.073	456.06
455.294	505.06
455.514	575.06
455.734	563.06
455.955	463.06
456.175	455.06
456.395	445.06
456.616	448.06
456.836	457.06
457.056	445.06
457.276	447.06
457.497	455.06
457.717	471.06
457.937	466.06
458.157	462.06
458.377	474.06
458.598	523.06
458.818	543.06
459.038	589.06
459.258	622.06
459.478	545.06
459.698	521.06
459.918	509.06
460.138	527.06
460.358	523.06
460.578	520.06
460.798	534.06
461.018	533.06
461.238	532.06
461.458	553.06
461.678	537.06
461.898	523.06
462.118	527.06
462.338	563.06
462.558	570.06
462.777	583.06
462.997	610.06
463.217	619.06
463.437	622.06
463.657	586.06
463.876	594.06
464.096	573.06
464.316	571.06
464.536	581.06
464.755	568.06
464.975	577.06
465.195	588.06
465.414	629.06
465.634	564.06
465.854	534.06
466.073	529.06
466.293	515.06
466.512	503.06
466.732	477.06
466.951	508.06
467.171	489.06
467.391	504.06
467.61	502.06
467.829	502.06
468.049	491.06
468.268	496.06
468.488	483.06
468.707	495.06
468.927	494.06
469.146	484.06
469.365	482.06
469.585	483.06
469.804	491.06
470.023	497.06
470.243	503.06
470.462	489.06
470.681	515.06
470.901	511.06
471.12	501.06
471.339	509.06
471.558	513.06
471.777	518.06
471.997	495.06
472.216	479.06
472.435	514.06
472.654	531.06
472.873	490.06
473.092	493.06
473.311	499.06
473.53	494.06
473.749	495.06
473.968	529.06
474.187	628.06
474.406	634.06
474.625	550.06
474.844	511.06
475.063	510.06
475.282	490.06
475.501	506.06
475.72	482.06
475.939	497.06
476.158	509.06
476.377	531.06
476.596	515.06
476.814	521.06
477.033	545.06
477.252	514.06
477.471	523.06
477.69	557.06
477.908	554.06
478.127	557.06
478.346	565.06
478.564	567.06
478.783	554.06
479.002	575.06
479.22	589.06
479.439	590.06
479.658	569.06
479.876	582.06
480.095	606.06
480.313	613.06
480.532	625.06
480.751	624.06
480.969	610.06
481.188	664.06
481.406	670.06
481.624	654.06
481.843	599.06
482.061	585.06
482.28	578.06
482.498	544.06
482.717	534.06
482.935	586.06
483.153	594.06
483.372	568.06
483.59	588.06
483.808	588.06
484.027	576.06
484.245	582.06
484.463	569.06
484.681	593.06
484.9	577.06
485.118	592.06
485.336	607.06
485.554	609.06
485.772	587.06
485.99	605.06
486.209	603.06
486.427	587.06
486.645	608.06
486.863	594.06
487.081	612.06
487.299	609.06
487.517	607.06
487.735	602.06
487.953	641.06
488.171	616.06
488.389	617.06
488.607	628.06
488.825	614.06
489.043	616.06
489.261	626.06
489.479	623.06
489.696	645.06
489.914	627.06
490.132	660.06
490.35	639.06
490.568	620.06
490.786	641.06
491.003	665.06
491.221	658.06
491.439	715.06
491.657	714.06
491.874	706.06
492.092	695.06
492.31	715.06
492.527	695.06
492.745	713.06
492.963	704.06
493.18	703.06
493.398	698.06
493.615	731.06
493.833	708.06
494.05	714.06
494.268	706.06
494.485	725.06
494.703	739.06
494.92	730.06
495.138	722.06
495.355	720.06
495.573	737.06
495.79	738.06
496.008	754.06
496.225	739.06
496.442	759.06
496.66	735.06
496.877	701.06
497.094	744.06
497.312	765.06
497.529	759.06
497.746	773.06
497.963	777.06
498.181	810.06
498.398	830.06
498.615	839.06
498.832	844.06
499.049	885.06
499.267	907.06
499.484	929.06
499.701	970.06
499.918	1058.06
500.135	1078.06
500.352	1156.06
500.569	1179.06
500.786	1177.06
501.003	1160.06
501.22	1113.06
501.437	1069.06
501.654	993.06
