Data from 1976.PennyLincolnUp.Lamp.En5.5.200Scan.071719.P1.Changed Mount._HRD10591_16-01-58-862.txt Node
Date: Thu Jul 18 16:01:58 EDT 2019
User: cochatt
Spectrometer: HR+D1059
Trigger mode: 1
Integration Time (sec): 1.000000E-1
Scans to average: 1
Electric dark correction enabled: true
Nonlinearity correction enabled: false
Boxcar width: 0
XAxis mode: Wavelengths
Number of Pixels in Spectrum: 2048
>>>>>Begin Spectral Data<<<<<
223.165	-17.69
223.4	-17.69
223.635	-17.69
223.869	-15.69
224.104	-14.69
224.338	-8.69
224.573	-13.69
224.808	-17.69
225.042	-13.69
225.277	-8.69
225.511	-3.69
225.746	-10.69
225.98	-2.69
226.215	14.31
226.449	26.31
226.683	12.31
226.918	25.31
227.152	49.31
227.387	43.31
227.621	32.31
227.856	41.31
228.09	50.31
228.324	41.31
228.559	61.31
228.793	82.31
229.027	104.31
229.262	119.31
229.496	118.31
229.73	145.31
229.964	157.31
230.199	132.31
230.433	113.31
230.667	116.31
230.901	125.31
231.136	116.31
231.37	125.31
231.604	123.31
231.838	106.31
232.072	123.31
232.306	125.31
232.541	125.31
232.775	117.31
233.009	117.31
233.243	120.31
233.477	122.31
233.711	106.31
233.945	118.31
234.179	116.31
234.413	128.31
234.647	126.31
234.881	132.31
235.115	118.31
235.349	134.31
235.583	119.31
235.817	125.31
236.051	112.31
236.285	142.31
236.519	134.31
236.753	132.31
236.987	150.31
237.221	189.31
237.455	245.31
237.689	185.31
237.922	150.31
238.156	146.31
238.39	148.31
238.624	132.31
238.858	140.31
239.091	136.31
239.325	126.31
239.559	132.31
239.793	114.31
240.027	132.31
240.26	136.31
240.494	174.31
240.728	156.31
240.961	165.31
241.195	169.31
241.429	143.31
241.662	143.31
241.896	153.31
242.13	141.31
242.363	136.31
242.597	130.31
242.83	138.31
243.064	137.31
243.298	156.31
243.531	156.31
243.765	150.31
243.998	142.31
244.232	146.31
244.465	141.31
244.699	160.31
244.932	136.31
245.166	153.31
245.399	149.31
245.633	145.31
245.866	159.31
246.099	171.31
246.333	166.31
246.566	159.31
246.8	155.31
247.033	164.31
247.266	165.31
247.5	170.31
247.733	170.31
247.966	168.31
248.2	178.31
248.433	191.31
248.666	186.31
248.899	202.31
249.133	219.31
249.366	224.31
249.599	193.31
249.832	197.31
250.066	180.31
250.299	209.31
250.532	203.31
250.765	219.31
250.998	232.31
251.231	232.31
251.465	225.31
251.698	208.31
251.931	203.31
252.164	186.31
252.397	206.31
252.63	209.31
252.863	207.31
253.096	221.31
253.329	240.31
253.562	221.31
253.795	217.31
254.028	228.31
254.261	215.31
254.494	226.31
254.727	272.31
254.96	283.31
255.193	289.31
255.426	262.31
255.659	245.31
255.892	248.31
256.124	253.31
256.357	258.31
256.59	244.31
256.823	217.31
257.056	236.31
257.289	210.31
257.521	213.31
257.754	225.31
257.987	231.31
258.22	228.31
258.452	220.31
258.685	209.31
258.918	213.31
259.151	220.31
259.383	241.31
259.616	237.31
259.849	246.31
260.081	251.31
260.314	281.31
260.547	280.31
260.779	258.31
261.012	238.31
261.244	244.31
261.477	244.31
261.71	238.31
261.942	244.31
262.175	239.31
262.407	240.31
262.64	249.31
262.872	222.31
263.105	239.31
263.337	219.31
263.57	220.31
263.802	231.31
264.035	227.31
264.267	232.31
264.499	236.31
264.732	222.31
264.964	218.31
265.197	226.31
265.429	237.31
265.661	221.31
265.894	225.31
266.126	239.31
266.358	238.31
266.591	249.31
266.823	242.31
267.055	237.31
267.287	256.31
267.52	261.31
267.752	249.31
267.984	245.31
268.216	244.31
268.448	255.31
268.681	261.31
268.913	272.31
269.145	296.31
269.377	297.31
269.609	283.31
269.841	305.31
270.073	293.31
270.306	317.31
270.538	327.31
270.77	333.31
271.002	324.31
271.234	298.31
271.466	313.31
271.698	344.31
271.93	352.31
272.162	337.31
272.394	333.31
272.626	335.31
272.858	316.31
273.09	297.31
273.322	301.31
273.553	288.31
273.785	287.31
274.017	278.31
274.249	279.31
274.481	291.31
274.713	287.31
274.945	291.31
275.176	291.31
275.408	296.31
275.64	279.31
275.872	284.31
276.104	308.31
276.335	292.31
276.567	301.31
276.799	301.31
277.031	311.31
277.262	322.31
277.494	345.31
277.726	312.31
277.957	308.31
278.189	312.31
278.421	299.31
278.652	284.31
278.884	296.31
279.115	293.31
279.347	293.31
279.579	294.31
279.81	286.31
280.042	293.31
280.273	298.31
280.505	304.31
280.736	290.31
280.968	292.31
281.199	282.31
281.431	294.31
281.662	294.31
281.894	328.31
282.125	320.31
282.356	324.31
282.588	325.31
282.819	336.31
283.051	317.31
283.282	308.31
283.513	309.31
283.745	292.31
283.976	314.31
284.207	327.31
284.439	318.31
284.67	310.31
284.901	304.31
285.132	320.31
285.364	298.31
285.595	312.31
285.826	322.31
286.057	294.31
286.288	314.31
286.52	325.31
286.751	314.31
286.982	308.31
287.213	296.31
287.444	311.31
287.675	328.31
287.906	330.31
288.138	332.31
288.369	342.31
288.6	335.31
288.831	326.31
289.062	324.31
289.293	332.31
289.524	312.31
289.755	335.31
289.986	328.31
290.217	333.31
290.448	317.31
290.679	327.31
290.91	329.31
291.141	315.31
291.371	326.31
291.602	309.31
291.833	317.31
292.064	329.31
292.295	326.31
292.526	305.31
292.757	320.31
292.987	333.31
293.218	331.31
293.449	342.31
293.68	331.31
293.91	325.31
294.141	331.31
294.372	311.31
294.603	310.31
294.833	310.31
295.064	332.31
295.295	320.31
295.525	318.31
295.756	327.31
295.987	337.31
296.217	336.31
296.448	355.31
296.679	356.31
296.909	334.31
297.14	331.31
297.37	347.31
297.601	352.31
297.831	337.31
298.062	316.31
298.292	334.31
298.523	351.31
298.753	356.31
298.984	352.31
299.214	343.31
299.445	353.31
299.675	342.31
299.905	374.31
300.136	348.31
300.366	355.31
300.597	348.31
300.827	349.31
301.057	355.31
301.288	362.31
301.518	350.31
301.748	364.31
301.979	350.31
302.209	382.31
302.439	361.31
302.669	366.31
302.9	363.31
303.13	360.31
303.36	352.31
303.59	381.31
303.82	378.31
304.051	371.31
304.281	354.31
304.511	366.31
304.741	346.31
304.971	363.31
305.201	374.31
305.431	351.31
305.661	349.31
305.891	381.31
306.121	358.31
306.352	359.31
306.582	371.31
306.812	374.31
307.042	368.31
307.272	365.31
307.502	361.31
307.731	356.31
307.961	369.31
308.191	362.31
308.421	373.31
308.651	388.31
308.881	370.31
309.111	351.31
309.341	366.31
309.571	380.31
309.8	384.31
310.03	392.31
310.26	398.31
310.49	375.31
310.72	413.31
310.949	417.31
311.179	430.31
311.409	400.31
311.639	401.31
311.868	413.31
312.098	397.31
312.328	414.31
312.557	414.31
312.787	409.31
313.017	424.31
313.246	430.31
313.476	397.31
313.706	392.31
313.935	402.31
314.165	422.31
314.394	412.31
314.624	414.31
314.853	437.31
315.083	402.31
315.312	413.31
315.542	412.31
315.771	414.31
316.001	410.31
316.23	400.31
316.46	409.31
316.689	400.31
316.919	409.31
317.148	423.31
317.377	411.31
317.607	425.31
317.836	423.31
318.065	397.31
318.295	381.31
318.524	394.31
318.753	388.31
318.983	394.31
319.212	399.31
319.441	386.31
319.67	432.31
319.9	409.31
320.129	390.31
320.358	426.31
320.587	408.31
320.816	412.31
321.046	433.31
321.275	441.31
321.504	410.31
321.733	445.31
321.962	435.31
322.191	421.31
322.42	467.31
322.649	454.31
322.878	465.31
323.108	462.31
323.337	481.31
323.566	513.31
323.795	523.31
324.024	576.31
324.253	655.31
324.482	880.31
324.71	1377.31
324.939	2040.31
325.168	1780.31
325.397	922.31
325.626	630.31
325.855	559.31
326.084	526.31
326.313	514.31
326.542	506.31
326.77	560.31
326.999	648.31
327.228	852.31
327.457	1251.31
327.686	1580.31
327.914	1062.31
328.143	675.31
328.372	617.31
328.6	592.31
328.829	564.31
329.058	566.31
329.287	579.31
329.515	570.31
329.744	530.31
329.972	551.31
330.201	541.31
330.43	561.31
330.658	584.31
330.887	608.31
331.115	584.31
331.344	543.31
331.572	508.31
331.801	509.31
332.03	500.31
332.258	499.31
332.486	477.31
332.715	486.31
332.943	490.31
333.172	493.31
333.4	504.31
333.629	518.31
333.857	523.31
334.085	522.31
334.314	566.31
334.542	575.31
334.771	596.31
334.999	538.31
335.227	521.31
335.455	509.31
335.684	526.31
335.912	502.31
336.14	487.31
336.369	473.31
336.597	465.31
336.825	491.31
337.053	493.31
337.281	484.31
337.51	491.31
337.738	490.31
337.966	477.31
338.194	463.31
338.422	482.31
338.65	470.31
338.878	454.31
339.106	479.31
339.334	462.31
339.562	447.31
339.79	464.31
340.018	471.31
340.246	451.31
340.474	459.31
340.702	462.31
340.93	470.31
341.158	460.31
341.386	453.31
341.614	464.31
341.842	468.31
342.07	454.31
342.298	462.31
342.526	457.31
342.754	450.31
342.981	440.31
343.209	458.31
343.437	466.31
343.665	469.31
343.893	481.31
344.12	479.31
344.348	471.31
344.576	470.31
344.804	500.31
345.031	488.31
345.259	496.31
345.487	484.31
345.714	476.31
345.942	467.31
346.17	439.31
346.397	444.31
346.625	449.31
346.853	440.31
347.08	446.31
347.308	422.31
347.535	444.31
347.763	454.31
347.99	453.31
348.218	445.31
348.445	457.31
348.673	465.31
348.9	460.31
349.128	433.31
349.355	434.31
349.583	433.31
349.81	433.31
350.037	426.31
350.265	440.31
350.492	427.31
350.72	419.31
350.947	429.31
351.174	452.31
351.402	445.31
351.629	454.31
351.856	443.31
352.083	425.31
352.311	442.31
352.538	443.31
352.765	454.31
352.992	434.31
353.22	437.31
353.447	445.31
353.674	438.31
353.901	433.31
354.128	414.31
354.355	401.31
354.583	409.31
354.81	420.31
355.037	424.31
355.264	434.31
355.491	410.31
355.718	416.31
355.945	409.31
356.172	427.31
356.399	414.31
356.626	418.31
356.853	414.31
357.08	431.31
357.307	426.31
357.534	412.31
357.761	432.31
357.988	429.31
358.215	450.31
358.441	414.31
358.668	410.31
358.895	410.31
359.122	433.31
359.349	442.31
359.576	433.31
359.802	465.31
360.029	482.31
360.256	487.31
360.483	491.31
360.709	432.31
360.936	450.31
361.163	448.31
361.39	433.31
361.616	445.31
361.843	442.31
362.07	439.31
362.296	448.31
362.523	451.31
362.749	426.31
362.976	440.31
363.203	430.31
363.429	417.31
363.656	424.31
363.882	428.31
364.109	416.31
364.335	418.31
364.562	433.31
364.788	434.31
365.015	416.31
365.241	430.31
365.468	430.31
365.694	421.31
365.92	426.31
366.147	444.31
366.373	416.31
366.599	410.31
366.826	421.31
367.052	439.31
367.278	434.31
367.505	434.31
367.731	415.31
367.957	425.31
368.184	437.31
368.41	418.31
368.636	433.31
368.862	434.31
369.089	442.31
369.315	431.31
369.541	424.31
369.767	430.31
369.993	433.31
370.219	416.31
370.445	440.31
370.672	432.31
370.898	421.31
371.124	429.31
371.35	445.31
371.576	444.31
371.802	455.31
372.028	426.31
372.254	401.31
372.48	423.31
372.706	413.31
372.932	434.31
373.158	421.31
373.384	430.31
373.61	425.31
373.835	438.31
374.061	434.31
374.287	445.31
374.513	467.31
374.739	438.31
374.965	427.31
375.191	420.31
375.416	450.31
375.642	431.31
375.868	431.31
376.094	436.31
376.319	462.31
376.545	420.31
376.771	441.31
376.997	399.31
377.222	424.31
377.448	440.31
377.674	424.31
377.899	430.31
378.125	427.31
378.35	440.31
378.576	423.31
378.802	413.31
379.027	425.31
379.253	443.31
379.478	433.31
379.704	426.31
379.929	428.31
380.155	429.31
380.38	407.31
380.606	441.31
380.831	439.31
381.057	437.31
381.282	429.31
381.507	413.31
381.733	400.31
381.958	431.31
382.184	463.31
382.409	444.31
382.634	449.31
382.86	442.31
383.085	465.31
383.31	444.31
383.535	452.31
383.761	456.31
383.986	461.31
384.211	458.31
384.436	454.31
384.662	457.31
384.887	481.31
385.112	478.31
385.337	487.31
385.562	472.31
385.787	483.31
386.013	509.31
386.238	491.31
386.463	486.31
386.688	474.31
386.913	511.31
387.138	488.31
387.363	487.31
387.588	472.31
387.813	481.31
388.038	467.31
388.263	486.31
388.488	490.31
388.713	467.31
388.938	468.31
389.163	475.31
389.387	488.31
389.612	471.31
389.837	473.31
390.062	483.31
390.287	477.31
390.512	497.31
390.736	476.31
390.961	504.31
391.186	508.31
391.411	480.31
391.636	484.31
391.86	498.31
392.085	517.31
392.31	501.31
392.534	505.31
392.759	485.31
392.984	500.31
393.208	497.31
393.433	470.31
393.658	493.31
393.882	467.31
394.107	481.31
394.331	487.31
394.556	528.31
394.78	475.31
395.005	506.31
395.229	481.31
395.454	489.31
395.678	497.31
395.903	509.31
396.127	545.31
396.352	540.31
396.576	508.31
396.801	508.31
397.025	510.31
397.249	501.31
397.474	504.31
397.698	516.31
397.922	492.31
398.147	533.31
398.371	559.31
398.595	552.31
398.82	541.31
399.044	561.31
399.268	585.31
399.492	619.31
399.717	647.31
399.941	676.31
400.165	695.31
400.389	701.31
400.613	646.31
400.837	617.31
401.062	590.31
401.286	556.31
401.51	549.31
401.734	534.31
401.958	552.31
402.182	575.31
402.406	584.31
402.63	570.31
402.854	565.31
403.078	552.31
403.302	594.31
403.526	599.31
403.75	594.31
403.974	596.31
404.198	595.31
404.422	592.31
404.645	614.31
404.869	598.31
405.093	629.31
405.317	665.31
405.541	725.31
405.765	636.31
405.988	616.31
406.212	615.31
406.436	615.31
406.66	629.31
406.883	636.31
407.107	665.31
407.331	708.31
407.555	785.31
407.778	776.31
408.002	687.31
408.226	664.31
408.449	633.31
408.673	631.31
408.896	685.31
409.12	712.31
409.344	666.31
409.567	636.31
409.791	621.31
410.014	601.31
410.238	577.31
410.461	572.31
410.685	594.31
410.908	591.31
411.132	630.31
411.355	667.31
411.578	636.31
411.802	571.31
412.025	580.31
412.249	580.31
412.472	601.31
412.695	644.31
412.919	633.31
413.142	589.31
413.365	560.31
413.589	564.31
413.812	577.31
414.035	567.31
414.258	533.31
414.482	574.31
414.705	529.31
414.928	540.31
415.151	548.31
415.374	560.31
415.597	547.31
415.821	550.31
416.044	548.31
416.267	561.31
416.49	537.31
416.713	569.31
416.936	562.31
417.159	538.31
417.382	553.31
417.605	554.31
417.828	573.31
418.051	592.31
418.274	561.31
418.497	556.31
418.72	556.31
418.943	535.31
419.166	578.31
419.389	598.31
419.611	600.31
419.834	582.31
420.057	586.31
420.28	593.31
420.503	600.31
420.726	557.31
420.948	600.31
421.171	642.31
421.394	644.31
421.617	570.31
421.839	573.31
422.062	589.31
422.285	582.31
422.507	637.31
422.73	698.31
422.953	679.31
423.175	639.31
423.398	601.31
423.621	618.31
423.843	636.31
424.066	609.31
424.288	604.31
424.511	614.31
424.733	672.31
424.956	772.31
425.178	718.31
425.401	708.31
425.623	728.31
425.846	636.31
426.068	620.31
426.291	580.31
426.513	608.31
426.735	610.31
426.958	634.31
427.18	745.31
427.402	872.31
427.625	950.31
427.847	808.31
428.069	718.31
428.292	646.31
428.514	600.31
428.736	575.31
428.958	572.31
429.181	553.31
429.403	562.31
429.625	567.31
429.847	598.31
430.069	673.31
430.292	663.31
430.514	568.31
430.736	555.31
430.958	542.31
431.18	528.31
431.402	548.31
431.624	520.31
431.846	520.31
432.068	515.31
432.29	524.31
432.512	528.31
432.734	533.31
432.956	526.31
433.178	539.31
433.4	553.31
433.622	540.31
433.844	558.31
434.066	529.31
434.287	524.31
434.509	552.31
434.731	540.31
434.953	568.31
435.175	570.31
435.397	588.31
435.618	604.31
435.84	644.31
436.062	726.31
436.284	820.31
436.505	688.31
436.727	629.31
436.949	573.31
437.17	574.31
437.392	551.31
437.614	558.31
437.835	579.31
438.057	672.31
438.278	798.31
438.5	814.31
438.721	845.31
438.943	837.31
439.165	670.31
439.386	598.31
439.608	602.31
439.829	608.31
440.05	617.31
440.272	654.31
440.493	637.31
440.715	579.31
440.936	568.31
441.158	586.31
441.379	553.31
441.6	559.31
441.822	579.31
442.043	628.31
442.264	724.31
442.486	780.31
442.707	668.31
442.928	604.31
443.149	615.31
443.371	641.31
443.592	710.31
443.813	790.31
444.034	860.31
444.255	718.31
444.476	644.31
444.698	617.31
444.919	633.31
445.14	769.31
445.361	695.31
445.582	649.31
445.803	704.31
446.024	806.31
446.245	824.31
446.466	771.31
446.687	662.31
446.908	596.31
447.129	588.31
447.35	547.31
447.571	548.31
447.792	530.31
448.013	542.31
448.234	582.31
448.455	607.31
448.675	747.31
448.896	862.31
449.117	706.31
449.338	692.31
449.559	801.31
449.779	898.31
450	716.31
450.221	597.31
450.442	564.31
450.662	522.31
450.883	524.31
451.104	528.31
451.324	533.31
451.545	518.31
451.766	523.31
451.986	488.31
452.207	488.31
452.428	503.31
452.648	489.31
452.869	515.31
453.089	499.31
453.31	505.31
453.53	500.31
453.751	473.31
453.971	509.31
454.192	514.31
454.412	495.31
454.633	461.31
454.853	493.31
455.073	464.31
455.294	513.31
455.514	577.31
455.734	577.31
455.955	505.31
456.175	474.31
456.395	478.31
456.616	463.31
456.836	452.31
457.056	466.31
457.276	443.31
457.497	463.31
457.717	458.31
457.937	481.31
458.157	465.31
458.377	493.31
458.598	514.31
458.818	546.31
459.038	615.31
459.258	652.31
459.478	566.31
459.698	526.31
459.918	510.31
460.138	524.31
460.358	560.31
460.578	561.31
460.798	561.31
461.018	555.31
461.238	547.31
461.458	542.31
461.678	542.31
461.898	547.31
462.118	551.31
462.338	586.31
462.558	566.31
462.777	561.31
462.997	605.31
463.217	627.31
463.437	638.31
463.657	610.31
463.876	615.31
464.096	601.31
464.316	584.31
464.536	600.31
464.755	605.31
464.975	584.31
465.195	611.31
465.414	656.31
465.634	591.31
465.854	569.31
466.073	530.31
466.293	525.31
466.512	508.31
466.732	528.31
466.951	504.31
467.171	506.31
467.391	504.31
467.61	492.31
467.829	503.31
468.049	535.31
468.268	534.31
468.488	513.31
468.707	492.31
468.927	490.31
469.146	486.31
469.365	500.31
469.585	489.31
469.804	488.31
470.023	539.31
470.243	514.31
470.462	520.31
470.681	527.31
470.901	518.31
471.12	509.31
471.339	515.31
471.558	521.31
471.777	521.31
471.997	491.31
472.216	514.31
472.435	543.31
472.654	530.31
472.873	501.31
473.092	531.31
473.311	520.31
473.53	487.31
473.749	504.31
473.968	544.31
474.187	648.31
474.406	709.31
474.625	577.31
474.844	541.31
475.063	522.31
475.282	497.31
475.501	518.31
475.72	531.31
475.939	520.31
476.158	525.31
476.377	529.31
476.596	531.31
476.814	520.31
477.033	543.31
477.252	521.31
477.471	555.31
477.69	542.31
477.908	570.31
478.127	548.31
478.346	585.31
478.564	572.31
478.783	558.31
479.002	577.31
479.22	580.31
479.439	587.31
479.658	616.31
479.876	609.31
480.095	649.31
480.313	685.31
480.532	654.31
480.751	646.31
480.969	644.31
481.188	667.31
481.406	712.31
481.624	626.31
481.843	628.31
482.061	614.31
482.28	607.31
482.498	600.31
482.717	592.31
482.935	590.31
483.153	618.31
483.372	609.31
483.59	574.31
483.808	584.31
484.027	597.31
484.245	594.31
484.463	630.31
484.681	612.31
484.9	589.31
485.118	606.31
485.336	603.31
485.554	621.31
485.772	614.31
485.99	604.31
486.209	610.31
486.427	631.31
486.645	618.31
486.863	638.31
487.081	633.31
487.299	634.31
487.517	617.31
487.735	647.31
487.953	630.31
488.171	657.31
488.389	645.31
488.607	646.31
488.825	641.31
489.043	640.31
489.261	641.31
489.479	645.31
489.696	646.31
489.914	639.31
490.132	652.31
490.35	665.31
490.568	684.31
490.786	684.31
491.003	697.31
491.221	704.31
491.439	703.31
491.657	707.31
491.874	707.31
492.092	741.31
492.31	734.31
492.527	721.31
492.745	743.31
492.963	754.31
493.18	741.31
493.398	744.31
493.615	760.31
493.833	754.31
494.05	769.31
494.268	746.31
494.485	745.31
494.703	752.31
494.92	776.31
495.138	762.31
495.355	739.31
495.573	757.31
495.79	756.31
496.008	750.31
496.225	758.31
496.442	762.31
496.66	757.31
496.877	760.31
497.094	774.31
497.312	751.31
497.529	782.31
497.746	778.31
497.963	792.31
498.181	831.31
498.398	845.31
498.615	873.31
498.832	880.31
499.049	924.31
499.267	930.31
499.484	978.31
499.701	1024.31
499.918	1070.31
500.135	1120.31
500.352	1169.31
500.569	1204.31
500.786	1194.31
501.003	1188.31
501.22	1141.31
501.437	1095.31
