Data from 1976.PennyLincolnUp.Lamp.En5.5.200Scan.071719.P1.Changed Mount._HRD10591_15-59-32-860.txt Node
Date: Thu Jul 18 15:59:32 EDT 2019
User: cochatt
Spectrometer: HR+D1059
Trigger mode: 1
Integration Time (sec): 1.000000E-1
Scans to average: 1
Electric dark correction enabled: true
Nonlinearity correction enabled: false
Boxcar width: 0
XAxis mode: Wavelengths
Number of Pixels in Spectrum: 2048
>>>>>Begin Spectral Data<<<<<
223.165	-14.06
223.4	-14.06
223.635	-14.06
223.869	-28.06
224.104	-25.06
224.338	-11.06
224.573	-24.06
224.808	-5.06
225.042	3.94
225.277	-3.06
225.511	2.94
225.746	-8.06
225.98	5.94
226.215	8.94
226.449	19.94
226.683	18.94
226.918	28.94
227.152	28.94
227.387	38.94
227.621	38.94
227.856	44.94
228.09	48.94
228.324	52.94
228.559	48.94
228.793	68.94
229.027	84.94
229.262	101.94
229.496	95.94
229.73	106.94
229.964	135.94
230.199	110.94
230.433	120.94
230.667	114.94
230.901	117.94
231.136	101.94
231.37	118.94
231.604	99.94
231.838	102.94
232.072	108.94
232.306	122.94
232.541	99.94
232.775	110.94
233.009	106.94
233.243	94.94
233.477	118.94
233.711	113.94
233.945	112.94
234.179	127.94
234.413	119.94
234.647	97.94
234.881	107.94
235.115	111.94
235.349	96.94
235.583	135.94
235.817	116.94
236.051	111.94
236.285	110.94
236.519	111.94
236.753	122.94
236.987	124.94
237.221	159.94
237.455	204.94
237.689	162.94
237.922	130.94
238.156	122.94
238.39	126.94
238.624	131.94
238.858	132.94
239.091	109.94
239.325	117.94
239.559	126.94
239.793	106.94
240.027	136.94
240.26	153.94
240.494	156.94
240.728	131.94
240.961	133.94
241.195	143.94
241.429	138.94
241.662	138.94
241.896	134.94
242.13	125.94
242.363	137.94
242.597	121.94
242.83	137.94
243.064	135.94
243.298	126.94
243.531	137.94
243.765	138.94
243.998	132.94
244.232	133.94
244.465	141.94
244.699	158.94
244.932	131.94
245.166	122.94
245.399	121.94
245.633	149.94
245.866	144.94
246.099	145.94
246.333	162.94
246.566	140.94
246.8	153.94
247.033	156.94
247.266	148.94
247.5	163.94
247.733	155.94
247.966	164.94
248.2	156.94
248.433	152.94
248.666	161.94
248.899	170.94
249.133	173.94
249.366	175.94
249.599	191.94
249.832	160.94
250.066	173.94
250.299	172.94
250.532	190.94
250.765	201.94
250.998	206.94
251.231	186.94
251.465	187.94
251.698	187.94
251.931	181.94
252.164	175.94
252.397	194.94
252.63	204.94
252.863	189.94
253.096	199.94
253.329	196.94
253.562	186.94
253.795	203.94
254.028	192.94
254.261	202.94
254.494	200.94
254.727	207.94
254.96	230.94
255.193	232.94
255.426	219.94
255.659	196.94
255.892	213.94
256.124	190.94
256.357	195.94
256.59	211.94
256.823	199.94
257.056	202.94
257.289	185.94
257.521	205.94
257.754	184.94
257.987	180.94
258.22	188.94
258.452	174.94
258.685	200.94
258.918	191.94
259.151	202.94
259.383	209.94
259.616	212.94
259.849	206.94
260.081	190.94
260.314	218.94
260.547	231.94
260.779	222.94
261.012	224.94
261.244	218.94
261.477	204.94
261.71	199.94
261.942	203.94
262.175	216.94
262.407	212.94
262.64	192.94
262.872	199.94
263.105	204.94
263.337	197.94
263.57	190.94
263.802	204.94
264.035	204.94
264.267	197.94
264.499	200.94
264.732	212.94
264.964	203.94
265.197	196.94
265.429	202.94
265.661	192.94
265.894	218.94
266.126	194.94
266.358	211.94
266.591	211.94
266.823	198.94
267.055	223.94
267.287	215.94
267.52	208.94
267.752	215.94
267.984	222.94
268.216	205.94
268.448	233.94
268.681	217.94
268.913	223.94
269.145	253.94
269.377	269.94
269.609	244.94
269.841	237.94
270.073	246.94
270.306	262.94
270.538	278.94
270.77	292.94
271.002	268.94
271.234	253.94
271.466	242.94
271.698	261.94
271.93	287.94
272.162	267.94
272.394	271.94
272.626	262.94
272.858	247.94
273.09	250.94
273.322	248.94
273.553	245.94
273.785	242.94
274.017	237.94
274.249	272.94
274.481	247.94
274.713	249.94
274.945	247.94
275.176	246.94
275.408	245.94
275.64	246.94
275.872	255.94
276.104	256.94
276.335	245.94
276.567	258.94
276.799	262.94
277.031	264.94
277.262	291.94
277.494	279.94
277.726	296.94
277.957	241.94
278.189	260.94
278.421	250.94
278.652	246.94
278.884	247.94
279.115	260.94
279.347	258.94
279.579	270.94
279.81	271.94
280.042	250.94
280.273	256.94
280.505	255.94
280.736	251.94
280.968	249.94
281.199	259.94
281.431	255.94
281.662	250.94
281.894	266.94
282.125	256.94
282.356	254.94
282.588	283.94
282.819	280.94
283.051	279.94
283.282	255.94
283.513	253.94
283.745	272.94
283.976	272.94
284.207	265.94
284.439	270.94
284.67	266.94
284.901	267.94
285.132	264.94
285.364	287.94
285.595	272.94
285.826	263.94
286.057	285.94
286.288	252.94
286.52	278.94
286.751	291.94
286.982	290.94
287.213	264.94
287.444	263.94
287.675	289.94
287.906	285.94
288.138	267.94
288.369	285.94
288.6	281.94
288.831	299.94
289.062	280.94
289.293	292.94
289.524	285.94
289.755	286.94
289.986	285.94
290.217	288.94
290.448	290.94
290.679	280.94
290.91	294.94
291.141	296.94
291.371	285.94
291.602	274.94
291.833	282.94
292.064	278.94
292.295	280.94
292.526	298.94
292.757	271.94
292.987	267.94
293.218	278.94
293.449	314.94
293.68	286.94
293.91	282.94
294.141	301.94
294.372	295.94
294.603	256.94
294.833	280.94
295.064	288.94
295.295	292.94
295.525	280.94
295.756	292.94
295.987	298.94
296.217	297.94
296.448	317.94
296.679	297.94
296.909	292.94
297.14	281.94
297.37	288.94
297.601	309.94
297.831	304.94
298.062	298.94
298.292	311.94
298.523	308.94
298.753	300.94
298.984	302.94
299.214	276.94
299.445	300.94
299.675	308.94
299.905	292.94
300.136	298.94
300.366	300.94
300.597	284.94
300.827	308.94
301.057	296.94
301.288	329.94
301.518	313.94
301.748	322.94
301.979	309.94
302.209	309.94
302.439	328.94
302.669	328.94
302.9	327.94
303.13	301.94
303.36	334.94
303.59	303.94
303.82	301.94
304.051	301.94
304.281	300.94
304.511	324.94
304.741	325.94
304.971	314.94
305.201	310.94
305.431	329.94
305.661	318.94
305.891	322.94
306.121	318.94
306.352	299.94
306.582	307.94
306.812	309.94
307.042	319.94
307.272	322.94
307.502	299.94
307.731	316.94
307.961	324.94
308.191	325.94
308.421	338.94
308.651	312.94
308.881	323.94
309.111	310.94
309.341	328.94
309.571	328.94
309.8	333.94
310.03	344.94
310.26	333.94
310.49	329.94
310.72	353.94
310.949	335.94
311.179	350.94
311.409	347.94
311.639	352.94
311.868	332.94
312.098	350.94
312.328	345.94
312.557	357.94
312.787	351.94
313.017	351.94
313.246	356.94
313.476	342.94
313.706	351.94
313.935	343.94
314.165	372.94
314.394	356.94
314.624	372.94
314.853	347.94
315.083	344.94
315.312	356.94
315.542	341.94
315.771	350.94
316.001	339.94
316.23	359.94
316.46	344.94
316.689	356.94
316.919	367.94
317.148	378.94
317.377	340.94
317.607	358.94
317.836	355.94
318.065	333.94
318.295	340.94
318.524	356.94
318.753	351.94
318.983	358.94
319.212	361.94
319.441	356.94
319.67	359.94
319.9	355.94
320.129	357.94
320.358	355.94
320.587	376.94
320.816	354.94
321.046	351.94
321.275	356.94
321.504	380.94
321.733	355.94
321.962	352.94
322.191	379.94
322.42	376.94
322.649	378.94
322.878	384.94
323.108	403.94
323.337	395.94
323.566	419.94
323.795	425.94
324.024	455.94
324.253	532.94
324.482	682.94
324.71	1005.94
324.939	1518.94
325.168	1280.94
325.397	662.94
325.626	468.94
325.855	412.94
326.084	419.94
326.313	410.94
326.542	420.94
326.77	424.94
326.999	489.94
327.228	652.94
327.457	935.94
327.686	1119.94
327.914	738.94
328.143	489.94
328.372	465.94
328.6	445.94
328.829	439.94
329.058	441.94
329.287	463.94
329.515	444.94
329.744	430.94
329.972	427.94
330.201	442.94
330.43	443.94
330.658	459.94
330.887	506.94
331.115	484.94
331.344	450.94
331.572	432.94
331.801	431.94
332.03	410.94
332.258	416.94
332.486	412.94
332.715	415.94
332.943	431.94
333.172	416.94
333.4	437.94
333.629	434.94
333.857	441.94
334.085	463.94
334.314	454.94
334.542	466.94
334.771	472.94
334.999	432.94
335.227	432.94
335.455	431.94
335.684	429.94
335.912	393.94
336.14	430.94
336.369	411.94
336.597	420.94
336.825	406.94
337.053	410.94
337.281	400.94
337.51	430.94
337.738	414.94
337.966	382.94
338.194	408.94
338.422	396.94
338.65	416.94
338.878	397.94
339.106	390.94
339.334	405.94
339.562	405.94
339.79	388.94
340.018	394.94
340.246	392.94
340.474	389.94
340.702	384.94
340.93	392.94
341.158	405.94
341.386	403.94
341.614	404.94
341.842	393.94
342.07	382.94
342.298	395.94
342.526	378.94
342.754	379.94
342.981	383.94
343.209	391.94
343.437	386.94
343.665	401.94
343.893	426.94
344.12	423.94
344.348	422.94
344.576	414.94
344.804	406.94
345.031	400.94
345.259	414.94
345.487	413.94
345.714	403.94
345.942	407.94
346.17	398.94
346.397	392.94
346.625	392.94
346.853	395.94
347.08	355.94
347.308	374.94
347.535	385.94
347.763	383.94
347.99	408.94
348.218	400.94
348.445	398.94
348.673	383.94
348.9	380.94
349.128	383.94
349.355	382.94
349.583	376.94
349.81	374.94
350.037	381.94
350.265	378.94
350.492	397.94
350.72	388.94
350.947	372.94
351.174	375.94
351.402	392.94
351.629	376.94
351.856	371.94
352.083	379.94
352.311	383.94
352.538	390.94
352.765	381.94
352.992	380.94
353.22	375.94
353.447	352.94
353.674	376.94
353.901	365.94
354.128	372.94
354.355	363.94
354.583	370.94
354.81	344.94
355.037	374.94
355.264	362.94
355.491	364.94
355.718	363.94
355.945	371.94
356.172	351.94
356.399	366.94
356.626	363.94
356.853	386.94
357.08	370.94
357.307	351.94
357.534	341.94
357.761	382.94
357.988	384.94
358.215	378.94
358.441	377.94
358.668	359.94
358.895	372.94
359.122	383.94
359.349	379.94
359.576	402.94
359.802	381.94
360.029	406.94
360.256	414.94
360.483	401.94
360.709	384.94
360.936	397.94
361.163	388.94
361.39	393.94
361.616	365.94
361.843	377.94
362.07	390.94
362.296	390.94
362.523	388.94
362.749	362.94
362.976	370.94
363.203	368.94
363.429	367.94
363.656	377.94
363.882	382.94
364.109	381.94
364.335	382.94
364.562	378.94
364.788	380.94
365.015	365.94
365.241	361.94
365.468	375.94
365.694	370.94
365.92	354.94
366.147	379.94
366.373	390.94
366.599	374.94
366.826	374.94
367.052	363.94
367.278	366.94
367.505	379.94
367.731	374.94
367.957	373.94
368.184	375.94
368.41	379.94
368.636	394.94
368.862	380.94
369.089	367.94
369.315	380.94
369.541	365.94
369.767	382.94
369.993	386.94
370.219	370.94
370.445	376.94
370.672	367.94
370.898	368.94
371.124	383.94
371.35	362.94
371.576	386.94
371.802	343.94
372.028	387.94
372.254	390.94
372.48	378.94
372.706	393.94
372.932	398.94
373.158	391.94
373.384	401.94
373.61	365.94
373.835	392.94
374.061	372.94
374.287	383.94
374.513	375.94
374.739	399.94
374.965	375.94
375.191	396.94
375.416	395.94
375.642	381.94
375.868	373.94
376.094	405.94
376.319	382.94
376.545	379.94
376.771	368.94
376.997	404.94
377.222	374.94
377.448	374.94
377.674	372.94
377.899	380.94
378.125	373.94
378.35	400.94
378.576	376.94
378.802	395.94
379.027	374.94
379.253	376.94
379.478	378.94
379.704	398.94
379.929	380.94
380.155	371.94
380.38	380.94
380.606	388.94
380.831	381.94
381.057	366.94
381.282	401.94
381.507	384.94
381.733	398.94
381.958	396.94
382.184	405.94
382.409	414.94
382.634	408.94
382.86	403.94
383.085	409.94
383.31	398.94
383.535	382.94
383.761	407.94
383.986	410.94
384.211	418.94
384.436	430.94
384.662	420.94
384.887	420.94
385.112	417.94
385.337	431.94
385.562	430.94
385.787	439.94
386.013	441.94
386.238	447.94
386.463	450.94
386.688	439.94
386.913	440.94
387.138	431.94
387.363	446.94
387.588	440.94
387.813	428.94
388.038	419.94
388.263	434.94
388.488	420.94
388.713	422.94
388.938	416.94
389.163	420.94
389.387	424.94
389.612	416.94
389.837	428.94
390.062	415.94
390.287	450.94
390.512	418.94
390.736	447.94
390.961	442.94
391.186	421.94
391.411	449.94
391.636	454.94
391.86	432.94
392.085	464.94
392.31	440.94
392.534	458.94
392.759	438.94
392.984	448.94
393.208	430.94
393.433	453.94
393.658	431.94
393.882	423.94
394.107	437.94
394.331	425.94
394.556	431.94
394.78	422.94
395.005	445.94
395.229	431.94
395.454	437.94
395.678	454.94
395.903	476.94
396.127	460.94
396.352	461.94
396.576	457.94
396.801	442.94
397.025	447.94
397.249	440.94
397.474	470.94
397.698	452.94
397.922	464.94
398.147	469.94
398.371	492.94
398.595	466.94
398.82	477.94
399.044	506.94
399.268	546.94
399.492	570.94
399.717	608.94
399.941	626.94
400.165	610.94
400.389	642.94
400.613	569.94
400.837	524.94
401.062	500.94
401.286	520.94
401.51	500.94
401.734	518.94
401.958	491.94
402.182	504.94
402.406	495.94
402.63	500.94
402.854	494.94
403.078	495.94
403.302	498.94
403.526	535.94
403.75	517.94
403.974	514.94
404.198	520.94
404.422	528.94
404.645	510.94
404.869	517.94
405.093	542.94
405.317	542.94
405.541	609.94
405.765	554.94
405.988	541.94
406.212	543.94
406.436	543.94
406.66	546.94
406.883	554.94
407.107	565.94
407.331	620.94
407.555	663.94
407.778	668.94
408.002	612.94
408.226	590.94
408.449	543.94
408.673	551.94
408.896	563.94
409.12	627.94
409.344	602.94
409.567	553.94
409.791	528.94
410.014	543.94
410.238	530.94
410.461	523.94
410.685	516.94
410.908	543.94
411.132	552.94
411.355	567.94
411.578	549.94
411.802	515.94
412.025	500.94
412.249	511.94
412.472	538.94
412.695	532.94
412.919	546.94
413.142	525.94
413.365	505.94
413.589	498.94
413.812	496.94
414.035	488.94
414.258	493.94
414.482	477.94
414.705	491.94
414.928	493.94
415.151	480.94
415.374	485.94
415.597	480.94
415.821	484.94
416.044	502.94
416.267	496.94
416.49	468.94
416.713	498.94
416.936	462.94
417.159	485.94
417.382	483.94
417.605	485.94
417.828	503.94
418.051	500.94
418.274	489.94
418.497	467.94
418.72	484.94
418.943	490.94
419.166	496.94
419.389	533.94
419.611	534.94
419.834	535.94
420.057	518.94
420.28	495.94
420.503	499.94
420.726	503.94
420.948	512.94
421.171	542.94
421.394	570.94
421.617	511.94
421.839	504.94
422.062	506.94
422.285	510.94
422.507	559.94
422.73	611.94
422.953	595.94
423.175	543.94
423.398	522.94
423.621	514.94
423.843	540.94
424.066	538.94
424.288	538.94
424.511	523.94
424.733	615.94
424.956	638.94
425.178	653.94
425.401	622.94
425.623	626.94
425.846	540.94
426.068	527.94
426.291	525.94
426.513	517.94
426.735	536.94
426.958	564.94
427.18	638.94
427.402	756.94
427.625	815.94
427.847	678.94
428.069	608.94
428.292	551.94
428.514	525.94
428.736	490.94
428.958	495.94
429.181	474.94
429.403	470.94
429.625	469.94
429.847	502.94
430.069	575.94
430.292	599.94
430.514	504.94
430.736	492.94
430.958	494.94
431.18	468.94
431.402	458.94
431.624	452.94
431.846	453.94
432.068	468.94
432.29	470.94
432.512	463.94
432.734	486.94
432.956	486.94
433.178	498.94
433.4	478.94
433.622	464.94
433.844	470.94
434.066	462.94
434.287	463.94
434.509	447.94
434.731	474.94
434.953	498.94
435.175	496.94
435.397	524.94
435.618	546.94
435.84	569.94
436.062	642.94
436.284	692.94
436.505	599.94
436.727	515.94
436.949	487.94
437.17	471.94
437.392	466.94
437.614	480.94
437.835	517.94
438.057	570.94
438.278	668.94
438.5	679.94
438.721	758.94
438.943	727.94
439.165	575.94
439.386	530.94
439.608	530.94
439.829	512.94
440.05	542.94
440.272	552.94
440.493	546.94
440.715	512.94
440.936	516.94
441.158	498.94
441.379	501.94
441.6	489.94
441.822	542.94
442.043	564.94
442.264	606.94
442.486	643.94
442.707	560.94
442.928	524.94
443.149	531.94
443.371	542.94
443.592	596.94
443.813	665.94
444.034	722.94
444.255	624.94
444.476	543.94
444.698	531.94
444.919	530.94
445.14	615.94
445.361	580.94
445.582	589.94
445.803	600.94
446.024	658.94
446.245	682.94
446.466	626.94
446.687	560.94
446.908	516.94
447.129	502.94
447.35	472.94
447.571	473.94
447.792	466.94
448.013	465.94
448.234	490.94
448.455	530.94
448.675	613.94
448.896	734.94
449.117	614.94
449.338	571.94
449.559	657.94
449.779	725.94
450	598.94
450.221	511.94
450.442	480.94
450.662	452.94
450.883	472.94
451.104	461.94
451.324	478.94
451.545	439.94
451.766	438.94
451.986	412.94
452.207	438.94
452.428	430.94
452.648	438.94
452.869	421.94
453.089	426.94
453.31	440.94
453.53	436.94
453.751	410.94
453.971	412.94
454.192	435.94
454.412	407.94
454.633	414.94
454.853	432.94
455.073	407.94
455.294	454.94
455.514	498.94
455.734	483.94
455.955	424.94
456.175	405.94
456.395	404.94
456.616	415.94
456.836	413.94
457.056	411.94
457.276	394.94
457.497	406.94
457.717	424.94
457.937	416.94
458.157	429.94
458.377	423.94
458.598	439.94
458.818	478.94
459.038	524.94
459.258	550.94
459.478	492.94
459.698	460.94
459.918	447.94
460.138	472.94
460.358	462.94
460.578	483.94
460.798	481.94
461.018	519.94
461.238	486.94
461.458	476.94
461.678	483.94
461.898	491.94
462.118	465.94
462.338	524.94
462.558	521.94
462.777	540.94
462.997	552.94
463.217	535.94
463.437	551.94
463.657	542.94
463.876	529.94
464.096	543.94
464.316	534.94
464.536	533.94
464.755	527.94
464.975	547.94
465.195	531.94
465.414	543.94
465.634	506.94
465.854	510.94
466.073	477.94
466.293	452.94
466.512	459.94
466.732	461.94
466.951	443.94
467.171	450.94
467.391	459.94
467.61	477.94
467.829	456.94
468.049	458.94
468.268	456.94
468.488	450.94
468.707	433.94
468.927	423.94
469.146	435.94
469.365	450.94
469.585	423.94
469.804	440.94
470.023	449.94
470.243	447.94
470.462	453.94
470.681	452.94
470.901	485.94
471.12	459.94
471.339	437.94
471.558	453.94
471.777	450.94
471.997	435.94
472.216	440.94
472.435	431.94
472.654	444.94
472.873	428.94
473.092	427.94
473.311	431.94
473.53	427.94
473.749	454.94
473.968	484.94
474.187	541.94
474.406	558.94
474.625	486.94
474.844	453.94
475.063	446.94
475.282	448.94
475.501	450.94
475.72	457.94
475.939	451.94
476.158	476.94
476.377	450.94
476.596	477.94
476.814	469.94
477.033	479.94
477.252	488.94
477.471	470.94
477.69	472.94
477.908	496.94
478.127	493.94
478.346	489.94
478.564	508.94
478.783	501.94
479.002	519.94
479.22	512.94
479.439	515.94
479.658	518.94
479.876	526.94
480.095	536.94
480.313	553.94
480.532	549.94
480.751	565.94
480.969	563.94
481.188	574.94
481.406	572.94
481.624	558.94
481.843	523.94
482.061	529.94
482.28	527.94
482.498	509.94
482.717	505.94
482.935	518.94
483.153	513.94
483.372	519.94
483.59	540.94
483.808	516.94
484.027	532.94
484.245	522.94
484.463	528.94
484.681	548.94
484.9	532.94
485.118	534.94
485.336	550.94
485.554	519.94
485.772	529.94
485.99	539.94
486.209	564.94
486.427	558.94
486.645	552.94
486.863	539.94
487.081	586.94
487.299	553.94
487.517	566.94
487.735	559.94
487.953	556.94
488.171	548.94
488.389	568.94
488.607	564.94
488.825	560.94
489.043	552.94
489.261	558.94
489.479	586.94
489.696	574.94
489.914	564.94
490.132	584.94
490.35	596.94
490.568	566.94
490.786	608.94
491.003	595.94
491.221	606.94
491.439	620.94
491.657	621.94
491.874	634.94
492.092	636.94
492.31	634.94
492.527	623.94
492.745	635.94
492.963	644.94
493.18	635.94
493.398	646.94
493.615	655.94
493.833	655.94
494.05	652.94
494.268	647.94
494.485	637.94
494.703	634.94
494.92	649.94
495.138	653.94
495.355	647.94
495.573	648.94
495.79	641.94
496.008	640.94
496.225	632.94
496.442	669.94
496.66	666.94
496.877	670.94
497.094	667.94
497.312	707.94
497.529	688.94
497.746	674.94
497.963	711.94
498.181	709.94
498.398	725.94
498.615	769.94
498.832	781.94
499.049	791.94
499.267	804.94
499.484	853.94
499.701	897.94
499.918	941.94
500.135	1000.94
500.352	1040.94
500.569	1071.94
500.786	1065.94
501.003	1046.94
501.22	997.94
501.437	958.94
501.654	932.94
501.871	884.94
