Data from 1976.PennyLincolnUp.Lamp.En5.5.200Scan.071719.P1.Changed Mount._HRD10591_15-59-29-859.txt Node
Date: Thu Jul 18 15:59:29 EDT 2019
User: cochatt
Spectrometer: HR+D1059
Trigger mode: 1
Integration Time (sec): 1.000000E-1
Scans to average: 1
Electric dark correction enabled: true
Nonlinearity correction enabled: false
Boxcar width: 0
XAxis mode: Wavelengths
Number of Pixels in Spectrum: 2048
>>>>>Begin Spectral Data<<<<<
223.165	-14.06
223.4	-14.06
223.635	-14.06
223.869	-23.06
224.104	-24.06
224.338	-11.06
224.573	-33.06
224.808	-19.06
225.042	-7.06
225.277	1.94
225.511	-5.06
225.746	22.94
225.98	7.94
226.215	10.94
226.449	25.94
226.683	9.94
226.918	22.94
227.152	33.94
227.387	21.94
227.621	37.94
227.856	43.94
228.09	48.94
228.324	50.94
228.559	42.94
228.793	65.94
229.027	81.94
229.262	81.94
229.496	87.94
229.73	116.94
229.964	132.94
230.199	96.94
230.433	110.94
230.667	112.94
230.901	101.94
231.136	96.94
231.37	103.94
231.604	116.94
231.838	102.94
232.072	107.94
232.306	100.94
232.541	101.94
232.775	101.94
233.009	100.94
233.243	107.94
233.477	108.94
233.711	89.94
233.945	101.94
234.179	125.94
234.413	113.94
234.647	98.94
234.881	108.94
235.115	102.94
235.349	96.94
235.583	104.94
235.817	106.94
236.051	111.94
236.285	100.94
236.519	118.94
236.753	116.94
236.987	121.94
237.221	146.94
237.455	176.94
237.689	148.94
237.922	117.94
238.156	96.94
238.39	122.94
238.624	120.94
238.858	115.94
239.091	132.94
239.325	116.94
239.559	124.94
239.793	112.94
240.027	124.94
240.26	124.94
240.494	119.94
240.728	130.94
240.961	116.94
241.195	128.94
241.429	126.94
241.662	118.94
241.896	122.94
242.13	127.94
242.363	118.94
242.597	134.94
242.83	125.94
243.064	116.94
243.298	131.94
243.531	132.94
243.765	134.94
243.998	125.94
244.232	115.94
244.465	133.94
244.699	136.94
244.932	124.94
245.166	123.94
245.399	126.94
245.633	138.94
245.866	141.94
246.099	126.94
246.333	135.94
246.566	136.94
246.8	128.94
247.033	136.94
247.266	152.94
247.5	147.94
247.733	143.94
247.966	167.94
248.2	163.94
248.433	152.94
248.666	152.94
248.899	165.94
249.133	170.94
249.366	174.94
249.599	171.94
249.832	169.94
250.066	153.94
250.299	173.94
250.532	170.94
250.765	187.94
250.998	169.94
251.231	185.94
251.465	182.94
251.698	170.94
251.931	179.94
252.164	172.94
252.397	158.94
252.63	177.94
252.863	176.94
253.096	185.94
253.329	190.94
253.562	196.94
253.795	190.94
254.028	191.94
254.261	180.94
254.494	195.94
254.727	215.94
254.96	197.94
255.193	218.94
255.426	212.94
255.659	193.94
255.892	199.94
256.124	200.94
256.357	200.94
256.59	181.94
256.823	184.94
257.056	166.94
257.289	167.94
257.521	178.94
257.754	181.94
257.987	170.94
258.22	187.94
258.452	173.94
258.685	199.94
258.918	189.94
259.151	185.94
259.383	181.94
259.616	177.94
259.849	207.94
260.081	204.94
260.314	221.94
260.547	230.94
260.779	205.94
261.012	202.94
261.244	198.94
261.477	198.94
261.71	189.94
261.942	202.94
262.175	199.94
262.407	189.94
262.64	193.94
262.872	193.94
263.105	213.94
263.337	190.94
263.57	183.94
263.802	181.94
264.035	208.94
264.267	198.94
264.499	189.94
264.732	200.94
264.964	197.94
265.197	186.94
265.429	206.94
265.661	205.94
265.894	212.94
266.126	217.94
266.358	191.94
266.591	205.94
266.823	191.94
267.055	219.94
267.287	230.94
267.52	218.94
267.752	202.94
267.984	210.94
268.216	198.94
268.448	198.94
268.681	219.94
268.913	210.94
269.145	240.94
269.377	231.94
269.609	210.94
269.841	248.94
270.073	236.94
270.306	243.94
270.538	265.94
270.77	265.94
271.002	234.94
271.234	258.94
271.466	257.94
271.698	260.94
271.93	267.94
272.162	264.94
272.394	259.94
272.626	253.94
272.858	249.94
273.09	248.94
273.322	251.94
273.553	243.94
273.785	234.94
274.017	233.94
274.249	223.94
274.481	235.94
274.713	240.94
274.945	240.94
275.176	239.94
275.408	239.94
275.64	253.94
275.872	248.94
276.104	222.94
276.335	228.94
276.567	228.94
276.799	243.94
277.031	265.94
277.262	267.94
277.494	265.94
277.726	252.94
277.957	252.94
278.189	256.94
278.421	249.94
278.652	245.94
278.884	235.94
279.115	256.94
279.347	244.94
279.579	240.94
279.81	270.94
280.042	237.94
280.273	225.94
280.505	240.94
280.736	250.94
280.968	245.94
281.199	249.94
281.431	231.94
281.662	258.94
281.894	236.94
282.125	266.94
282.356	249.94
282.588	268.94
282.819	245.94
283.051	246.94
283.282	247.94
283.513	258.94
283.745	252.94
283.976	253.94
284.207	269.94
284.439	274.94
284.67	248.94
284.901	277.94
285.132	270.94
285.364	269.94
285.595	258.94
285.826	265.94
286.057	255.94
286.288	267.94
286.52	258.94
286.751	247.94
286.982	277.94
287.213	276.94
287.444	268.94
287.675	266.94
287.906	276.94
288.138	263.94
288.369	267.94
288.6	276.94
288.831	278.94
289.062	279.94
289.293	265.94
289.524	246.94
289.755	262.94
289.986	284.94
290.217	265.94
290.448	263.94
290.679	265.94
290.91	278.94
291.141	278.94
291.371	262.94
291.602	266.94
291.833	270.94
292.064	270.94
292.295	284.94
292.526	279.94
292.757	268.94
292.987	272.94
293.218	271.94
293.449	274.94
293.68	273.94
293.91	254.94
294.141	268.94
294.372	284.94
294.603	266.94
294.833	255.94
295.064	260.94
295.295	291.94
295.525	291.94
295.756	292.94
295.987	284.94
296.217	288.94
296.448	278.94
296.679	290.94
296.909	276.94
297.14	275.94
297.37	270.94
297.601	307.94
297.831	301.94
298.062	297.94
298.292	285.94
298.523	291.94
298.753	289.94
298.984	299.94
299.214	295.94
299.445	278.94
299.675	298.94
299.905	296.94
300.136	291.94
300.366	294.94
300.597	309.94
300.827	289.94
301.057	296.94
301.288	302.94
301.518	298.94
301.748	312.94
301.979	292.94
302.209	296.94
302.439	309.94
302.669	305.94
302.9	301.94
303.13	312.94
303.36	310.94
303.59	300.94
303.82	315.94
304.051	304.94
304.281	308.94
304.511	294.94
304.741	302.94
304.971	303.94
305.201	299.94
305.431	298.94
305.661	300.94
305.891	320.94
306.121	296.94
306.352	315.94
306.582	312.94
306.812	296.94
307.042	290.94
307.272	308.94
307.502	314.94
307.731	311.94
307.961	301.94
308.191	295.94
308.421	308.94
308.651	312.94
308.881	304.94
309.111	300.94
309.341	292.94
309.571	301.94
309.8	315.94
310.03	343.94
310.26	318.94
310.49	320.94
310.72	336.94
310.949	329.94
311.179	346.94
311.409	339.94
311.639	324.94
311.868	300.94
312.098	333.94
312.328	329.94
312.557	349.94
312.787	343.94
313.017	348.94
313.246	341.94
313.476	324.94
313.706	321.94
313.935	338.94
314.165	350.94
314.394	358.94
314.624	343.94
314.853	355.94
315.083	318.94
315.312	331.94
315.542	342.94
315.771	326.94
316.001	321.94
316.23	344.94
316.46	320.94
316.689	336.94
316.919	340.94
317.148	328.94
317.377	358.94
317.607	348.94
317.836	325.94
318.065	338.94
318.295	339.94
318.524	340.94
318.753	352.94
318.983	326.94
319.212	340.94
319.441	352.94
319.67	348.94
319.9	333.94
320.129	339.94
320.358	338.94
320.587	334.94
320.816	357.94
321.046	368.94
321.275	348.94
321.504	341.94
321.733	334.94
321.962	358.94
322.191	374.94
322.42	379.94
322.649	349.94
322.878	384.94
323.108	388.94
323.337	386.94
323.566	368.94
323.795	395.94
324.024	409.94
324.253	493.94
324.482	642.94
324.71	953.94
324.939	1382.94
325.168	1214.94
325.397	640.94
325.626	451.94
325.855	388.94
326.084	392.94
326.313	408.94
326.542	381.94
326.77	434.94
326.999	483.94
327.228	606.94
327.457	895.94
327.686	1054.94
327.914	722.94
328.143	480.94
328.372	434.94
328.6	421.94
328.829	413.94
329.058	439.94
329.287	428.94
329.515	410.94
329.744	412.94
329.972	417.94
330.201	398.94
330.43	395.94
330.658	442.94
330.887	464.94
331.115	443.94
331.344	411.94
331.572	411.94
331.801	412.94
332.03	422.94
332.258	395.94
332.486	404.94
332.715	385.94
332.943	400.94
333.172	420.94
333.4	408.94
333.629	412.94
333.857	410.94
334.085	434.94
334.314	428.94
334.542	448.94
334.771	445.94
334.999	418.94
335.227	414.94
335.455	421.94
335.684	400.94
335.912	415.94
336.14	407.94
336.369	412.94
336.597	405.94
336.825	406.94
337.053	412.94
337.281	406.94
337.51	395.94
337.738	388.94
337.966	376.94
338.194	398.94
338.422	390.94
338.65	396.94
338.878	414.94
339.106	392.94
339.334	390.94
339.562	373.94
339.79	388.94
340.018	365.94
340.246	384.94
340.474	397.94
340.702	393.94
340.93	390.94
341.158	392.94
341.386	390.94
341.614	396.94
341.842	381.94
342.07	375.94
342.298	367.94
342.526	380.94
342.754	378.94
342.981	365.94
343.209	384.94
343.437	386.94
343.665	395.94
343.893	407.94
344.12	432.94
344.348	404.94
344.576	396.94
344.804	420.94
345.031	369.94
345.259	392.94
345.487	376.94
345.714	388.94
345.942	369.94
346.17	384.94
346.397	372.94
346.625	377.94
346.853	380.94
347.08	375.94
347.308	386.94
347.535	391.94
347.763	401.94
347.99	392.94
348.218	372.94
348.445	401.94
348.673	372.94
348.9	361.94
349.128	365.94
349.355	373.94
349.583	355.94
349.81	368.94
350.037	370.94
350.265	358.94
350.492	340.94
350.72	354.94
350.947	372.94
351.174	369.94
351.402	380.94
351.629	383.94
351.856	378.94
352.083	353.94
352.311	378.94
352.538	364.94
352.765	396.94
352.992	372.94
353.22	396.94
353.447	371.94
353.674	372.94
353.901	357.94
354.128	363.94
354.355	359.94
354.583	372.94
354.81	364.94
355.037	352.94
355.264	348.94
355.491	370.94
355.718	356.94
355.945	340.94
356.172	358.94
356.399	355.94
356.626	334.94
356.853	348.94
357.08	358.94
357.307	347.94
357.534	359.94
357.761	348.94
357.988	343.94
358.215	350.94
358.441	372.94
358.668	360.94
358.895	373.94
359.122	361.94
359.349	348.94
359.576	362.94
359.802	358.94
360.029	375.94
360.256	379.94
360.483	381.94
360.709	355.94
360.936	376.94
361.163	354.94
361.39	378.94
361.616	358.94
361.843	352.94
362.07	371.94
362.296	374.94
362.523	372.94
362.749	380.94
362.976	376.94
363.203	361.94
363.429	364.94
363.656	342.94
363.882	338.94
364.109	366.94
364.335	373.94
364.562	360.94
364.788	345.94
365.015	340.94
365.241	349.94
365.468	374.94
365.694	349.94
365.92	374.94
366.147	372.94
366.373	348.94
366.599	361.94
366.826	343.94
367.052	369.94
367.278	348.94
367.505	368.94
367.731	356.94
367.957	376.94
368.184	377.94
368.41	358.94
368.636	362.94
368.862	378.94
369.089	372.94
369.315	345.94
369.541	368.94
369.767	368.94
369.993	380.94
370.219	356.94
370.445	373.94
370.672	351.94
370.898	364.94
371.124	370.94
371.35	374.94
371.576	365.94
371.802	378.94
372.028	362.94
372.254	377.94
372.48	392.94
372.706	380.94
372.932	381.94
373.158	380.94
373.384	363.94
373.61	395.94
373.835	378.94
374.061	376.94
374.287	393.94
374.513	371.94
374.739	369.94
374.965	390.94
375.191	389.94
375.416	395.94
375.642	364.94
375.868	379.94
376.094	399.94
376.319	369.94
376.545	386.94
376.771	370.94
376.997	382.94
377.222	380.94
377.448	373.94
377.674	372.94
377.899	354.94
378.125	359.94
378.35	373.94
378.576	365.94
378.802	368.94
379.027	363.94
379.253	388.94
379.478	391.94
379.704	374.94
379.929	361.94
380.155	364.94
380.38	362.94
380.606	377.94
380.831	388.94
381.057	379.94
381.282	380.94
381.507	355.94
381.733	372.94
381.958	384.94
382.184	407.94
382.409	391.94
382.634	390.94
382.86	399.94
383.085	404.94
383.31	387.94
383.535	398.94
383.761	377.94
383.986	403.94
384.211	407.94
384.436	400.94
384.662	414.94
384.887	418.94
385.112	406.94
385.337	420.94
385.562	425.94
385.787	426.94
386.013	452.94
386.238	422.94
386.463	439.94
386.688	436.94
386.913	427.94
387.138	419.94
387.363	416.94
387.588	406.94
387.813	433.94
388.038	415.94
388.263	438.94
388.488	440.94
388.713	427.94
388.938	418.94
389.163	405.94
389.387	405.94
389.612	410.94
389.837	414.94
390.062	416.94
390.287	416.94
390.512	402.94
390.736	412.94
390.961	427.94
391.186	414.94
391.411	423.94
391.636	437.94
391.86	457.94
392.085	437.94
392.31	441.94
392.534	435.94
392.759	424.94
392.984	448.94
393.208	424.94
393.433	410.94
393.658	422.94
393.882	404.94
394.107	424.94
394.331	437.94
394.556	424.94
394.78	434.94
395.005	420.94
395.229	438.94
395.454	436.94
395.678	429.94
395.903	444.94
396.127	446.94
396.352	452.94
396.576	444.94
396.801	448.94
397.025	444.94
397.249	433.94
397.474	430.94
397.698	432.94
397.922	468.94
398.147	484.94
398.371	468.94
398.595	455.94
398.82	473.94
399.044	492.94
399.268	510.94
399.492	549.94
399.717	590.94
399.941	615.94
400.165	623.94
400.389	597.94
400.613	549.94
400.837	501.94
401.062	525.94
401.286	497.94
401.51	480.94
401.734	480.94
401.958	490.94
402.182	486.94
402.406	480.94
402.63	487.94
402.854	494.94
403.078	478.94
403.302	489.94
403.526	488.94
403.75	492.94
403.974	502.94
404.198	485.94
404.422	518.94
404.645	510.94
404.869	508.94
405.093	526.94
405.317	560.94
405.541	569.94
405.765	514.94
405.988	515.94
406.212	519.94
406.436	517.94
406.66	541.94
406.883	516.94
407.107	580.94
407.331	593.94
407.555	654.94
407.778	636.94
408.002	604.94
408.226	553.94
408.449	549.94
408.673	546.94
408.896	565.94
409.12	594.94
409.344	585.94
409.567	522.94
409.791	525.94
410.014	529.94
410.238	500.94
410.461	501.94
410.685	496.94
410.908	505.94
411.132	533.94
411.355	577.94
411.578	545.94
411.802	494.94
412.025	500.94
412.249	500.94
412.472	535.94
412.695	554.94
412.919	521.94
413.142	497.94
413.365	491.94
413.589	484.94
413.812	512.94
414.035	478.94
414.258	490.94
414.482	494.94
414.705	485.94
414.928	496.94
415.151	468.94
415.374	459.94
415.597	443.94
415.821	472.94
416.044	463.94
416.267	472.94
416.49	470.94
416.713	488.94
416.936	468.94
417.159	472.94
417.382	480.94
417.605	482.94
417.828	481.94
418.051	474.94
418.274	499.94
418.497	471.94
418.72	477.94
418.943	466.94
419.166	487.94
419.389	506.94
419.611	508.94
419.834	514.94
420.057	504.94
420.28	478.94
420.503	496.94
420.726	478.94
420.948	485.94
421.171	533.94
421.394	550.94
421.617	488.94
421.839	504.94
422.062	484.94
422.285	480.94
422.507	539.94
422.73	586.94
422.953	564.94
423.175	546.94
423.398	504.94
423.621	500.94
423.843	529.94
424.066	528.94
424.288	527.94
424.511	530.94
424.733	553.94
424.956	631.94
425.178	588.94
425.401	593.94
425.623	617.94
425.846	509.94
426.068	511.94
426.291	471.94
426.513	510.94
426.735	502.94
426.958	546.94
427.18	595.94
427.402	716.94
427.625	778.94
427.847	656.94
428.069	572.94
428.292	509.94
428.514	496.94
428.736	488.94
428.958	474.94
429.181	461.94
429.403	448.94
429.625	456.94
429.847	474.94
430.069	546.94
430.292	554.94
430.514	483.94
430.736	471.94
430.958	477.94
431.18	432.94
431.402	459.94
431.624	452.94
431.846	453.94
432.068	475.94
432.29	467.94
432.512	444.94
432.734	446.94
432.956	439.94
433.178	478.94
433.4	460.94
433.622	461.94
433.844	476.94
434.066	442.94
434.287	464.94
434.509	485.94
434.731	498.94
434.953	482.94
435.175	482.94
435.397	497.94
435.618	495.94
435.84	536.94
436.062	609.94
436.284	672.94
436.505	572.94
436.727	503.94
436.949	477.94
437.17	454.94
437.392	457.94
437.614	474.94
437.835	463.94
438.057	544.94
438.278	630.94
438.5	630.94
438.721	685.94
438.943	702.94
439.165	558.94
439.386	501.94
439.608	496.94
439.829	487.94
440.05	500.94
440.272	536.94
440.493	516.94
440.715	490.94
440.936	467.94
441.158	464.94
441.379	464.94
441.6	492.94
441.822	501.94
442.043	540.94
442.264	600.94
442.486	607.94
442.707	557.94
442.928	510.94
443.149	516.94
443.371	519.94
443.592	569.94
443.813	644.94
444.034	700.94
444.255	596.94
444.476	534.94
444.698	522.94
444.919	532.94
445.14	635.94
445.361	569.94
445.582	544.94
445.803	576.94
446.024	670.94
446.245	646.94
446.466	594.94
446.687	541.94
446.908	500.94
447.129	469.94
447.35	474.94
447.571	471.94
447.792	437.94
448.013	468.94
448.234	478.94
448.455	505.94
448.675	594.94
448.896	715.94
449.117	591.94
449.338	528.94
449.559	638.94
449.779	742.94
450	595.94
450.221	505.94
450.442	442.94
450.662	440.94
450.883	460.94
451.104	470.94
451.324	438.94
451.545	457.94
451.766	432.94
451.986	410.94
452.207	430.94
452.428	408.94
452.648	419.94
452.869	439.94
453.089	407.94
453.31	394.94
453.53	418.94
453.751	411.94
453.971	391.94
454.192	422.94
454.412	404.94
454.633	411.94
454.853	414.94
455.073	411.94
455.294	407.94
455.514	455.94
455.734	469.94
455.955	403.94
456.175	388.94
456.395	397.94
456.616	368.94
456.836	385.94
457.056	373.94
457.276	388.94
457.497	377.94
457.717	380.94
457.937	410.94
458.157	400.94
458.377	403.94
458.598	444.94
458.818	447.94
459.038	525.94
459.258	525.94
459.478	461.94
459.698	462.94
459.918	443.94
460.138	460.94
460.358	464.94
460.578	453.94
460.798	479.94
461.018	492.94
461.238	497.94
461.458	475.94
461.678	464.94
461.898	462.94
462.118	475.94
462.338	513.94
462.558	500.94
462.777	503.94
462.997	524.94
463.217	552.94
463.437	558.94
463.657	527.94
463.876	543.94
464.096	517.94
464.316	526.94
464.536	514.94
464.755	516.94
464.975	530.94
465.195	550.94
465.414	536.94
465.634	498.94
465.854	483.94
466.073	465.94
466.293	444.94
466.512	432.94
466.732	429.94
466.951	430.94
467.171	434.94
467.391	420.94
467.61	436.94
467.829	431.94
468.049	419.94
468.268	445.94
468.488	414.94
468.707	422.94
468.927	435.94
469.146	421.94
469.365	448.94
469.585	441.94
469.804	465.94
470.023	438.94
470.243	440.94
470.462	451.94
470.681	439.94
470.901	432.94
471.12	429.94
471.339	447.94
471.558	436.94
471.777	447.94
471.997	422.94
472.216	421.94
472.435	433.94
472.654	450.94
472.873	443.94
473.092	425.94
473.311	414.94
473.53	441.94
473.749	428.94
473.968	458.94
474.187	516.94
474.406	544.94
474.625	474.94
474.844	460.94
475.063	445.94
475.282	456.94
475.501	448.94
475.72	458.94
475.939	441.94
476.158	434.94
476.377	461.94
476.596	434.94
476.814	451.94
477.033	464.94
477.252	474.94
477.471	480.94
477.69	453.94
477.908	458.94
478.127	494.94
478.346	510.94
478.564	529.94
478.783	496.94
479.002	520.94
479.22	497.94
479.439	504.94
479.658	529.94
479.876	491.94
480.095	542.94
480.313	555.94
480.532	560.94
480.751	574.94
480.969	544.94
481.188	561.94
481.406	554.94
481.624	536.94
481.843	516.94
482.061	524.94
482.28	494.94
482.498	504.94
482.717	493.94
482.935	475.94
483.153	528.94
483.372	524.94
483.59	514.94
483.808	506.94
484.027	499.94
484.245	497.94
484.463	526.94
484.681	532.94
484.9	526.94
485.118	540.94
485.336	506.94
485.554	505.94
485.772	542.94
485.99	555.94
486.209	532.94
486.427	516.94
486.645	563.94
486.863	542.94
487.081	531.94
487.299	541.94
487.517	538.94
487.735	551.94
487.953	527.94
488.171	552.94
488.389	568.94
488.607	545.94
488.825	555.94
489.043	539.94
489.261	539.94
489.479	554.94
489.696	536.94
489.914	564.94
490.132	551.94
490.35	579.94
490.568	563.94
490.786	580.94
491.003	591.94
491.221	613.94
491.439	601.94
491.657	611.94
491.874	616.94
492.092	588.94
492.31	604.94
492.527	609.94
492.745	592.94
492.963	611.94
493.18	609.94
493.398	629.94
493.615	611.94
493.833	611.94
494.05	606.94
494.268	607.94
494.485	602.94
494.703	618.94
494.92	644.94
495.138	617.94
495.355	632.94
495.573	626.94
495.79	638.94
496.008	645.94
496.225	658.94
496.442	630.94
496.66	635.94
496.877	647.94
497.094	635.94
497.312	657.94
497.529	649.94
497.746	664.94
497.963	662.94
498.181	710.94
498.398	729.94
498.615	730.94
498.832	746.94
499.049	760.94
499.267	789.94
499.484	823.94
499.701	880.94
499.918	929.94
500.135	951.94
500.352	1026.94
500.569	1047.94
500.786	1042.94
501.003	1031.94
501.22	979.94
501.437	957.94
501.654	880.94
501.871	857.94
