Data from 1976.PennyLincolnUp.Lamp.En5.5.200Scan.071719.P1.Changed Mount._HRD10591_16-01-43-861.txt Node
Date: Thu Jul 18 16:01:43 EDT 2019
User: cochatt
Spectrometer: HR+D1059
Trigger mode: 1
Integration Time (sec): 1.000000E-1
Scans to average: 1
Electric dark correction enabled: true
Nonlinearity correction enabled: false
Boxcar width: 0
XAxis mode: Wavelengths
Number of Pixels in Spectrum: 2048
>>>>>Begin Spectral Data<<<<<
223.165	-12.81
223.4	-12.81
223.635	-12.81
223.869	-10.81
224.104	-25.81
224.338	-19.81
224.573	-9.81
224.808	-4.81
225.042	-12.81
225.277	5.19
225.511	5.19
225.746	-5.81
225.98	-1.81
226.215	11.19
226.449	10.19
226.683	7.19
226.918	27.19
227.152	38.19
227.387	52.19
227.621	44.19
227.856	38.19
228.09	43.19
228.324	62.19
228.559	49.19
228.793	63.19
229.027	99.19
229.262	105.19
229.496	109.19
229.73	124.19
229.964	162.19
230.199	120.19
230.433	107.19
230.667	117.19
230.901	116.19
231.136	115.19
231.37	113.19
231.604	114.19
231.838	110.19
232.072	117.19
232.306	113.19
232.541	118.19
232.775	101.19
233.009	117.19
233.243	91.19
233.477	117.19
233.711	117.19
233.945	105.19
234.179	104.19
234.413	106.19
234.647	110.19
234.881	118.19
235.115	118.19
235.349	109.19
235.583	131.19
235.817	114.19
236.051	120.19
236.285	121.19
236.519	130.19
236.753	133.19
236.987	145.19
237.221	173.19
237.455	244.19
237.689	165.19
237.922	140.19
238.156	131.19
238.39	123.19
238.624	138.19
238.858	132.19
239.091	128.19
239.325	136.19
239.559	130.19
239.793	126.19
240.027	128.19
240.26	147.19
240.494	155.19
240.728	165.19
240.961	145.19
241.195	155.19
241.429	135.19
241.662	135.19
241.896	135.19
242.13	157.19
242.363	129.19
242.597	144.19
242.83	144.19
243.064	135.19
243.298	145.19
243.531	139.19
243.765	135.19
243.998	135.19
244.232	149.19
244.465	154.19
244.699	145.19
244.932	149.19
245.166	155.19
245.399	153.19
245.633	166.19
245.866	160.19
246.099	160.19
246.333	154.19
246.566	135.19
246.8	155.19
247.033	167.19
247.266	159.19
247.5	171.19
247.733	180.19
247.966	181.19
248.2	161.19
248.433	168.19
248.666	173.19
248.899	183.19
249.133	201.19
249.366	193.19
249.599	192.19
249.832	182.19
250.066	188.19
250.299	193.19
250.532	183.19
250.765	197.19
250.998	227.19
251.231	230.19
251.465	229.19
251.698	208.19
251.931	203.19
252.164	202.19
252.397	189.19
252.63	202.19
252.863	202.19
253.096	219.19
253.329	240.19
253.562	222.19
253.795	206.19
254.028	231.19
254.261	226.19
254.494	234.19
254.727	265.19
254.96	271.19
255.193	262.19
255.426	229.19
255.659	228.19
255.892	228.19
256.124	225.19
256.357	235.19
256.59	214.19
256.823	211.19
257.056	224.19
257.289	223.19
257.521	203.19
257.754	211.19
257.987	225.19
258.22	211.19
258.452	204.19
258.685	207.19
258.918	219.19
259.151	208.19
259.383	216.19
259.616	229.19
259.849	215.19
260.081	235.19
260.314	262.19
260.547	270.19
260.779	247.19
261.012	255.19
261.244	249.19
261.477	239.19
261.71	214.19
261.942	217.19
262.175	219.19
262.407	220.19
262.64	210.19
262.872	211.19
263.105	217.19
263.337	215.19
263.57	251.19
263.802	221.19
264.035	234.19
264.267	213.19
264.499	230.19
264.732	209.19
264.964	219.19
265.197	238.19
265.429	232.19
265.661	206.19
265.894	220.19
266.126	222.19
266.358	234.19
266.591	229.19
266.823	244.19
267.055	227.19
267.287	241.19
267.52	235.19
267.752	238.19
267.984	241.19
268.216	247.19
268.448	234.19
268.681	253.19
268.913	253.19
269.145	263.19
269.377	280.19
269.609	286.19
269.841	287.19
270.073	278.19
270.306	316.19
270.538	328.19
270.77	321.19
271.002	325.19
271.234	303.19
271.466	302.19
271.698	318.19
271.93	314.19
272.162	339.19
272.394	333.19
272.626	330.19
272.858	313.19
273.09	289.19
273.322	300.19
273.553	277.19
273.785	273.19
274.017	272.19
274.249	268.19
274.481	284.19
274.713	276.19
274.945	279.19
275.176	272.19
275.408	285.19
275.64	282.19
275.872	274.19
276.104	286.19
276.335	292.19
276.567	286.19
276.799	280.19
277.031	339.19
277.262	341.19
277.494	334.19
277.726	314.19
277.957	312.19
278.189	295.19
278.421	295.19
278.652	302.19
278.884	289.19
279.115	273.19
279.347	287.19
279.579	291.19
279.81	267.19
280.042	286.19
280.273	288.19
280.505	268.19
280.736	276.19
280.968	277.19
281.199	273.19
281.431	289.19
281.662	264.19
281.894	277.19
282.125	294.19
282.356	305.19
282.588	300.19
282.819	330.19
283.051	303.19
283.282	298.19
283.513	285.19
283.745	291.19
283.976	289.19
284.207	303.19
284.439	311.19
284.67	289.19
284.901	295.19
285.132	298.19
285.364	313.19
285.595	290.19
285.826	293.19
286.057	309.19
286.288	282.19
286.52	297.19
286.751	295.19
286.982	295.19
287.213	302.19
287.444	323.19
287.675	277.19
287.906	322.19
288.138	312.19
288.369	326.19
288.6	311.19
288.831	319.19
289.062	287.19
289.293	328.19
289.524	311.19
289.755	318.19
289.986	312.19
290.217	303.19
290.448	308.19
290.679	301.19
290.91	297.19
291.141	305.19
291.371	313.19
291.602	326.19
291.833	322.19
292.064	322.19
292.295	318.19
292.526	330.19
292.757	311.19
292.987	309.19
293.218	309.19
293.449	315.19
293.68	318.19
293.91	309.19
294.141	325.19
294.372	295.19
294.603	337.19
294.833	325.19
295.064	328.19
295.295	315.19
295.525	325.19
295.756	321.19
295.987	340.19
296.217	358.19
296.448	340.19
296.679	325.19
296.909	330.19
297.14	305.19
297.37	318.19
297.601	343.19
297.831	314.19
298.062	320.19
298.292	327.19
298.523	325.19
298.753	314.19
298.984	332.19
299.214	326.19
299.445	337.19
299.675	324.19
299.905	333.19
300.136	324.19
300.366	342.19
300.597	338.19
300.827	344.19
301.057	347.19
301.288	381.19
301.518	349.19
301.748	342.19
301.979	355.19
302.209	359.19
302.439	354.19
302.669	370.19
302.9	345.19
303.13	353.19
303.36	356.19
303.59	352.19
303.82	357.19
304.051	351.19
304.281	350.19
304.511	343.19
304.741	345.19
304.971	350.19
305.201	332.19
305.431	356.19
305.661	347.19
305.891	362.19
306.121	377.19
306.352	360.19
306.582	345.19
306.812	356.19
307.042	350.19
307.272	350.19
307.502	340.19
307.731	356.19
307.961	344.19
308.191	351.19
308.421	377.19
308.651	359.19
308.881	373.19
309.111	356.19
309.341	363.19
309.571	381.19
309.8	407.19
310.03	382.19
310.26	381.19
310.49	378.19
310.72	396.19
310.949	406.19
311.179	388.19
311.409	411.19
311.639	409.19
311.868	387.19
312.098	392.19
312.328	402.19
312.557	407.19
312.787	422.19
313.017	422.19
313.246	393.19
313.476	392.19
313.706	412.19
313.935	410.19
314.165	390.19
314.394	409.19
314.624	446.19
314.853	417.19
315.083	383.19
315.312	387.19
315.542	407.19
315.771	408.19
316.001	397.19
316.23	381.19
316.46	392.19
316.689	412.19
316.919	385.19
317.148	404.19
317.377	405.19
317.607	394.19
317.836	403.19
318.065	403.19
318.295	378.19
318.524	389.19
318.753	385.19
318.983	403.19
319.212	410.19
319.441	420.19
319.67	403.19
319.9	405.19
320.129	408.19
320.358	394.19
320.587	420.19
320.816	396.19
321.046	413.19
321.275	423.19
321.504	405.19
321.733	412.19
321.962	421.19
322.191	435.19
322.42	427.19
322.649	455.19
322.878	462.19
323.108	460.19
323.337	486.19
323.566	486.19
323.795	511.19
324.024	549.19
324.253	637.19
324.482	877.19
324.71	1388.19
324.939	2054.19
325.168	1751.19
325.397	897.19
325.626	606.19
325.855	538.19
326.084	494.19
326.313	489.19
326.542	523.19
326.77	551.19
326.999	623.19
327.228	819.19
327.457	1249.19
327.686	1553.19
327.914	1047.19
328.143	668.19
328.372	603.19
328.6	559.19
328.829	534.19
329.058	530.19
329.287	563.19
329.515	533.19
329.744	513.19
329.972	492.19
330.201	540.19
330.43	588.19
330.658	595.19
330.887	579.19
331.115	583.19
331.344	527.19
331.572	497.19
331.801	480.19
332.03	497.19
332.258	501.19
332.486	476.19
332.715	492.19
332.943	485.19
333.172	476.19
333.4	510.19
333.629	485.19
333.857	516.19
334.085	523.19
334.314	536.19
334.542	566.19
334.771	558.19
334.999	548.19
335.227	517.19
335.455	512.19
335.684	483.19
335.912	502.19
336.14	470.19
336.369	479.19
336.597	492.19
336.825	469.19
337.053	470.19
337.281	489.19
337.51	482.19
337.738	466.19
337.966	454.19
338.194	451.19
338.422	463.19
338.65	459.19
338.878	458.19
339.106	475.19
339.334	459.19
339.562	459.19
339.79	444.19
340.018	453.19
340.246	441.19
340.474	441.19
340.702	460.19
340.93	444.19
341.158	444.19
341.386	462.19
341.614	472.19
341.842	449.19
342.07	423.19
342.298	445.19
342.526	462.19
342.754	433.19
342.981	425.19
343.209	451.19
343.437	453.19
343.665	461.19
343.893	465.19
344.12	473.19
344.348	485.19
344.576	466.19
344.804	444.19
345.031	476.19
345.259	460.19
345.487	477.19
345.714	442.19
345.942	433.19
346.17	457.19
346.397	432.19
346.625	430.19
346.853	450.19
347.08	437.19
347.308	435.19
347.535	442.19
347.763	431.19
347.99	428.19
348.218	436.19
348.445	436.19
348.673	465.19
348.9	439.19
349.128	416.19
349.355	435.19
349.583	407.19
349.81	392.19
350.037	413.19
350.265	443.19
350.492	421.19
350.72	430.19
350.947	422.19
351.174	419.19
351.402	437.19
351.629	440.19
351.856	449.19
352.083	441.19
352.311	456.19
352.538	423.19
352.765	459.19
352.992	425.19
353.22	412.19
353.447	438.19
353.674	438.19
353.901	416.19
354.128	412.19
354.355	423.19
354.583	429.19
354.81	399.19
355.037	409.19
355.264	402.19
355.491	417.19
355.718	425.19
355.945	413.19
356.172	412.19
356.399	422.19
356.626	402.19
356.853	403.19
357.08	397.19
357.307	421.19
357.534	405.19
357.761	381.19
357.988	409.19
358.215	427.19
358.441	405.19
358.668	409.19
358.895	406.19
359.122	421.19
359.349	428.19
359.576	433.19
359.802	444.19
360.029	459.19
360.256	466.19
360.483	437.19
360.709	433.19
360.936	438.19
361.163	447.19
361.39	449.19
361.616	433.19
361.843	419.19
362.07	437.19
362.296	412.19
362.523	428.19
362.749	443.19
362.976	417.19
363.203	427.19
363.429	418.19
363.656	408.19
363.882	410.19
364.109	427.19
364.335	409.19
364.562	406.19
364.788	440.19
365.015	411.19
365.241	423.19
365.468	416.19
365.694	415.19
365.92	431.19
366.147	415.19
366.373	426.19
366.599	414.19
366.826	400.19
367.052	418.19
367.278	414.19
367.505	428.19
367.731	402.19
367.957	438.19
368.184	430.19
368.41	430.19
368.636	446.19
368.862	443.19
369.089	438.19
369.315	393.19
369.541	420.19
369.767	421.19
369.993	423.19
370.219	403.19
370.445	422.19
370.672	418.19
370.898	426.19
371.124	428.19
371.35	420.19
371.576	431.19
371.802	403.19
372.028	408.19
372.254	415.19
372.48	419.19
372.706	443.19
372.932	413.19
373.158	437.19
373.384	420.19
373.61	421.19
373.835	426.19
374.061	413.19
374.287	428.19
374.513	428.19
374.739	438.19
374.965	414.19
375.191	418.19
375.416	417.19
375.642	415.19
375.868	433.19
376.094	431.19
376.319	420.19
376.545	423.19
376.771	422.19
376.997	408.19
377.222	422.19
377.448	416.19
377.674	421.19
377.899	416.19
378.125	426.19
378.35	424.19
378.576	434.19
378.802	415.19
379.027	414.19
379.253	406.19
379.478	425.19
379.704	412.19
379.929	429.19
380.155	420.19
380.38	416.19
380.606	423.19
380.831	407.19
381.057	422.19
381.282	408.19
381.507	419.19
381.733	425.19
381.958	430.19
382.184	420.19
382.409	407.19
382.634	438.19
382.86	434.19
383.085	447.19
383.31	442.19
383.535	437.19
383.761	450.19
383.986	450.19
384.211	441.19
384.436	454.19
384.662	473.19
384.887	461.19
385.112	460.19
385.337	463.19
385.562	479.19
385.787	461.19
386.013	466.19
386.238	469.19
386.463	457.19
386.688	453.19
386.913	482.19
387.138	473.19
387.363	472.19
387.588	486.19
387.813	460.19
388.038	446.19
388.263	468.19
388.488	466.19
388.713	474.19
388.938	463.19
389.163	476.19
389.387	472.19
389.612	462.19
389.837	456.19
390.062	463.19
390.287	470.19
390.512	468.19
390.736	466.19
390.961	486.19
391.186	443.19
391.411	472.19
391.636	491.19
391.86	499.19
392.085	496.19
392.31	478.19
392.534	487.19
392.759	481.19
392.984	472.19
393.208	480.19
393.433	469.19
393.658	463.19
393.882	484.19
394.107	467.19
394.331	486.19
394.556	447.19
394.78	491.19
395.005	477.19
395.229	471.19
395.454	478.19
395.678	509.19
395.903	498.19
396.127	535.19
396.352	515.19
396.576	477.19
396.801	484.19
397.025	498.19
397.249	486.19
397.474	523.19
397.698	514.19
397.922	531.19
398.147	517.19
398.371	528.19
398.595	533.19
398.82	545.19
399.044	535.19
399.268	593.19
399.492	636.19
399.717	663.19
399.941	694.19
400.165	691.19
400.389	705.19
400.613	628.19
400.837	586.19
401.062	542.19
401.286	570.19
401.51	559.19
401.734	552.19
401.958	547.19
402.182	565.19
402.406	563.19
402.63	547.19
402.854	577.19
403.078	573.19
403.302	559.19
403.526	553.19
403.75	577.19
403.974	574.19
404.198	571.19
404.422	593.19
404.645	579.19
404.869	583.19
405.093	610.19
405.317	656.19
405.541	700.19
405.765	622.19
405.988	593.19
406.212	592.19
406.436	633.19
406.66	637.19
406.883	606.19
407.107	659.19
407.331	705.19
407.555	759.19
407.778	729.19
408.002	682.19
408.226	647.19
408.449	635.19
408.673	618.19
408.896	651.19
409.12	690.19
409.344	653.19
409.567	618.19
409.791	585.19
410.014	563.19
410.238	565.19
410.461	562.19
410.685	575.19
410.908	591.19
411.132	601.19
411.355	655.19
411.578	616.19
411.802	587.19
412.025	580.19
412.249	581.19
412.472	633.19
412.695	635.19
412.919	612.19
413.142	557.19
413.365	565.19
413.589	569.19
413.812	559.19
414.035	525.19
414.258	567.19
414.482	541.19
414.705	554.19
414.928	522.19
415.151	553.19
415.374	532.19
415.597	528.19
415.821	533.19
416.044	549.19
416.267	540.19
416.49	528.19
416.713	514.19
416.936	517.19
417.159	530.19
417.382	546.19
417.605	527.19
417.828	571.19
418.051	545.19
418.274	547.19
418.497	543.19
418.72	537.19
418.943	535.19
419.166	576.19
419.389	581.19
419.611	594.19
419.834	579.19
420.057	546.19
420.28	567.19
420.503	554.19
420.726	558.19
420.948	553.19
421.171	621.19
421.394	631.19
421.617	579.19
421.839	553.19
422.062	556.19
422.285	581.19
422.507	627.19
422.73	706.19
422.953	701.19
423.175	603.19
423.398	581.19
423.621	582.19
423.843	619.19
424.066	589.19
424.288	596.19
424.511	598.19
424.733	678.19
424.956	759.19
425.178	723.19
425.401	703.19
425.623	765.19
425.846	601.19
426.068	595.19
426.291	596.19
426.513	589.19
426.735	595.19
426.958	645.19
427.18	699.19
427.402	850.19
427.625	921.19
427.847	773.19
428.069	700.19
428.292	643.19
428.514	563.19
428.736	579.19
428.958	581.19
429.181	547.19
429.403	559.19
429.625	552.19
429.847	586.19
430.069	647.19
430.292	635.19
430.514	584.19
430.736	550.19
430.958	520.19
431.18	525.19
431.402	521.19
431.624	502.19
431.846	509.19
432.068	521.19
432.29	532.19
432.512	507.19
432.734	519.19
432.956	531.19
433.178	549.19
433.4	536.19
433.622	547.19
433.844	520.19
434.066	527.19
434.287	526.19
434.509	517.19
434.731	548.19
434.953	579.19
435.175	565.19
435.397	571.19
435.618	575.19
435.84	630.19
436.062	726.19
436.284	787.19
436.505	643.19
436.727	558.19
436.949	555.19
437.17	545.19
437.392	555.19
437.614	545.19
437.835	581.19
438.057	642.19
438.278	803.19
438.5	761.19
438.721	827.19
438.943	817.19
439.165	665.19
439.386	597.19
439.608	577.19
439.829	606.19
440.05	627.19
440.272	650.19
440.493	636.19
440.715	556.19
440.936	564.19
441.158	533.19
441.379	534.19
441.6	565.19
441.822	576.19
442.043	643.19
442.264	728.19
442.486	783.19
442.707	657.19
442.928	604.19
443.149	579.19
443.371	610.19
443.592	674.19
443.813	778.19
444.034	837.19
444.255	676.19
444.476	629.19
444.698	603.19
444.919	610.19
445.14	738.19
445.361	649.19
445.582	616.19
445.803	668.19
446.024	780.19
446.245	799.19
446.466	759.19
446.687	652.19
446.908	585.19
447.129	578.19
447.35	541.19
447.571	537.19
447.792	535.19
448.013	525.19
448.234	567.19
448.455	622.19
448.675	729.19
448.896	841.19
449.117	684.19
449.338	650.19
449.559	770.19
449.779	866.19
450	682.19
450.221	583.19
450.442	533.19
450.662	521.19
450.883	515.19
451.104	531.19
451.324	516.19
451.545	507.19
451.766	495.19
451.986	461.19
452.207	467.19
452.428	489.19
452.648	489.19
452.869	484.19
453.089	505.19
453.31	503.19
453.53	501.19
453.751	478.19
453.971	489.19
454.192	491.19
454.412	483.19
454.633	479.19
454.853	473.19
455.073	445.19
455.294	489.19
455.514	556.19
455.734	567.19
455.955	484.19
456.175	465.19
456.395	449.19
456.616	438.19
456.836	446.19
457.056	461.19
457.276	446.19
457.497	477.19
457.717	450.19
457.937	444.19
458.157	451.19
458.377	467.19
458.598	517.19
458.818	533.19
459.038	628.19
459.258	643.19
459.478	552.19
459.698	521.19
459.918	516.19
460.138	538.19
460.358	552.19
460.578	541.19
460.798	523.19
461.018	551.19
461.238	549.19
461.458	546.19
461.678	508.19
461.898	543.19
462.118	521.19
462.338	565.19
462.558	556.19
462.777	587.19
462.997	581.19
463.217	617.19
463.437	618.19
463.657	593.19
463.876	593.19
464.096	573.19
464.316	588.19
464.536	592.19
464.755	617.19
464.975	583.19
465.195	580.19
465.414	623.19
465.634	571.19
465.854	551.19
466.073	527.19
466.293	517.19
466.512	507.19
466.732	490.19
466.951	502.19
467.171	486.19
467.391	493.19
467.61	498.19
467.829	526.19
468.049	484.19
468.268	513.19
468.488	481.19
468.707	495.19
468.927	461.19
469.146	460.19
469.365	483.19
469.585	481.19
469.804	489.19
470.023	505.19
470.243	503.19
470.462	514.19
470.681	522.19
470.901	518.19
471.12	517.19
471.339	482.19
471.558	516.19
471.777	516.19
471.997	475.19
472.216	485.19
472.435	534.19
472.654	509.19
472.873	482.19
473.092	481.19
473.311	493.19
473.53	475.19
473.749	516.19
473.968	547.19
474.187	634.19
474.406	680.19
474.625	551.19
474.844	514.19
475.063	510.19
475.282	490.19
475.501	491.19
475.72	520.19
475.939	500.19
476.158	515.19
476.377	505.19
476.596	517.19
476.814	519.19
477.033	534.19
477.252	547.19
477.471	540.19
477.69	532.19
477.908	540.19
478.127	550.19
478.346	523.19
478.564	543.19
478.783	554.19
479.002	561.19
479.22	579.19
479.439	583.19
479.658	612.19
479.876	609.19
480.095	622.19
480.313	643.19
480.532	641.19
480.751	634.19
480.969	630.19
481.188	678.19
481.406	695.19
481.624	637.19
481.843	592.19
482.061	586.19
482.28	595.19
482.498	569.19
482.717	595.19
482.935	586.19
483.153	576.19
483.372	555.19
483.59	577.19
483.808	604.19
484.027	576.19
484.245	611.19
484.463	587.19
484.681	587.19
484.9	586.19
485.118	585.19
485.336	590.19
485.554	596.19
485.772	604.19
485.99	595.19
486.209	622.19
486.427	621.19
486.645	614.19
486.863	614.19
487.081	621.19
487.299	602.19
487.517	635.19
487.735	626.19
487.953	656.19
488.171	641.19
488.389	645.19
488.607	628.19
488.825	637.19
489.043	635.19
489.261	616.19
489.479	635.19
489.696	665.19
489.914	641.19
490.132	625.19
490.35	627.19
490.568	681.19
490.786	651.19
491.003	688.19
491.221	678.19
491.439	686.19
491.657	719.19
491.874	709.19
492.092	730.19
492.31	698.19
492.527	737.19
492.745	713.19
492.963	744.19
493.18	715.19
493.398	739.19
493.615	726.19
493.833	720.19
494.05	741.19
494.268	715.19
494.485	742.19
494.703	737.19
494.92	751.19
495.138	717.19
495.355	746.19
495.573	760.19
495.79	733.19
496.008	732.19
496.225	753.19
496.442	751.19
496.66	763.19
496.877	758.19
497.094	753.19
497.312	743.19
497.529	787.19
497.746	803.19
497.963	784.19
498.181	825.19
498.398	831.19
498.615	837.19
498.832	876.19
499.049	869.19
499.267	874.19
499.484	921.19
499.701	957.19
499.918	1040.19
500.135	1075.19
500.352	1187.19
500.569	1131.19
500.786	1201.19
501.003	1167.19
501.22	1106.19
501.437	1029.19
501.654	1022.19
