Data from 1976.PennyLincolnUp.Lamp.En5.5.200Scan.071719.P1.Changed Mount._HRD10591_16-01-41-862.txt Node
Date: Thu Jul 18 16:01:41 EDT 2019
User: cochatt
Spectrometer: HR+D1059
Trigger mode: 1
Integration Time (sec): 1.000000E-1
Scans to average: 1
Electric dark correction enabled: true
Nonlinearity correction enabled: false
Boxcar width: 0
XAxis mode: Wavelengths
Number of Pixels in Spectrum: 2048
>>>>>Begin Spectral Data<<<<<
223.165	-13.75
223.4	-13.75
223.635	-13.75
223.869	-35.75
224.104	-11.75
224.338	-13.75
224.573	-17.75
224.808	-16.75
225.042	-6.75
225.277	7.25
225.511	6.25
225.746	3.25
225.98	-10.75
226.215	11.25
226.449	15.25
226.683	29.25
226.918	29.25
227.152	25.25
227.387	23.25
227.621	35.25
227.856	42.25
228.09	26.25
228.324	45.25
228.559	51.25
228.793	71.25
229.027	122.25
229.262	111.25
229.496	101.25
229.73	142.25
229.964	127.25
230.199	126.25
230.433	115.25
230.667	114.25
230.901	119.25
231.136	123.25
231.37	120.25
231.604	102.25
231.838	131.25
232.072	101.25
232.306	105.25
232.541	105.25
232.775	125.25
233.009	137.25
233.243	125.25
233.477	116.25
233.711	121.25
233.945	114.25
234.179	119.25
234.413	122.25
234.647	107.25
234.881	119.25
235.115	107.25
235.349	119.25
235.583	120.25
235.817	107.25
236.051	129.25
236.285	120.25
236.519	129.25
236.753	137.25
236.987	136.25
237.221	179.25
237.455	209.25
237.689	152.25
237.922	138.25
238.156	133.25
238.39	133.25
238.624	122.25
238.858	138.25
239.091	111.25
239.325	119.25
239.559	127.25
239.793	133.25
240.027	129.25
240.26	153.25
240.494	146.25
240.728	149.25
240.961	147.25
241.195	160.25
241.429	134.25
241.662	141.25
241.896	135.25
242.13	141.25
242.363	125.25
242.597	149.25
242.83	134.25
243.064	154.25
243.298	129.25
243.531	149.25
243.765	139.25
243.998	155.25
244.232	125.25
244.465	159.25
244.699	142.25
244.932	145.25
245.166	160.25
245.399	158.25
245.633	157.25
245.866	147.25
246.099	150.25
246.333	151.25
246.566	164.25
246.8	165.25
247.033	170.25
247.266	166.25
247.5	168.25
247.733	174.25
247.966	160.25
248.2	190.25
248.433	165.25
248.666	177.25
248.899	185.25
249.133	217.25
249.366	199.25
249.599	189.25
249.832	195.25
250.066	187.25
250.299	186.25
250.532	198.25
250.765	192.25
250.998	221.25
251.231	209.25
251.465	210.25
251.698	210.25
251.931	190.25
252.164	205.25
252.397	205.25
252.63	204.25
252.863	195.25
253.096	222.25
253.329	242.25
253.562	235.25
253.795	215.25
254.028	209.25
254.261	200.25
254.494	213.25
254.727	263.25
254.96	283.25
255.193	271.25
255.426	254.25
255.659	230.25
255.892	216.25
256.124	215.25
256.357	232.25
256.59	233.25
256.823	207.25
257.056	209.25
257.289	202.25
257.521	224.25
257.754	212.25
257.987	221.25
258.22	213.25
258.452	214.25
258.685	205.25
258.918	193.25
259.151	219.25
259.383	224.25
259.616	234.25
259.849	220.25
260.081	245.25
260.314	258.25
260.547	273.25
260.779	254.25
261.012	267.25
261.244	245.25
261.477	233.25
261.71	225.25
261.942	249.25
262.175	230.25
262.407	222.25
262.64	222.25
262.872	208.25
263.105	222.25
263.337	230.25
263.57	222.25
263.802	228.25
264.035	225.25
264.267	211.25
264.499	217.25
264.732	217.25
264.964	218.25
265.197	225.25
265.429	219.25
265.661	230.25
265.894	221.25
266.126	234.25
266.358	209.25
266.591	234.25
266.823	228.25
267.055	231.25
267.287	244.25
267.52	236.25
267.752	236.25
267.984	235.25
268.216	230.25
268.448	261.25
268.681	257.25
268.913	248.25
269.145	281.25
269.377	280.25
269.609	281.25
269.841	279.25
270.073	269.25
270.306	293.25
270.538	317.25
270.77	315.25
271.002	297.25
271.234	309.25
271.466	315.25
271.698	308.25
271.93	325.25
272.162	298.25
272.394	303.25
272.626	312.25
272.858	302.25
273.09	289.25
273.322	286.25
273.553	277.25
273.785	265.25
274.017	281.25
274.249	268.25
274.481	275.25
274.713	266.25
274.945	272.25
275.176	281.25
275.408	277.25
275.64	279.25
275.872	279.25
276.104	300.25
276.335	283.25
276.567	260.25
276.799	285.25
277.031	305.25
277.262	311.25
277.494	329.25
277.726	309.25
277.957	286.25
278.189	297.25
278.421	286.25
278.652	291.25
278.884	265.25
279.115	284.25
279.347	270.25
279.579	286.25
279.81	280.25
280.042	268.25
280.273	284.25
280.505	285.25
280.736	283.25
280.968	307.25
281.199	289.25
281.431	286.25
281.662	288.25
281.894	290.25
282.125	283.25
282.356	310.25
282.588	318.25
282.819	321.25
283.051	291.25
283.282	290.25
283.513	298.25
283.745	293.25
283.976	284.25
284.207	297.25
284.439	305.25
284.67	296.25
284.901	319.25
285.132	311.25
285.364	314.25
285.595	292.25
285.826	294.25
286.057	312.25
286.288	285.25
286.52	310.25
286.751	278.25
286.982	291.25
287.213	296.25
287.444	302.25
287.675	305.25
287.906	330.25
288.138	314.25
288.369	328.25
288.6	316.25
288.831	328.25
289.062	310.25
289.293	316.25
289.524	323.25
289.755	291.25
289.986	321.25
290.217	313.25
290.448	297.25
290.679	320.25
290.91	317.25
291.141	308.25
291.371	340.25
291.602	311.25
291.833	321.25
292.064	324.25
292.295	329.25
292.526	327.25
292.757	318.25
292.987	323.25
293.218	301.25
293.449	317.25
293.68	331.25
293.91	334.25
294.141	315.25
294.372	322.25
294.603	303.25
294.833	309.25
295.064	312.25
295.295	316.25
295.525	314.25
295.756	335.25
295.987	325.25
296.217	334.25
296.448	331.25
296.679	341.25
296.909	314.25
297.14	325.25
297.37	307.25
297.601	310.25
297.831	335.25
298.062	327.25
298.292	326.25
298.523	329.25
298.753	326.25
298.984	323.25
299.214	333.25
299.445	327.25
299.675	326.25
299.905	350.25
300.136	320.25
300.366	341.25
300.597	329.25
300.827	349.25
301.057	327.25
301.288	354.25
301.518	349.25
301.748	322.25
301.979	351.25
302.209	371.25
302.439	353.25
302.669	361.25
302.9	346.25
303.13	351.25
303.36	350.25
303.59	358.25
303.82	349.25
304.051	336.25
304.281	353.25
304.511	348.25
304.741	364.25
304.971	370.25
305.201	361.25
305.431	357.25
305.661	352.25
305.891	363.25
306.121	366.25
306.352	364.25
306.582	346.25
306.812	354.25
307.042	360.25
307.272	364.25
307.502	363.25
307.731	347.25
307.961	374.25
308.191	362.25
308.421	368.25
308.651	366.25
308.881	345.25
309.111	346.25
309.341	353.25
309.571	387.25
309.8	383.25
310.03	393.25
310.26	385.25
310.49	399.25
310.72	387.25
310.949	403.25
311.179	414.25
311.409	380.25
311.639	389.25
311.868	390.25
312.098	396.25
312.328	388.25
312.557	402.25
312.787	413.25
313.017	424.25
313.246	389.25
313.476	400.25
313.706	419.25
313.935	401.25
314.165	410.25
314.394	410.25
314.624	402.25
314.853	396.25
315.083	394.25
315.312	419.25
315.542	394.25
315.771	388.25
316.001	391.25
316.23	394.25
316.46	396.25
316.689	391.25
316.919	406.25
317.148	401.25
317.377	409.25
317.607	396.25
317.836	398.25
318.065	403.25
318.295	405.25
318.524	402.25
318.753	417.25
318.983	393.25
319.212	389.25
319.441	410.25
319.67	412.25
319.9	413.25
320.129	406.25
320.358	425.25
320.587	407.25
320.816	423.25
321.046	414.25
321.275	404.25
321.504	415.25
321.733	417.25
321.962	437.25
322.191	439.25
322.42	415.25
322.649	430.25
322.878	449.25
323.108	467.25
323.337	501.25
323.566	503.25
323.795	502.25
324.024	534.25
324.253	628.25
324.482	870.25
324.71	1326.25
324.939	1958.25
325.168	1690.25
325.397	883.25
325.626	601.25
325.855	535.25
326.084	511.25
326.313	494.25
326.542	506.25
326.77	525.25
326.999	608.25
327.228	793.25
327.457	1212.25
327.686	1465.25
327.914	998.25
328.143	681.25
328.372	599.25
328.6	584.25
328.829	543.25
329.058	556.25
329.287	565.25
329.515	525.25
329.744	540.25
329.972	537.25
330.201	521.25
330.43	544.25
330.658	573.25
330.887	576.25
331.115	579.25
331.344	521.25
331.572	473.25
331.801	465.25
332.03	515.25
332.258	517.25
332.486	492.25
332.715	465.25
332.943	493.25
333.172	512.25
333.4	509.25
333.629	499.25
333.857	535.25
334.085	514.25
334.314	549.25
334.542	562.25
334.771	578.25
334.999	553.25
335.227	492.25
335.455	491.25
335.684	503.25
335.912	462.25
336.14	494.25
336.369	464.25
336.597	476.25
336.825	467.25
337.053	490.25
337.281	474.25
337.51	487.25
337.738	461.25
337.966	465.25
338.194	477.25
338.422	471.25
338.65	477.25
338.878	470.25
339.106	462.25
339.334	471.25
339.562	470.25
339.79	457.25
340.018	456.25
340.246	438.25
340.474	456.25
340.702	430.25
340.93	452.25
341.158	435.25
341.386	448.25
341.614	471.25
341.842	451.25
342.07	463.25
342.298	442.25
342.526	422.25
342.754	433.25
342.981	455.25
343.209	428.25
343.437	447.25
343.665	444.25
343.893	441.25
344.12	471.25
344.348	484.25
344.576	467.25
344.804	473.25
345.031	475.25
345.259	476.25
345.487	465.25
345.714	465.25
345.942	452.25
346.17	451.25
346.397	440.25
346.625	411.25
346.853	436.25
347.08	441.25
347.308	453.25
347.535	433.25
347.763	463.25
347.99	428.25
348.218	439.25
348.445	441.25
348.673	447.25
348.9	445.25
349.128	417.25
349.355	425.25
349.583	421.25
349.81	415.25
350.037	411.25
350.265	417.25
350.492	405.25
350.72	431.25
350.947	429.25
351.174	418.25
351.402	442.25
351.629	444.25
351.856	438.25
352.083	422.25
352.311	434.25
352.538	445.25
352.765	459.25
352.992	450.25
353.22	439.25
353.447	429.25
353.674	420.25
353.901	423.25
354.128	418.25
354.355	427.25
354.583	432.25
354.81	412.25
355.037	410.25
355.264	407.25
355.491	412.25
355.718	415.25
355.945	410.25
356.172	403.25
356.399	411.25
356.626	401.25
356.853	403.25
357.08	405.25
357.307	387.25
357.534	417.25
357.761	407.25
357.988	418.25
358.215	417.25
358.441	397.25
358.668	420.25
358.895	406.25
359.122	415.25
359.349	428.25
359.576	435.25
359.802	463.25
360.029	475.25
360.256	474.25
360.483	461.25
360.709	439.25
360.936	429.25
361.163	433.25
361.39	441.25
361.616	436.25
361.843	428.25
362.07	449.25
362.296	423.25
362.523	459.25
362.749	444.25
362.976	420.25
363.203	444.25
363.429	407.25
363.656	415.25
363.882	419.25
364.109	424.25
364.335	417.25
364.562	411.25
364.788	402.25
365.015	423.25
365.241	424.25
365.468	425.25
365.694	433.25
365.92	435.25
366.147	417.25
366.373	436.25
366.599	429.25
366.826	410.25
367.052	409.25
367.278	422.25
367.505	411.25
367.731	416.25
367.957	420.25
368.184	411.25
368.41	429.25
368.636	413.25
368.862	431.25
369.089	419.25
369.315	408.25
369.541	403.25
369.767	405.25
369.993	428.25
370.219	435.25
370.445	408.25
370.672	413.25
370.898	403.25
371.124	418.25
371.35	423.25
371.576	413.25
371.802	430.25
372.028	437.25
372.254	431.25
372.48	411.25
372.706	430.25
372.932	430.25
373.158	426.25
373.384	448.25
373.61	434.25
373.835	433.25
374.061	443.25
374.287	444.25
374.513	420.25
374.739	444.25
374.965	463.25
375.191	458.25
375.416	456.25
375.642	449.25
375.868	433.25
376.094	428.25
376.319	427.25
376.545	425.25
376.771	438.25
376.997	429.25
377.222	419.25
377.448	440.25
377.674	426.25
377.899	410.25
378.125	426.25
378.35	422.25
378.576	409.25
378.802	407.25
379.027	422.25
379.253	443.25
379.478	414.25
379.704	413.25
379.929	410.25
380.155	413.25
380.38	433.25
380.606	423.25
380.831	426.25
381.057	422.25
381.282	424.25
381.507	428.25
381.733	412.25
381.958	418.25
382.184	419.25
382.409	430.25
382.634	436.25
382.86	428.25
383.085	425.25
383.31	445.25
383.535	460.25
383.761	454.25
383.986	450.25
384.211	439.25
384.436	443.25
384.662	465.25
384.887	465.25
385.112	428.25
385.337	473.25
385.562	481.25
385.787	469.25
386.013	474.25
386.238	467.25
386.463	463.25
386.688	460.25
386.913	472.25
387.138	461.25
387.363	467.25
387.588	449.25
387.813	466.25
388.038	467.25
388.263	440.25
388.488	476.25
388.713	471.25
388.938	481.25
389.163	468.25
389.387	484.25
389.612	489.25
389.837	470.25
390.062	443.25
390.287	473.25
390.512	474.25
390.736	465.25
390.961	475.25
391.186	476.25
391.411	478.25
391.636	477.25
391.86	485.25
392.085	511.25
392.31	494.25
392.534	487.25
392.759	470.25
392.984	499.25
393.208	476.25
393.433	484.25
393.658	489.25
393.882	467.25
394.107	467.25
394.331	469.25
394.556	471.25
394.78	486.25
395.005	511.25
395.229	478.25
395.454	505.25
395.678	507.25
395.903	502.25
396.127	536.25
396.352	529.25
396.576	512.25
396.801	482.25
397.025	480.25
397.249	490.25
397.474	511.25
397.698	495.25
397.922	516.25
398.147	520.25
398.371	537.25
398.595	513.25
398.82	525.25
399.044	551.25
399.268	571.25
399.492	607.25
399.717	649.25
399.941	707.25
400.165	699.25
400.389	676.25
400.613	629.25
400.837	609.25
401.062	587.25
401.286	564.25
401.51	555.25
401.734	566.25
401.958	563.25
402.182	556.25
402.406	561.25
402.63	598.25
402.854	572.25
403.078	547.25
403.302	575.25
403.526	558.25
403.75	577.25
403.974	586.25
404.198	570.25
404.422	587.25
404.645	592.25
404.869	584.25
405.093	616.25
405.317	654.25
405.541	656.25
405.765	619.25
405.988	608.25
406.212	611.25
406.436	631.25
406.66	645.25
406.883	627.25
407.107	631.25
407.331	703.25
407.555	753.25
407.778	757.25
408.002	678.25
408.226	647.25
408.449	623.25
408.673	617.25
408.896	665.25
409.12	712.25
409.344	654.25
409.567	611.25
409.791	595.25
410.014	555.25
410.238	569.25
410.461	565.25
410.685	573.25
410.908	594.25
411.132	620.25
411.355	654.25
411.578	612.25
411.802	599.25
412.025	541.25
412.249	584.25
412.472	595.25
412.695	661.25
412.919	631.25
413.142	577.25
413.365	591.25
413.589	546.25
413.812	520.25
414.035	540.25
414.258	555.25
414.482	535.25
414.705	522.25
414.928	529.25
415.151	521.25
415.374	557.25
415.597	521.25
415.821	537.25
416.044	559.25
416.267	539.25
416.49	536.25
416.713	546.25
416.936	543.25
417.159	530.25
417.382	532.25
417.605	542.25
417.828	542.25
418.051	566.25
418.274	541.25
418.497	542.25
418.72	562.25
418.943	549.25
419.166	557.25
419.389	608.25
419.611	602.25
419.834	568.25
420.057	582.25
420.28	584.25
420.503	566.25
420.726	580.25
420.948	556.25
421.171	615.25
421.394	628.25
421.617	607.25
421.839	562.25
422.062	567.25
422.285	561.25
422.507	627.25
422.73	715.25
422.953	700.25
423.175	610.25
423.398	589.25
423.621	581.25
423.843	600.25
424.066	605.25
424.288	599.25
424.511	621.25
424.733	665.25
424.956	715.25
425.178	710.25
425.401	707.25
425.623	735.25
425.846	633.25
426.068	597.25
426.291	590.25
426.513	594.25
426.735	620.25
426.958	641.25
427.18	712.25
427.402	863.25
427.625	926.25
427.847	780.25
428.069	691.25
428.292	641.25
428.514	581.25
428.736	572.25
428.958	566.25
429.181	548.25
429.403	533.25
429.625	549.25
429.847	580.25
430.069	655.25
430.292	635.25
430.514	553.25
430.736	539.25
430.958	535.25
431.18	520.25
431.402	509.25
431.624	526.25
431.846	510.25
432.068	515.25
432.29	520.25
432.512	531.25
432.734	531.25
432.956	539.25
433.178	533.25
433.4	535.25
433.622	532.25
433.844	527.25
434.066	494.25
434.287	498.25
434.509	547.25
434.731	532.25
434.953	557.25
435.175	561.25
435.397	575.25
435.618	590.25
435.84	646.25
436.062	730.25
436.284	807.25
436.505	667.25
436.727	574.25
436.949	581.25
437.17	542.25
437.392	552.25
437.614	552.25
437.835	558.25
438.057	667.25
438.278	756.25
438.5	778.25
438.721	852.25
438.943	817.25
439.165	634.25
439.386	613.25
439.608	590.25
439.829	587.25
440.05	621.25
440.272	665.25
440.493	625.25
440.715	575.25
440.936	577.25
441.158	568.25
441.379	543.25
441.6	574.25
441.822	607.25
442.043	634.25
442.264	725.25
442.486	745.25
442.707	639.25
442.928	616.25
443.149	597.25
443.371	609.25
443.592	661.25
443.813	774.25
444.034	842.25
444.255	673.25
444.476	646.25
444.698	625.25
444.919	611.25
445.14	730.25
445.361	663.25
445.582	629.25
445.803	698.25
446.024	795.25
446.245	803.25
446.466	722.25
446.687	633.25
446.908	579.25
447.129	567.25
447.35	558.25
447.571	520.25
447.792	527.25
448.013	536.25
448.234	563.25
448.455	622.25
448.675	707.25
448.896	823.25
449.117	704.25
449.338	647.25
449.559	770.25
449.779	865.25
450	686.25
450.221	593.25
450.442	527.25
450.662	521.25
450.883	529.25
451.104	538.25
451.324	523.25
451.545	505.25
451.766	518.25
451.986	474.25
452.207	487.25
452.428	478.25
452.648	487.25
452.869	490.25
453.089	495.25
453.31	502.25
453.53	477.25
453.751	479.25
453.971	473.25
454.192	503.25
454.412	482.25
454.633	470.25
454.853	446.25
455.073	462.25
455.294	502.25
455.514	581.25
455.734	537.25
455.955	486.25
456.175	457.25
456.395	459.25
456.616	463.25
456.836	465.25
457.056	441.25
457.276	413.25
457.497	473.25
457.717	450.25
457.937	459.25
458.157	483.25
458.377	470.25
458.598	488.25
458.818	532.25
459.038	619.25
459.258	631.25
459.478	551.25
459.698	549.25
459.918	516.25
460.138	534.25
460.358	542.25
460.578	545.25
460.798	541.25
461.018	531.25
461.238	549.25
461.458	525.25
461.678	522.25
461.898	543.25
462.118	534.25
462.338	555.25
462.558	579.25
462.777	587.25
462.997	607.25
463.217	651.25
463.437	639.25
463.657	626.25
463.876	599.25
464.096	597.25
464.316	597.25
464.536	555.25
464.755	582.25
464.975	599.25
465.195	631.25
465.414	625.25
465.634	573.25
465.854	571.25
466.073	532.25
466.293	525.25
466.512	505.25
466.732	514.25
466.951	493.25
467.171	498.25
467.391	516.25
467.61	498.25
467.829	526.25
468.049	533.25
468.268	513.25
468.488	486.25
468.707	478.25
468.927	468.25
469.146	481.25
469.365	480.25
469.585	489.25
469.804	489.25
470.023	514.25
470.243	501.25
470.462	486.25
470.681	515.25
470.901	525.25
471.12	495.25
471.339	492.25
471.558	488.25
471.777	493.25
471.997	499.25
472.216	515.25
472.435	525.25
472.654	535.25
472.873	488.25
473.092	501.25
473.311	488.25
473.53	495.25
473.749	517.25
473.968	533.25
474.187	619.25
474.406	662.25
474.625	575.25
474.844	531.25
475.063	486.25
475.282	516.25
475.501	501.25
475.72	492.25
475.939	509.25
476.158	523.25
476.377	520.25
476.596	501.25
476.814	536.25
477.033	531.25
477.252	541.25
477.471	541.25
477.69	540.25
477.908	554.25
478.127	575.25
478.346	564.25
478.564	566.25
478.783	582.25
479.002	603.25
479.22	581.25
479.439	607.25
479.658	599.25
479.876	597.25
480.095	617.25
480.313	647.25
480.532	625.25
480.751	611.25
480.969	642.25
481.188	669.25
481.406	694.25
481.624	618.25
481.843	590.25
482.061	575.25
482.28	576.25
482.498	558.25
482.717	577.25
482.935	597.25
483.153	591.25
483.372	565.25
483.59	609.25
483.808	588.25
484.027	579.25
484.245	582.25
484.463	586.25
484.681	617.25
484.9	586.25
485.118	597.25
485.336	596.25
485.554	589.25
485.772	614.25
485.99	610.25
486.209	596.25
486.427	612.25
486.645	615.25
486.863	618.25
487.081	618.25
487.299	633.25
487.517	615.25
487.735	623.25
487.953	630.25
488.171	639.25
488.389	636.25
488.607	612.25
488.825	647.25
489.043	626.25
489.261	630.25
489.479	630.25
489.696	639.25
489.914	632.25
490.132	660.25
490.35	679.25
490.568	645.25
490.786	683.25
491.003	663.25
491.221	675.25
491.439	697.25
491.657	711.25
491.874	708.25
492.092	711.25
492.31	732.25
492.527	712.25
492.745	725.25
492.963	719.25
493.18	722.25
493.398	748.25
493.615	715.25
493.833	730.25
494.05	727.25
494.268	736.25
494.485	737.25
494.703	733.25
494.92	750.25
495.138	740.25
495.355	735.25
495.573	733.25
495.79	727.25
496.008	744.25
496.225	722.25
496.442	754.25
496.66	757.25
496.877	739.25
497.094	743.25
497.312	771.25
497.529	775.25
497.746	777.25
497.963	790.25
498.181	795.25
498.398	818.25
498.615	851.25
498.832	856.25
499.049	893.25
499.267	908.25
499.484	933.25
499.701	966.25
499.918	1057.25
500.135	1121.25
500.352	1164.25
500.569	1210.25
500.786	1206.25
501.003	1157.25
501.22	1100.25
501.437	1098.25
501.654	987.25
