Data from 1976.PennyLincolnUp.Lamp.En5.5.200Scan.071719.P1.Changed Mount._HRD10591_16-00-15-861.txt Node
Date: Thu Jul 18 16:00:15 EDT 2019
User: cochatt
Spectrometer: HR+D1059
Trigger mode: 1
Integration Time (sec): 1.000000E-1
Scans to average: 1
Electric dark correction enabled: true
Nonlinearity correction enabled: false
Boxcar width: 0
XAxis mode: Wavelengths
Number of Pixels in Spectrum: 2048
>>>>>Begin Spectral Data<<<<<
223.165	-22.62
223.4	-22.62
223.635	-22.62
223.869	-15.62
224.104	-23.62
224.338	-14.62
224.573	-3.62
224.808	-15.62
225.042	-14.62
225.277	0.38
225.511	1.38
225.746	12.38
225.98	14.38
226.215	10.38
226.449	7.38
226.683	19.38
226.918	12.38
227.152	32.38
227.387	38.38
227.621	41.38
227.856	42.38
228.09	40.38
228.324	36.38
228.559	57.38
228.793	57.38
229.027	76.38
229.262	92.38
229.496	113.38
229.73	130.38
229.964	142.38
230.199	128.38
230.433	116.38
230.667	105.38
230.901	117.38
231.136	113.38
231.37	116.38
231.604	109.38
231.838	100.38
232.072	105.38
232.306	116.38
232.541	122.38
232.775	105.38
233.009	120.38
233.243	104.38
233.477	92.38
233.711	114.38
233.945	102.38
234.179	109.38
234.413	105.38
234.647	127.38
234.881	109.38
235.115	115.38
235.349	111.38
235.583	116.38
235.817	129.38
236.051	108.38
236.285	126.38
236.519	121.38
236.753	109.38
236.987	144.38
237.221	171.38
237.455	234.38
237.689	169.38
237.922	133.38
238.156	136.38
238.39	126.38
238.624	123.38
238.858	121.38
239.091	128.38
239.325	114.38
239.559	126.38
239.793	138.38
240.027	133.38
240.26	133.38
240.494	146.38
240.728	137.38
240.961	139.38
241.195	152.38
241.429	135.38
241.662	141.38
241.896	142.38
242.13	141.38
242.363	119.38
242.597	130.38
242.83	132.38
243.064	137.38
243.298	138.38
243.531	143.38
243.765	152.38
243.998	140.38
244.232	142.38
244.465	141.38
244.699	137.38
244.932	146.38
245.166	146.38
245.399	130.38
245.633	148.38
245.866	144.38
246.099	154.38
246.333	149.38
246.566	137.38
246.8	157.38
247.033	162.38
247.266	167.38
247.5	166.38
247.733	165.38
247.966	165.38
248.2	161.38
248.433	163.38
248.666	168.38
248.899	187.38
249.133	195.38
249.366	204.38
249.599	192.38
249.832	176.38
250.066	179.38
250.299	158.38
250.532	190.38
250.765	190.38
250.998	212.38
251.231	218.38
251.465	188.38
251.698	209.38
251.931	198.38
252.164	199.38
252.397	196.38
252.63	203.38
252.863	209.38
253.096	206.38
253.329	211.38
253.562	220.38
253.795	220.38
254.028	218.38
254.261	212.38
254.494	216.38
254.727	243.38
254.96	268.38
255.193	256.38
255.426	247.38
255.659	235.38
255.892	227.38
256.124	231.38
256.357	247.38
256.59	213.38
256.823	218.38
257.056	205.38
257.289	215.38
257.521	189.38
257.754	202.38
257.987	203.38
258.22	222.38
258.452	201.38
258.685	192.38
258.918	197.38
259.151	225.38
259.383	220.38
259.616	203.38
259.849	218.38
260.081	228.38
260.314	241.38
260.547	259.38
260.779	240.38
261.012	246.38
261.244	243.38
261.477	225.38
261.71	221.38
261.942	227.38
262.175	213.38
262.407	205.38
262.64	219.38
262.872	214.38
263.105	206.38
263.337	215.38
263.57	208.38
263.802	218.38
264.035	215.38
264.267	211.38
264.499	220.38
264.732	207.38
264.964	224.38
265.197	218.38
265.429	221.38
265.661	203.38
265.894	224.38
266.126	233.38
266.358	226.38
266.591	224.38
266.823	220.38
267.055	221.38
267.287	220.38
267.52	223.38
267.752	216.38
267.984	212.38
268.216	243.38
268.448	234.38
268.681	237.38
268.913	251.38
269.145	276.38
269.377	280.38
269.609	279.38
269.841	276.38
270.073	286.38
270.306	285.38
270.538	321.38
270.77	326.38
271.002	294.38
271.234	293.38
271.466	288.38
271.698	293.38
271.93	294.38
272.162	316.38
272.394	302.38
272.626	302.38
272.858	293.38
273.09	284.38
273.322	277.38
273.553	270.38
273.785	257.38
274.017	264.38
274.249	269.38
274.481	270.38
274.713	268.38
274.945	274.38
275.176	277.38
275.408	270.38
275.64	274.38
275.872	260.38
276.104	273.38
276.335	288.38
276.567	274.38
276.799	284.38
277.031	293.38
277.262	321.38
277.494	320.38
277.726	309.38
277.957	292.38
278.189	285.38
278.421	265.38
278.652	280.38
278.884	264.38
279.115	280.38
279.347	289.38
279.579	284.38
279.81	277.38
280.042	269.38
280.273	274.38
280.505	253.38
280.736	277.38
280.968	288.38
281.199	283.38
281.431	283.38
281.662	286.38
281.894	275.38
282.125	299.38
282.356	281.38
282.588	320.38
282.819	316.38
283.051	278.38
283.282	289.38
283.513	288.38
283.745	283.38
283.976	296.38
284.207	284.38
284.439	282.38
284.67	296.38
284.901	297.38
285.132	290.38
285.364	300.38
285.595	288.38
285.826	276.38
286.057	292.38
286.288	307.38
286.52	292.38
286.751	284.38
286.982	293.38
287.213	276.38
287.444	308.38
287.675	314.38
287.906	308.38
288.138	329.38
288.369	308.38
288.6	308.38
288.831	316.38
289.062	320.38
289.293	308.38
289.524	301.38
289.755	322.38
289.986	310.38
290.217	314.38
290.448	299.38
290.679	306.38
290.91	304.38
291.141	322.38
291.371	306.38
291.602	301.38
291.833	306.38
292.064	308.38
292.295	323.38
292.526	309.38
292.757	294.38
292.987	287.38
293.218	288.38
293.449	310.38
293.68	315.38
293.91	293.38
294.141	303.38
294.372	332.38
294.603	301.38
294.833	303.38
295.064	324.38
295.295	324.38
295.525	321.38
295.756	321.38
295.987	301.38
296.217	323.38
296.448	321.38
296.679	326.38
296.909	322.38
297.14	313.38
297.37	314.38
297.601	313.38
297.831	341.38
298.062	314.38
298.292	315.38
298.523	320.38
298.753	318.38
298.984	309.38
299.214	305.38
299.445	330.38
299.675	321.38
299.905	316.38
300.136	346.38
300.366	333.38
300.597	320.38
300.827	333.38
301.057	336.38
301.288	357.38
301.518	352.38
301.748	334.38
301.979	344.38
302.209	348.38
302.439	311.38
302.669	345.38
302.9	352.38
303.13	349.38
303.36	350.38
303.59	349.38
303.82	341.38
304.051	350.38
304.281	350.38
304.511	329.38
304.741	348.38
304.971	336.38
305.201	332.38
305.431	352.38
305.661	333.38
305.891	333.38
306.121	338.38
306.352	350.38
306.582	349.38
306.812	346.38
307.042	338.38
307.272	349.38
307.502	357.38
307.731	341.38
307.961	335.38
308.191	349.38
308.421	360.38
308.651	344.38
308.881	331.38
309.111	352.38
309.341	348.38
309.571	357.38
309.8	384.38
310.03	362.38
310.26	376.38
310.49	375.38
310.72	386.38
310.949	390.38
311.179	392.38
311.409	381.38
311.639	396.38
311.868	384.38
312.098	374.38
312.328	372.38
312.557	398.38
312.787	406.38
313.017	405.38
313.246	386.38
313.476	365.38
313.706	378.38
313.935	384.38
314.165	384.38
314.394	419.38
314.624	398.38
314.853	399.38
315.083	394.38
315.312	357.38
315.542	392.38
315.771	376.38
316.001	365.38
316.23	400.38
316.46	386.38
316.689	390.38
316.919	372.38
317.148	396.38
317.377	405.38
317.607	377.38
317.836	382.38
318.065	392.38
318.295	385.38
318.524	394.38
318.753	382.38
318.983	387.38
319.212	390.38
319.441	398.38
319.67	376.38
319.9	382.38
320.129	383.38
320.358	393.38
320.587	378.38
320.816	409.38
321.046	398.38
321.275	397.38
321.504	401.38
321.733	402.38
321.962	388.38
322.191	396.38
322.42	425.38
322.649	424.38
322.878	416.38
323.108	441.38
323.337	440.38
323.566	464.38
323.795	479.38
324.024	508.38
324.253	610.38
324.482	806.38
324.71	1204.38
324.939	1732.38
325.168	1565.38
325.397	822.38
325.626	590.38
325.855	510.38
326.084	483.38
326.313	483.38
326.542	470.38
326.77	506.38
326.999	584.38
327.228	754.38
327.457	1108.38
327.686	1362.38
327.914	917.38
328.143	614.38
328.372	544.38
328.6	538.38
328.829	496.38
329.058	517.38
329.287	540.38
329.515	492.38
329.744	485.38
329.972	476.38
330.201	512.38
330.43	523.38
330.658	526.38
330.887	579.38
331.115	526.38
331.344	493.38
331.572	474.38
331.801	481.38
332.03	483.38
332.258	459.38
332.486	449.38
332.715	452.38
332.943	450.38
333.172	458.38
333.4	466.38
333.629	484.38
333.857	500.38
334.085	489.38
334.314	501.38
334.542	520.38
334.771	534.38
334.999	508.38
335.227	489.38
335.455	473.38
335.684	471.38
335.912	477.38
336.14	441.38
336.369	462.38
336.597	479.38
336.825	466.38
337.053	456.38
337.281	464.38
337.51	452.38
337.738	466.38
337.966	447.38
338.194	459.38
338.422	455.38
338.65	456.38
338.878	467.38
339.106	437.38
339.334	454.38
339.562	442.38
339.79	444.38
340.018	450.38
340.246	452.38
340.474	426.38
340.702	447.38
340.93	435.38
341.158	412.38
341.386	424.38
341.614	437.38
341.842	440.38
342.07	442.38
342.298	433.38
342.526	418.38
342.754	408.38
342.981	422.38
343.209	426.38
343.437	415.38
343.665	431.38
343.893	456.38
344.12	465.38
344.348	460.38
344.576	462.38
344.804	437.38
345.031	446.38
345.259	457.38
345.487	435.38
345.714	454.38
345.942	424.38
346.17	438.38
346.397	434.38
346.625	430.38
346.853	409.38
347.08	410.38
347.308	429.38
347.535	424.38
347.763	415.38
347.99	425.38
348.218	435.38
348.445	438.38
348.673	444.38
348.9	419.38
349.128	413.38
349.355	420.38
349.583	407.38
349.81	404.38
350.037	411.38
350.265	418.38
350.492	404.38
350.72	438.38
350.947	416.38
351.174	425.38
351.402	438.38
351.629	402.38
351.856	422.38
352.083	418.38
352.311	441.38
352.538	429.38
352.765	452.38
352.992	455.38
353.22	418.38
353.447	393.38
353.674	406.38
353.901	410.38
354.128	397.38
354.355	405.38
354.583	394.38
354.81	398.38
355.037	399.38
355.264	404.38
355.491	411.38
355.718	392.38
355.945	404.38
356.172	393.38
356.399	386.38
356.626	394.38
356.853	417.38
357.08	410.38
357.307	407.38
357.534	393.38
357.761	390.38
357.988	421.38
358.215	403.38
358.441	390.38
358.668	425.38
358.895	409.38
359.122	421.38
359.349	398.38
359.576	398.38
359.802	412.38
360.029	445.38
360.256	453.38
360.483	434.38
360.709	440.38
360.936	417.38
361.163	435.38
361.39	413.38
361.616	416.38
361.843	428.38
362.07	413.38
362.296	440.38
362.523	434.38
362.749	414.38
362.976	413.38
363.203	389.38
363.429	392.38
363.656	408.38
363.882	396.38
364.109	399.38
364.335	406.38
364.562	409.38
364.788	387.38
365.015	402.38
365.241	425.38
365.468	427.38
365.694	401.38
365.92	396.38
366.147	402.38
366.373	405.38
366.599	398.38
366.826	410.38
367.052	404.38
367.278	403.38
367.505	407.38
367.731	409.38
367.957	392.38
368.184	407.38
368.41	399.38
368.636	399.38
368.862	408.38
369.089	426.38
369.315	418.38
369.541	403.38
369.767	412.38
369.993	418.38
370.219	397.38
370.445	408.38
370.672	413.38
370.898	411.38
371.124	432.38
371.35	392.38
371.576	419.38
371.802	411.38
372.028	416.38
372.254	409.38
372.48	402.38
372.706	407.38
372.932	413.38
373.158	424.38
373.384	434.38
373.61	429.38
373.835	432.38
374.061	414.38
374.287	398.38
374.513	409.38
374.739	433.38
374.965	422.38
375.191	414.38
375.416	414.38
375.642	404.38
375.868	405.38
376.094	419.38
376.319	429.38
376.545	412.38
376.771	412.38
376.997	407.38
377.222	398.38
377.448	419.38
377.674	433.38
377.899	403.38
378.125	417.38
378.35	416.38
378.576	406.38
378.802	400.38
379.027	402.38
379.253	407.38
379.478	396.38
379.704	396.38
379.929	417.38
380.155	424.38
380.38	426.38
380.606	422.38
380.831	417.38
381.057	425.38
381.282	429.38
381.507	416.38
381.733	420.38
381.958	410.38
382.184	437.38
382.409	444.38
382.634	447.38
382.86	428.38
383.085	419.38
383.31	427.38
383.535	417.38
383.761	437.38
383.986	440.38
384.211	455.38
384.436	424.38
384.662	432.38
384.887	444.38
385.112	451.38
385.337	453.38
385.562	443.38
385.787	452.38
386.013	467.38
386.238	469.38
386.463	464.38
386.688	481.38
386.913	458.38
387.138	456.38
387.363	458.38
387.588	455.38
387.813	460.38
388.038	454.38
388.263	445.38
388.488	453.38
388.713	460.38
388.938	454.38
389.163	436.38
389.387	480.38
389.612	452.38
389.837	461.38
390.062	453.38
390.287	451.38
390.512	453.38
390.736	437.38
390.961	465.38
391.186	464.38
391.411	467.38
391.636	473.38
391.86	475.38
392.085	480.38
392.31	494.38
392.534	491.38
392.759	469.38
392.984	477.38
393.208	478.38
393.433	466.38
393.658	461.38
393.882	451.38
394.107	463.38
394.331	469.38
394.556	468.38
394.78	482.38
395.005	475.38
395.229	463.38
395.454	489.38
395.678	502.38
395.903	483.38
396.127	513.38
396.352	517.38
396.576	497.38
396.801	486.38
397.025	490.38
397.249	491.38
397.474	481.38
397.698	485.38
397.922	529.38
398.147	515.38
398.371	522.38
398.595	520.38
398.82	520.38
399.044	548.38
399.268	586.38
399.492	632.38
399.717	638.38
399.941	662.38
400.165	680.38
400.389	681.38
400.613	615.38
400.837	584.38
401.062	563.38
401.286	563.38
401.51	537.38
401.734	530.38
401.958	558.38
402.182	560.38
402.406	553.38
402.63	550.38
402.854	553.38
403.078	578.38
403.302	568.38
403.526	568.38
403.75	587.38
403.974	578.38
404.198	569.38
404.422	578.38
404.645	581.38
404.869	577.38
405.093	606.38
405.317	642.38
405.541	662.38
405.765	634.38
405.988	579.38
406.212	598.38
406.436	594.38
406.66	621.38
406.883	599.38
407.107	630.38
407.331	650.38
407.555	741.38
407.778	715.38
408.002	644.38
408.226	618.38
408.449	623.38
408.673	612.38
408.896	634.38
409.12	682.38
409.344	617.38
409.567	596.38
409.791	561.38
410.014	566.38
410.238	574.38
410.461	547.38
410.685	570.38
410.908	583.38
411.132	609.38
411.355	636.38
411.578	614.38
411.802	557.38
412.025	550.38
412.249	550.38
412.472	576.38
412.695	638.38
412.919	615.38
413.142	543.38
413.365	556.38
413.589	567.38
413.812	530.38
414.035	542.38
414.258	526.38
414.482	542.38
414.705	532.38
414.928	532.38
415.151	523.38
415.374	536.38
415.597	522.38
415.821	534.38
416.044	522.38
416.267	530.38
416.49	542.38
416.713	517.38
416.936	519.38
417.159	506.38
417.382	500.38
417.605	512.38
417.828	547.38
418.051	566.38
418.274	538.38
418.497	513.38
418.72	521.38
418.943	514.38
419.166	545.38
419.389	584.38
419.611	554.38
419.834	572.38
420.057	560.38
420.28	552.38
420.503	553.38
420.726	548.38
420.948	554.38
421.171	587.38
421.394	624.38
421.617	581.38
421.839	562.38
422.062	553.38
422.285	555.38
422.507	594.38
422.73	676.38
422.953	649.38
423.175	584.38
423.398	570.38
423.621	568.38
423.843	582.38
424.066	601.38
424.288	580.38
424.511	608.38
424.733	648.38
424.956	709.38
425.178	681.38
425.401	692.38
425.623	733.38
425.846	617.38
426.068	579.38
426.291	579.38
426.513	572.38
426.735	573.38
426.958	621.38
427.18	690.38
427.402	818.38
427.625	887.38
427.847	742.38
428.069	640.38
428.292	614.38
428.514	550.38
428.736	545.38
428.958	515.38
429.181	521.38
429.403	516.38
429.625	526.38
429.847	562.38
430.069	640.38
430.292	615.38
430.514	554.38
430.736	547.38
430.958	523.38
431.18	521.38
431.402	508.38
431.624	504.38
431.846	502.38
432.068	502.38
432.29	492.38
432.512	515.38
432.734	505.38
432.956	518.38
433.178	513.38
433.4	526.38
433.622	489.38
433.844	520.38
434.066	514.38
434.287	529.38
434.509	523.38
434.731	524.38
434.953	569.38
435.175	550.38
435.397	560.38
435.618	576.38
435.84	591.38
436.062	688.38
436.284	782.38
436.505	644.38
436.727	561.38
436.949	538.38
437.17	516.38
437.392	507.38
437.614	541.38
437.835	571.38
438.057	634.38
438.278	749.38
438.5	716.38
438.721	805.38
438.943	776.38
439.165	621.38
439.386	570.38
439.608	572.38
439.829	555.38
440.05	572.38
440.272	622.38
440.493	603.38
440.715	546.38
440.936	526.38
441.158	518.38
441.379	541.38
441.6	549.38
441.822	578.38
442.043	598.38
442.264	685.38
442.486	729.38
442.707	630.38
442.928	580.38
443.149	599.38
443.371	604.38
443.592	637.38
443.813	736.38
444.034	789.38
444.255	678.38
444.476	604.38
444.698	617.38
444.919	578.38
445.14	702.38
445.361	646.38
445.582	608.38
445.803	655.38
446.024	753.38
446.245	748.38
446.466	678.38
446.687	583.38
446.908	559.38
447.129	525.38
447.35	511.38
447.571	529.38
447.792	531.38
448.013	504.38
448.234	518.38
448.455	600.38
448.675	708.38
448.896	795.38
449.117	668.38
449.338	649.38
449.559	735.38
449.779	852.38
450	697.38
450.221	566.38
450.442	534.38
450.662	505.38
450.883	503.38
451.104	499.38
451.324	523.38
451.545	508.38
451.766	500.38
451.986	475.38
452.207	464.38
452.428	466.38
452.648	466.38
452.869	484.38
453.089	476.38
453.31	474.38
453.53	479.38
453.751	463.38
453.971	458.38
454.192	472.38
454.412	458.38
454.633	461.38
454.853	459.38
455.073	445.38
455.294	482.38
455.514	570.38
455.734	529.38
455.955	472.38
456.175	440.38
456.395	428.38
456.616	432.38
456.836	449.38
457.056	441.38
457.276	436.38
457.497	447.38
457.717	451.38
457.937	443.38
458.157	466.38
458.377	437.38
458.598	477.38
458.818	539.38
459.038	580.38
459.258	594.38
459.478	553.38
459.698	537.38
459.918	525.38
460.138	517.38
460.358	502.38
460.578	523.38
460.798	525.38
461.018	549.38
461.238	545.38
461.458	532.38
461.678	518.38
461.898	526.38
462.118	540.38
462.338	548.38
462.558	523.38
462.777	555.38
462.997	563.38
463.217	595.38
463.437	590.38
463.657	572.38
463.876	587.38
464.096	580.38
464.316	590.38
464.536	578.38
464.755	569.38
464.975	565.38
465.195	565.38
465.414	630.38
465.634	564.38
465.854	534.38
466.073	520.38
466.293	505.38
466.512	477.38
466.732	480.38
466.951	502.38
467.171	485.38
467.391	489.38
467.61	492.38
467.829	494.38
468.049	473.38
468.268	500.38
468.488	461.38
468.707	478.38
468.927	466.38
469.146	467.38
469.365	488.38
469.585	468.38
469.804	468.38
470.023	509.38
470.243	477.38
470.462	510.38
470.681	500.38
470.901	517.38
471.12	482.38
471.339	481.38
471.558	471.38
471.777	476.38
471.997	474.38
472.216	489.38
472.435	519.38
472.654	506.38
472.873	475.38
473.092	480.38
473.311	493.38
473.53	498.38
473.749	478.38
473.968	520.38
474.187	595.38
474.406	649.38
474.625	544.38
474.844	521.38
475.063	494.38
475.282	477.38
475.501	501.38
475.72	491.38
475.939	493.38
476.158	498.38
476.377	516.38
476.596	487.38
476.814	504.38
477.033	504.38
477.252	516.38
477.471	509.38
477.69	530.38
477.908	540.38
478.127	541.38
478.346	548.38
478.564	548.38
478.783	540.38
479.002	551.38
479.22	560.38
479.439	576.38
479.658	595.38
479.876	567.38
480.095	588.38
480.313	597.38
480.532	609.38
480.751	604.38
480.969	621.38
481.188	646.38
481.406	657.38
481.624	600.38
481.843	573.38
482.061	580.38
482.28	577.38
482.498	547.38
482.717	542.38
482.935	570.38
483.153	539.38
483.372	565.38
483.59	572.38
483.808	580.38
484.027	582.38
484.245	547.38
484.463	563.38
484.681	583.38
484.9	568.38
485.118	578.38
485.336	593.38
485.554	598.38
485.772	597.38
485.99	607.38
486.209	587.38
486.427	578.38
486.645	571.38
486.863	598.38
487.081	591.38
487.299	613.38
487.517	596.38
487.735	594.38
487.953	611.38
488.171	609.38
488.389	590.38
488.607	603.38
488.825	594.38
489.043	610.38
489.261	620.38
489.479	594.38
489.696	596.38
489.914	609.38
490.132	611.38
490.35	637.38
490.568	624.38
490.786	650.38
491.003	651.38
491.221	641.38
491.439	669.38
491.657	664.38
491.874	685.38
492.092	704.38
492.31	712.38
492.527	704.38
492.745	702.38
492.963	682.38
493.18	681.38
493.398	722.38
493.615	720.38
493.833	702.38
494.05	714.38
494.268	722.38
494.485	715.38
494.703	704.38
494.92	724.38
495.138	738.38
495.355	714.38
495.573	716.38
495.79	715.38
496.008	726.38
496.225	722.38
496.442	701.38
496.66	726.38
496.877	722.38
497.094	736.38
497.312	733.38
497.529	727.38
497.746	757.38
497.963	758.38
498.181	757.38
498.398	809.38
498.615	808.38
498.832	847.38
499.049	855.38
499.267	890.38
499.484	942.38
499.701	954.38
499.918	1003.38
500.135	1082.38
500.352	1110.38
500.569	1180.38
500.786	1140.38
501.003	1118.38
501.22	1107.38
501.437	1064.38
501.654	985.38
