Data from 1976.PennyLincolnUp.Lamp.En5.5.200Scan.071719.P1.Changed Mount._HRD10591_16-00-55-861.txt Node
Date: Thu Jul 18 16:00:55 EDT 2019
User: cochatt
Spectrometer: HR+D1059
Trigger mode: 1
Integration Time (sec): 1.000000E-1
Scans to average: 1
Electric dark correction enabled: true
Nonlinearity correction enabled: false
Boxcar width: 0
XAxis mode: Wavelengths
Number of Pixels in Spectrum: 2048
>>>>>Begin Spectral Data<<<<<
223.165	-10.56
223.4	-10.56
223.635	-10.56
223.869	-2.56
224.104	-14.56
224.338	-13.56
224.573	-15.56
224.808	-21.56
225.042	-6.56
225.277	10.44
225.511	-11.56
225.746	-12.56
225.98	7.44
226.215	6.44
226.449	12.44
226.683	17.44
226.918	27.44
227.152	27.44
227.387	39.44
227.621	34.44
227.856	38.44
228.09	36.44
228.324	47.44
228.559	47.44
228.793	64.44
229.027	84.44
229.262	112.44
229.496	115.44
229.73	129.44
229.964	169.44
230.199	124.44
230.433	109.44
230.667	112.44
230.901	119.44
231.136	108.44
231.37	111.44
231.604	94.44
231.838	109.44
232.072	109.44
232.306	105.44
232.541	115.44
232.775	113.44
233.009	121.44
233.243	135.44
233.477	123.44
233.711	104.44
233.945	122.44
234.179	120.44
234.413	124.44
234.647	104.44
234.881	125.44
235.115	118.44
235.349	124.44
235.583	108.44
235.817	128.44
236.051	130.44
236.285	127.44
236.519	136.44
236.753	139.44
236.987	140.44
237.221	183.44
237.455	233.44
237.689	177.44
237.922	162.44
238.156	154.44
238.39	130.44
238.624	130.44
238.858	134.44
239.091	150.44
239.325	134.44
239.559	144.44
239.793	132.44
240.027	132.44
240.26	147.44
240.494	161.44
240.728	153.44
240.961	157.44
241.195	146.44
241.429	146.44
241.662	141.44
241.896	145.44
242.13	137.44
242.363	145.44
242.597	134.44
242.83	137.44
243.064	131.44
243.298	137.44
243.531	131.44
243.765	148.44
243.998	155.44
244.232	163.44
244.465	147.44
244.699	147.44
244.932	153.44
245.166	141.44
245.399	159.44
245.633	142.44
245.866	156.44
246.099	153.44
246.333	137.44
246.566	138.44
246.8	151.44
247.033	156.44
247.266	147.44
247.5	167.44
247.733	171.44
247.966	182.44
248.2	163.44
248.433	177.44
248.666	192.44
248.899	185.44
249.133	211.44
249.366	220.44
249.599	207.44
249.832	183.44
250.066	197.44
250.299	185.44
250.532	208.44
250.765	194.44
250.998	223.44
251.231	232.44
251.465	218.44
251.698	204.44
251.931	219.44
252.164	219.44
252.397	213.44
252.63	219.44
252.863	211.44
253.096	215.44
253.329	239.44
253.562	232.44
253.795	223.44
254.028	213.44
254.261	230.44
254.494	232.44
254.727	242.44
254.96	267.44
255.193	299.44
255.426	271.44
255.659	244.44
255.892	226.44
256.124	234.44
256.357	236.44
256.59	227.44
256.823	214.44
257.056	206.44
257.289	216.44
257.521	224.44
257.754	218.44
257.987	215.44
258.22	241.44
258.452	199.44
258.685	211.44
258.918	230.44
259.151	209.44
259.383	230.44
259.616	232.44
259.849	213.44
260.081	240.44
260.314	265.44
260.547	269.44
260.779	232.44
261.012	225.44
261.244	231.44
261.477	231.44
261.71	221.44
261.942	241.44
262.175	244.44
262.407	246.44
262.64	218.44
262.872	213.44
263.105	222.44
263.337	225.44
263.57	217.44
263.802	216.44
264.035	228.44
264.267	242.44
264.499	230.44
264.732	223.44
264.964	232.44
265.197	233.44
265.429	226.44
265.661	236.44
265.894	232.44
266.126	241.44
266.358	239.44
266.591	228.44
266.823	238.44
267.055	236.44
267.287	244.44
267.52	233.44
267.752	227.44
267.984	237.44
268.216	247.44
268.448	261.44
268.681	248.44
268.913	261.44
269.145	264.44
269.377	297.44
269.609	279.44
269.841	272.44
270.073	285.44
270.306	303.44
270.538	344.44
270.77	316.44
271.002	299.44
271.234	308.44
271.466	336.44
271.698	305.44
271.93	332.44
272.162	316.44
272.394	341.44
272.626	303.44
272.858	296.44
273.09	277.44
273.322	275.44
273.553	296.44
273.785	273.44
274.017	263.44
274.249	261.44
274.481	273.44
274.713	291.44
274.945	277.44
275.176	279.44
275.408	273.44
275.64	297.44
275.872	277.44
276.104	281.44
276.335	277.44
276.567	307.44
276.799	304.44
277.031	299.44
277.262	337.44
277.494	341.44
277.726	319.44
277.957	303.44
278.189	296.44
278.421	295.44
278.652	304.44
278.884	296.44
279.115	298.44
279.347	306.44
279.579	293.44
279.81	289.44
280.042	291.44
280.273	294.44
280.505	273.44
280.736	279.44
280.968	278.44
281.199	287.44
281.431	294.44
281.662	297.44
281.894	298.44
282.125	305.44
282.356	288.44
282.588	321.44
282.819	330.44
283.051	306.44
283.282	288.44
283.513	307.44
283.745	308.44
283.976	317.44
284.207	294.44
284.439	294.44
284.67	312.44
284.901	289.44
285.132	290.44
285.364	319.44
285.595	300.44
285.826	324.44
286.057	308.44
286.288	317.44
286.52	301.44
286.751	330.44
286.982	300.44
287.213	321.44
287.444	303.44
287.675	305.44
287.906	341.44
288.138	350.44
288.369	337.44
288.6	328.44
288.831	308.44
289.062	334.44
289.293	319.44
289.524	310.44
289.755	305.44
289.986	304.44
290.217	321.44
290.448	324.44
290.679	321.44
290.91	327.44
291.141	312.44
291.371	310.44
291.602	324.44
291.833	313.44
292.064	333.44
292.295	319.44
292.526	323.44
292.757	319.44
292.987	325.44
293.218	331.44
293.449	327.44
293.68	325.44
293.91	320.44
294.141	306.44
294.372	323.44
294.603	311.44
294.833	328.44
295.064	329.44
295.295	311.44
295.525	303.44
295.756	328.44
295.987	329.44
296.217	361.44
296.448	347.44
296.679	357.44
296.909	333.44
297.14	328.44
297.37	319.44
297.601	335.44
297.831	342.44
298.062	335.44
298.292	320.44
298.523	337.44
298.753	343.44
298.984	363.44
299.214	356.44
299.445	356.44
299.675	324.44
299.905	343.44
300.136	337.44
300.366	332.44
300.597	340.44
300.827	353.44
301.057	365.44
301.288	346.44
301.518	360.44
301.748	345.44
301.979	369.44
302.209	340.44
302.439	374.44
302.669	374.44
302.9	361.44
303.13	358.44
303.36	356.44
303.59	372.44
303.82	344.44
304.051	369.44
304.281	371.44
304.511	368.44
304.741	363.44
304.971	339.44
305.201	347.44
305.431	338.44
305.661	361.44
305.891	356.44
306.121	359.44
306.352	374.44
306.582	372.44
306.812	358.44
307.042	349.44
307.272	369.44
307.502	374.44
307.731	359.44
307.961	366.44
308.191	382.44
308.421	380.44
308.651	361.44
308.881	368.44
309.111	370.44
309.341	381.44
309.571	370.44
309.8	381.44
310.03	378.44
310.26	398.44
310.49	407.44
310.72	392.44
310.949	413.44
311.179	412.44
311.409	383.44
311.639	403.44
311.868	409.44
312.098	385.44
312.328	414.44
312.557	407.44
312.787	422.44
313.017	445.44
313.246	403.44
313.476	400.44
313.706	425.44
313.935	393.44
314.165	419.44
314.394	419.44
314.624	428.44
314.853	418.44
315.083	405.44
315.312	395.44
315.542	394.44
315.771	413.44
316.001	412.44
316.23	391.44
316.46	387.44
316.689	393.44
316.919	393.44
317.148	408.44
317.377	423.44
317.607	405.44
317.836	421.44
318.065	408.44
318.295	375.44
318.524	391.44
318.753	406.44
318.983	409.44
319.212	412.44
319.441	417.44
319.67	413.44
319.9	397.44
320.129	406.44
320.358	421.44
320.587	420.44
320.816	396.44
321.046	395.44
321.275	416.44
321.504	414.44
321.733	417.44
321.962	424.44
322.191	428.44
322.42	433.44
322.649	479.44
322.878	472.44
323.108	460.44
323.337	472.44
323.566	489.44
323.795	540.44
324.024	546.44
324.253	642.44
324.482	886.44
324.71	1357.44
324.939	1945.44
325.168	1735.44
325.397	879.44
325.626	629.44
325.855	528.44
326.084	509.44
326.313	492.44
326.542	526.44
326.77	545.44
326.999	629.44
327.228	833.44
327.457	1215.44
327.686	1481.44
327.914	1019.44
328.143	681.44
328.372	599.44
328.6	581.44
328.829	554.44
329.058	546.44
329.287	585.44
329.515	562.44
329.744	522.44
329.972	512.44
330.201	543.44
330.43	575.44
330.658	596.44
330.887	614.44
331.115	601.44
331.344	547.44
331.572	513.44
331.801	503.44
332.03	489.44
332.258	490.44
332.486	486.44
332.715	466.44
332.943	491.44
333.172	498.44
333.4	511.44
333.629	519.44
333.857	533.44
334.085	529.44
334.314	543.44
334.542	562.44
334.771	584.44
334.999	537.44
335.227	521.44
335.455	501.44
335.684	490.44
335.912	513.44
336.14	495.44
336.369	479.44
336.597	499.44
336.825	500.44
337.053	475.44
337.281	483.44
337.51	499.44
337.738	459.44
337.966	471.44
338.194	487.44
338.422	464.44
338.65	467.44
338.878	471.44
339.106	477.44
339.334	456.44
339.562	449.44
339.79	442.44
340.018	483.44
340.246	481.44
340.474	480.44
340.702	477.44
340.93	468.44
341.158	446.44
341.386	454.44
341.614	460.44
341.842	457.44
342.07	471.44
342.298	461.44
342.526	451.44
342.754	460.44
342.981	453.44
343.209	453.44
343.437	438.44
343.665	480.44
343.893	483.44
344.12	490.44
344.348	480.44
344.576	479.44
344.804	482.44
345.031	496.44
345.259	507.44
345.487	442.44
345.714	468.44
345.942	453.44
346.17	447.44
346.397	459.44
346.625	446.44
346.853	428.44
347.08	459.44
347.308	436.44
347.535	445.44
347.763	480.44
347.99	435.44
348.218	461.44
348.445	452.44
348.673	445.44
348.9	434.44
349.128	425.44
349.355	438.44
349.583	446.44
349.81	426.44
350.037	443.44
350.265	427.44
350.492	435.44
350.72	429.44
350.947	419.44
351.174	451.44
351.402	428.44
351.629	448.44
351.856	425.44
352.083	433.44
352.311	460.44
352.538	442.44
352.765	424.44
352.992	437.44
353.22	443.44
353.447	447.44
353.674	445.44
353.901	435.44
354.128	432.44
354.355	422.44
354.583	417.44
354.81	425.44
355.037	424.44
355.264	405.44
355.491	409.44
355.718	416.44
355.945	407.44
356.172	398.44
356.399	402.44
356.626	436.44
356.853	419.44
357.08	417.44
357.307	411.44
357.534	411.44
357.761	412.44
357.988	433.44
358.215	437.44
358.441	424.44
358.668	435.44
358.895	419.44
359.122	414.44
359.349	415.44
359.576	436.44
359.802	441.44
360.029	474.44
360.256	469.44
360.483	469.44
360.709	435.44
360.936	451.44
361.163	460.44
361.39	420.44
361.616	433.44
361.843	434.44
362.07	437.44
362.296	427.44
362.523	441.44
362.749	458.44
362.976	442.44
363.203	433.44
363.429	429.44
363.656	436.44
363.882	427.44
364.109	433.44
364.335	393.44
364.562	421.44
364.788	420.44
365.015	424.44
365.241	416.44
365.468	444.44
365.694	421.44
365.92	422.44
366.147	424.44
366.373	411.44
366.599	420.44
366.826	412.44
367.052	408.44
367.278	423.44
367.505	421.44
367.731	444.44
367.957	424.44
368.184	403.44
368.41	409.44
368.636	441.44
368.862	445.44
369.089	431.44
369.315	441.44
369.541	423.44
369.767	411.44
369.993	434.44
370.219	418.44
370.445	442.44
370.672	434.44
370.898	418.44
371.124	420.44
371.35	410.44
371.576	438.44
371.802	424.44
372.028	433.44
372.254	433.44
372.48	443.44
372.706	441.44
372.932	425.44
373.158	426.44
373.384	425.44
373.61	428.44
373.835	445.44
374.061	428.44
374.287	439.44
374.513	437.44
374.739	451.44
374.965	443.44
375.191	444.44
375.416	439.44
375.642	423.44
375.868	423.44
376.094	429.44
376.319	420.44
376.545	421.44
376.771	447.44
376.997	443.44
377.222	411.44
377.448	425.44
377.674	426.44
377.899	413.44
378.125	428.44
378.35	441.44
378.576	406.44
378.802	395.44
379.027	429.44
379.253	403.44
379.478	423.44
379.704	441.44
379.929	433.44
380.155	420.44
380.38	425.44
380.606	423.44
380.831	434.44
381.057	439.44
381.282	418.44
381.507	433.44
381.733	426.44
381.958	421.44
382.184	424.44
382.409	451.44
382.634	468.44
382.86	442.44
383.085	440.44
383.31	462.44
383.535	459.44
383.761	471.44
383.986	456.44
384.211	444.44
384.436	459.44
384.662	468.44
384.887	466.44
385.112	465.44
385.337	487.44
385.562	460.44
385.787	474.44
386.013	497.44
386.238	487.44
386.463	497.44
386.688	488.44
386.913	490.44
387.138	494.44
387.363	482.44
387.588	474.44
387.813	490.44
388.038	472.44
388.263	487.44
388.488	482.44
388.713	486.44
388.938	485.44
389.163	465.44
389.387	490.44
389.612	486.44
389.837	474.44
390.062	478.44
390.287	485.44
390.512	466.44
390.736	484.44
390.961	461.44
391.186	471.44
391.411	472.44
391.636	488.44
391.86	487.44
392.085	511.44
392.31	502.44
392.534	484.44
392.759	507.44
392.984	479.44
393.208	484.44
393.433	496.44
393.658	495.44
393.882	491.44
394.107	488.44
394.331	494.44
394.556	485.44
394.78	483.44
395.005	479.44
395.229	478.44
395.454	504.44
395.678	525.44
395.903	522.44
396.127	531.44
396.352	540.44
396.576	513.44
396.801	482.44
397.025	511.44
397.249	516.44
397.474	524.44
397.698	544.44
397.922	524.44
398.147	548.44
398.371	564.44
398.595	548.44
398.82	534.44
399.044	578.44
399.268	593.44
399.492	666.44
399.717	689.44
399.941	673.44
400.165	725.44
400.389	711.44
400.613	623.44
400.837	607.44
401.062	595.44
401.286	572.44
401.51	581.44
401.734	566.44
401.958	550.44
402.182	545.44
402.406	569.44
402.63	576.44
402.854	559.44
403.078	585.44
403.302	588.44
403.526	573.44
403.75	587.44
403.974	576.44
404.198	575.44
404.422	586.44
404.645	622.44
404.869	605.44
405.093	639.44
405.317	667.44
405.541	707.44
405.765	647.44
405.988	598.44
406.212	639.44
406.436	624.44
406.66	641.44
406.883	639.44
407.107	634.44
407.331	717.44
407.555	784.44
407.778	764.44
408.002	703.44
408.226	658.44
408.449	639.44
408.673	613.44
408.896	673.44
409.12	712.44
409.344	698.44
409.567	613.44
409.791	595.44
410.014	577.44
410.238	555.44
410.461	555.44
410.685	595.44
410.908	598.44
411.132	637.44
411.355	644.44
411.578	618.44
411.802	597.44
412.025	609.44
412.249	596.44
412.472	637.44
412.695	658.44
412.919	624.44
413.142	593.44
413.365	589.44
413.589	563.44
413.812	554.44
414.035	529.44
414.258	556.44
414.482	545.44
414.705	552.44
414.928	534.44
415.151	560.44
415.374	512.44
415.597	561.44
415.821	524.44
416.044	553.44
416.267	560.44
416.49	551.44
416.713	547.44
416.936	554.44
417.159	561.44
417.382	553.44
417.605	569.44
417.828	544.44
418.051	576.44
418.274	583.44
418.497	560.44
418.72	566.44
418.943	569.44
419.166	592.44
419.389	610.44
419.611	599.44
419.834	576.44
420.057	563.44
420.28	576.44
420.503	594.44
420.726	567.44
420.948	579.44
421.171	640.44
421.394	643.44
421.617	597.44
421.839	586.44
422.062	573.44
422.285	572.44
422.507	661.44
422.73	732.44
422.953	693.44
423.175	630.44
423.398	599.44
423.621	595.44
423.843	608.44
424.066	629.44
424.288	594.44
424.511	622.44
424.733	677.44
424.956	775.44
425.178	728.44
425.401	740.44
425.623	748.44
425.846	670.44
426.068	620.44
426.291	595.44
426.513	582.44
426.735	620.44
426.958	651.44
427.18	720.44
427.402	819.44
427.625	948.44
427.847	801.44
428.069	709.44
428.292	631.44
428.514	585.44
428.736	582.44
428.958	572.44
429.181	571.44
429.403	568.44
429.625	543.44
429.847	588.44
430.069	675.44
430.292	653.44
430.514	555.44
430.736	551.44
430.958	561.44
431.18	539.44
431.402	519.44
431.624	512.44
431.846	531.44
432.068	521.44
432.29	523.44
432.512	543.44
432.734	535.44
432.956	528.44
433.178	535.44
433.4	560.44
433.622	537.44
433.844	535.44
434.066	527.44
434.287	522.44
434.509	535.44
434.731	556.44
434.953	561.44
435.175	545.44
435.397	609.44
435.618	604.44
435.84	630.44
436.062	733.44
436.284	831.44
436.505	653.44
436.727	594.44
436.949	573.44
437.17	577.44
437.392	553.44
437.614	561.44
437.835	605.44
438.057	696.44
438.278	788.44
438.5	788.44
438.721	869.44
438.943	858.44
439.165	671.44
439.386	611.44
439.608	617.44
439.829	581.44
440.05	618.44
440.272	636.44
440.493	624.44
440.715	591.44
440.936	582.44
441.158	555.44
441.379	552.44
441.6	591.44
441.822	583.44
442.043	645.44
442.264	717.44
442.486	741.44
442.707	669.44
442.928	623.44
443.149	634.44
443.371	625.44
443.592	661.44
443.813	788.44
444.034	885.44
444.255	713.44
444.476	628.44
444.698	644.44
444.919	620.44
445.14	761.44
445.361	703.44
445.582	650.44
445.803	714.44
446.024	781.44
446.245	826.44
446.466	709.44
446.687	644.44
446.908	599.44
447.129	562.44
447.35	569.44
447.571	559.44
447.792	535.44
448.013	561.44
448.234	560.44
448.455	600.44
448.675	736.44
448.896	847.44
449.117	737.44
449.338	674.44
449.559	781.44
449.779	901.44
450	704.44
450.221	597.44
450.442	551.44
450.662	547.44
450.883	539.44
451.104	539.44
451.324	538.44
451.545	524.44
451.766	487.44
451.986	497.44
452.207	485.44
452.428	488.44
452.648	486.44
452.869	483.44
453.089	485.44
453.31	529.44
453.53	495.44
453.751	482.44
453.971	476.44
454.192	506.44
454.412	482.44
454.633	490.44
454.853	474.44
455.073	485.44
455.294	490.44
455.514	560.44
455.734	550.44
455.955	494.44
456.175	486.44
456.395	460.44
456.616	461.44
456.836	449.44
457.056	459.44
457.276	433.44
457.497	460.44
457.717	479.44
457.937	457.44
458.157	456.44
458.377	480.44
458.598	483.44
458.818	551.44
459.038	626.44
459.258	666.44
459.478	584.44
459.698	541.44
459.918	538.44
460.138	531.44
460.358	551.44
460.578	541.44
460.798	550.44
461.018	544.44
461.238	534.44
461.458	555.44
461.678	555.44
461.898	568.44
462.118	546.44
462.338	540.44
462.558	556.44
462.777	572.44
462.997	597.44
463.217	624.44
463.437	638.44
463.657	597.44
463.876	599.44
464.096	631.44
464.316	597.44
464.536	611.44
464.755	585.44
464.975	586.44
465.195	600.44
465.414	655.44
465.634	612.44
465.854	565.44
466.073	540.44
466.293	525.44
466.512	517.44
466.732	506.44
466.951	542.44
467.171	508.44
467.391	506.44
467.61	516.44
467.829	501.44
468.049	522.44
468.268	506.44
468.488	500.44
468.707	488.44
468.927	513.44
469.146	497.44
469.365	478.44
469.585	489.44
469.804	514.44
470.023	504.44
470.243	523.44
470.462	520.44
470.681	543.44
470.901	521.44
471.12	517.44
471.339	546.44
471.558	541.44
471.777	537.44
471.997	511.44
472.216	503.44
472.435	514.44
472.654	524.44
472.873	504.44
473.092	508.44
473.311	481.44
473.53	508.44
473.749	529.44
473.968	570.44
474.187	648.44
474.406	683.44
474.625	561.44
474.844	531.44
475.063	502.44
475.282	504.44
475.501	517.44
475.72	508.44
475.939	499.44
476.158	529.44
476.377	519.44
476.596	529.44
476.814	527.44
477.033	511.44
477.252	545.44
477.471	551.44
477.69	564.44
477.908	576.44
478.127	556.44
478.346	575.44
478.564	578.44
478.783	592.44
479.002	599.44
479.22	573.44
479.439	597.44
479.658	613.44
479.876	615.44
480.095	624.44
480.313	664.44
480.532	664.44
480.751	634.44
480.969	639.44
481.188	691.44
481.406	695.44
481.624	644.44
481.843	595.44
482.061	597.44
482.28	608.44
482.498	585.44
482.717	595.44
482.935	581.44
483.153	591.44
483.372	596.44
483.59	592.44
483.808	583.44
484.027	596.44
484.245	604.44
484.463	608.44
484.681	601.44
484.9	604.44
485.118	608.44
485.336	617.44
485.554	609.44
485.772	616.44
485.99	589.44
486.209	611.44
486.427	630.44
486.645	625.44
486.863	636.44
487.081	623.44
487.299	644.44
487.517	632.44
487.735	621.44
487.953	616.44
488.171	625.44
488.389	619.44
488.607	631.44
488.825	635.44
489.043	635.44
489.261	629.44
489.479	641.44
489.696	635.44
489.914	650.44
490.132	628.44
490.35	672.44
490.568	658.44
490.786	699.44
491.003	682.44
491.221	695.44
491.439	709.44
491.657	709.44
491.874	724.44
492.092	724.44
492.31	743.44
492.527	718.44
492.745	733.44
492.963	731.44
493.18	749.44
493.398	743.44
493.615	737.44
493.833	730.44
494.05	769.44
494.268	739.44
494.485	737.44
494.703	750.44
494.92	760.44
495.138	747.44
495.355	753.44
495.573	773.44
495.79	770.44
496.008	767.44
496.225	760.44
496.442	769.44
496.66	758.44
496.877	753.44
497.094	773.44
497.312	763.44
497.529	768.44
497.746	800.44
497.963	812.44
498.181	823.44
498.398	823.44
498.615	850.44
498.832	882.44
499.049	913.44
499.267	937.44
499.484	996.44
499.701	1018.44
499.918	1067.44
500.135	1137.44
500.352	1199.44
500.569	1239.44
500.786	1213.44
501.003	1187.44
501.22	1125.44
501.437	1120.44
501.654	1030.44
