Data from 1976.PennyLincolnUp.Lamp.En5.5.200Scan.071719.P1.Changed Mount._HRD10591_16-01-51-861.txt Node
Date: Thu Jul 18 16:01:51 EDT 2019
User: cochatt
Spectrometer: HR+D1059
Trigger mode: 1
Integration Time (sec): 1.000000E-1
Scans to average: 1
Electric dark correction enabled: true
Nonlinearity correction enabled: false
Boxcar width: 0
XAxis mode: Wavelengths
Number of Pixels in Spectrum: 2048
>>>>>Begin Spectral Data<<<<<
223.165	-17.25
223.4	-17.25
223.635	-17.25
223.869	-15.25
224.104	-6.25
224.338	-27.25
224.573	-13.25
224.808	-9.25
225.042	-5.25
225.277	-10.25
225.511	-8.25
225.746	-0.25
225.98	6.75
226.215	12.75
226.449	20.75
226.683	15.75
226.918	25.75
227.152	30.75
227.387	30.75
227.621	37.75
227.856	43.75
228.09	58.75
228.324	48.75
228.559	60.75
228.793	81.75
229.027	75.75
229.262	103.75
229.496	116.75
229.73	131.75
229.964	153.75
230.199	128.75
230.433	111.75
230.667	107.75
230.901	119.75
231.136	121.75
231.37	114.75
231.604	116.75
231.838	110.75
232.072	116.75
232.306	125.75
232.541	122.75
232.775	112.75
233.009	114.75
233.243	126.75
233.477	125.75
233.711	128.75
233.945	128.75
234.179	123.75
234.413	116.75
234.647	114.75
234.881	111.75
235.115	118.75
235.349	128.75
235.583	130.75
235.817	135.75
236.051	138.75
236.285	131.75
236.519	117.75
236.753	118.75
236.987	140.75
237.221	178.75
237.455	237.75
237.689	198.75
237.922	143.75
238.156	128.75
238.39	141.75
238.624	148.75
238.858	130.75
239.091	114.75
239.325	128.75
239.559	128.75
239.793	145.75
240.027	132.75
240.26	129.75
240.494	150.75
240.728	168.75
240.961	158.75
241.195	162.75
241.429	134.75
241.662	144.75
241.896	156.75
242.13	135.75
242.363	132.75
242.597	129.75
242.83	131.75
243.064	134.75
243.298	148.75
243.531	158.75
243.765	144.75
243.998	152.75
244.232	156.75
244.465	150.75
244.699	150.75
244.932	140.75
245.166	173.75
245.399	152.75
245.633	140.75
245.866	159.75
246.099	165.75
246.333	167.75
246.566	159.75
246.8	144.75
247.033	150.75
247.266	170.75
247.5	167.75
247.733	175.75
247.966	187.75
248.2	175.75
248.433	186.75
248.666	188.75
248.899	186.75
249.133	205.75
249.366	207.75
249.599	212.75
249.832	196.75
250.066	190.75
250.299	194.75
250.532	209.75
250.765	222.75
250.998	218.75
251.231	208.75
251.465	211.75
251.698	215.75
251.931	201.75
252.164	214.75
252.397	210.75
252.63	211.75
252.863	217.75
253.096	217.75
253.329	214.75
253.562	235.75
253.795	229.75
254.028	221.75
254.261	239.75
254.494	232.75
254.727	263.75
254.96	293.75
255.193	263.75
255.426	261.75
255.659	220.75
255.892	257.75
256.124	245.75
256.357	247.75
256.59	237.75
256.823	201.75
257.056	219.75
257.289	211.75
257.521	212.75
257.754	223.75
257.987	222.75
258.22	217.75
258.452	223.75
258.685	217.75
258.918	206.75
259.151	230.75
259.383	238.75
259.616	228.75
259.849	249.75
260.081	236.75
260.314	272.75
260.547	271.75
260.779	267.75
261.012	245.75
261.244	248.75
261.477	236.75
261.71	225.75
261.942	254.75
262.175	239.75
262.407	249.75
262.64	231.75
262.872	226.75
263.105	238.75
263.337	224.75
263.57	229.75
263.802	227.75
264.035	219.75
264.267	226.75
264.499	229.75
264.732	229.75
264.964	220.75
265.197	234.75
265.429	221.75
265.661	231.75
265.894	245.75
266.126	232.75
266.358	222.75
266.591	231.75
266.823	230.75
267.055	247.75
267.287	244.75
267.52	260.75
267.752	229.75
267.984	250.75
268.216	233.75
268.448	268.75
268.681	257.75
268.913	259.75
269.145	292.75
269.377	311.75
269.609	297.75
269.841	284.75
270.073	299.75
270.306	320.75
270.538	332.75
270.77	339.75
271.002	324.75
271.234	318.75
271.466	323.75
271.698	314.75
271.93	333.75
272.162	336.75
272.394	334.75
272.626	319.75
272.858	315.75
273.09	304.75
273.322	306.75
273.553	298.75
273.785	294.75
274.017	298.75
274.249	284.75
274.481	308.75
274.713	280.75
274.945	279.75
275.176	278.75
275.408	296.75
275.64	290.75
275.872	280.75
276.104	284.75
276.335	296.75
276.567	294.75
276.799	310.75
277.031	334.75
277.262	326.75
277.494	351.75
277.726	338.75
277.957	312.75
278.189	311.75
278.421	308.75
278.652	310.75
278.884	283.75
279.115	300.75
279.347	285.75
279.579	297.75
279.81	276.75
280.042	301.75
280.273	289.75
280.505	296.75
280.736	301.75
280.968	293.75
281.199	318.75
281.431	288.75
281.662	293.75
281.894	287.75
282.125	287.75
282.356	307.75
282.588	326.75
282.819	312.75
283.051	311.75
283.282	286.75
283.513	300.75
283.745	303.75
283.976	307.75
284.207	314.75
284.439	324.75
284.67	306.75
284.901	317.75
285.132	318.75
285.364	303.75
285.595	309.75
285.826	307.75
286.057	319.75
286.288	299.75
286.52	324.75
286.751	288.75
286.982	315.75
287.213	316.75
287.444	323.75
287.675	320.75
287.906	330.75
288.138	316.75
288.369	342.75
288.6	325.75
288.831	312.75
289.062	329.75
289.293	326.75
289.524	325.75
289.755	334.75
289.986	327.75
290.217	322.75
290.448	311.75
290.679	301.75
290.91	310.75
291.141	330.75
291.371	329.75
291.602	314.75
291.833	322.75
292.064	337.75
292.295	330.75
292.526	303.75
292.757	309.75
292.987	312.75
293.218	327.75
293.449	336.75
293.68	344.75
293.91	306.75
294.141	316.75
294.372	324.75
294.603	322.75
294.833	327.75
295.064	320.75
295.295	330.75
295.525	331.75
295.756	340.75
295.987	327.75
296.217	366.75
296.448	336.75
296.679	340.75
296.909	317.75
297.14	312.75
297.37	334.75
297.601	323.75
297.831	335.75
298.062	353.75
298.292	318.75
298.523	343.75
298.753	345.75
298.984	362.75
299.214	341.75
299.445	335.75
299.675	350.75
299.905	339.75
300.136	336.75
300.366	349.75
300.597	349.75
300.827	345.75
301.057	341.75
301.288	355.75
301.518	361.75
301.748	360.75
301.979	367.75
302.209	371.75
302.439	362.75
302.669	345.75
302.9	366.75
303.13	360.75
303.36	354.75
303.59	363.75
303.82	367.75
304.051	366.75
304.281	358.75
304.511	355.75
304.741	376.75
304.971	357.75
305.201	358.75
305.431	361.75
305.661	355.75
305.891	359.75
306.121	365.75
306.352	366.75
306.582	363.75
306.812	345.75
307.042	342.75
307.272	357.75
307.502	375.75
307.731	386.75
307.961	377.75
308.191	368.75
308.421	363.75
308.651	379.75
308.881	348.75
309.111	382.75
309.341	368.75
309.571	367.75
309.8	366.75
310.03	383.75
310.26	396.75
310.49	378.75
310.72	414.75
310.949	420.75
311.179	439.75
311.409	410.75
311.639	407.75
311.868	412.75
312.098	404.75
312.328	404.75
312.557	409.75
312.787	428.75
313.017	438.75
313.246	414.75
313.476	403.75
313.706	391.75
313.935	396.75
314.165	400.75
314.394	424.75
314.624	440.75
314.853	416.75
315.083	426.75
315.312	399.75
315.542	419.75
315.771	400.75
316.001	396.75
316.23	409.75
316.46	424.75
316.689	422.75
316.919	427.75
317.148	416.75
317.377	435.75
317.607	415.75
317.836	410.75
318.065	404.75
318.295	400.75
318.524	397.75
318.753	406.75
318.983	402.75
319.212	410.75
319.441	402.75
319.67	413.75
319.9	412.75
320.129	402.75
320.358	410.75
320.587	414.75
320.816	409.75
321.046	434.75
321.275	417.75
321.504	422.75
321.733	420.75
321.962	427.75
322.191	445.75
322.42	435.75
322.649	430.75
322.878	465.75
323.108	478.75
323.337	497.75
323.566	512.75
323.795	544.75
324.024	575.75
324.253	670.75
324.482	903.75
324.71	1428.75
324.939	2068.75
325.168	1813.75
325.397	898.75
325.626	628.75
325.855	541.75
326.084	534.75
326.313	498.75
326.542	504.75
326.77	534.75
326.999	624.75
327.228	842.75
327.457	1238.75
327.686	1578.75
327.914	1071.75
328.143	683.75
328.372	599.75
328.6	576.75
328.829	526.75
329.058	565.75
329.287	574.75
329.515	572.75
329.744	538.75
329.972	520.75
330.201	528.75
330.43	565.75
330.658	604.75
330.887	607.75
331.115	598.75
331.344	530.75
331.572	487.75
331.801	503.75
332.03	514.75
332.258	503.75
332.486	477.75
332.715	483.75
332.943	492.75
333.172	505.75
333.4	524.75
333.629	504.75
333.857	528.75
334.085	529.75
334.314	559.75
334.542	572.75
334.771	587.75
334.999	550.75
335.227	538.75
335.455	518.75
335.684	512.75
335.912	499.75
336.14	492.75
336.369	475.75
336.597	495.75
336.825	505.75
337.053	490.75
337.281	477.75
337.51	478.75
337.738	492.75
337.966	456.75
338.194	453.75
338.422	482.75
338.65	465.75
338.878	482.75
339.106	482.75
339.334	472.75
339.562	446.75
339.79	452.75
340.018	467.75
340.246	462.75
340.474	467.75
340.702	459.75
340.93	472.75
341.158	457.75
341.386	450.75
341.614	467.75
341.842	444.75
342.07	453.75
342.298	455.75
342.526	463.75
342.754	435.75
342.981	451.75
343.209	460.75
343.437	458.75
343.665	473.75
343.893	482.75
344.12	488.75
344.348	488.75
344.576	483.75
344.804	467.75
345.031	469.75
345.259	476.75
345.487	464.75
345.714	464.75
345.942	447.75
346.17	446.75
346.397	440.75
346.625	454.75
346.853	427.75
347.08	432.75
347.308	467.75
347.535	464.75
347.763	461.75
347.99	458.75
348.218	452.75
348.445	459.75
348.673	449.75
348.9	443.75
349.128	443.75
349.355	432.75
349.583	418.75
349.81	443.75
350.037	435.75
350.265	434.75
350.492	428.75
350.72	431.75
350.947	441.75
351.174	441.75
351.402	453.75
351.629	451.75
351.856	439.75
352.083	454.75
352.311	471.75
352.538	456.75
352.765	478.75
352.992	444.75
353.22	444.75
353.447	447.75
353.674	426.75
353.901	422.75
354.128	436.75
354.355	420.75
354.583	424.75
354.81	417.75
355.037	423.75
355.264	448.75
355.491	417.75
355.718	424.75
355.945	403.75
356.172	412.75
356.399	391.75
356.626	434.75
356.853	430.75
357.08	420.75
357.307	415.75
357.534	413.75
357.761	410.75
357.988	446.75
358.215	415.75
358.441	432.75
358.668	428.75
358.895	435.75
359.122	403.75
359.349	432.75
359.576	440.75
359.802	448.75
360.029	485.75
360.256	482.75
360.483	483.75
360.709	468.75
360.936	423.75
361.163	452.75
361.39	453.75
361.616	459.75
361.843	442.75
362.07	448.75
362.296	445.75
362.523	432.75
362.749	443.75
362.976	434.75
363.203	425.75
363.429	414.75
363.656	423.75
363.882	430.75
364.109	441.75
364.335	430.75
364.562	422.75
364.788	411.75
365.015	419.75
365.241	417.75
365.468	429.75
365.694	445.75
365.92	438.75
366.147	440.75
366.373	438.75
366.599	427.75
366.826	418.75
367.052	414.75
367.278	427.75
367.505	439.75
367.731	442.75
367.957	419.75
368.184	422.75
368.41	424.75
368.636	438.75
368.862	447.75
369.089	450.75
369.315	429.75
369.541	440.75
369.767	422.75
369.993	443.75
370.219	429.75
370.445	425.75
370.672	426.75
370.898	414.75
371.124	425.75
371.35	437.75
371.576	408.75
371.802	412.75
372.028	423.75
372.254	421.75
372.48	432.75
372.706	440.75
372.932	414.75
373.158	430.75
373.384	444.75
373.61	442.75
373.835	403.75
374.061	440.75
374.287	438.75
374.513	423.75
374.739	442.75
374.965	458.75
375.191	444.75
375.416	442.75
375.642	453.75
375.868	450.75
376.094	421.75
376.319	439.75
376.545	429.75
376.771	432.75
376.997	428.75
377.222	451.75
377.448	434.75
377.674	424.75
377.899	436.75
378.125	408.75
378.35	418.75
378.576	414.75
378.802	438.75
379.027	444.75
379.253	419.75
379.478	434.75
379.704	434.75
379.929	430.75
380.155	418.75
380.38	410.75
380.606	429.75
380.831	421.75
381.057	411.75
381.282	434.75
381.507	422.75
381.733	448.75
381.958	444.75
382.184	444.75
382.409	456.75
382.634	458.75
382.86	472.75
383.085	450.75
383.31	447.75
383.535	438.75
383.761	452.75
383.986	468.75
384.211	464.75
384.436	452.75
384.662	459.75
384.887	436.75
385.112	466.75
385.337	470.75
385.562	455.75
385.787	510.75
386.013	503.75
386.238	487.75
386.463	488.75
386.688	475.75
386.913	484.75
387.138	476.75
387.363	471.75
387.588	483.75
387.813	479.75
388.038	474.75
388.263	456.75
388.488	459.75
388.713	482.75
388.938	463.75
389.163	504.75
389.387	470.75
389.612	478.75
389.837	457.75
390.062	463.75
390.287	479.75
390.512	454.75
390.736	483.75
390.961	472.75
391.186	485.75
391.411	492.75
391.636	481.75
391.86	496.75
392.085	512.75
392.31	504.75
392.534	507.75
392.759	497.75
392.984	499.75
393.208	500.75
393.433	482.75
393.658	488.75
393.882	484.75
394.107	495.75
394.331	494.75
394.556	479.75
394.78	501.75
395.005	477.75
395.229	481.75
395.454	516.75
395.678	518.75
395.903	513.75
396.127	546.75
396.352	540.75
396.576	499.75
396.801	494.75
397.025	505.75
397.249	508.75
397.474	528.75
397.698	505.75
397.922	542.75
398.147	544.75
398.371	544.75
398.595	542.75
398.82	570.75
399.044	572.75
399.268	583.75
399.492	630.75
399.717	681.75
399.941	692.75
400.165	722.75
400.389	690.75
400.613	635.75
400.837	607.75
401.062	572.75
401.286	568.75
401.51	565.75
401.734	554.75
401.958	556.75
402.182	575.75
402.406	578.75
402.63	572.75
402.854	572.75
403.078	558.75
403.302	596.75
403.526	596.75
403.75	589.75
403.974	599.75
404.198	601.75
404.422	585.75
404.645	585.75
404.869	585.75
405.093	640.75
405.317	672.75
405.541	734.75
405.765	640.75
405.988	612.75
406.212	621.75
406.436	633.75
406.66	646.75
406.883	637.75
407.107	670.75
407.331	701.75
407.555	776.75
407.778	760.75
408.002	704.75
408.226	674.75
408.449	637.75
408.673	640.75
408.896	656.75
409.12	707.75
409.344	663.75
409.567	606.75
409.791	618.75
410.014	591.75
410.238	604.75
410.461	579.75
410.685	588.75
410.908	602.75
411.132	649.75
411.355	649.75
411.578	626.75
411.802	575.75
412.025	584.75
412.249	606.75
412.472	615.75
412.695	654.75
412.919	634.75
413.142	599.75
413.365	596.75
413.589	547.75
413.812	543.75
414.035	550.75
414.258	555.75
414.482	556.75
414.705	535.75
414.928	547.75
415.151	550.75
415.374	550.75
415.597	555.75
415.821	562.75
416.044	571.75
416.267	557.75
416.49	540.75
416.713	544.75
416.936	507.75
417.159	554.75
417.382	554.75
417.605	551.75
417.828	558.75
418.051	583.75
418.274	566.75
418.497	548.75
418.72	559.75
418.943	551.75
419.166	574.75
419.389	621.75
419.611	594.75
419.834	582.75
420.057	606.75
420.28	586.75
420.503	564.75
420.726	573.75
420.948	573.75
421.171	624.75
421.394	655.75
421.617	590.75
421.839	558.75
422.062	576.75
422.285	584.75
422.507	624.75
422.73	719.75
422.953	708.75
423.175	622.75
423.398	615.75
423.621	572.75
423.843	613.75
424.066	612.75
424.288	592.75
424.511	628.75
424.733	671.75
424.956	747.75
425.178	750.75
425.401	732.75
425.623	772.75
425.846	649.75
426.068	598.75
426.291	591.75
426.513	604.75
426.735	608.75
426.958	655.75
427.18	725.75
427.402	856.75
427.625	920.75
427.847	822.75
428.069	726.75
428.292	646.75
428.514	592.75
428.736	579.75
428.958	571.75
429.181	539.75
429.403	556.75
429.625	557.75
429.847	603.75
430.069	646.75
430.292	687.75
430.514	578.75
430.736	541.75
430.958	549.75
431.18	535.75
431.402	536.75
431.624	511.75
431.846	514.75
432.068	550.75
432.29	543.75
432.512	536.75
432.734	540.75
432.956	568.75
433.178	562.75
433.4	568.75
433.622	562.75
433.844	543.75
434.066	520.75
434.287	534.75
434.509	533.75
434.731	541.75
434.953	550.75
435.175	588.75
435.397	597.75
435.618	601.75
435.84	650.75
436.062	709.75
436.284	822.75
436.505	670.75
436.727	606.75
436.949	573.75
437.17	572.75
437.392	575.75
437.614	570.75
437.835	581.75
438.057	696.75
438.278	811.75
438.5	813.75
438.721	892.75
438.943	862.75
439.165	675.75
439.386	636.75
439.608	624.75
439.829	622.75
440.05	632.75
440.272	673.75
440.493	634.75
440.715	588.75
440.936	587.75
441.158	538.75
441.379	551.75
441.6	570.75
441.822	601.75
442.043	652.75
442.264	730.75
442.486	809.75
442.707	687.75
442.928	626.75
443.149	636.75
443.371	650.75
443.592	669.75
443.813	755.75
444.034	858.75
444.255	733.75
444.476	635.75
444.698	642.75
444.919	636.75
445.14	738.75
445.361	671.75
445.582	672.75
445.803	703.75
446.024	831.75
446.245	839.75
446.466	739.75
446.687	640.75
446.908	597.75
447.129	561.75
447.35	559.75
447.571	566.75
447.792	536.75
448.013	545.75
448.234	572.75
448.455	620.75
448.675	733.75
448.896	866.75
449.117	730.75
449.338	699.75
449.559	793.75
449.779	932.75
450	726.75
450.221	602.75
450.442	562.75
450.662	524.75
450.883	523.75
451.104	547.75
451.324	555.75
451.545	511.75
451.766	528.75
451.986	493.75
452.207	475.75
452.428	489.75
452.648	480.75
452.869	472.75
453.089	483.75
453.31	521.75
453.53	490.75
453.751	502.75
453.971	487.75
454.192	500.75
454.412	498.75
454.633	487.75
454.853	498.75
455.073	474.75
455.294	523.75
455.514	590.75
455.734	571.75
455.955	486.75
456.175	485.75
456.395	472.75
456.616	452.75
456.836	473.75
457.056	444.75
457.276	459.75
457.497	462.75
457.717	477.75
457.937	480.75
458.157	487.75
458.377	485.75
458.598	504.75
458.818	529.75
459.038	637.75
459.258	641.75
459.478	564.75
459.698	522.75
459.918	520.75
460.138	528.75
460.358	525.75
460.578	535.75
460.798	529.75
461.018	549.75
461.238	556.75
461.458	564.75
461.678	515.75
461.898	528.75
462.118	553.75
462.338	562.75
462.558	581.75
462.777	585.75
462.997	605.75
463.217	630.75
463.437	606.75
463.657	618.75
463.876	607.75
464.096	598.75
464.316	591.75
464.536	610.75
464.755	598.75
464.975	598.75
465.195	624.75
465.414	635.75
465.634	574.75
465.854	554.75
466.073	529.75
466.293	528.75
466.512	527.75
466.732	520.75
466.951	504.75
467.171	501.75
467.391	526.75
467.61	524.75
467.829	506.75
468.049	524.75
468.268	524.75
468.488	506.75
468.707	514.75
468.927	488.75
469.146	475.75
469.365	512.75
469.585	502.75
469.804	493.75
470.023	525.75
470.243	494.75
470.462	537.75
470.681	548.75
470.901	531.75
471.12	524.75
471.339	507.75
471.558	537.75
471.777	518.75
471.997	500.75
472.216	529.75
472.435	535.75
472.654	539.75
472.873	511.75
473.092	498.75
473.311	524.75
473.53	511.75
473.749	524.75
473.968	565.75
474.187	675.75
474.406	666.75
474.625	573.75
474.844	541.75
475.063	507.75
475.282	515.75
475.501	525.75
475.72	522.75
475.939	534.75
476.158	532.75
476.377	529.75
476.596	538.75
476.814	543.75
477.033	507.75
477.252	546.75
477.471	564.75
477.69	555.75
477.908	559.75
478.127	553.75
478.346	559.75
478.564	575.75
478.783	568.75
479.002	600.75
479.22	591.75
479.439	620.75
479.658	620.75
479.876	619.75
480.095	619.75
480.313	645.75
480.532	648.75
480.751	634.75
480.969	664.75
481.188	666.75
481.406	680.75
481.624	646.75
481.843	612.75
482.061	598.75
482.28	603.75
482.498	605.75
482.717	592.75
482.935	587.75
483.153	622.75
483.372	621.75
483.59	602.75
483.808	606.75
484.027	610.75
484.245	614.75
484.463	593.75
484.681	600.75
484.9	591.75
485.118	602.75
485.336	591.75
485.554	619.75
485.772	631.75
485.99	630.75
486.209	611.75
486.427	605.75
486.645	599.75
486.863	637.75
487.081	634.75
487.299	631.75
487.517	649.75
487.735	616.75
487.953	643.75
488.171	641.75
488.389	652.75
488.607	633.75
488.825	620.75
489.043	640.75
489.261	650.75
489.479	642.75
489.696	643.75
489.914	664.75
490.132	679.75
490.35	661.75
490.568	688.75
490.786	685.75
491.003	674.75
491.221	719.75
491.439	725.75
491.657	712.75
491.874	714.75
492.092	744.75
492.31	715.75
492.527	733.75
492.745	729.75
492.963	748.75
493.18	742.75
493.398	732.75
493.615	751.75
493.833	775.75
494.05	762.75
494.268	756.75
494.485	750.75
494.703	745.75
494.92	734.75
495.138	750.75
495.355	760.75
495.573	754.75
495.79	750.75
496.008	777.75
496.225	743.75
496.442	767.75
496.66	774.75
496.877	777.75
497.094	774.75
497.312	747.75
497.529	806.75
497.746	818.75
497.963	797.75
498.181	827.75
498.398	871.75
498.615	860.75
498.832	880.75
499.049	914.75
499.267	924.75
499.484	986.75
499.701	1027.75
499.918	1074.75
500.135	1123.75
500.352	1190.75
500.569	1230.75
500.786	1211.75
501.003	1220.75
501.22	1157.75
501.437	1109.75
501.654	1013.75
