Data from 1976.PennyLincolnUp.Lamp.En5.5.200Scan.071719.P1.Changed Mount._HRD10591_16-01-52-862.txt Node
Date: Thu Jul 18 16:01:52 EDT 2019
User: cochatt
Spectrometer: HR+D1059
Trigger mode: 1
Integration Time (sec): 1.000000E-1
Scans to average: 1
Electric dark correction enabled: true
Nonlinearity correction enabled: false
Boxcar width: 0
XAxis mode: Wavelengths
Number of Pixels in Spectrum: 2048
>>>>>Begin Spectral Data<<<<<
223.165	-17
223.4	-17
223.635	-17
223.869	-13
224.104	-15
224.338	-31
224.573	-13
224.808	-5
225.042	10
225.277	-7
225.511	-9
225.746	-9
225.98	-1
226.215	10
226.449	20
226.683	24
226.918	29
227.152	27
227.387	31
227.621	37
227.856	50
228.09	32
228.324	53
228.559	48
228.793	68
229.027	103
229.262	112
229.496	131
229.73	124
229.964	149
230.199	135
230.433	108
230.667	117
230.901	123
231.136	119
231.37	130
231.604	134
231.838	120
232.072	121
232.306	121
232.541	119
232.775	120
233.009	106
233.243	108
233.477	103
233.711	117
233.945	128
234.179	120
234.413	119
234.647	110
234.881	108
235.115	119
235.349	114
235.583	128
235.817	134
236.051	134
236.285	143
236.519	128
236.753	130
236.987	161
237.221	185
237.455	221
237.689	202
237.922	146
238.156	132
238.39	129
238.624	131
238.858	137
239.091	117
239.325	118
239.559	122
239.793	129
240.027	133
240.26	136
240.494	164
240.728	165
240.961	159
241.195	150
241.429	120
241.662	144
241.896	140
242.13	153
242.363	153
242.597	144
242.83	138
243.064	141
243.298	164
243.531	142
243.765	151
243.998	150
244.232	157
244.465	147
244.699	151
244.932	150
245.166	142
245.399	152
245.633	141
245.866	178
246.099	157
246.333	161
246.566	153
246.8	148
247.033	156
247.266	176
247.5	173
247.733	164
247.966	182
248.2	167
248.433	173
248.666	179
248.899	178
249.133	212
249.366	212
249.599	199
249.832	179
250.066	172
250.299	184
250.532	184
250.765	202
250.998	213
251.231	239
251.465	233
251.698	205
251.931	199
252.164	196
252.397	217
252.63	210
252.863	209
253.096	233
253.329	213
253.562	225
253.795	229
254.028	245
254.261	236
254.494	244
254.727	264
254.96	289
255.193	277
255.426	276
255.659	220
255.892	226
256.124	233
256.357	246
256.59	236
256.823	229
257.056	222
257.289	226
257.521	209
257.754	212
257.987	219
258.22	200
258.452	219
258.685	215
258.918	207
259.151	219
259.383	218
259.616	228
259.849	235
260.081	248
260.314	254
260.547	257
260.779	250
261.012	248
261.244	240
261.477	235
261.71	225
261.942	227
262.175	241
262.407	248
262.64	229
262.872	230
263.105	218
263.337	238
263.57	215
263.802	220
264.035	220
264.267	220
264.499	230
264.732	228
264.964	235
265.197	223
265.429	224
265.661	228
265.894	226
266.126	232
266.358	225
266.591	240
266.823	243
267.055	262
267.287	229
267.52	223
267.752	251
267.984	239
268.216	270
268.448	262
268.681	263
268.913	276
269.145	280
269.377	303
269.609	277
269.841	271
270.073	285
270.306	289
270.538	331
270.77	335
271.002	314
271.234	310
271.466	320
271.698	319
271.93	306
272.162	322
272.394	336
272.626	330
272.858	300
273.09	285
273.322	314
273.553	267
273.785	294
274.017	280
274.249	290
274.481	301
274.713	284
274.945	298
275.176	272
275.408	278
275.64	288
275.872	270
276.104	267
276.335	288
276.567	284
276.799	287
277.031	336
277.262	347
277.494	325
277.726	316
277.957	314
278.189	330
278.421	297
278.652	290
278.884	286
279.115	302
279.347	295
279.579	291
279.81	295
280.042	284
280.273	280
280.505	288
280.736	288
280.968	290
281.199	277
281.431	289
281.662	312
281.894	276
282.125	281
282.356	303
282.588	329
282.819	317
283.051	300
283.282	288
283.513	296
283.745	294
283.976	290
284.207	294
284.439	313
284.67	323
284.901	294
285.132	317
285.364	317
285.595	317
285.826	298
286.057	316
286.288	317
286.52	313
286.751	301
286.982	311
287.213	322
287.444	311
287.675	336
287.906	306
288.138	317
288.369	326
288.6	334
288.831	318
289.062	310
289.293	314
289.524	333
289.755	319
289.986	328
290.217	312
290.448	303
290.679	325
290.91	326
291.141	322
291.371	313
291.602	325
291.833	333
292.064	318
292.295	315
292.526	321
292.757	323
292.987	334
293.218	309
293.449	302
293.68	324
293.91	325
294.141	319
294.372	315
294.603	310
294.833	325
295.064	324
295.295	331
295.525	326
295.756	328
295.987	324
296.217	342
296.448	356
296.679	340
296.909	309
297.14	323
297.37	336
297.601	339
297.831	316
298.062	318
298.292	339
298.523	340
298.753	334
298.984	322
299.214	340
299.445	355
299.675	339
299.905	360
300.136	358
300.366	337
300.597	343
300.827	367
301.057	350
301.288	342
301.518	354
301.748	350
301.979	374
302.209	359
302.439	358
302.669	381
302.9	344
303.13	338
303.36	365
303.59	375
303.82	366
304.051	351
304.281	374
304.511	374
304.741	371
304.971	354
305.201	366
305.431	371
305.661	363
305.891	362
306.121	355
306.352	356
306.582	360
306.812	354
307.042	366
307.272	373
307.502	355
307.731	347
307.961	353
308.191	349
308.421	360
308.651	347
308.881	374
309.111	396
309.341	378
309.571	377
309.8	377
310.03	399
310.26	411
310.49	388
310.72	391
310.949	411
311.179	407
311.409	390
311.639	409
311.868	409
312.098	379
312.328	402
312.557	432
312.787	438
313.017	427
313.246	442
313.476	402
313.706	389
313.935	401
314.165	412
314.394	399
314.624	418
314.853	402
315.083	409
315.312	409
315.542	398
315.771	418
316.001	390
316.23	394
316.46	412
316.689	397
316.919	406
317.148	403
317.377	399
317.607	403
317.836	402
318.065	400
318.295	406
318.524	414
318.753	407
318.983	392
319.212	394
319.441	426
319.67	395
319.9	421
320.129	401
320.358	416
320.587	392
320.816	404
321.046	412
321.275	430
321.504	406
321.733	444
321.962	429
322.191	435
322.42	466
322.649	465
322.878	472
323.108	475
323.337	468
323.566	488
323.795	530
324.024	567
324.253	660
324.482	904
324.71	1370
324.939	2069
325.168	1768
325.397	894
325.626	627
325.855	533
326.084	498
326.313	485
326.542	509
326.77	542
326.999	643
327.228	865
327.457	1250
327.686	1509
327.914	1027
328.143	688
328.372	593
328.6	601
328.829	550
329.058	552
329.287	581
329.515	555
329.744	518
329.972	534
330.201	518
330.43	571
330.658	588
330.887	604
331.115	595
331.344	522
331.572	522
331.801	509
332.03	522
332.258	488
332.486	491
332.715	479
332.943	497
333.172	483
333.4	473
333.629	523
333.857	508
334.085	519
334.314	544
334.542	565
334.771	584
334.999	551
335.227	526
335.455	498
335.684	465
335.912	487
336.14	487
336.369	466
336.597	482
336.825	482
337.053	492
337.281	477
337.51	477
337.738	492
337.966	492
338.194	462
338.422	471
338.65	456
338.878	475
339.106	463
339.334	435
339.562	458
339.79	440
340.018	450
340.246	470
340.474	474
340.702	467
340.93	466
341.158	475
341.386	455
341.614	458
341.842	432
342.07	438
342.298	448
342.526	430
342.754	435
342.981	437
343.209	438
343.437	431
343.665	449
343.893	480
344.12	483
344.348	487
344.576	473
344.804	486
345.031	464
345.259	465
345.487	470
345.714	442
345.942	459
346.17	444
346.397	438
346.625	436
346.853	445
347.08	432
347.308	444
347.535	448
347.763	454
347.99	442
348.218	429
348.445	437
348.673	435
348.9	428
349.128	429
349.355	452
349.583	437
349.81	406
350.037	447
350.265	423
350.492	431
350.72	431
350.947	419
351.174	447
351.402	455
351.629	438
351.856	436
352.083	446
352.311	446
352.538	445
352.765	434
352.992	441
353.22	424
353.447	431
353.674	417
353.901	410
354.128	404
354.355	412
354.583	392
354.81	410
355.037	422
355.264	404
355.491	396
355.718	408
355.945	422
356.172	404
356.399	417
356.626	418
356.853	424
357.08	423
357.307	426
357.534	393
357.761	420
357.988	412
358.215	412
358.441	421
358.668	406
358.895	414
359.122	414
359.349	435
359.576	470
359.802	448
360.029	482
360.256	462
360.483	457
360.709	451
360.936	421
361.163	441
361.39	421
361.616	444
361.843	428
362.07	421
362.296	434
362.523	455
362.749	431
362.976	446
363.203	420
363.429	428
363.656	425
363.882	420
364.109	435
364.335	440
364.562	438
364.788	399
365.015	427
365.241	437
365.468	422
365.694	417
365.92	422
366.147	431
366.373	418
366.599	402
366.826	429
367.052	411
367.278	411
367.505	421
367.731	402
367.957	425
368.184	429
368.41	419
368.636	401
368.862	447
369.089	417
369.315	444
369.541	412
369.767	432
369.993	436
370.219	428
370.445	424
370.672	424
370.898	405
371.124	418
371.35	424
371.576	438
371.802	414
372.028	437
372.254	427
372.48	423
372.706	427
372.932	442
373.158	418
373.384	420
373.61	428
373.835	418
374.061	423
374.287	420
374.513	446
374.739	428
374.965	450
375.191	448
375.416	441
375.642	424
375.868	390
376.094	407
376.319	437
376.545	422
376.771	425
376.997	419
377.222	408
377.448	417
377.674	415
377.899	410
378.125	428
378.35	445
378.576	434
378.802	432
379.027	433
379.253	404
379.478	417
379.704	434
379.929	428
380.155	426
380.38	448
380.606	421
380.831	438
381.057	432
381.282	432
381.507	450
381.733	421
381.958	422
382.184	447
382.409	439
382.634	448
382.86	450
383.085	455
383.31	434
383.535	450
383.761	464
383.986	454
384.211	430
384.436	458
384.662	466
384.887	483
385.112	482
385.337	469
385.562	460
385.787	472
386.013	483
386.238	498
386.463	494
386.688	480
386.913	486
387.138	490
387.363	461
387.588	458
387.813	479
388.038	487
388.263	461
388.488	480
388.713	476
388.938	478
389.163	475
389.387	461
389.612	469
389.837	477
390.062	469
390.287	438
390.512	471
390.736	479
390.961	448
391.186	469
391.411	492
391.636	508
391.86	498
392.085	506
392.31	491
392.534	472
392.759	488
392.984	499
393.208	493
393.433	500
393.658	496
393.882	445
394.107	481
394.331	477
394.556	471
394.78	478
395.005	487
395.229	490
395.454	486
395.678	492
395.903	478
396.127	537
396.352	528
396.576	513
396.801	493
397.025	499
397.249	493
397.474	519
397.698	528
397.922	519
398.147	535
398.371	535
398.595	558
398.82	562
399.044	562
399.268	590
399.492	634
399.717	670
399.941	689
400.165	700
400.389	695
400.613	662
400.837	587
401.062	574
401.286	551
401.51	562
401.734	556
401.958	550
402.182	557
402.406	563
402.63	577
402.854	553
403.078	585
403.302	580
403.526	575
403.75	591
403.974	589
404.198	581
404.422	599
404.645	597
404.869	573
405.093	615
405.317	664
405.541	690
405.765	617
405.988	584
406.212	622
406.436	620
406.66	628
406.883	618
407.107	630
407.331	700
407.555	744
407.778	768
408.002	696
408.226	645
408.449	623
408.673	606
408.896	656
409.12	704
409.344	671
409.567	585
409.791	607
410.014	602
410.238	579
410.461	575
410.685	596
410.908	576
411.132	618
411.355	672
411.578	646
411.802	598
412.025	575
412.249	574
412.472	595
412.695	640
412.919	616
413.142	580
413.365	566
413.589	541
413.812	549
414.035	533
414.258	553
414.482	566
414.705	547
414.928	548
415.151	546
415.374	541
415.597	550
415.821	560
416.044	557
416.267	543
416.49	534
416.713	531
416.936	530
417.159	528
417.382	558
417.605	549
417.828	546
418.051	577
418.274	542
418.497	537
418.72	556
418.943	531
419.166	546
419.389	613
419.611	575
419.834	567
420.057	564
420.28	558
420.503	565
420.726	567
420.948	589
421.171	615
421.394	646
421.617	598
421.839	573
422.062	563
422.285	560
422.507	638
422.73	719
422.953	692
423.175	611
423.398	588
423.621	585
423.843	621
424.066	623
424.288	603
424.511	632
424.733	664
424.956	758
425.178	710
425.401	717
425.623	738
425.846	632
426.068	610
426.291	588
426.513	587
426.735	605
426.958	642
427.18	724
427.402	836
427.625	915
427.847	792
428.069	698
428.292	638
428.514	590
428.736	580
428.958	557
429.181	555
429.403	551
429.625	555
429.847	573
430.069	664
430.292	662
430.514	573
430.736	550
430.958	543
431.18	533
431.402	525
431.624	528
431.846	535
432.068	509
432.29	540
432.512	534
432.734	535
432.956	541
433.178	555
433.4	576
433.622	544
433.844	531
434.066	523
434.287	520
434.509	539
434.731	538
434.953	546
435.175	584
435.397	605
435.618	614
435.84	663
436.062	711
436.284	802
436.505	668
436.727	611
436.949	568
437.17	552
437.392	526
437.614	543
437.835	577
438.057	686
438.278	790
438.5	773
438.721	871
438.943	823
439.165	674
439.386	590
439.608	589
439.829	592
440.05	605
440.272	665
440.493	602
440.715	596
440.936	595
441.158	551
441.379	539
441.6	578
441.822	579
442.043	639
442.264	735
442.486	774
442.707	658
442.928	626
443.149	645
443.371	636
443.592	684
443.813	773
444.034	815
444.255	704
444.476	627
444.698	632
444.919	629
445.14	732
445.361	688
445.582	650
445.803	713
446.024	777
446.245	794
446.466	759
446.687	641
446.908	578
447.129	572
447.35	546
447.571	525
447.792	543
448.013	524
448.234	554
448.455	628
448.675	692
448.896	826
449.117	719
449.338	662
449.559	798
449.779	902
450	708
450.221	595
450.442	546
450.662	519
450.883	506
451.104	546
451.324	544
451.545	502
451.766	495
451.986	480
452.207	492
452.428	476
452.648	456
452.869	489
453.089	515
453.31	494
453.53	473
453.751	480
453.971	484
454.192	490
454.412	495
454.633	502
454.853	486
455.073	482
455.294	501
455.514	576
455.734	559
455.955	489
456.175	469
456.395	477
456.616	462
456.836	472
457.056	459
457.276	450
457.497	474
457.717	473
457.937	448
458.157	468
458.377	476
458.598	514
458.818	538
459.038	603
459.258	647
459.478	569
459.698	528
459.918	541
460.138	538
460.358	527
460.578	537
460.798	534
461.018	552
461.238	542
461.458	524
461.678	531
461.898	557
462.118	564
462.338	560
462.558	570
462.777	601
462.997	591
463.217	589
463.437	620
463.657	582
463.876	582
464.096	598
464.316	587
464.536	584
464.755	597
464.975	609
465.195	596
465.414	651
465.634	592
465.854	536
466.073	526
466.293	528
466.512	519
466.732	520
466.951	517
467.171	505
467.391	501
467.61	511
467.829	531
468.049	528
468.268	516
468.488	519
468.707	491
468.927	496
469.146	499
469.365	498
469.585	494
469.804	501
470.023	500
470.243	518
470.462	516
470.681	506
470.901	515
471.12	513
471.339	507
471.558	520
471.777	520
471.997	501
472.216	494
472.435	532
472.654	516
472.873	487
473.092	515
473.311	501
473.53	502
473.749	523
473.968	559
474.187	632
474.406	670
474.625	578
474.844	506
475.063	518
475.282	520
475.501	526
475.72	506
475.939	512
476.158	519
476.377	535
476.596	514
476.814	531
477.033	524
477.252	519
477.471	529
477.69	547
477.908	550
478.127	564
478.346	536
478.564	564
478.783	588
479.002	567
479.22	582
479.439	583
479.658	588
479.876	621
480.095	622
480.313	655
480.532	628
480.751	618
480.969	624
481.188	679
481.406	709
481.624	668
481.843	610
482.061	621
482.28	594
482.498	605
482.717	581
482.935	605
483.153	610
483.372	602
483.59	591
483.808	591
484.027	588
484.245	589
484.463	563
484.681	597
484.9	592
485.118	594
485.336	594
485.554	601
485.772	608
485.99	628
486.209	634
486.427	607
486.645	638
486.863	616
487.081	646
487.299	625
487.517	644
487.735	640
487.953	608
488.171	621
488.389	641
488.607	632
488.825	636
489.043	630
489.261	610
489.479	634
489.696	638
489.914	642
490.132	642
490.35	639
490.568	672
490.786	655
491.003	665
491.221	690
491.439	681
491.657	714
491.874	727
492.092	721
492.31	718
492.527	748
492.745	724
492.963	730
493.18	736
493.398	742
493.615	745
493.833	739
494.05	772
494.268	759
494.485	755
494.703	740
494.92	718
495.138	734
495.355	726
495.573	733
495.79	761
496.008	746
496.225	748
496.442	755
496.66	743
496.877	772
497.094	763
497.312	766
497.529	802
497.746	783
497.963	776
498.181	838
498.398	807
498.615	871
498.832	873
499.049	893
499.267	924
499.484	928
499.701	1023
499.918	1046
500.135	1120
500.352	1175
500.569	1202
500.786	1200
501.003	1160
501.22	1114
501.437	1056
501.654	1037
501.871	1018
502.088	951
502.305	922
502.522	890
502.739	872
502.956	818
503.172	809
503.389	766
503.606	763
503.823	784
504.04	779
504.256	783
504.473	771
504.69	784
504.907	754
505.123	724
505.34	727
505.557	727
505.773	702
505.99	722
506.207	701
506.423	686
506.64	718
506.856	679
507.073	685
507.289	675
507.506	678
507.722	699
507.939	676
508.155	692
508.372	642
508.588	642
508.805	675
509.021	652
509.238	674
509.454	691
509.67	658
509.887	671
510.103	657
510.319	649
510.536	724
510.752	1087
510.968	930
511.184	668
511.401	652
511.617	641
511.833	632
512.049	636
512.265	633
512.481	610
512.698	617
512.914	599
513.13	604
513.346	619
513.562	608
513.778	612
513.994	593
514.21	628
514.426	644
514.642	675
514.858	704
515.074	706
515.29	796
515.506	1094
515.721	942
515.937	715
516.153	677
516.369	685
516.585	647
516.801	634
517.016	653
517.232	672
517.448	670
517.664	651
517.879	646
518.095	666
518.311	672
518.527	663
518.742	647
518.958	657
519.173	640
519.389	624
519.605	611
519.82	647
520.036	649
520.251	637
520.467	676
520.682	679
520.898	644
521.113	683
521.329	696
521.544	770
521.76	902
521.975	1332
522.19	1349
522.406	822
522.621	656
522.836	616
523.052	597
523.267	586
523.482	586
523.698	548
523.913	582
524.128	572
524.343	552
524.559	532
524.774	530
524.989	549
525.204	548
525.419	540
525.634	541
525.849	525
526.064	528
526.28	528
526.495	534
526.71	517
526.925	508
527.14	492
527.355	526
527.57	509
527.785	520
527.999	498
528.214	511
528.429	546
528.644	526
528.859	508
529.074	515
529.289	518
529.503	595
529.718	583
529.933	562
530.148	534
530.363	490
530.577	505
530.792	518
531.007	507
531.221	520
531.436	501
531.651	492
531.865	507
532.08	500
532.295	518
532.509	502
532.724	511
532.938	514
533.153	495
533.367	492
533.582	510
533.796	474
534.011	502
534.225	513
534.44	487
534.654	492
534.868	515
535.083	485
535.297	481
535.511	501
535.726	494
535.94	470
536.154	505
536.369	503
536.583	468
536.797	476
537.011	477
537.225	478
537.44	452
537.654	461
537.868	468
538.082	455
538.296	498
538.51	482
538.724	478
538.938	466
539.153	483
539.367	464
539.581	474
539.795	475
540.009	470
540.222	479
540.436	473
540.65	476
540.864	488
541.078	479
541.292	490
541.506	485
541.72	468
541.934	472
542.147	475
542.361	493
542.575	461
542.789	473
543.002	491
543.216	487
543.43	483
543.644	458
543.857	476
544.071	473
544.285	484
544.498	477
544.712	453
544.925	472
545.139	482
545.352	470
545.566	462
545.779	462
545.993	485
546.206	478
546.42	481
546.633	473
546.847	478
547.06	468
547.274	474
547.487	477
547.7	450
547.914	468
548.127	483
548.34	464
548.554	461
548.767	463
548.98	449
549.193	465
549.407	461
549.62	474
549.833	454
550.046	461
550.259	464
550.473	465
550.686	455
550.899	466
551.112	422
551.325	440
551.538	456
551.751	444
551.964	461
552.177	453
552.39	458
552.603	469
552.816	473
553.029	464
553.242	464
553.455	474
553.667	499
553.88	495
554.093	477
554.306	464
554.519	487
554.732	465
554.944	456
555.157	469
555.37	450
555.583	463
555.795	439
556.008	413
556.221	428
556.433	423
556.646	418
556.859	423
557.071	394
557.284	419
557.496	430
557.709	409
557.921	411
558.134	415
558.346	400
558.559	412
558.771	403
558.984	413
559.196	413
559.409	416
559.621	412
559.833	415
560.046	411
560.258	410
560.47	422
560.683	416
560.895	405
561.107	412
561.32	399
561.532	412
561.744	412
561.956	400
562.168	412
562.381	392
562.593	391
562.805	417
563.017	403
