Data from 1976.PennyLincolnUp.Lamp.En5.5.200Scan.071719.P1.Changed Mount._HRD10591_16-01-09-861.txt Node
Date: Thu Jul 18 16:01:09 EDT 2019
User: cochatt
Spectrometer: HR+D1059
Trigger mode: 1
Integration Time (sec): 1.000000E-1
Scans to average: 1
Electric dark correction enabled: true
Nonlinearity correction enabled: false
Boxcar width: 0
XAxis mode: Wavelengths
Number of Pixels in Spectrum: 2048
>>>>>Begin Spectral Data<<<<<
223.165	-12.25
223.4	-12.25
223.635	-12.25
223.869	-13.25
224.104	-25.25
224.338	-19.25
224.573	-19.25
224.808	-4.25
225.042	-8.25
225.277	9.75
225.511	-0.25
225.746	0.75
225.98	11.75
226.215	11.75
226.449	10.75
226.683	18.75
226.918	12.75
227.152	25.75
227.387	15.75
227.621	43.75
227.856	29.75
228.09	26.75
228.324	60.75
228.559	68.75
228.793	68.75
229.027	97.75
229.262	105.75
229.496	125.75
229.73	120.75
229.964	153.75
230.199	142.75
230.433	113.75
230.667	104.75
230.901	111.75
231.136	115.75
231.37	121.75
231.604	100.75
231.838	124.75
232.072	107.75
232.306	119.75
232.541	117.75
232.775	115.75
233.009	105.75
233.243	111.75
233.477	104.75
233.711	121.75
233.945	118.75
234.179	114.75
234.413	111.75
234.647	126.75
234.881	113.75
235.115	110.75
235.349	133.75
235.583	105.75
235.817	121.75
236.051	125.75
236.285	134.75
236.519	113.75
236.753	129.75
236.987	132.75
237.221	181.75
237.455	236.75
237.689	195.75
237.922	151.75
238.156	131.75
238.39	134.75
238.624	109.75
238.858	119.75
239.091	135.75
239.325	118.75
239.559	124.75
239.793	128.75
240.027	117.75
240.26	130.75
240.494	162.75
240.728	162.75
240.961	154.75
241.195	139.75
241.429	126.75
241.662	137.75
241.896	140.75
242.13	134.75
242.363	127.75
242.597	145.75
242.83	143.75
243.064	144.75
243.298	161.75
243.531	141.75
243.765	154.75
243.998	145.75
244.232	151.75
244.465	135.75
244.699	128.75
244.932	135.75
245.166	151.75
245.399	157.75
245.633	147.75
245.866	162.75
246.099	144.75
246.333	161.75
246.566	154.75
246.8	154.75
247.033	158.75
247.266	165.75
247.5	177.75
247.733	166.75
247.966	180.75
248.2	170.75
248.433	185.75
248.666	170.75
248.899	190.75
249.133	190.75
249.366	188.75
249.599	217.75
249.832	181.75
250.066	186.75
250.299	187.75
250.532	193.75
250.765	200.75
250.998	212.75
251.231	231.75
251.465	223.75
251.698	212.75
251.931	219.75
252.164	209.75
252.397	212.75
252.63	195.75
252.863	210.75
253.096	210.75
253.329	225.75
253.562	231.75
253.795	211.75
254.028	215.75
254.261	213.75
254.494	219.75
254.727	271.75
254.96	284.75
255.193	263.75
255.426	237.75
255.659	228.75
255.892	212.75
256.124	252.75
256.357	221.75
256.59	233.75
256.823	221.75
257.056	222.75
257.289	214.75
257.521	205.75
257.754	215.75
257.987	202.75
258.22	206.75
258.452	210.75
258.685	212.75
258.918	222.75
259.151	219.75
259.383	226.75
259.616	219.75
259.849	228.75
260.081	243.75
260.314	259.75
260.547	270.75
260.779	243.75
261.012	234.75
261.244	238.75
261.477	234.75
261.71	237.75
261.942	235.75
262.175	241.75
262.407	241.75
262.64	230.75
262.872	239.75
263.105	229.75
263.337	241.75
263.57	215.75
263.802	219.75
264.035	225.75
264.267	231.75
264.499	236.75
264.732	219.75
264.964	227.75
265.197	226.75
265.429	238.75
265.661	230.75
265.894	228.75
266.126	220.75
266.358	229.75
266.591	220.75
266.823	235.75
267.055	235.75
267.287	243.75
267.52	218.75
267.752	235.75
267.984	225.75
268.216	254.75
268.448	250.75
268.681	231.75
268.913	270.75
269.145	258.75
269.377	290.75
269.609	257.75
269.841	276.75
270.073	261.75
270.306	287.75
270.538	322.75
270.77	318.75
271.002	326.75
271.234	309.75
271.466	316.75
271.698	313.75
271.93	330.75
272.162	314.75
272.394	347.75
272.626	298.75
272.858	300.75
273.09	294.75
273.322	279.75
273.553	284.75
273.785	285.75
274.017	287.75
274.249	289.75
274.481	280.75
274.713	278.75
274.945	281.75
275.176	279.75
275.408	284.75
275.64	266.75
275.872	292.75
276.104	293.75
276.335	265.75
276.567	286.75
276.799	296.75
277.031	308.75
277.262	340.75
277.494	350.75
277.726	317.75
277.957	310.75
278.189	307.75
278.421	304.75
278.652	293.75
278.884	290.75
279.115	295.75
279.347	284.75
279.579	305.75
279.81	265.75
280.042	263.75
280.273	284.75
280.505	287.75
280.736	269.75
280.968	278.75
281.199	291.75
281.431	292.75
281.662	288.75
281.894	293.75
282.125	292.75
282.356	300.75
282.588	309.75
282.819	325.75
283.051	300.75
283.282	315.75
283.513	314.75
283.745	292.75
283.976	311.75
284.207	308.75
284.439	301.75
284.67	295.75
284.901	296.75
285.132	306.75
285.364	299.75
285.595	307.75
285.826	283.75
286.057	291.75
286.288	277.75
286.52	317.75
286.751	315.75
286.982	301.75
287.213	329.75
287.444	298.75
287.675	302.75
287.906	298.75
288.138	309.75
288.369	321.75
288.6	341.75
288.831	314.75
289.062	344.75
289.293	309.75
289.524	312.75
289.755	315.75
289.986	305.75
290.217	303.75
290.448	324.75
290.679	313.75
290.91	328.75
291.141	329.75
291.371	324.75
291.602	320.75
291.833	318.75
292.064	318.75
292.295	314.75
292.526	324.75
292.757	313.75
292.987	326.75
293.218	311.75
293.449	318.75
293.68	321.75
293.91	325.75
294.141	312.75
294.372	302.75
294.603	321.75
294.833	313.75
295.064	315.75
295.295	300.75
295.525	290.75
295.756	314.75
295.987	323.75
296.217	346.75
296.448	371.75
296.679	327.75
296.909	317.75
297.14	313.75
297.37	324.75
297.601	313.75
297.831	333.75
298.062	316.75
298.292	325.75
298.523	335.75
298.753	326.75
298.984	327.75
299.214	339.75
299.445	309.75
299.675	348.75
299.905	347.75
300.136	347.75
300.366	327.75
300.597	332.75
300.827	334.75
301.057	338.75
301.288	341.75
301.518	333.75
301.748	347.75
301.979	350.75
302.209	355.75
302.439	348.75
302.669	372.75
302.9	375.75
303.13	365.75
303.36	347.75
303.59	361.75
303.82	351.75
304.051	358.75
304.281	353.75
304.511	347.75
304.741	356.75
304.971	350.75
305.201	333.75
305.431	334.75
305.661	364.75
305.891	345.75
306.121	328.75
306.352	350.75
306.582	339.75
306.812	359.75
307.042	365.75
307.272	354.75
307.502	355.75
307.731	367.75
307.961	360.75
308.191	342.75
308.421	350.75
308.651	346.75
308.881	371.75
309.111	345.75
309.341	360.75
309.571	365.75
309.8	378.75
310.03	369.75
310.26	396.75
310.49	396.75
310.72	418.75
310.949	410.75
311.179	422.75
311.409	380.75
311.639	394.75
311.868	382.75
312.098	402.75
312.328	404.75
312.557	403.75
312.787	409.75
313.017	430.75
313.246	398.75
313.476	399.75
313.706	413.75
313.935	379.75
314.165	403.75
314.394	408.75
314.624	413.75
314.853	399.75
315.083	405.75
315.312	387.75
315.542	383.75
315.771	395.75
316.001	393.75
316.23	397.75
316.46	385.75
316.689	381.75
316.919	415.75
317.148	424.75
317.377	399.75
317.607	415.75
317.836	409.75
318.065	403.75
318.295	390.75
318.524	389.75
318.753	389.75
318.983	404.75
319.212	398.75
319.441	405.75
319.67	406.75
319.9	392.75
320.129	395.75
320.358	398.75
320.587	399.75
320.816	417.75
321.046	403.75
321.275	408.75
321.504	426.75
321.733	417.75
321.962	400.75
322.191	434.75
322.42	442.75
322.649	459.75
322.878	429.75
323.108	439.75
323.337	480.75
323.566	500.75
323.795	519.75
324.024	540.75
324.253	662.75
324.482	847.75
324.71	1359.75
324.939	1965.75
325.168	1735.75
325.397	875.75
325.626	617.75
325.855	534.75
326.084	513.75
326.313	494.75
326.542	507.75
326.77	556.75
326.999	612.75
327.228	818.75
327.457	1210.75
327.686	1499.75
327.914	1001.75
328.143	686.75
328.372	595.75
328.6	559.75
328.829	556.75
329.058	564.75
329.287	573.75
329.515	548.75
329.744	529.75
329.972	483.75
330.201	535.75
330.43	576.75
330.658	569.75
330.887	592.75
331.115	565.75
331.344	516.75
331.572	504.75
331.801	508.75
332.03	527.75
332.258	493.75
332.486	477.75
332.715	486.75
332.943	470.75
333.172	471.75
333.4	494.75
333.629	524.75
333.857	495.75
334.085	541.75
334.314	525.75
334.542	547.75
334.771	568.75
334.999	532.75
335.227	484.75
335.455	497.75
335.684	489.75
335.912	482.75
336.14	482.75
336.369	463.75
336.597	482.75
336.825	451.75
337.053	483.75
337.281	466.75
337.51	461.75
337.738	478.75
337.966	469.75
338.194	461.75
338.422	486.75
338.65	467.75
338.878	443.75
339.106	437.75
339.334	448.75
339.562	465.75
339.79	453.75
340.018	459.75
340.246	442.75
340.474	442.75
340.702	454.75
340.93	439.75
341.158	448.75
341.386	462.75
341.614	451.75
341.842	453.75
342.07	437.75
342.298	429.75
342.526	436.75
342.754	426.75
342.981	410.75
343.209	434.75
343.437	452.75
343.665	471.75
343.893	471.75
344.12	477.75
344.348	469.75
344.576	475.75
344.804	487.75
345.031	462.75
345.259	463.75
345.487	461.75
345.714	456.75
345.942	442.75
346.17	431.75
346.397	440.75
346.625	449.75
346.853	426.75
347.08	454.75
347.308	434.75
347.535	438.75
347.763	445.75
347.99	450.75
348.218	442.75
348.445	438.75
348.673	446.75
348.9	441.75
349.128	420.75
349.355	418.75
349.583	437.75
349.81	425.75
350.037	448.75
350.265	411.75
350.492	419.75
350.72	418.75
350.947	413.75
351.174	406.75
351.402	452.75
351.629	430.75
351.856	432.75
352.083	438.75
352.311	413.75
352.538	429.75
352.765	424.75
352.992	424.75
353.22	426.75
353.447	422.75
353.674	418.75
353.901	398.75
354.128	413.75
354.355	409.75
354.583	410.75
354.81	415.75
355.037	406.75
355.264	410.75
355.491	412.75
355.718	407.75
355.945	393.75
356.172	409.75
356.399	390.75
356.626	412.75
356.853	419.75
357.08	411.75
357.307	409.75
357.534	404.75
357.761	403.75
357.988	419.75
358.215	416.75
358.441	412.75
358.668	425.75
358.895	423.75
359.122	427.75
359.349	416.75
359.576	425.75
359.802	444.75
360.029	457.75
360.256	470.75
360.483	454.75
360.709	426.75
360.936	415.75
361.163	427.75
361.39	428.75
361.616	444.75
361.843	433.75
362.07	413.75
362.296	414.75
362.523	403.75
362.749	420.75
362.976	409.75
363.203	397.75
363.429	398.75
363.656	425.75
363.882	433.75
364.109	417.75
364.335	402.75
364.562	409.75
364.788	405.75
365.015	402.75
365.241	417.75
365.468	412.75
365.694	440.75
365.92	421.75
366.147	439.75
366.373	425.75
366.599	415.75
366.826	424.75
367.052	413.75
367.278	420.75
367.505	407.75
367.731	442.75
367.957	435.75
368.184	423.75
368.41	426.75
368.636	430.75
368.862	424.75
369.089	435.75
369.315	403.75
369.541	437.75
369.767	415.75
369.993	426.75
370.219	411.75
370.445	406.75
370.672	428.75
370.898	439.75
371.124	431.75
371.35	425.75
371.576	432.75
371.802	422.75
372.028	437.75
372.254	424.75
372.48	426.75
372.706	435.75
372.932	435.75
373.158	438.75
373.384	427.75
373.61	420.75
373.835	435.75
374.061	405.75
374.287	413.75
374.513	422.75
374.739	437.75
374.965	433.75
375.191	453.75
375.416	449.75
375.642	434.75
375.868	428.75
376.094	420.75
376.319	429.75
376.545	417.75
376.771	424.75
376.997	418.75
377.222	413.75
377.448	413.75
377.674	418.75
377.899	420.75
378.125	411.75
378.35	425.75
378.576	429.75
378.802	416.75
379.027	420.75
379.253	406.75
379.478	415.75
379.704	419.75
379.929	443.75
380.155	421.75
380.38	434.75
380.606	414.75
380.831	433.75
381.057	431.75
381.282	411.75
381.507	405.75
381.733	417.75
381.958	424.75
382.184	423.75
382.409	436.75
382.634	414.75
382.86	419.75
383.085	435.75
383.31	452.75
383.535	451.75
383.761	465.75
383.986	443.75
384.211	445.75
384.436	443.75
384.662	456.75
384.887	445.75
385.112	458.75
385.337	459.75
385.562	458.75
385.787	493.75
386.013	448.75
386.238	468.75
386.463	475.75
386.688	461.75
386.913	462.75
387.138	462.75
387.363	483.75
387.588	467.75
387.813	470.75
388.038	470.75
388.263	466.75
388.488	490.75
388.713	473.75
388.938	490.75
389.163	477.75
389.387	471.75
389.612	458.75
389.837	476.75
390.062	479.75
390.287	462.75
390.512	445.75
390.736	447.75
390.961	461.75
391.186	449.75
391.411	469.75
391.636	472.75
391.86	482.75
392.085	497.75
392.31	525.75
392.534	498.75
392.759	492.75
392.984	477.75
393.208	472.75
393.433	450.75
393.658	476.75
393.882	472.75
394.107	470.75
394.331	463.75
394.556	459.75
394.78	477.75
395.005	500.75
395.229	477.75
395.454	492.75
395.678	482.75
395.903	490.75
396.127	515.75
396.352	531.75
396.576	503.75
396.801	516.75
397.025	493.75
397.249	497.75
397.474	512.75
397.698	513.75
397.922	511.75
398.147	531.75
398.371	534.75
398.595	553.75
398.82	558.75
399.044	569.75
399.268	587.75
399.492	613.75
399.717	655.75
399.941	705.75
400.165	679.75
400.389	691.75
400.613	619.75
400.837	602.75
401.062	548.75
401.286	565.75
401.51	565.75
401.734	540.75
401.958	552.75
402.182	550.75
402.406	546.75
402.63	556.75
402.854	562.75
403.078	558.75
403.302	575.75
403.526	578.75
403.75	573.75
403.974	584.75
404.198	558.75
404.422	609.75
404.645	581.75
404.869	597.75
405.093	613.75
405.317	639.75
405.541	682.75
405.765	628.75
405.988	611.75
406.212	607.75
406.436	629.75
406.66	605.75
406.883	599.75
407.107	644.75
407.331	708.75
407.555	726.75
407.778	760.75
408.002	682.75
408.226	638.75
408.449	625.75
408.673	623.75
408.896	618.75
409.12	682.75
409.344	652.75
409.567	606.75
409.791	577.75
410.014	580.75
410.238	586.75
410.461	566.75
410.685	578.75
410.908	605.75
411.132	600.75
411.355	658.75
411.578	609.75
411.802	594.75
412.025	554.75
412.249	572.75
412.472	597.75
412.695	636.75
412.919	631.75
413.142	582.75
413.365	573.75
413.589	583.75
413.812	552.75
414.035	555.75
414.258	546.75
414.482	533.75
414.705	537.75
414.928	534.75
415.151	541.75
415.374	543.75
415.597	537.75
415.821	523.75
416.044	511.75
416.267	542.75
416.49	559.75
416.713	514.75
416.936	528.75
417.159	523.75
417.382	557.75
417.605	536.75
417.828	551.75
418.051	588.75
418.274	550.75
418.497	550.75
418.72	549.75
418.943	535.75
419.166	564.75
419.389	591.75
419.611	577.75
419.834	560.75
420.057	564.75
420.28	566.75
420.503	546.75
420.726	561.75
420.948	561.75
421.171	605.75
421.394	630.75
421.617	561.75
421.839	545.75
422.062	549.75
422.285	576.75
422.507	627.75
422.73	716.75
422.953	694.75
423.175	574.75
423.398	566.75
423.621	584.75
423.843	599.75
424.066	616.75
424.288	596.75
424.511	614.75
424.733	641.75
424.956	738.75
425.178	725.75
425.401	700.75
425.623	738.75
425.846	622.75
426.068	624.75
426.291	590.75
426.513	601.75
426.735	606.75
426.958	622.75
427.18	690.75
427.402	843.75
427.625	893.75
427.847	809.75
428.069	716.75
428.292	631.75
428.514	565.75
428.736	558.75
428.958	546.75
429.181	543.75
429.403	542.75
429.625	545.75
429.847	585.75
430.069	661.75
430.292	642.75
430.514	569.75
430.736	545.75
430.958	551.75
431.18	518.75
431.402	507.75
431.624	526.75
431.846	527.75
432.068	515.75
432.29	517.75
432.512	519.75
432.734	522.75
432.956	515.75
433.178	532.75
433.4	553.75
433.622	535.75
433.844	511.75
434.066	516.75
434.287	517.75
434.509	513.75
434.731	528.75
434.953	550.75
435.175	577.75
435.397	578.75
435.618	602.75
435.84	651.75
436.062	716.75
436.284	796.75
436.505	649.75
436.727	586.75
436.949	551.75
437.17	563.75
437.392	549.75
437.614	536.75
437.835	584.75
438.057	661.75
438.278	769.75
438.5	773.75
438.721	817.75
438.943	814.75
439.165	667.75
439.386	593.75
439.608	585.75
439.829	588.75
440.05	613.75
440.272	647.75
440.493	619.75
440.715	588.75
440.936	563.75
441.158	540.75
441.379	552.75
441.6	566.75
441.822	597.75
442.043	627.75
442.264	710.75
442.486	757.75
442.707	645.75
442.928	588.75
443.149	583.75
443.371	592.75
443.592	649.75
443.813	764.75
444.034	839.75
444.255	695.75
444.476	636.75
444.698	609.75
444.919	594.75
445.14	751.75
445.361	653.75
445.582	631.75
445.803	702.75
446.024	797.75
446.245	809.75
446.466	735.75
446.687	628.75
446.908	580.75
447.129	566.75
447.35	561.75
447.571	546.75
447.792	513.75
448.013	547.75
448.234	543.75
448.455	574.75
448.675	725.75
448.896	838.75
449.117	689.75
449.338	670.75
449.559	749.75
449.779	886.75
450	669.75
450.221	569.75
450.442	558.75
450.662	502.75
450.883	541.75
451.104	532.75
451.324	517.75
451.545	513.75
451.766	481.75
451.986	467.75
452.207	474.75
452.428	469.75
452.648	487.75
452.869	492.75
453.089	473.75
453.31	502.75
453.53	497.75
453.751	485.75
453.971	485.75
454.192	492.75
454.412	471.75
454.633	480.75
454.853	471.75
455.073	476.75
455.294	509.75
455.514	582.75
455.734	552.75
455.955	474.75
456.175	484.75
456.395	470.75
456.616	446.75
456.836	475.75
457.056	445.75
457.276	453.75
457.497	475.75
457.717	455.75
457.937	457.75
458.157	472.75
458.377	454.75
458.598	487.75
458.818	523.75
459.038	612.75
459.258	630.75
459.478	565.75
459.698	523.75
459.918	514.75
460.138	521.75
460.358	523.75
460.578	537.75
460.798	530.75
461.018	540.75
461.238	534.75
461.458	539.75
461.678	517.75
461.898	535.75
462.118	549.75
462.338	571.75
462.558	575.75
462.777	578.75
462.997	569.75
463.217	587.75
463.437	609.75
463.657	577.75
463.876	594.75
464.096	565.75
464.316	579.75
464.536	590.75
464.755	579.75
464.975	577.75
465.195	620.75
465.414	643.75
465.634	599.75
465.854	538.75
466.073	529.75
466.293	506.75
466.512	500.75
466.732	499.75
466.951	489.75
467.171	493.75
467.391	500.75
467.61	498.75
467.829	515.75
468.049	517.75
468.268	526.75
468.488	495.75
468.707	468.75
468.927	465.75
469.146	478.75
469.365	499.75
469.585	489.75
469.804	485.75
470.023	498.75
470.243	509.75
470.462	515.75
470.681	510.75
470.901	533.75
471.12	489.75
471.339	482.75
471.558	500.75
471.777	491.75
471.997	500.75
472.216	512.75
472.435	526.75
472.654	534.75
472.873	488.75
473.092	482.75
473.311	494.75
473.53	509.75
473.749	505.75
473.968	525.75
474.187	643.75
474.406	678.75
474.625	554.75
474.844	516.75
475.063	513.75
475.282	500.75
475.501	514.75
475.72	530.75
475.939	504.75
476.158	508.75
476.377	504.75
476.596	527.75
476.814	503.75
477.033	526.75
477.252	522.75
477.471	527.75
477.69	539.75
477.908	556.75
478.127	561.75
478.346	560.75
478.564	549.75
478.783	570.75
479.002	563.75
479.22	583.75
479.439	576.75
479.658	588.75
479.876	607.75
480.095	595.75
480.313	624.75
480.532	645.75
480.751	612.75
480.969	639.75
481.188	660.75
481.406	680.75
481.624	636.75
481.843	590.75
482.061	595.75
482.28	576.75
482.498	597.75
482.717	573.75
482.935	564.75
483.153	609.75
483.372	561.75
483.59	579.75
483.808	580.75
484.027	574.75
484.245	567.75
484.463	587.75
484.681	599.75
484.9	589.75
485.118	598.75
485.336	580.75
485.554	584.75
485.772	611.75
485.99	593.75
486.209	604.75
486.427	603.75
486.645	613.75
486.863	626.75
487.081	626.75
487.299	621.75
487.517	641.75
487.735	622.75
487.953	631.75
488.171	638.75
488.389	640.75
488.607	627.75
488.825	601.75
489.043	593.75
489.261	629.75
489.479	639.75
489.696	634.75
489.914	643.75
490.132	638.75
490.35	646.75
490.568	669.75
490.786	673.75
491.003	686.75
491.221	676.75
491.439	710.75
491.657	698.75
491.874	718.75
492.092	707.75
492.31	715.75
492.527	681.75
492.745	722.75
492.963	707.75
493.18	732.75
493.398	704.75
493.615	750.75
493.833	745.75
494.05	744.75
494.268	716.75
494.485	722.75
494.703	725.75
494.92	742.75
495.138	721.75
495.355	737.75
495.573	746.75
495.79	746.75
496.008	745.75
496.225	733.75
496.442	762.75
496.66	755.75
496.877	735.75
497.094	757.75
497.312	774.75
497.529	763.75
497.746	774.75
497.963	788.75
498.181	832.75
498.398	813.75
498.615	869.75
498.832	869.75
499.049	883.75
499.267	934.75
499.484	957.75
499.701	986.75
499.918	1044.75
500.135	1069.75
500.352	1149.75
500.569	1193.75
500.786	1175.75
501.003	1143.75
501.22	1097.75
501.437	1060.75
501.654	1033.75
