Data from 1976.PennyLincolnUp.Lamp.En5.5.200Scan.071719.P1.Changed Mount._HRD10591_16-01-56-862.txt Node
Date: Thu Jul 18 16:01:56 EDT 2019
User: cochatt
Spectrometer: HR+D1059
Trigger mode: 1
Integration Time (sec): 1.000000E-1
Scans to average: 1
Electric dark correction enabled: true
Nonlinearity correction enabled: false
Boxcar width: 0
XAxis mode: Wavelengths
Number of Pixels in Spectrum: 2048
>>>>>Begin Spectral Data<<<<<
223.165	-17.81
223.4	-17.81
223.635	-17.81
223.869	-30.81
224.104	-10.81
224.338	-10.81
224.573	-8.81
224.808	-10.81
225.042	-8.81
225.277	-3.81
225.511	5.19
225.746	10.19
225.98	1.19
226.215	2.19
226.449	17.19
226.683	9.19
226.918	36.19
227.152	21.19
227.387	34.19
227.621	25.19
227.856	47.19
228.09	38.19
228.324	53.19
228.559	63.19
228.793	75.19
229.027	90.19
229.262	95.19
229.496	116.19
229.73	145.19
229.964	152.19
230.199	136.19
230.433	114.19
230.667	118.19
230.901	112.19
231.136	112.19
231.37	119.19
231.604	127.19
231.838	125.19
232.072	112.19
232.306	116.19
232.541	115.19
232.775	117.19
233.009	122.19
233.243	121.19
233.477	135.19
233.711	109.19
233.945	123.19
234.179	128.19
234.413	130.19
234.647	123.19
234.881	119.19
235.115	127.19
235.349	125.19
235.583	128.19
235.817	136.19
236.051	128.19
236.285	125.19
236.519	125.19
236.753	126.19
236.987	134.19
237.221	171.19
237.455	245.19
237.689	201.19
237.922	152.19
238.156	133.19
238.39	121.19
238.624	142.19
238.858	136.19
239.091	141.19
239.325	127.19
239.559	125.19
239.793	127.19
240.027	152.19
240.26	150.19
240.494	169.19
240.728	166.19
240.961	162.19
241.195	147.19
241.429	144.19
241.662	127.19
241.896	153.19
242.13	147.19
242.363	139.19
242.597	136.19
242.83	148.19
243.064	149.19
243.298	150.19
243.531	142.19
243.765	148.19
243.998	133.19
244.232	144.19
244.465	157.19
244.699	141.19
244.932	142.19
245.166	146.19
245.399	163.19
245.633	161.19
245.866	146.19
246.099	140.19
246.333	158.19
246.566	169.19
246.8	167.19
247.033	182.19
247.266	157.19
247.5	183.19
247.733	168.19
247.966	198.19
248.2	180.19
248.433	163.19
248.666	180.19
248.899	198.19
249.133	222.19
249.366	230.19
249.599	213.19
249.832	194.19
250.066	189.19
250.299	195.19
250.532	207.19
250.765	225.19
250.998	232.19
251.231	243.19
251.465	217.19
251.698	230.19
251.931	203.19
252.164	208.19
252.397	221.19
252.63	213.19
252.863	233.19
253.096	221.19
253.329	257.19
253.562	240.19
253.795	238.19
254.028	229.19
254.261	225.19
254.494	225.19
254.727	281.19
254.96	300.19
255.193	279.19
255.426	269.19
255.659	235.19
255.892	238.19
256.124	237.19
256.357	253.19
256.59	247.19
256.823	222.19
257.056	229.19
257.289	221.19
257.521	240.19
257.754	227.19
257.987	231.19
258.22	238.19
258.452	230.19
258.685	237.19
258.918	231.19
259.151	219.19
259.383	234.19
259.616	243.19
259.849	243.19
260.081	247.19
260.314	267.19
260.547	270.19
260.779	266.19
261.012	260.19
261.244	234.19
261.477	252.19
261.71	237.19
261.942	254.19
262.175	250.19
262.407	228.19
262.64	227.19
262.872	241.19
263.105	225.19
263.337	248.19
263.57	248.19
263.802	232.19
264.035	228.19
264.267	223.19
264.499	224.19
264.732	220.19
264.964	235.19
265.197	223.19
265.429	235.19
265.661	258.19
265.894	233.19
266.126	249.19
266.358	230.19
266.591	229.19
266.823	257.19
267.055	233.19
267.287	255.19
267.52	259.19
267.752	246.19
267.984	255.19
268.216	262.19
268.448	263.19
268.681	274.19
268.913	263.19
269.145	284.19
269.377	304.19
269.609	285.19
269.841	295.19
270.073	302.19
270.306	309.19
270.538	339.19
270.77	332.19
271.002	340.19
271.234	295.19
271.466	294.19
271.698	325.19
271.93	344.19
272.162	313.19
272.394	330.19
272.626	322.19
272.858	320.19
273.09	299.19
273.322	283.19
273.553	281.19
273.785	298.19
274.017	296.19
274.249	289.19
274.481	299.19
274.713	320.19
274.945	281.19
275.176	297.19
275.408	289.19
275.64	280.19
275.872	296.19
276.104	294.19
276.335	283.19
276.567	294.19
276.799	327.19
277.031	349.19
277.262	355.19
277.494	335.19
277.726	327.19
277.957	310.19
278.189	309.19
278.421	293.19
278.652	312.19
278.884	293.19
279.115	288.19
279.347	286.19
279.579	308.19
279.81	308.19
280.042	292.19
280.273	289.19
280.505	293.19
280.736	300.19
280.968	305.19
281.199	288.19
281.431	290.19
281.662	311.19
281.894	296.19
282.125	296.19
282.356	292.19
282.588	337.19
282.819	309.19
283.051	299.19
283.282	310.19
283.513	315.19
283.745	332.19
283.976	302.19
284.207	315.19
284.439	303.19
284.67	321.19
284.901	312.19
285.132	318.19
285.364	320.19
285.595	321.19
285.826	324.19
286.057	312.19
286.288	300.19
286.52	307.19
286.751	336.19
286.982	331.19
287.213	320.19
287.444	327.19
287.675	315.19
287.906	334.19
288.138	330.19
288.369	330.19
288.6	349.19
288.831	322.19
289.062	323.19
289.293	312.19
289.524	296.19
289.755	317.19
289.986	327.19
290.217	335.19
290.448	307.19
290.679	336.19
290.91	313.19
291.141	309.19
291.371	325.19
291.602	328.19
291.833	306.19
292.064	331.19
292.295	336.19
292.526	324.19
292.757	328.19
292.987	298.19
293.218	324.19
293.449	335.19
293.68	329.19
293.91	324.19
294.141	342.19
294.372	307.19
294.603	321.19
294.833	345.19
295.064	315.19
295.295	292.19
295.525	337.19
295.756	326.19
295.987	332.19
296.217	363.19
296.448	369.19
296.679	356.19
296.909	329.19
297.14	335.19
297.37	321.19
297.601	364.19
297.831	357.19
298.062	335.19
298.292	326.19
298.523	349.19
298.753	362.19
298.984	340.19
299.214	342.19
299.445	346.19
299.675	328.19
299.905	371.19
300.136	361.19
300.366	358.19
300.597	348.19
300.827	361.19
301.057	363.19
301.288	358.19
301.518	353.19
301.748	370.19
301.979	375.19
302.209	377.19
302.439	388.19
302.669	364.19
302.9	355.19
303.13	379.19
303.36	361.19
303.59	343.19
303.82	350.19
304.051	375.19
304.281	377.19
304.511	374.19
304.741	368.19
304.971	363.19
305.201	367.19
305.431	358.19
305.661	369.19
305.891	371.19
306.121	375.19
306.352	371.19
306.582	378.19
306.812	362.19
307.042	393.19
307.272	361.19
307.502	357.19
307.731	366.19
307.961	381.19
308.191	367.19
308.421	379.19
308.651	379.19
308.881	357.19
309.111	400.19
309.341	381.19
309.571	397.19
309.8	392.19
310.03	377.19
310.26	386.19
310.49	387.19
310.72	388.19
310.949	427.19
311.179	429.19
311.409	407.19
311.639	405.19
311.868	430.19
312.098	389.19
312.328	413.19
312.557	436.19
312.787	420.19
313.017	429.19
313.246	415.19
313.476	392.19
313.706	401.19
313.935	405.19
314.165	421.19
314.394	400.19
314.624	431.19
314.853	422.19
315.083	416.19
315.312	389.19
315.542	407.19
315.771	420.19
316.001	402.19
316.23	417.19
316.46	410.19
316.689	383.19
316.919	413.19
317.148	421.19
317.377	405.19
317.607	409.19
317.836	409.19
318.065	428.19
318.295	412.19
318.524	406.19
318.753	405.19
318.983	405.19
319.212	388.19
319.441	397.19
319.67	404.19
319.9	411.19
320.129	416.19
320.358	422.19
320.587	431.19
320.816	442.19
321.046	423.19
321.275	420.19
321.504	398.19
321.733	431.19
321.962	432.19
322.191	438.19
322.42	445.19
322.649	465.19
322.878	468.19
323.108	472.19
323.337	497.19
323.566	526.19
323.795	539.19
324.024	551.19
324.253	657.19
324.482	923.19
324.71	1425.19
324.939	2094.19
325.168	1834.19
325.397	921.19
325.626	651.19
325.855	546.19
326.084	507.19
326.313	514.19
326.542	520.19
326.77	568.19
326.999	650.19
327.228	827.19
327.457	1267.19
327.686	1591.19
327.914	1068.19
328.143	710.19
328.372	616.19
328.6	586.19
328.829	572.19
329.058	585.19
329.287	587.19
329.515	573.19
329.744	532.19
329.972	518.19
330.201	539.19
330.43	573.19
330.658	601.19
330.887	619.19
331.115	603.19
331.344	543.19
331.572	518.19
331.801	522.19
332.03	521.19
332.258	507.19
332.486	500.19
332.715	498.19
332.943	488.19
333.172	504.19
333.4	507.19
333.629	534.19
333.857	535.19
334.085	555.19
334.314	544.19
334.542	577.19
334.771	599.19
334.999	542.19
335.227	527.19
335.455	513.19
335.684	508.19
335.912	486.19
336.14	474.19
336.369	502.19
336.597	501.19
336.825	481.19
337.053	485.19
337.281	485.19
337.51	473.19
337.738	505.19
337.966	495.19
338.194	488.19
338.422	488.19
338.65	488.19
338.878	475.19
339.106	470.19
339.334	468.19
339.562	474.19
339.79	455.19
340.018	470.19
340.246	451.19
340.474	478.19
340.702	465.19
340.93	459.19
341.158	446.19
341.386	472.19
341.614	455.19
341.842	482.19
342.07	469.19
342.298	476.19
342.526	452.19
342.754	446.19
342.981	464.19
343.209	444.19
343.437	471.19
343.665	479.19
343.893	476.19
344.12	487.19
344.348	480.19
344.576	479.19
344.804	471.19
345.031	493.19
345.259	496.19
345.487	463.19
345.714	469.19
345.942	458.19
346.17	448.19
346.397	455.19
346.625	457.19
346.853	446.19
347.08	438.19
347.308	431.19
347.535	465.19
347.763	458.19
347.99	443.19
348.218	454.19
348.445	439.19
348.673	446.19
348.9	432.19
349.128	442.19
349.355	442.19
349.583	440.19
349.81	426.19
350.037	421.19
350.265	432.19
350.492	416.19
350.72	420.19
350.947	439.19
351.174	415.19
351.402	468.19
351.629	452.19
351.856	452.19
352.083	447.19
352.311	465.19
352.538	448.19
352.765	452.19
352.992	448.19
353.22	452.19
353.447	433.19
353.674	423.19
353.901	445.19
354.128	417.19
354.355	444.19
354.583	409.19
354.81	415.19
355.037	423.19
355.264	430.19
355.491	431.19
355.718	429.19
355.945	425.19
356.172	429.19
356.399	419.19
356.626	426.19
356.853	400.19
357.08	403.19
357.307	413.19
357.534	414.19
357.761	425.19
357.988	420.19
358.215	415.19
358.441	427.19
358.668	426.19
358.895	412.19
359.122	452.19
359.349	418.19
359.576	440.19
359.802	459.19
360.029	501.19
360.256	486.19
360.483	477.19
360.709	446.19
360.936	465.19
361.163	449.19
361.39	449.19
361.616	449.19
361.843	438.19
362.07	453.19
362.296	446.19
362.523	447.19
362.749	437.19
362.976	437.19
363.203	428.19
363.429	421.19
363.656	445.19
363.882	441.19
364.109	417.19
364.335	431.19
364.562	425.19
364.788	438.19
365.015	419.19
365.241	415.19
365.468	423.19
365.694	429.19
365.92	421.19
366.147	427.19
366.373	423.19
366.599	427.19
366.826	435.19
367.052	427.19
367.278	428.19
367.505	416.19
367.731	445.19
367.957	445.19
368.184	426.19
368.41	451.19
368.636	437.19
368.862	449.19
369.089	449.19
369.315	446.19
369.541	441.19
369.767	441.19
369.993	424.19
370.219	436.19
370.445	417.19
370.672	439.19
370.898	430.19
371.124	448.19
371.35	426.19
371.576	435.19
371.802	413.19
372.028	437.19
372.254	423.19
372.48	428.19
372.706	437.19
372.932	442.19
373.158	452.19
373.384	453.19
373.61	429.19
373.835	430.19
374.061	432.19
374.287	446.19
374.513	446.19
374.739	462.19
374.965	447.19
375.191	470.19
375.416	431.19
375.642	444.19
375.868	466.19
376.094	427.19
376.319	448.19
376.545	455.19
376.771	451.19
376.997	436.19
377.222	432.19
377.448	449.19
377.674	425.19
377.899	444.19
378.125	427.19
378.35	450.19
378.576	441.19
378.802	422.19
379.027	444.19
379.253	439.19
379.478	418.19
379.704	433.19
379.929	446.19
380.155	424.19
380.38	449.19
380.606	416.19
380.831	444.19
381.057	439.19
381.282	425.19
381.507	446.19
381.733	443.19
381.958	441.19
382.184	465.19
382.409	438.19
382.634	472.19
382.86	457.19
383.085	461.19
383.31	441.19
383.535	457.19
383.761	445.19
383.986	460.19
384.211	463.19
384.436	457.19
384.662	476.19
384.887	481.19
385.112	462.19
385.337	458.19
385.562	469.19
385.787	503.19
386.013	496.19
386.238	489.19
386.463	517.19
386.688	496.19
386.913	490.19
387.138	496.19
387.363	491.19
387.588	503.19
387.813	485.19
388.038	484.19
388.263	469.19
388.488	493.19
388.713	479.19
388.938	497.19
389.163	505.19
389.387	488.19
389.612	475.19
389.837	495.19
390.062	503.19
390.287	486.19
390.512	484.19
390.736	488.19
390.961	493.19
391.186	480.19
391.411	480.19
391.636	501.19
391.86	514.19
392.085	488.19
392.31	520.19
392.534	504.19
392.759	501.19
392.984	496.19
393.208	476.19
393.433	480.19
393.658	480.19
393.882	486.19
394.107	482.19
394.331	504.19
394.556	492.19
394.78	492.19
395.005	500.19
395.229	497.19
395.454	505.19
395.678	507.19
395.903	517.19
396.127	528.19
396.352	533.19
396.576	507.19
396.801	521.19
397.025	501.19
397.249	496.19
397.474	510.19
397.698	530.19
397.922	550.19
398.147	546.19
398.371	551.19
398.595	546.19
398.82	564.19
399.044	565.19
399.268	621.19
399.492	645.19
399.717	689.19
399.941	720.19
400.165	695.19
400.389	710.19
400.613	653.19
400.837	612.19
401.062	582.19
401.286	586.19
401.51	576.19
401.734	557.19
401.958	584.19
402.182	574.19
402.406	582.19
402.63	574.19
402.854	568.19
403.078	598.19
403.302	603.19
403.526	615.19
403.75	607.19
403.974	600.19
404.198	593.19
404.422	623.19
404.645	598.19
404.869	620.19
405.093	613.19
405.317	674.19
405.541	702.19
405.765	647.19
405.988	640.19
406.212	606.19
406.436	636.19
406.66	652.19
406.883	630.19
407.107	663.19
407.331	682.19
407.555	773.19
407.778	790.19
408.002	705.19
408.226	647.19
408.449	673.19
408.673	657.19
408.896	663.19
409.12	720.19
409.344	684.19
409.567	635.19
409.791	607.19
410.014	566.19
410.238	572.19
410.461	595.19
410.685	608.19
410.908	610.19
411.132	648.19
411.355	679.19
411.578	651.19
411.802	599.19
412.025	593.19
412.249	575.19
412.472	620.19
412.695	657.19
412.919	631.19
413.142	580.19
413.365	574.19
413.589	555.19
413.812	552.19
414.035	575.19
414.258	558.19
414.482	564.19
414.705	549.19
414.928	554.19
415.151	567.19
415.374	573.19
415.597	570.19
415.821	563.19
416.044	566.19
416.267	573.19
416.49	574.19
416.713	558.19
416.936	559.19
417.159	563.19
417.382	558.19
417.605	558.19
417.828	603.19
418.051	592.19
418.274	563.19
418.497	549.19
418.72	563.19
418.943	551.19
419.166	598.19
419.389	591.19
419.611	617.19
419.834	587.19
420.057	599.19
420.28	603.19
420.503	601.19
420.726	567.19
420.948	578.19
421.171	629.19
421.394	651.19
421.617	606.19
421.839	575.19
422.062	598.19
422.285	606.19
422.507	653.19
422.73	742.19
422.953	710.19
423.175	624.19
423.398	608.19
423.621	635.19
423.843	632.19
424.066	621.19
424.288	635.19
424.511	627.19
424.733	695.19
424.956	760.19
425.178	733.19
425.401	725.19
425.623	771.19
425.846	677.19
426.068	624.19
426.291	607.19
426.513	592.19
426.735	617.19
426.958	665.19
427.18	729.19
427.402	877.19
427.625	964.19
427.847	821.19
428.069	704.19
428.292	630.19
428.514	609.19
428.736	573.19
428.958	562.19
429.181	586.19
429.403	547.19
429.625	552.19
429.847	630.19
430.069	672.19
430.292	665.19
430.514	587.19
430.736	567.19
430.958	569.19
431.18	551.19
431.402	533.19
431.624	504.19
431.846	505.19
432.068	543.19
432.29	565.19
432.512	529.19
432.734	567.19
432.956	549.19
433.178	551.19
433.4	564.19
433.622	544.19
433.844	551.19
434.066	537.19
434.287	539.19
434.509	534.19
434.731	547.19
434.953	569.19
435.175	569.19
435.397	588.19
435.618	619.19
435.84	637.19
436.062	742.19
436.284	815.19
436.505	689.19
436.727	617.19
436.949	575.19
437.17	558.19
437.392	580.19
437.614	564.19
437.835	592.19
438.057	687.19
438.278	795.19
438.5	791.19
438.721	880.19
438.943	845.19
439.165	662.19
439.386	603.19
439.608	599.19
439.829	585.19
440.05	637.19
440.272	662.19
440.493	647.19
440.715	616.19
440.936	580.19
441.158	575.19
441.379	599.19
441.6	593.19
441.822	611.19
442.043	668.19
442.264	742.19
442.486	779.19
442.707	660.19
442.928	647.19
443.149	605.19
443.371	672.19
443.592	689.19
443.813	822.19
444.034	877.19
444.255	715.19
444.476	670.19
444.698	622.19
444.919	641.19
445.14	736.19
445.361	675.19
445.582	663.19
445.803	746.19
446.024	846.19
446.245	836.19
446.466	769.19
446.687	640.19
446.908	617.19
447.129	553.19
447.35	544.19
447.571	563.19
447.792	532.19
448.013	550.19
448.234	552.19
448.455	611.19
448.675	753.19
448.896	872.19
449.117	717.19
449.338	684.19
449.559	807.19
449.779	891.19
450	731.19
450.221	609.19
450.442	555.19
450.662	539.19
450.883	528.19
451.104	549.19
451.324	553.19
451.545	515.19
451.766	499.19
451.986	536.19
452.207	499.19
452.428	492.19
452.648	493.19
452.869	513.19
453.089	504.19
453.31	559.19
453.53	502.19
453.751	495.19
453.971	502.19
454.192	493.19
454.412	495.19
454.633	479.19
454.853	484.19
455.073	486.19
455.294	531.19
455.514	595.19
455.734	564.19
455.955	505.19
456.175	463.19
456.395	474.19
456.616	466.19
456.836	492.19
457.056	481.19
457.276	451.19
457.497	465.19
457.717	463.19
457.937	476.19
458.157	481.19
458.377	483.19
458.598	505.19
458.818	539.19
459.038	649.19
459.258	667.19
459.478	587.19
459.698	556.19
459.918	524.19
460.138	541.19
460.358	537.19
460.578	550.19
460.798	565.19
461.018	553.19
461.238	542.19
461.458	575.19
461.678	551.19
461.898	563.19
462.118	559.19
462.338	585.19
462.558	603.19
462.777	591.19
462.997	612.19
463.217	618.19
463.437	640.19
463.657	609.19
463.876	623.19
464.096	622.19
464.316	605.19
464.536	588.19
464.755	606.19
464.975	617.19
465.195	643.19
465.414	655.19
465.634	622.19
465.854	540.19
466.073	552.19
466.293	524.19
466.512	523.19
466.732	506.19
466.951	512.19
467.171	525.19
467.391	506.19
467.61	522.19
467.829	513.19
468.049	523.19
468.268	507.19
468.488	504.19
468.707	486.19
468.927	495.19
469.146	502.19
469.365	517.19
469.585	496.19
469.804	523.19
470.023	525.19
470.243	513.19
470.462	521.19
470.681	528.19
470.901	540.19
471.12	526.19
471.339	513.19
471.558	524.19
471.777	510.19
471.997	518.19
472.216	539.19
472.435	533.19
472.654	527.19
472.873	513.19
473.092	516.19
473.311	522.19
473.53	528.19
473.749	520.19
473.968	550.19
474.187	651.19
474.406	663.19
474.625	566.19
474.844	524.19
475.063	521.19
475.282	524.19
475.501	521.19
475.72	519.19
475.939	525.19
476.158	539.19
476.377	542.19
476.596	536.19
476.814	520.19
477.033	543.19
477.252	573.19
477.471	534.19
477.69	560.19
477.908	560.19
478.127	579.19
478.346	569.19
478.564	585.19
478.783	569.19
479.002	571.19
479.22	579.19
479.439	596.19
479.658	606.19
479.876	612.19
480.095	643.19
480.313	681.19
480.532	645.19
480.751	641.19
480.969	681.19
481.188	655.19
481.406	718.19
481.624	645.19
481.843	605.19
482.061	602.19
482.28	615.19
482.498	595.19
482.717	596.19
482.935	592.19
483.153	588.19
483.372	600.19
483.59	588.19
483.808	594.19
484.027	599.19
484.245	592.19
484.463	615.19
484.681	618.19
484.9	619.19
485.118	583.19
485.336	619.19
485.554	606.19
485.772	601.19
485.99	603.19
486.209	639.19
486.427	613.19
486.645	641.19
486.863	645.19
487.081	666.19
487.299	664.19
487.517	658.19
487.735	645.19
487.953	669.19
488.171	665.19
488.389	657.19
488.607	658.19
488.825	635.19
489.043	658.19
489.261	651.19
489.479	679.19
489.696	649.19
489.914	663.19
490.132	666.19
490.35	661.19
490.568	687.19
490.786	661.19
491.003	691.19
491.221	743.19
491.439	705.19
491.657	737.19
491.874	732.19
492.092	733.19
492.31	753.19
492.527	724.19
492.745	727.19
492.963	786.19
493.18	749.19
493.398	757.19
493.615	779.19
493.833	740.19
494.05	769.19
494.268	729.19
494.485	744.19
494.703	757.19
494.92	760.19
495.138	755.19
495.355	743.19
495.573	755.19
495.79	758.19
496.008	777.19
496.225	773.19
496.442	777.19
496.66	758.19
496.877	772.19
497.094	775.19
497.312	782.19
497.529	793.19
497.746	785.19
497.963	822.19
498.181	831.19
498.398	856.19
498.615	890.19
498.832	895.19
499.049	947.19
499.267	965.19
499.484	991.19
499.701	1018.19
499.918	1071.19
500.135	1104.19
500.352	1179.19
500.569	1221.19
500.786	1250.19
501.003	1219.19
501.22	1110.19
501.437	1129.19
501.654	1086.19
