Data from 1976.PennyLincolnUp.Lamp.En5.5.200Scan.071719.P1.Changed Mount._HRD10591_16-02-02-863.txt Node
Date: Thu Jul 18 16:02:02 EDT 2019
User: cochatt
Spectrometer: HR+D1059
Trigger mode: 1
Integration Time (sec): 1.000000E-1
Scans to average: 1
Electric dark correction enabled: true
Nonlinearity correction enabled: false
Boxcar width: 0
XAxis mode: Wavelengths
Number of Pixels in Spectrum: 2048
>>>>>Begin Spectral Data<<<<<
223.165	-18.12
223.4	-18.12
223.635	-18.12
223.869	-19.12
224.104	-13.12
224.338	-11.12
224.573	-10.12
224.808	-3.12
225.042	3.88
225.277	-10.12
225.511	-8.12
225.746	-5.12
225.98	8.88
226.215	8.88
226.449	7.88
226.683	20.88
226.918	21.88
227.152	25.88
227.387	22.88
227.621	45.88
227.856	40.88
228.09	46.88
228.324	40.88
228.559	55.88
228.793	61.88
229.027	101.88
229.262	98.88
229.496	117.88
229.73	140.88
229.964	154.88
230.199	116.88
230.433	114.88
230.667	97.88
230.901	116.88
231.136	123.88
231.37	118.88
231.604	118.88
231.838	109.88
232.072	114.88
232.306	122.88
232.541	113.88
232.775	122.88
233.009	124.88
233.243	112.88
233.477	109.88
233.711	119.88
233.945	120.88
234.179	108.88
234.413	126.88
234.647	113.88
234.881	128.88
235.115	116.88
235.349	128.88
235.583	121.88
235.817	118.88
236.051	126.88
236.285	114.88
236.519	125.88
236.753	122.88
236.987	133.88
237.221	165.88
237.455	230.88
237.689	177.88
237.922	135.88
238.156	130.88
238.39	134.88
238.624	134.88
238.858	123.88
239.091	134.88
239.325	126.88
239.559	139.88
239.793	132.88
240.027	132.88
240.26	125.88
240.494	154.88
240.728	146.88
240.961	143.88
241.195	145.88
241.429	153.88
241.662	127.88
241.896	138.88
242.13	140.88
242.363	137.88
242.597	133.88
242.83	158.88
243.064	145.88
243.298	133.88
243.531	136.88
243.765	152.88
243.998	154.88
244.232	149.88
244.465	153.88
244.699	136.88
244.932	146.88
245.166	143.88
245.399	151.88
245.633	147.88
245.866	140.88
246.099	156.88
246.333	156.88
246.566	154.88
246.8	158.88
247.033	158.88
247.266	171.88
247.5	169.88
247.733	169.88
247.966	172.88
248.2	204.88
248.433	162.88
248.666	179.88
248.899	185.88
249.133	205.88
249.366	202.88
249.599	205.88
249.832	193.88
250.066	182.88
250.299	186.88
250.532	207.88
250.765	203.88
250.998	211.88
251.231	236.88
251.465	222.88
251.698	197.88
251.931	198.88
252.164	190.88
252.397	209.88
252.63	212.88
252.863	202.88
253.096	215.88
253.329	230.88
253.562	229.88
253.795	229.88
254.028	240.88
254.261	227.88
254.494	242.88
254.727	283.88
254.96	282.88
255.193	268.88
255.426	248.88
255.659	251.88
255.892	229.88
256.124	235.88
256.357	243.88
256.59	233.88
256.823	228.88
257.056	221.88
257.289	210.88
257.521	221.88
257.754	228.88
257.987	215.88
258.22	210.88
258.452	212.88
258.685	203.88
258.918	220.88
259.151	225.88
259.383	235.88
259.616	247.88
259.849	225.88
260.081	265.88
260.314	262.88
260.547	264.88
260.779	267.88
261.012	263.88
261.244	246.88
261.477	232.88
261.71	234.88
261.942	262.88
262.175	237.88
262.407	246.88
262.64	221.88
262.872	219.88
263.105	223.88
263.337	228.88
263.57	225.88
263.802	227.88
264.035	224.88
264.267	225.88
264.499	206.88
264.732	237.88
264.964	231.88
265.197	223.88
265.429	241.88
265.661	240.88
265.894	231.88
266.126	238.88
266.358	233.88
266.591	237.88
266.823	244.88
267.055	247.88
267.287	235.88
267.52	226.88
267.752	261.88
267.984	237.88
268.216	238.88
268.448	252.88
268.681	275.88
268.913	283.88
269.145	267.88
269.377	300.88
269.609	282.88
269.841	277.88
270.073	293.88
270.306	299.88
270.538	324.88
270.77	364.88
271.002	335.88
271.234	322.88
271.466	330.88
271.698	334.88
271.93	328.88
272.162	339.88
272.394	346.88
272.626	319.88
272.858	316.88
273.09	312.88
273.322	299.88
273.553	290.88
273.785	307.88
274.017	281.88
274.249	287.88
274.481	273.88
274.713	266.88
274.945	271.88
275.176	280.88
275.408	280.88
275.64	289.88
275.872	295.88
276.104	270.88
276.335	283.88
276.567	306.88
276.799	319.88
277.031	337.88
277.262	339.88
277.494	343.88
277.726	323.88
277.957	315.88
278.189	296.88
278.421	298.88
278.652	283.88
278.884	307.88
279.115	274.88
279.347	284.88
279.579	278.88
279.81	316.88
280.042	272.88
280.273	293.88
280.505	298.88
280.736	300.88
280.968	300.88
281.199	287.88
281.431	318.88
281.662	295.88
281.894	283.88
282.125	286.88
282.356	322.88
282.588	331.88
282.819	334.88
283.051	313.88
283.282	308.88
283.513	301.88
283.745	300.88
283.976	288.88
284.207	307.88
284.439	317.88
284.67	319.88
284.901	325.88
285.132	315.88
285.364	292.88
285.595	302.88
285.826	285.88
286.057	316.88
286.288	306.88
286.52	306.88
286.751	313.88
286.982	331.88
287.213	312.88
287.444	289.88
287.675	317.88
287.906	334.88
288.138	320.88
288.369	331.88
288.6	332.88
288.831	321.88
289.062	326.88
289.293	321.88
289.524	323.88
289.755	321.88
289.986	328.88
290.217	324.88
290.448	317.88
290.679	328.88
290.91	326.88
291.141	319.88
291.371	325.88
291.602	311.88
291.833	302.88
292.064	328.88
292.295	329.88
292.526	321.88
292.757	314.88
292.987	324.88
293.218	317.88
293.449	309.88
293.68	305.88
293.91	308.88
294.141	331.88
294.372	318.88
294.603	322.88
294.833	328.88
295.064	325.88
295.295	333.88
295.525	346.88
295.756	322.88
295.987	325.88
296.217	340.88
296.448	349.88
296.679	358.88
296.909	323.88
297.14	333.88
297.37	349.88
297.601	326.88
297.831	329.88
298.062	361.88
298.292	345.88
298.523	307.88
298.753	340.88
298.984	324.88
299.214	353.88
299.445	341.88
299.675	334.88
299.905	323.88
300.136	342.88
300.366	354.88
300.597	340.88
300.827	356.88
301.057	360.88
301.288	368.88
301.518	378.88
301.748	370.88
301.979	378.88
302.209	354.88
302.439	386.88
302.669	355.88
302.9	376.88
303.13	351.88
303.36	359.88
303.59	362.88
303.82	361.88
304.051	371.88
304.281	361.88
304.511	361.88
304.741	368.88
304.971	377.88
305.201	361.88
305.431	351.88
305.661	354.88
305.891	381.88
306.121	358.88
306.352	362.88
306.582	377.88
306.812	366.88
307.042	386.88
307.272	370.88
307.502	390.88
307.731	372.88
307.961	370.88
308.191	372.88
308.421	377.88
308.651	371.88
308.881	336.88
309.111	386.88
309.341	384.88
309.571	378.88
309.8	398.88
310.03	395.88
310.26	394.88
310.49	408.88
310.72	404.88
310.949	441.88
311.179	432.88
311.409	417.88
311.639	430.88
311.868	389.88
312.098	408.88
312.328	412.88
312.557	426.88
312.787	438.88
313.017	453.88
313.246	428.88
313.476	405.88
313.706	406.88
313.935	403.88
314.165	427.88
314.394	439.88
314.624	432.88
314.853	404.88
315.083	427.88
315.312	437.88
315.542	416.88
315.771	392.88
316.001	403.88
316.23	403.88
316.46	396.88
316.689	385.88
316.919	414.88
317.148	423.88
317.377	434.88
317.607	426.88
317.836	424.88
318.065	415.88
318.295	402.88
318.524	392.88
318.753	410.88
318.983	411.88
319.212	397.88
319.441	404.88
319.67	400.88
319.9	412.88
320.129	378.88
320.358	402.88
320.587	424.88
320.816	400.88
321.046	421.88
321.275	428.88
321.504	408.88
321.733	426.88
321.962	430.88
322.191	444.88
322.42	459.88
322.649	454.88
322.878	462.88
323.108	470.88
323.337	491.88
323.566	502.88
323.795	556.88
324.024	554.88
324.253	641.88
324.482	894.88
324.71	1414.88
324.939	2050.88
325.168	1830.88
325.397	903.88
325.626	637.88
325.855	566.88
326.084	542.88
326.313	501.88
326.542	492.88
326.77	538.88
326.999	626.88
327.228	853.88
327.457	1251.88
327.686	1542.88
327.914	1061.88
328.143	700.88
328.372	613.88
328.6	572.88
328.829	578.88
329.058	580.88
329.287	599.88
329.515	568.88
329.744	518.88
329.972	514.88
330.201	540.88
330.43	580.88
330.658	611.88
330.887	629.88
331.115	583.88
331.344	552.88
331.572	529.88
331.801	505.88
332.03	529.88
332.258	521.88
332.486	508.88
332.715	467.88
332.943	495.88
333.172	481.88
333.4	501.88
333.629	510.88
333.857	519.88
334.085	538.88
334.314	551.88
334.542	591.88
334.771	595.88
334.999	561.88
335.227	516.88
335.455	504.88
335.684	493.88
335.912	491.88
336.14	504.88
336.369	484.88
336.597	500.88
336.825	486.88
337.053	477.88
337.281	489.88
337.51	498.88
337.738	489.88
337.966	483.88
338.194	494.88
338.422	479.88
338.65	482.88
338.878	477.88
339.106	498.88
339.334	467.88
339.562	469.88
339.79	446.88
340.018	471.88
340.246	462.88
340.474	460.88
340.702	470.88
340.93	477.88
341.158	459.88
341.386	465.88
341.614	468.88
341.842	481.88
342.07	445.88
342.298	441.88
342.526	453.88
342.754	456.88
342.981	461.88
343.209	484.88
343.437	457.88
343.665	459.88
343.893	472.88
344.12	494.88
344.348	482.88
344.576	498.88
344.804	498.88
345.031	486.88
345.259	491.88
345.487	473.88
345.714	452.88
345.942	445.88
346.17	443.88
346.397	418.88
346.625	450.88
346.853	440.88
347.08	447.88
347.308	442.88
347.535	448.88
347.763	451.88
347.99	470.88
348.218	467.88
348.445	466.88
348.673	467.88
348.9	443.88
349.128	436.88
349.355	454.88
349.583	442.88
349.81	432.88
350.037	427.88
350.265	418.88
350.492	441.88
350.72	446.88
350.947	448.88
351.174	453.88
351.402	430.88
351.629	446.88
351.856	432.88
352.083	436.88
352.311	442.88
352.538	463.88
352.765	457.88
352.992	461.88
353.22	452.88
353.447	459.88
353.674	436.88
353.901	439.88
354.128	421.88
354.355	434.88
354.583	420.88
354.81	429.88
355.037	433.88
355.264	436.88
355.491	413.88
355.718	410.88
355.945	424.88
356.172	428.88
356.399	434.88
356.626	434.88
356.853	414.88
357.08	412.88
357.307	415.88
357.534	418.88
357.761	427.88
357.988	429.88
358.215	427.88
358.441	424.88
358.668	420.88
358.895	433.88
359.122	422.88
359.349	425.88
359.576	450.88
359.802	466.88
360.029	484.88
360.256	505.88
360.483	496.88
360.709	440.88
360.936	453.88
361.163	444.88
361.39	456.88
361.616	433.88
361.843	442.88
362.07	438.88
362.296	454.88
362.523	448.88
362.749	433.88
362.976	437.88
363.203	435.88
363.429	419.88
363.656	440.88
363.882	432.88
364.109	437.88
364.335	412.88
364.562	438.88
364.788	452.88
365.015	426.88
365.241	434.88
365.468	453.88
365.694	424.88
365.92	436.88
366.147	446.88
366.373	430.88
366.599	439.88
366.826	418.88
367.052	436.88
367.278	416.88
367.505	412.88
367.731	423.88
367.957	410.88
368.184	440.88
368.41	446.88
368.636	427.88
368.862	449.88
369.089	423.88
369.315	427.88
369.541	428.88
369.767	436.88
369.993	431.88
370.219	419.88
370.445	444.88
370.672	439.88
370.898	417.88
371.124	432.88
371.35	443.88
371.576	453.88
371.802	441.88
372.028	451.88
372.254	432.88
372.48	447.88
372.706	429.88
372.932	451.88
373.158	438.88
373.384	434.88
373.61	436.88
373.835	462.88
374.061	455.88
374.287	460.88
374.513	462.88
374.739	444.88
374.965	458.88
375.191	453.88
375.416	443.88
375.642	439.88
375.868	440.88
376.094	428.88
376.319	397.88
376.545	433.88
376.771	435.88
376.997	408.88
377.222	455.88
377.448	443.88
377.674	429.88
377.899	436.88
378.125	440.88
378.35	431.88
378.576	432.88
378.802	433.88
379.027	432.88
379.253	418.88
379.478	425.88
379.704	437.88
379.929	437.88
380.155	440.88
380.38	442.88
380.606	436.88
380.831	436.88
381.057	451.88
381.282	428.88
381.507	432.88
381.733	436.88
381.958	466.88
382.184	443.88
382.409	462.88
382.634	451.88
382.86	461.88
383.085	454.88
383.31	442.88
383.535	453.88
383.761	446.88
383.986	456.88
384.211	462.88
384.436	474.88
384.662	481.88
384.887	481.88
385.112	474.88
385.337	486.88
385.562	498.88
385.787	477.88
386.013	478.88
386.238	485.88
386.463	502.88
386.688	492.88
386.913	468.88
387.138	484.88
387.363	479.88
387.588	486.88
387.813	481.88
388.038	485.88
388.263	475.88
388.488	482.88
388.713	472.88
388.938	511.88
389.163	512.88
389.387	493.88
389.612	477.88
389.837	475.88
390.062	500.88
390.287	492.88
390.512	469.88
390.736	484.88
390.961	487.88
391.186	472.88
391.411	497.88
391.636	511.88
391.86	486.88
392.085	490.88
392.31	482.88
392.534	506.88
392.759	508.88
392.984	493.88
393.208	496.88
393.433	491.88
393.658	458.88
393.882	467.88
394.107	488.88
394.331	503.88
394.556	516.88
394.78	492.88
395.005	508.88
395.229	498.88
395.454	511.88
395.678	509.88
395.903	520.88
396.127	516.88
396.352	528.88
396.576	512.88
396.801	479.88
397.025	527.88
397.249	526.88
397.474	523.88
397.698	532.88
397.922	524.88
398.147	547.88
398.371	538.88
398.595	541.88
398.82	563.88
399.044	582.88
399.268	610.88
399.492	648.88
399.717	667.88
399.941	713.88
400.165	729.88
400.389	722.88
400.613	673.88
400.837	606.88
401.062	589.88
401.286	597.88
401.51	578.88
401.734	549.88
401.958	567.88
402.182	594.88
402.406	586.88
402.63	574.88
402.854	579.88
403.078	597.88
403.302	569.88
403.526	582.88
403.75	611.88
403.974	568.88
404.198	595.88
404.422	602.88
404.645	589.88
404.869	618.88
405.093	616.88
405.317	679.88
405.541	715.88
405.765	664.88
405.988	630.88
406.212	631.88
406.436	641.88
406.66	654.88
406.883	624.88
407.107	652.88
407.331	715.88
407.555	773.88
407.778	797.88
408.002	716.88
408.226	652.88
408.449	652.88
408.673	624.88
408.896	664.88
409.12	710.88
409.344	664.88
409.567	626.88
409.791	605.88
410.014	594.88
410.238	603.88
410.461	609.88
410.685	611.88
410.908	608.88
411.132	625.88
411.355	684.88
411.578	617.88
411.802	607.88
412.025	588.88
412.249	589.88
412.472	613.88
412.695	682.88
412.919	640.88
413.142	606.88
413.365	576.88
413.589	564.88
413.812	566.88
414.035	561.88
414.258	571.88
414.482	538.88
414.705	549.88
414.928	564.88
415.151	541.88
415.374	577.88
415.597	560.88
415.821	537.88
416.044	565.88
416.267	535.88
416.49	555.88
416.713	546.88
416.936	558.88
417.159	546.88
417.382	560.88
417.605	556.88
417.828	580.88
418.051	588.88
418.274	575.88
418.497	568.88
418.72	557.88
418.943	560.88
419.166	582.88
419.389	622.88
419.611	625.88
419.834	586.88
420.057	598.88
420.28	616.88
420.503	575.88
420.726	595.88
420.948	611.88
421.171	636.88
421.394	682.88
421.617	598.88
421.839	584.88
422.062	558.88
422.285	577.88
422.507	670.88
422.73	732.88
422.953	717.88
423.175	613.88
423.398	615.88
423.621	596.88
423.843	617.88
424.066	640.88
424.288	630.88
424.511	651.88
424.733	691.88
424.956	772.88
425.178	724.88
425.401	740.88
425.623	745.88
425.846	657.88
426.068	612.88
426.291	585.88
426.513	582.88
426.735	598.88
426.958	640.88
427.18	740.88
427.402	864.88
427.625	947.88
427.847	807.88
428.069	713.88
428.292	660.88
428.514	580.88
428.736	590.88
428.958	579.88
429.181	547.88
429.403	552.88
429.625	571.88
429.847	597.88
430.069	663.88
430.292	645.88
430.514	577.88
430.736	582.88
430.958	571.88
431.18	542.88
431.402	530.88
431.624	529.88
431.846	544.88
432.068	528.88
432.29	547.88
432.512	540.88
432.734	547.88
432.956	563.88
433.178	554.88
433.4	539.88
433.622	545.88
433.844	556.88
434.066	560.88
434.287	536.88
434.509	540.88
434.731	569.88
434.953	573.88
435.175	571.88
435.397	606.88
435.618	625.88
435.84	642.88
436.062	741.88
436.284	808.88
436.505	658.88
436.727	601.88
436.949	580.88
437.17	566.88
437.392	565.88
437.614	579.88
437.835	589.88
438.057	690.88
438.278	779.88
438.5	777.88
438.721	881.88
438.943	832.88
439.165	679.88
439.386	635.88
439.608	624.88
439.829	583.88
440.05	632.88
440.272	683.88
440.493	631.88
440.715	588.88
440.936	600.88
441.158	539.88
441.379	577.88
441.6	589.88
441.822	612.88
442.043	625.88
442.264	706.88
442.486	792.88
442.707	688.88
442.928	634.88
443.149	616.88
443.371	642.88
443.592	708.88
443.813	800.88
444.034	853.88
444.255	718.88
444.476	669.88
444.698	637.88
444.919	658.88
445.14	775.88
445.361	669.88
445.582	660.88
445.803	688.88
446.024	830.88
446.245	828.88
446.466	753.88
446.687	655.88
446.908	612.88
447.129	566.88
447.35	549.88
447.571	560.88
447.792	554.88
448.013	540.88
448.234	576.88
448.455	627.88
448.675	735.88
448.896	867.88
449.117	718.88
449.338	675.88
449.559	822.88
449.779	894.88
450	710.88
450.221	617.88
450.442	568.88
450.662	534.88
450.883	541.88
451.104	571.88
451.324	545.88
451.545	530.88
451.766	496.88
451.986	517.88
452.207	492.88
452.428	497.88
452.648	500.88
452.869	498.88
453.089	500.88
453.31	527.88
453.53	506.88
453.751	499.88
453.971	523.88
454.192	504.88
454.412	508.88
454.633	478.88
454.853	496.88
455.073	489.88
455.294	535.88
455.514	554.88
455.734	577.88
455.955	504.88
456.175	476.88
456.395	466.88
456.616	457.88
456.836	489.88
457.056	488.88
457.276	444.88
457.497	452.88
457.717	448.88
457.937	471.88
458.157	470.88
458.377	481.88
458.598	499.88
458.818	556.88
459.038	638.88
459.258	682.88
459.478	585.88
459.698	538.88
459.918	546.88
460.138	543.88
460.358	535.88
460.578	541.88
460.798	563.88
461.018	568.88
461.238	561.88
461.458	538.88
461.678	539.88
461.898	565.88
462.118	562.88
462.338	589.88
462.558	592.88
462.777	584.88
462.997	624.88
463.217	638.88
463.437	631.88
463.657	633.88
463.876	597.88
464.096	604.88
464.316	610.88
464.536	616.88
464.755	599.88
464.975	587.88
465.195	590.88
465.414	662.88
465.634	606.88
465.854	548.88
466.073	563.88
466.293	513.88
466.512	522.88
466.732	504.88
466.951	515.88
467.171	508.88
467.391	499.88
467.61	513.88
467.829	525.88
468.049	525.88
468.268	509.88
468.488	517.88
468.707	504.88
468.927	487.88
469.146	503.88
469.365	490.88
469.585	498.88
469.804	503.88
470.023	540.88
470.243	506.88
470.462	515.88
470.681	543.88
470.901	532.88
471.12	543.88
471.339	524.88
471.558	529.88
471.777	542.88
471.997	518.88
472.216	510.88
472.435	547.88
472.654	539.88
472.873	538.88
473.092	522.88
473.311	499.88
473.53	483.88
473.749	506.88
473.968	564.88
474.187	657.88
474.406	698.88
474.625	563.88
474.844	520.88
475.063	529.88
475.282	520.88
475.501	525.88
475.72	525.88
475.939	541.88
476.158	530.88
476.377	524.88
476.596	539.88
476.814	541.88
477.033	546.88
477.252	542.88
477.471	550.88
477.69	538.88
477.908	569.88
478.127	564.88
478.346	555.88
478.564	587.88
478.783	599.88
479.002	582.88
479.22	597.88
479.439	612.88
479.658	628.88
479.876	619.88
480.095	621.88
480.313	661.88
480.532	676.88
480.751	642.88
480.969	659.88
481.188	674.88
481.406	708.88
481.624	636.88
481.843	623.88
482.061	615.88
482.28	598.88
482.498	589.88
482.717	587.88
482.935	603.88
483.153	618.88
483.372	599.88
483.59	597.88
483.808	602.88
484.027	597.88
484.245	610.88
484.463	586.88
484.681	591.88
484.9	620.88
485.118	609.88
485.336	624.88
485.554	616.88
485.772	637.88
485.99	618.88
486.209	636.88
486.427	634.88
486.645	633.88
486.863	629.88
487.081	660.88
487.299	648.88
487.517	628.88
487.735	634.88
487.953	635.88
488.171	646.88
488.389	647.88
488.607	655.88
488.825	652.88
489.043	633.88
489.261	668.88
489.479	647.88
489.696	629.88
489.914	650.88
490.132	674.88
490.35	672.88
490.568	668.88
490.786	673.88
491.003	683.88
491.221	722.88
491.439	729.88
491.657	741.88
491.874	734.88
492.092	709.88
492.31	761.88
492.527	744.88
492.745	732.88
492.963	766.88
493.18	761.88
493.398	737.88
493.615	764.88
493.833	767.88
494.05	766.88
494.268	763.88
494.485	752.88
494.703	749.88
494.92	746.88
495.138	748.88
495.355	758.88
495.573	755.88
495.79	779.88
496.008	801.88
496.225	766.88
496.442	761.88
496.66	768.88
496.877	754.88
497.094	794.88
497.312	780.88
497.529	800.88
497.746	789.88
497.963	792.88
498.181	852.88
498.398	835.88
498.615	858.88
498.832	924.88
499.049	943.88
499.267	941.88
499.484	954.88
499.701	1029.88
499.918	1090.88
500.135	1130.88
500.352	1201.88
500.569	1220.88
500.786	1205.88
501.003	1180.88
501.22	1140.88
501.437	1077.88
501.654	1054.88
