Data from 1976.PennyLincolnUp.Lamp.En5.5.200Scan.071719.P1.Changed Mount._HRD10591_16-02-18-866.txt Node
Date: Thu Jul 18 16:02:18 EDT 2019
User: cochatt
Spectrometer: HR+D1059
Trigger mode: 1
Integration Time (sec): 1.000000E-1
Scans to average: 1
Electric dark correction enabled: true
Nonlinearity correction enabled: false
Boxcar width: 0
XAxis mode: Wavelengths
Number of Pixels in Spectrum: 2048
>>>>>Begin Spectral Data<<<<<
223.165	0.88
223.4	0.88
223.635	0.88
223.869	-21.12
224.104	-16.12
224.338	-22.12
224.573	-34.12
224.808	-23.12
225.042	-10.12
225.277	4.88
225.511	2.88
225.746	16.88
225.98	-5.12
226.215	7.88
226.449	21.88
226.683	22.88
226.918	13.88
227.152	39.88
227.387	30.88
227.621	39.88
227.856	23.88
228.09	32.88
228.324	42.88
228.559	39.88
228.793	65.88
229.027	90.88
229.262	100.88
229.496	129.88
229.73	133.88
229.964	138.88
230.199	124.88
230.433	95.88
230.667	118.88
230.901	104.88
231.136	118.88
231.37	101.88
231.604	110.88
231.838	101.88
232.072	117.88
232.306	112.88
232.541	115.88
232.775	124.88
233.009	120.88
233.243	118.88
233.477	127.88
233.711	109.88
233.945	106.88
234.179	101.88
234.413	118.88
234.647	118.88
234.881	127.88
235.115	124.88
235.349	112.88
235.583	134.88
235.817	124.88
236.051	124.88
236.285	127.88
236.519	126.88
236.753	146.88
236.987	142.88
237.221	170.88
237.455	235.88
237.689	177.88
237.922	135.88
238.156	139.88
238.39	116.88
238.624	131.88
238.858	132.88
239.091	124.88
239.325	129.88
239.559	133.88
239.793	117.88
240.027	116.88
240.26	142.88
240.494	156.88
240.728	148.88
240.961	151.88
241.195	136.88
241.429	147.88
241.662	143.88
241.896	139.88
242.13	142.88
242.363	136.88
242.597	134.88
242.83	135.88
243.064	145.88
243.298	155.88
243.531	140.88
243.765	131.88
243.998	150.88
244.232	143.88
244.465	158.88
244.699	145.88
244.932	157.88
245.166	141.88
245.399	148.88
245.633	148.88
245.866	138.88
246.099	166.88
246.333	142.88
246.566	146.88
246.8	139.88
247.033	153.88
247.266	162.88
247.5	166.88
247.733	167.88
247.966	155.88
248.2	182.88
248.433	178.88
248.666	171.88
248.899	200.88
249.133	184.88
249.366	198.88
249.599	211.88
249.832	187.88
250.066	180.88
250.299	195.88
250.532	190.88
250.765	203.88
250.998	223.88
251.231	233.88
251.465	204.88
251.698	209.88
251.931	198.88
252.164	193.88
252.397	196.88
252.63	211.88
252.863	208.88
253.096	214.88
253.329	228.88
253.562	224.88
253.795	221.88
254.028	213.88
254.261	219.88
254.494	256.88
254.727	260.88
254.96	289.88
255.193	254.88
255.426	247.88
255.659	243.88
255.892	230.88
256.124	223.88
256.357	247.88
256.59	216.88
256.823	231.88
257.056	212.88
257.289	209.88
257.521	211.88
257.754	211.88
257.987	236.88
258.22	224.88
258.452	209.88
258.685	214.88
258.918	213.88
259.151	207.88
259.383	222.88
259.616	227.88
259.849	235.88
260.081	256.88
260.314	281.88
260.547	268.88
260.779	258.88
261.012	249.88
261.244	233.88
261.477	246.88
261.71	234.88
261.942	241.88
262.175	242.88
262.407	226.88
262.64	242.88
262.872	223.88
263.105	228.88
263.337	232.88
263.57	217.88
263.802	218.88
264.035	242.88
264.267	227.88
264.499	226.88
264.732	212.88
264.964	219.88
265.197	239.88
265.429	215.88
265.661	231.88
265.894	235.88
266.126	239.88
266.358	213.88
266.591	232.88
266.823	240.88
267.055	244.88
267.287	240.88
267.52	241.88
267.752	241.88
267.984	240.88
268.216	244.88
268.448	236.88
268.681	261.88
268.913	254.88
269.145	259.88
269.377	294.88
269.609	275.88
269.841	268.88
270.073	278.88
270.306	311.88
270.538	316.88
270.77	333.88
271.002	323.88
271.234	316.88
271.466	319.88
271.698	318.88
271.93	332.88
272.162	323.88
272.394	348.88
272.626	310.88
272.858	297.88
273.09	294.88
273.322	296.88
273.553	283.88
273.785	281.88
274.017	262.88
274.249	279.88
274.481	277.88
274.713	283.88
274.945	280.88
275.176	282.88
275.408	291.88
275.64	277.88
275.872	281.88
276.104	303.88
276.335	292.88
276.567	288.88
276.799	309.88
277.031	326.88
277.262	330.88
277.494	332.88
277.726	328.88
277.957	289.88
278.189	302.88
278.421	294.88
278.652	308.88
278.884	296.88
279.115	282.88
279.347	293.88
279.579	290.88
279.81	290.88
280.042	288.88
280.273	291.88
280.505	296.88
280.736	288.88
280.968	295.88
281.199	297.88
281.431	300.88
281.662	300.88
281.894	296.88
282.125	305.88
282.356	304.88
282.588	333.88
282.819	314.88
283.051	302.88
283.282	292.88
283.513	306.88
283.745	310.88
283.976	305.88
284.207	312.88
284.439	303.88
284.67	294.88
284.901	315.88
285.132	312.88
285.364	300.88
285.595	302.88
285.826	307.88
286.057	314.88
286.288	305.88
286.52	309.88
286.751	313.88
286.982	308.88
287.213	314.88
287.444	301.88
287.675	314.88
287.906	318.88
288.138	346.88
288.369	335.88
288.6	340.88
288.831	327.88
289.062	310.88
289.293	325.88
289.524	320.88
289.755	325.88
289.986	324.88
290.217	323.88
290.448	308.88
290.679	289.88
290.91	306.88
291.141	302.88
291.371	326.88
291.602	321.88
291.833	319.88
292.064	302.88
292.295	322.88
292.526	316.88
292.757	309.88
292.987	325.88
293.218	318.88
293.449	323.88
293.68	325.88
293.91	326.88
294.141	314.88
294.372	322.88
294.603	322.88
294.833	325.88
295.064	329.88
295.295	317.88
295.525	328.88
295.756	320.88
295.987	327.88
296.217	355.88
296.448	342.88
296.679	336.88
296.909	323.88
297.14	326.88
297.37	331.88
297.601	340.88
297.831	327.88
298.062	336.88
298.292	349.88
298.523	322.88
298.753	342.88
298.984	334.88
299.214	350.88
299.445	335.88
299.675	333.88
299.905	332.88
300.136	339.88
300.366	330.88
300.597	326.88
300.827	342.88
301.057	361.88
301.288	355.88
301.518	359.88
301.748	344.88
301.979	353.88
302.209	360.88
302.439	357.88
302.669	341.88
302.9	343.88
303.13	344.88
303.36	334.88
303.59	359.88
303.82	368.88
304.051	367.88
304.281	358.88
304.511	357.88
304.741	343.88
304.971	343.88
305.201	360.88
305.431	373.88
305.661	348.88
305.891	374.88
306.121	339.88
306.352	354.88
306.582	362.88
306.812	369.88
307.042	361.88
307.272	350.88
307.502	369.88
307.731	356.88
307.961	355.88
308.191	350.88
308.421	364.88
308.651	377.88
308.881	386.88
309.111	376.88
309.341	361.88
309.571	389.88
309.8	396.88
310.03	397.88
310.26	394.88
310.49	387.88
310.72	400.88
310.949	408.88
311.179	416.88
311.409	388.88
311.639	387.88
311.868	409.88
312.098	396.88
312.328	407.88
312.557	433.88
312.787	438.88
313.017	428.88
313.246	404.88
313.476	394.88
313.706	410.88
313.935	406.88
314.165	399.88
314.394	412.88
314.624	427.88
314.853	388.88
315.083	417.88
315.312	394.88
315.542	427.88
315.771	376.88
316.001	394.88
316.23	414.88
316.46	397.88
316.689	403.88
316.919	407.88
317.148	421.88
317.377	418.88
317.607	396.88
317.836	414.88
318.065	399.88
318.295	395.88
318.524	382.88
318.753	377.88
318.983	392.88
319.212	419.88
319.441	423.88
319.67	413.88
319.9	419.88
320.129	402.88
320.358	379.88
320.587	408.88
320.816	420.88
321.046	424.88
321.275	437.88
321.504	392.88
321.733	416.88
321.962	410.88
322.191	419.88
322.42	438.88
322.649	442.88
322.878	453.88
323.108	443.88
323.337	484.88
323.566	487.88
323.795	532.88
324.024	570.88
324.253	651.88
324.482	928.88
324.71	1376.88
324.939	2060.88
325.168	1817.88
325.397	904.88
325.626	632.88
325.855	552.88
326.084	496.88
326.313	478.88
326.542	496.88
326.77	530.88
326.999	639.88
327.228	846.88
327.457	1244.88
327.686	1557.88
327.914	1032.88
328.143	694.88
328.372	609.88
328.6	578.88
328.829	529.88
329.058	548.88
329.287	580.88
329.515	550.88
329.744	518.88
329.972	523.88
330.201	532.88
330.43	580.88
330.658	596.88
330.887	608.88
331.115	611.88
331.344	524.88
331.572	488.88
331.801	497.88
332.03	502.88
332.258	484.88
332.486	496.88
332.715	490.88
332.943	474.88
333.172	479.88
333.4	506.88
333.629	508.88
333.857	518.88
334.085	540.88
334.314	560.88
334.542	576.88
334.771	564.88
334.999	537.88
335.227	508.88
335.455	486.88
335.684	466.88
335.912	474.88
336.14	480.88
336.369	489.88
336.597	456.88
336.825	475.88
337.053	479.88
337.281	491.88
337.51	460.88
337.738	483.88
337.966	477.88
338.194	483.88
338.422	468.88
338.65	466.88
338.878	469.88
339.106	445.88
339.334	468.88
339.562	470.88
339.79	447.88
340.018	480.88
340.246	466.88
340.474	478.88
340.702	459.88
340.93	472.88
341.158	447.88
341.386	466.88
341.614	442.88
341.842	459.88
342.07	471.88
342.298	456.88
342.526	462.88
342.754	457.88
342.981	460.88
343.209	457.88
343.437	470.88
343.665	477.88
343.893	474.88
344.12	495.88
344.348	487.88
344.576	481.88
344.804	476.88
345.031	487.88
345.259	472.88
345.487	470.88
345.714	440.88
345.942	428.88
346.17	457.88
346.397	450.88
346.625	430.88
346.853	434.88
347.08	425.88
347.308	430.88
347.535	447.88
347.763	452.88
347.99	425.88
348.218	434.88
348.445	469.88
348.673	466.88
348.9	449.88
349.128	430.88
349.355	439.88
349.583	434.88
349.81	408.88
350.037	425.88
350.265	434.88
350.492	409.88
350.72	435.88
350.947	425.88
351.174	456.88
351.402	444.88
351.629	440.88
351.856	435.88
352.083	426.88
352.311	442.88
352.538	454.88
352.765	461.88
352.992	426.88
353.22	450.88
353.447	422.88
353.674	436.88
353.901	396.88
354.128	408.88
354.355	409.88
354.583	411.88
354.81	412.88
355.037	437.88
355.264	413.88
355.491	410.88
355.718	402.88
355.945	407.88
356.172	424.88
356.399	404.88
356.626	413.88
356.853	410.88
357.08	388.88
357.307	405.88
357.534	423.88
357.761	427.88
357.988	419.88
358.215	417.88
358.441	424.88
358.668	436.88
358.895	436.88
359.122	417.88
359.349	429.88
359.576	445.88
359.802	460.88
360.029	486.88
360.256	510.88
360.483	477.88
360.709	426.88
360.936	446.88
361.163	435.88
361.39	443.88
361.616	430.88
361.843	425.88
362.07	420.88
362.296	424.88
362.523	437.88
362.749	438.88
362.976	440.88
363.203	431.88
363.429	399.88
363.656	426.88
363.882	424.88
364.109	411.88
364.335	426.88
364.562	417.88
364.788	399.88
365.015	408.88
365.241	425.88
365.468	410.88
365.694	426.88
365.92	403.88
366.147	416.88
366.373	419.88
366.599	411.88
366.826	432.88
367.052	422.88
367.278	442.88
367.505	416.88
367.731	416.88
367.957	415.88
368.184	426.88
368.41	421.88
368.636	446.88
368.862	422.88
369.089	420.88
369.315	431.88
369.541	439.88
369.767	419.88
369.993	420.88
370.219	415.88
370.445	418.88
370.672	421.88
370.898	412.88
371.124	416.88
371.35	423.88
371.576	427.88
371.802	418.88
372.028	423.88
372.254	422.88
372.48	430.88
372.706	410.88
372.932	432.88
373.158	457.88
373.384	440.88
373.61	433.88
373.835	432.88
374.061	434.88
374.287	430.88
374.513	416.88
374.739	418.88
374.965	436.88
375.191	445.88
375.416	426.88
375.642	450.88
375.868	451.88
376.094	421.88
376.319	425.88
376.545	437.88
376.771	426.88
376.997	430.88
377.222	394.88
377.448	422.88
377.674	422.88
377.899	416.88
378.125	432.88
378.35	418.88
378.576	420.88
378.802	410.88
379.027	404.88
379.253	427.88
379.478	421.88
379.704	417.88
379.929	408.88
380.155	440.88
380.38	406.88
380.606	428.88
380.831	428.88
381.057	440.88
381.282	418.88
381.507	423.88
381.733	425.88
381.958	440.88
382.184	438.88
382.409	427.88
382.634	442.88
382.86	426.88
383.085	440.88
383.31	447.88
383.535	438.88
383.761	430.88
383.986	446.88
384.211	457.88
384.436	477.88
384.662	446.88
384.887	479.88
385.112	472.88
385.337	463.88
385.562	458.88
385.787	465.88
386.013	472.88
386.238	478.88
386.463	480.88
386.688	484.88
386.913	474.88
387.138	492.88
387.363	480.88
387.588	459.88
387.813	500.88
388.038	460.88
388.263	460.88
388.488	472.88
388.713	481.88
388.938	490.88
389.163	461.88
389.387	485.88
389.612	469.88
389.837	468.88
390.062	476.88
390.287	481.88
390.512	460.88
390.736	474.88
390.961	496.88
391.186	468.88
391.411	483.88
391.636	479.88
391.86	474.88
392.085	497.88
392.31	510.88
392.534	492.88
392.759	486.88
392.984	493.88
393.208	487.88
393.433	489.88
393.658	489.88
393.882	483.88
394.107	500.88
394.331	487.88
394.556	478.88
394.78	477.88
395.005	479.88
395.229	481.88
395.454	508.88
395.678	504.88
395.903	492.88
396.127	540.88
396.352	512.88
396.576	519.88
396.801	514.88
397.025	470.88
397.249	498.88
397.474	510.88
397.698	520.88
397.922	542.88
398.147	531.88
398.371	524.88
398.595	547.88
398.82	549.88
399.044	555.88
399.268	572.88
399.492	631.88
399.717	681.88
399.941	689.88
400.165	727.88
400.389	694.88
400.613	640.88
400.837	602.88
401.062	572.88
401.286	561.88
401.51	582.88
401.734	562.88
401.958	551.88
402.182	584.88
402.406	570.88
402.63	573.88
402.854	565.88
403.078	575.88
403.302	581.88
403.526	570.88
403.75	610.88
403.974	561.88
404.198	579.88
404.422	593.88
404.645	600.88
404.869	593.88
405.093	634.88
405.317	670.88
405.541	712.88
405.765	645.88
405.988	601.88
406.212	584.88
406.436	622.88
406.66	643.88
406.883	618.88
407.107	627.88
407.331	693.88
407.555	781.88
407.778	730.88
408.002	692.88
408.226	671.88
408.449	649.88
408.673	648.88
408.896	660.88
409.12	692.88
409.344	665.88
409.567	614.88
409.791	588.88
410.014	563.88
410.238	558.88
410.461	588.88
410.685	575.88
410.908	587.88
411.132	613.88
411.355	673.88
411.578	633.88
411.802	583.88
412.025	560.88
412.249	590.88
412.472	617.88
412.695	661.88
412.919	662.88
413.142	599.88
413.365	572.88
413.589	562.88
413.812	578.88
414.035	551.88
414.258	564.88
414.482	553.88
414.705	558.88
414.928	537.88
415.151	549.88
415.374	547.88
415.597	544.88
415.821	542.88
416.044	573.88
416.267	542.88
416.49	553.88
416.713	539.88
416.936	529.88
417.159	531.88
417.382	561.88
417.605	548.88
417.828	566.88
418.051	579.88
418.274	554.88
418.497	550.88
418.72	546.88
418.943	546.88
419.166	562.88
419.389	592.88
419.611	603.88
419.834	573.88
420.057	594.88
420.28	585.88
420.503	587.88
420.726	566.88
420.948	568.88
421.171	629.88
421.394	653.88
421.617	578.88
421.839	574.88
422.062	571.88
422.285	582.88
422.507	632.88
422.73	715.88
422.953	682.88
423.175	607.88
423.398	590.88
423.621	577.88
423.843	597.88
424.066	614.88
424.288	600.88
424.511	636.88
424.733	668.88
424.956	758.88
425.178	720.88
425.401	726.88
425.623	726.88
425.846	648.88
426.068	609.88
426.291	593.88
426.513	576.88
426.735	639.88
426.958	627.88
427.18	707.88
427.402	864.88
427.625	948.88
427.847	820.88
428.069	686.88
428.292	635.88
428.514	577.88
428.736	551.88
428.958	562.88
429.181	542.88
429.403	540.88
429.625	559.88
429.847	574.88
430.069	633.88
430.292	661.88
430.514	552.88
430.736	548.88
430.958	536.88
431.18	553.88
431.402	534.88
431.624	518.88
431.846	535.88
432.068	515.88
432.29	515.88
432.512	550.88
432.734	531.88
432.956	537.88
433.178	542.88
433.4	531.88
433.622	540.88
433.844	561.88
434.066	532.88
434.287	550.88
434.509	519.88
434.731	518.88
434.953	536.88
435.175	580.88
435.397	606.88
435.618	584.88
435.84	641.88
436.062	751.88
436.284	820.88
436.505	670.88
436.727	595.88
436.949	576.88
437.17	553.88
437.392	545.88
437.614	559.88
437.835	584.88
438.057	673.88
438.278	751.88
438.5	771.88
438.721	876.88
438.943	860.88
439.165	666.88
439.386	613.88
439.608	600.88
439.829	608.88
440.05	627.88
440.272	680.88
440.493	630.88
440.715	597.88
440.936	564.88
441.158	569.88
441.379	559.88
441.6	568.88
441.822	592.88
442.043	640.88
442.264	743.88
442.486	769.88
442.707	634.88
442.928	576.88
443.149	622.88
443.371	628.88
443.592	686.88
443.813	749.88
444.034	867.88
444.255	702.88
444.476	611.88
444.698	612.88
444.919	597.88
445.14	690.88
445.361	637.88
445.582	635.88
445.803	702.88
446.024	811.88
446.245	811.88
446.466	747.88
446.687	633.88
446.908	574.88
447.129	570.88
447.35	537.88
447.571	539.88
447.792	526.88
448.013	549.88
448.234	564.88
448.455	624.88
448.675	728.88
448.896	875.88
449.117	708.88
449.338	653.88
449.559	766.88
449.779	890.88
450	709.88
450.221	618.88
450.442	540.88
450.662	532.88
450.883	525.88
451.104	534.88
451.324	537.88
451.545	498.88
451.766	507.88
451.986	498.88
452.207	459.88
452.428	475.88
452.648	497.88
452.869	475.88
453.089	496.88
453.31	520.88
453.53	482.88
453.751	503.88
453.971	458.88
454.192	488.88
454.412	479.88
454.633	463.88
454.853	476.88
455.073	476.88
455.294	520.88
455.514	573.88
455.734	573.88
455.955	514.88
456.175	475.88
456.395	457.88
456.616	461.88
456.836	454.88
457.056	452.88
457.276	471.88
457.497	482.88
457.717	455.88
457.937	478.88
458.157	471.88
458.377	484.88
458.598	499.88
458.818	548.88
459.038	610.88
459.258	647.88
459.478	566.88
459.698	520.88
459.918	539.88
460.138	530.88
460.358	554.88
460.578	569.88
460.798	520.88
461.018	552.88
461.238	529.88
461.458	550.88
461.678	546.88
461.898	546.88
462.118	544.88
462.338	568.88
462.558	583.88
462.777	573.88
462.997	595.88
463.217	631.88
463.437	630.88
463.657	596.88
463.876	592.88
464.096	583.88
464.316	590.88
464.536	600.88
464.755	580.88
464.975	596.88
465.195	598.88
465.414	646.88
465.634	596.88
465.854	542.88
466.073	561.88
466.293	511.88
466.512	518.88
466.732	523.88
466.951	507.88
467.171	499.88
467.391	526.88
467.61	522.88
467.829	508.88
468.049	503.88
468.268	504.88
468.488	487.88
468.707	492.88
468.927	500.88
469.146	476.88
469.365	507.88
469.585	477.88
469.804	504.88
470.023	522.88
470.243	525.88
470.462	521.88
470.681	530.88
470.901	522.88
471.12	512.88
471.339	503.88
471.558	501.88
471.777	513.88
471.997	502.88
472.216	510.88
472.435	529.88
472.654	521.88
472.873	499.88
473.092	490.88
473.311	517.88
473.53	478.88
473.749	484.88
473.968	532.88
474.187	635.88
474.406	663.88
474.625	554.88
474.844	546.88
475.063	522.88
475.282	504.88
475.501	502.88
475.72	513.88
475.939	500.88
476.158	521.88
476.377	530.88
476.596	533.88
476.814	527.88
477.033	544.88
477.252	542.88
477.471	542.88
477.69	541.88
477.908	568.88
478.127	553.88
478.346	540.88
478.564	564.88
478.783	592.88
479.002	576.88
479.22	599.88
479.439	584.88
479.658	613.88
479.876	596.88
480.095	632.88
480.313	629.88
480.532	643.88
480.751	661.88
480.969	638.88
481.188	656.88
481.406	665.88
481.624	646.88
481.843	610.88
482.061	596.88
482.28	590.88
482.498	591.88
482.717	577.88
482.935	567.88
483.153	577.88
483.372	572.88
483.59	592.88
483.808	585.88
484.027	598.88
484.245	612.88
484.463	575.88
484.681	603.88
484.9	607.88
485.118	597.88
485.336	612.88
485.554	618.88
485.772	600.88
485.99	599.88
486.209	629.88
486.427	612.88
486.645	614.88
486.863	640.88
487.081	627.88
487.299	645.88
487.517	622.88
487.735	624.88
487.953	614.88
488.171	650.88
488.389	633.88
488.607	643.88
488.825	629.88
489.043	630.88
489.261	630.88
489.479	647.88
489.696	622.88
489.914	633.88
490.132	626.88
490.35	663.88
490.568	653.88
490.786	671.88
491.003	648.88
491.221	704.88
491.439	689.88
491.657	708.88
491.874	717.88
492.092	712.88
492.31	752.88
492.527	747.88
492.745	734.88
492.963	720.88
493.18	738.88
493.398	731.88
493.615	736.88
493.833	758.88
494.05	776.88
494.268	753.88
494.485	724.88
494.703	736.88
494.92	745.88
495.138	746.88
495.355	743.88
495.573	728.88
495.79	745.88
496.008	719.88
496.225	751.88
496.442	752.88
496.66	763.88
496.877	742.88
497.094	761.88
497.312	756.88
497.529	767.88
497.746	794.88
497.963	808.88
498.181	838.88
498.398	818.88
498.615	862.88
498.832	889.88
499.049	914.88
499.267	932.88
499.484	953.88
499.701	971.88
499.918	1076.88
500.135	1113.88
500.352	1172.88
500.569	1202.88
500.786	1240.88
501.003	1168.88
501.22	1122.88
501.437	1063.88
501.654	1013.88
