Data from 1976.PennyLincolnUp.Lamp.En5.5.200Scan.071719.P1.Changed Mount._HRD10591_16-01-33-873.txt Node
Date: Thu Jul 18 16:01:33 EDT 2019
User: cochatt
Spectrometer: HR+D1059
Trigger mode: 1
Integration Time (sec): 1.000000E-1
Scans to average: 1
Electric dark correction enabled: true
Nonlinearity correction enabled: false
Boxcar width: 0
XAxis mode: Wavelengths
Number of Pixels in Spectrum: 2048
>>>>>Begin Spectral Data<<<<<
223.165	-17.69
223.4	-17.69
223.635	-17.69
223.869	-8.69
224.104	-6.69
224.338	-5.69
224.573	-25.69
224.808	-19.69
225.042	-7.69
225.277	-7.69
225.511	-2.69
225.746	-6.69
225.98	15.31
226.215	10.31
226.449	9.31
226.683	21.31
226.918	32.31
227.152	20.31
227.387	20.31
227.621	37.31
227.856	42.31
228.09	43.31
228.324	53.31
228.559	64.31
228.793	79.31
229.027	92.31
229.262	98.31
229.496	115.31
229.73	138.31
229.964	154.31
230.199	123.31
230.433	126.31
230.667	112.31
230.901	113.31
231.136	106.31
231.37	108.31
231.604	109.31
231.838	116.31
232.072	103.31
232.306	121.31
232.541	118.31
232.775	119.31
233.009	118.31
233.243	105.31
233.477	114.31
233.711	122.31
233.945	121.31
234.179	101.31
234.413	128.31
234.647	133.31
234.881	127.31
235.115	113.31
235.349	113.31
235.583	129.31
235.817	113.31
236.051	118.31
236.285	116.31
236.519	120.31
236.753	130.31
236.987	141.31
237.221	194.31
237.455	221.31
237.689	194.31
237.922	139.31
238.156	136.31
238.39	122.31
238.624	123.31
238.858	122.31
239.091	128.31
239.325	130.31
239.559	135.31
239.793	147.31
240.027	133.31
240.26	132.31
240.494	157.31
240.728	152.31
240.961	153.31
241.195	155.31
241.429	125.31
241.662	141.31
241.896	137.31
242.13	123.31
242.363	141.31
242.597	159.31
242.83	128.31
243.064	127.31
243.298	138.31
243.531	158.31
243.765	127.31
243.998	144.31
244.232	148.31
244.465	145.31
244.699	132.31
244.932	160.31
245.166	146.31
245.399	162.31
245.633	152.31
245.866	153.31
246.099	154.31
246.333	154.31
246.566	151.31
246.8	161.31
247.033	155.31
247.266	164.31
247.5	180.31
247.733	176.31
247.966	181.31
248.2	180.31
248.433	153.31
248.666	184.31
248.899	194.31
249.133	205.31
249.366	206.31
249.599	200.31
249.832	195.31
250.066	202.31
250.299	190.31
250.532	198.31
250.765	208.31
250.998	231.31
251.231	233.31
251.465	221.31
251.698	218.31
251.931	203.31
252.164	189.31
252.397	204.31
252.63	202.31
252.863	208.31
253.096	214.31
253.329	242.31
253.562	221.31
253.795	233.31
254.028	234.31
254.261	224.31
254.494	215.31
254.727	268.31
254.96	299.31
255.193	271.31
255.426	250.31
255.659	236.31
255.892	230.31
256.124	230.31
256.357	221.31
256.59	229.31
256.823	231.31
257.056	234.31
257.289	218.31
257.521	200.31
257.754	217.31
257.987	209.31
258.22	209.31
258.452	213.31
258.685	226.31
258.918	218.31
259.151	217.31
259.383	212.31
259.616	234.31
259.849	242.31
260.081	241.31
260.314	244.31
260.547	263.31
260.779	266.31
261.012	258.31
261.244	249.31
261.477	242.31
261.71	234.31
261.942	228.31
262.175	258.31
262.407	232.31
262.64	240.31
262.872	230.31
263.105	222.31
263.337	229.31
263.57	215.31
263.802	222.31
264.035	221.31
264.267	238.31
264.499	242.31
264.732	242.31
264.964	243.31
265.197	246.31
265.429	228.31
265.661	231.31
265.894	231.31
266.126	209.31
266.358	230.31
266.591	236.31
266.823	232.31
267.055	233.31
267.287	241.31
267.52	243.31
267.752	240.31
267.984	243.31
268.216	245.31
268.448	249.31
268.681	252.31
268.913	264.31
269.145	271.31
269.377	293.31
269.609	308.31
269.841	286.31
270.073	279.31
270.306	304.31
270.538	332.31
270.77	329.31
271.002	325.31
271.234	308.31
271.466	309.31
271.698	321.31
271.93	331.31
272.162	317.31
272.394	324.31
272.626	328.31
272.858	320.31
273.09	297.31
273.322	278.31
273.553	302.31
273.785	290.31
274.017	299.31
274.249	275.31
274.481	282.31
274.713	279.31
274.945	300.31
275.176	280.31
275.408	279.31
275.64	294.31
275.872	297.31
276.104	304.31
276.335	290.31
276.567	298.31
276.799	297.31
277.031	313.31
277.262	336.31
277.494	334.31
277.726	325.31
277.957	300.31
278.189	304.31
278.421	298.31
278.652	298.31
278.884	308.31
279.115	280.31
279.347	295.31
279.579	290.31
279.81	302.31
280.042	287.31
280.273	285.31
280.505	286.31
280.736	304.31
280.968	283.31
281.199	288.31
281.431	288.31
281.662	292.31
281.894	292.31
282.125	303.31
282.356	312.31
282.588	331.31
282.819	316.31
283.051	316.31
283.282	316.31
283.513	307.31
283.745	310.31
283.976	289.31
284.207	299.31
284.439	304.31
284.67	300.31
284.901	304.31
285.132	332.31
285.364	310.31
285.595	290.31
285.826	306.31
286.057	316.31
286.288	328.31
286.52	318.31
286.751	317.31
286.982	301.31
287.213	288.31
287.444	299.31
287.675	317.31
287.906	325.31
288.138	322.31
288.369	327.31
288.6	320.31
288.831	325.31
289.062	329.31
289.293	317.31
289.524	309.31
289.755	314.31
289.986	324.31
290.217	325.31
290.448	301.31
290.679	313.31
290.91	319.31
291.141	317.31
291.371	323.31
291.602	299.31
291.833	319.31
292.064	310.31
292.295	321.31
292.526	324.31
292.757	309.31
292.987	341.31
293.218	304.31
293.449	320.31
293.68	331.31
293.91	305.31
294.141	297.31
294.372	311.31
294.603	324.31
294.833	318.31
295.064	316.31
295.295	313.31
295.525	317.31
295.756	346.31
295.987	338.31
296.217	341.31
296.448	373.31
296.679	351.31
296.909	333.31
297.14	340.31
297.37	339.31
297.601	338.31
297.831	340.31
298.062	329.31
298.292	326.31
298.523	335.31
298.753	339.31
298.984	341.31
299.214	314.31
299.445	331.31
299.675	344.31
299.905	333.31
300.136	350.31
300.366	333.31
300.597	339.31
300.827	357.31
301.057	352.31
301.288	350.31
301.518	372.31
301.748	349.31
301.979	358.31
302.209	357.31
302.439	356.31
302.669	371.31
302.9	341.31
303.13	339.31
303.36	336.31
303.59	378.31
303.82	374.31
304.051	384.31
304.281	367.31
304.511	372.31
304.741	353.31
304.971	368.31
305.201	374.31
305.431	376.31
305.661	355.31
305.891	351.31
306.121	364.31
306.352	345.31
306.582	361.31
306.812	372.31
307.042	361.31
307.272	372.31
307.502	363.31
307.731	361.31
307.961	372.31
308.191	362.31
308.421	346.31
308.651	368.31
308.881	353.31
309.111	382.31
309.341	390.31
309.571	376.31
309.8	387.31
310.03	382.31
310.26	382.31
310.49	392.31
310.72	398.31
310.949	414.31
311.179	425.31
311.409	404.31
311.639	400.31
311.868	385.31
312.098	394.31
312.328	412.31
312.557	410.31
312.787	445.31
313.017	420.31
313.246	407.31
313.476	391.31
313.706	399.31
313.935	400.31
314.165	418.31
314.394	422.31
314.624	428.31
314.853	400.31
315.083	424.31
315.312	418.31
315.542	403.31
315.771	397.31
316.001	410.31
316.23	396.31
316.46	410.31
316.689	410.31
316.919	406.31
317.148	402.31
317.377	423.31
317.607	407.31
317.836	410.31
318.065	398.31
318.295	404.31
318.524	408.31
318.753	420.31
318.983	400.31
319.212	405.31
319.441	408.31
319.67	409.31
319.9	404.31
320.129	394.31
320.358	403.31
320.587	407.31
320.816	434.31
321.046	425.31
321.275	432.31
321.504	427.31
321.733	420.31
321.962	434.31
322.191	446.31
322.42	459.31
322.649	474.31
322.878	476.31
323.108	466.31
323.337	472.31
323.566	492.31
323.795	529.31
324.024	563.31
324.253	635.31
324.482	894.31
324.71	1378.31
324.939	2026.31
325.168	1766.31
325.397	901.31
325.626	618.31
325.855	551.31
326.084	506.31
326.313	504.31
326.542	520.31
326.77	530.31
326.999	630.31
327.228	834.31
327.457	1255.31
327.686	1522.31
327.914	1012.31
328.143	668.31
328.372	604.31
328.6	568.31
328.829	562.31
329.058	558.31
329.287	586.31
329.515	552.31
329.744	533.31
329.972	540.31
330.201	536.31
330.43	571.31
330.658	594.31
330.887	597.31
331.115	598.31
331.344	544.31
331.572	504.31
331.801	493.31
332.03	516.31
332.258	516.31
332.486	495.31
332.715	490.31
332.943	500.31
333.172	490.31
333.4	502.31
333.629	522.31
333.857	537.31
334.085	538.31
334.314	539.31
334.542	572.31
334.771	582.31
334.999	530.31
335.227	520.31
335.455	514.31
335.684	512.31
335.912	483.31
336.14	500.31
336.369	494.31
336.597	484.31
336.825	492.31
337.053	471.31
337.281	461.31
337.51	483.31
337.738	492.31
337.966	499.31
338.194	472.31
338.422	472.31
338.65	472.31
338.878	481.31
339.106	467.31
339.334	460.31
339.562	454.31
339.79	459.31
340.018	436.31
340.246	455.31
340.474	469.31
340.702	486.31
340.93	476.31
341.158	461.31
341.386	462.31
341.614	433.31
341.842	470.31
342.07	458.31
342.298	474.31
342.526	418.31
342.754	446.31
342.981	441.31
343.209	448.31
343.437	455.31
343.665	462.31
343.893	470.31
344.12	489.31
344.348	479.31
344.576	465.31
344.804	483.31
345.031	462.31
345.259	479.31
345.487	475.31
345.714	470.31
345.942	467.31
346.17	422.31
346.397	439.31
346.625	448.31
346.853	440.31
347.08	443.31
347.308	448.31
347.535	440.31
347.763	462.31
347.99	449.31
348.218	434.31
348.445	458.31
348.673	464.31
348.9	445.31
349.128	444.31
349.355	424.31
349.583	438.31
349.81	437.31
350.037	430.31
350.265	426.31
350.492	438.31
350.72	427.31
350.947	444.31
351.174	461.31
351.402	458.31
351.629	442.31
351.856	421.31
352.083	441.31
352.311	448.31
352.538	466.31
352.765	441.31
352.992	430.31
353.22	439.31
353.447	414.31
353.674	435.31
353.901	450.31
354.128	423.31
354.355	430.31
354.583	422.31
354.81	422.31
355.037	418.31
355.264	442.31
355.491	414.31
355.718	417.31
355.945	398.31
356.172	425.31
356.399	420.31
356.626	434.31
356.853	404.31
357.08	422.31
357.307	405.31
357.534	422.31
357.761	432.31
357.988	422.31
358.215	425.31
358.441	398.31
358.668	420.31
358.895	421.31
359.122	438.31
359.349	427.31
359.576	445.31
359.802	461.31
360.029	463.31
360.256	492.31
360.483	474.31
360.709	434.31
360.936	420.31
361.163	444.31
361.39	445.31
361.616	458.31
361.843	429.31
362.07	429.31
362.296	468.31
362.523	448.31
362.749	443.31
362.976	421.31
363.203	435.31
363.429	436.31
363.656	427.31
363.882	425.31
364.109	416.31
364.335	438.31
364.562	426.31
364.788	413.31
365.015	415.31
365.241	424.31
365.468	434.31
365.694	450.31
365.92	440.31
366.147	428.31
366.373	414.31
366.599	421.31
366.826	420.31
367.052	435.31
367.278	427.31
367.505	415.31
367.731	425.31
367.957	423.31
368.184	414.31
368.41	430.31
368.636	433.31
368.862	441.31
369.089	409.31
369.315	430.31
369.541	422.31
369.767	439.31
369.993	438.31
370.219	432.31
370.445	426.31
370.672	434.31
370.898	420.31
371.124	429.31
371.35	437.31
371.576	433.31
371.802	426.31
372.028	415.31
372.254	436.31
372.48	433.31
372.706	442.31
372.932	459.31
373.158	453.31
373.384	426.31
373.61	420.31
373.835	441.31
374.061	440.31
374.287	446.31
374.513	423.31
374.739	445.31
374.965	442.31
375.191	448.31
375.416	459.31
375.642	437.31
375.868	453.31
376.094	434.31
376.319	440.31
376.545	419.31
376.771	426.31
376.997	413.31
377.222	437.31
377.448	413.31
377.674	433.31
377.899	410.31
378.125	429.31
378.35	412.31
378.576	423.31
378.802	410.31
379.027	416.31
379.253	440.31
379.478	409.31
379.704	416.31
379.929	455.31
380.155	443.31
380.38	424.31
380.606	436.31
380.831	412.31
381.057	462.31
381.282	440.31
381.507	430.31
381.733	432.31
381.958	454.31
382.184	441.31
382.409	425.31
382.634	450.31
382.86	447.31
383.085	439.31
383.31	462.31
383.535	436.31
383.761	450.31
383.986	473.31
384.211	450.31
384.436	445.31
384.662	480.31
384.887	462.31
385.112	468.31
385.337	480.31
385.562	469.31
385.787	476.31
386.013	463.31
386.238	512.31
386.463	501.31
386.688	491.31
386.913	458.31
387.138	465.31
387.363	470.31
387.588	475.31
387.813	473.31
388.038	475.31
388.263	479.31
388.488	494.31
388.713	496.31
388.938	464.31
389.163	478.31
389.387	476.31
389.612	474.31
389.837	473.31
390.062	478.31
390.287	490.31
390.512	470.31
390.736	476.31
390.961	482.31
391.186	482.31
391.411	506.31
391.636	472.31
391.86	501.31
392.085	502.31
392.31	498.31
392.534	505.31
392.759	519.31
392.984	492.31
393.208	474.31
393.433	512.31
393.658	483.31
393.882	483.31
394.107	516.31
394.331	482.31
394.556	485.31
394.78	478.31
395.005	484.31
395.229	497.31
395.454	516.31
395.678	506.31
395.903	513.31
396.127	521.31
396.352	551.31
396.576	519.31
396.801	500.31
397.025	494.31
397.249	486.31
397.474	513.31
397.698	537.31
397.922	555.31
398.147	544.31
398.371	553.31
398.595	549.31
398.82	550.31
399.044	578.31
399.268	603.31
399.492	635.31
399.717	707.31
399.941	713.31
400.165	726.31
400.389	716.31
400.613	664.31
400.837	627.31
401.062	579.31
401.286	577.31
401.51	601.31
401.734	553.31
401.958	553.31
402.182	573.31
402.406	562.31
402.63	586.31
402.854	583.31
403.078	583.31
403.302	577.31
403.526	596.31
403.75	568.31
403.974	589.31
404.198	601.31
404.422	603.31
404.645	589.31
404.869	573.31
405.093	618.31
405.317	670.31
405.541	711.31
405.765	640.31
405.988	612.31
406.212	627.31
406.436	628.31
406.66	633.31
406.883	624.31
407.107	677.31
407.331	700.31
407.555	753.31
407.778	792.31
408.002	711.31
408.226	670.31
408.449	664.31
408.673	628.31
408.896	688.31
409.12	696.31
409.344	644.31
409.567	602.31
409.791	595.31
410.014	594.31
410.238	586.31
410.461	585.31
410.685	589.31
410.908	589.31
411.132	640.31
411.355	663.31
411.578	664.31
411.802	618.31
412.025	576.31
412.249	598.31
412.472	635.31
412.695	657.31
412.919	657.31
413.142	593.31
413.365	579.31
413.589	563.31
413.812	569.31
414.035	545.31
414.258	552.31
414.482	562.31
414.705	562.31
414.928	548.31
415.151	558.31
415.374	529.31
415.597	550.31
415.821	564.31
416.044	536.31
416.267	551.31
416.49	573.31
416.713	553.31
416.936	546.31
417.159	552.31
417.382	564.31
417.605	568.31
417.828	567.31
418.051	585.31
418.274	562.31
418.497	558.31
418.72	566.31
418.943	543.31
419.166	564.31
419.389	594.31
419.611	591.31
419.834	590.31
420.057	590.31
420.28	596.31
420.503	568.31
420.726	573.31
420.948	594.31
421.171	612.31
421.394	658.31
421.617	578.31
421.839	581.31
422.062	587.31
422.285	587.31
422.507	656.31
422.73	722.31
422.953	704.31
423.175	608.31
423.398	597.31
423.621	611.31
423.843	598.31
424.066	630.31
424.288	617.31
424.511	638.31
424.733	716.31
424.956	758.31
425.178	719.31
425.401	715.31
425.623	746.31
425.846	655.31
426.068	610.31
426.291	604.31
426.513	584.31
426.735	614.31
426.958	645.31
427.18	744.31
427.402	848.31
427.625	949.31
427.847	811.31
428.069	698.31
428.292	654.31
428.514	584.31
428.736	580.31
428.958	554.31
429.181	543.31
429.403	557.31
429.625	573.31
429.847	591.31
430.069	662.31
430.292	653.31
430.514	586.31
430.736	552.31
430.958	558.31
431.18	534.31
431.402	551.31
431.624	530.31
431.846	521.31
432.068	521.31
432.29	550.31
432.512	543.31
432.734	546.31
432.956	541.31
433.178	542.31
433.4	547.31
433.622	542.31
433.844	539.31
434.066	516.31
434.287	534.31
434.509	528.31
434.731	549.31
434.953	572.31
435.175	584.31
435.397	592.31
435.618	609.31
435.84	640.31
436.062	736.31
436.284	799.31
436.505	668.31
436.727	618.31
436.949	584.31
437.17	586.31
437.392	571.31
437.614	562.31
437.835	588.31
438.057	665.31
438.278	806.31
438.5	785.31
438.721	873.31
438.943	848.31
439.165	686.31
439.386	644.31
439.608	611.31
439.829	610.31
440.05	613.31
440.272	665.31
440.493	660.31
440.715	606.31
440.936	568.31
441.158	572.31
441.379	581.31
441.6	587.31
441.822	608.31
442.043	642.31
442.264	717.31
442.486	799.31
442.707	686.31
442.928	617.31
443.149	615.31
443.371	642.31
443.592	669.31
443.813	793.31
444.034	842.31
444.255	722.31
444.476	636.31
444.698	644.31
444.919	600.31
445.14	736.31
445.361	680.31
445.582	654.31
445.803	720.31
446.024	816.31
446.245	811.31
446.466	765.31
446.687	650.31
446.908	609.31
447.129	564.31
447.35	548.31
447.571	578.31
447.792	544.31
448.013	540.31
448.234	552.31
448.455	619.31
448.675	732.31
448.896	846.31
449.117	731.31
449.338	682.31
449.559	802.31
449.779	903.31
450	720.31
450.221	611.31
450.442	538.31
450.662	517.31
450.883	517.31
451.104	557.31
451.324	532.31
451.545	509.31
451.766	513.31
451.986	502.31
452.207	482.31
452.428	488.31
452.648	476.31
452.869	491.31
453.089	482.31
453.31	523.31
453.53	512.31
453.751	500.31
453.971	516.31
454.192	509.31
454.412	462.31
454.633	481.31
454.853	489.31
455.073	500.31
455.294	523.31
455.514	561.31
455.734	570.31
455.955	488.31
456.175	487.31
456.395	456.31
456.616	455.31
456.836	460.31
457.056	460.31
457.276	460.31
457.497	477.31
457.717	464.31
457.937	468.31
458.157	469.31
458.377	489.31
458.598	519.31
458.818	538.31
459.038	650.31
459.258	647.31
459.478	552.31
459.698	530.31
459.918	512.31
460.138	533.31
460.358	547.31
460.578	549.31
460.798	542.31
461.018	556.31
461.238	566.31
461.458	532.31
461.678	566.31
461.898	549.31
462.118	553.31
462.338	566.31
462.558	587.31
462.777	594.31
462.997	610.31
463.217	605.31
463.437	637.31
463.657	624.31
463.876	597.31
464.096	630.31
464.316	585.31
464.536	585.31
464.755	604.31
464.975	594.31
465.195	618.31
465.414	656.31
465.634	595.31
465.854	562.31
466.073	522.31
466.293	537.31
466.512	518.31
466.732	499.31
466.951	514.31
467.171	500.31
467.391	513.31
467.61	522.31
467.829	522.31
468.049	514.31
468.268	493.31
468.488	524.31
468.707	515.31
468.927	484.31
469.146	487.31
469.365	495.31
469.585	488.31
469.804	503.31
470.023	518.31
470.243	523.31
470.462	526.31
470.681	525.31
470.901	526.31
471.12	501.31
471.339	501.31
471.558	527.31
471.777	502.31
471.997	498.31
472.216	526.31
472.435	527.31
472.654	514.31
472.873	505.31
473.092	511.31
473.311	502.31
473.53	506.31
473.749	523.31
473.968	553.31
474.187	630.31
474.406	690.31
474.625	565.31
474.844	535.31
475.063	511.31
475.282	514.31
475.501	529.31
475.72	520.31
475.939	498.31
476.158	538.31
476.377	514.31
476.596	528.31
476.814	535.31
477.033	536.31
477.252	556.31
477.471	529.31
477.69	562.31
477.908	555.31
478.127	582.31
478.346	562.31
478.564	581.31
478.783	580.31
479.002	611.31
479.22	607.31
479.439	605.31
479.658	605.31
479.876	628.31
480.095	619.31
480.313	671.31
480.532	665.31
480.751	644.31
480.969	639.31
481.188	692.31
481.406	684.31
481.624	644.31
481.843	635.31
482.061	625.31
482.28	609.31
482.498	608.31
482.717	589.31
482.935	590.31
483.153	604.31
483.372	593.31
483.59	589.31
483.808	609.31
484.027	596.31
484.245	592.31
484.463	593.31
484.681	599.31
484.9	631.31
485.118	600.31
485.336	622.31
485.554	611.31
485.772	627.31
485.99	625.31
486.209	605.31
486.427	621.31
486.645	630.31
486.863	633.31
487.081	624.31
487.299	626.31
487.517	632.31
487.735	618.31
487.953	646.31
488.171	640.31
488.389	624.31
488.607	665.31
488.825	658.31
489.043	654.31
489.261	635.31
489.479	644.31
489.696	646.31
489.914	662.31
490.132	651.31
490.35	656.31
490.568	676.31
490.786	694.31
491.003	699.31
491.221	701.31
491.439	715.31
491.657	718.31
491.874	714.31
492.092	709.31
492.31	729.31
492.527	742.31
492.745	766.31
492.963	736.31
493.18	759.31
493.398	752.31
493.615	740.31
493.833	766.31
494.05	752.31
494.268	745.31
494.485	750.31
494.703	749.31
494.92	767.31
495.138	745.31
495.355	740.31
495.573	756.31
495.79	760.31
496.008	745.31
496.225	743.31
496.442	734.31
496.66	779.31
496.877	732.31
497.094	775.31
497.312	770.31
497.529	803.31
497.746	782.31
497.963	827.31
498.181	856.31
498.398	847.31
498.615	870.31
498.832	890.31
499.049	924.31
499.267	935.31
499.484	972.31
499.701	1049.31
499.918	1037.31
500.135	1132.31
500.352	1195.31
500.569	1224.31
500.786	1185.31
501.003	1200.31
501.22	1134.31
501.437	1085.31
501.654	1046.31
