Data from 1976.PennyLincolnUp.Lamp.En5.5.200Scan.071719.P1.Changed Mount._HRD10591_16-02-29-862.txt Node
Date: Thu Jul 18 16:02:29 EDT 2019
User: cochatt
Spectrometer: HR+D1059
Trigger mode: 1
Integration Time (sec): 1.000000E-1
Scans to average: 1
Electric dark correction enabled: true
Nonlinearity correction enabled: false
Boxcar width: 0
XAxis mode: Wavelengths
Number of Pixels in Spectrum: 2048
>>>>>Begin Spectral Data<<<<<
223.165	-12.75
223.4	-12.75
223.635	-12.75
223.869	-11.75
224.104	-19.75
224.338	-9.75
224.573	-17.75
224.808	-27.75
225.042	-14.75
225.277	1.25
225.511	5.25
225.746	-1.75
225.98	-10.75
226.215	12.25
226.449	11.25
226.683	27.25
226.918	33.25
227.152	36.25
227.387	29.25
227.621	42.25
227.856	43.25
228.09	41.25
228.324	39.25
228.559	47.25
228.793	74.25
229.027	108.25
229.262	117.25
229.496	114.25
229.73	128.25
229.964	161.25
230.199	130.25
230.433	115.25
230.667	103.25
230.901	113.25
231.136	109.25
231.37	115.25
231.604	123.25
231.838	119.25
232.072	118.25
232.306	111.25
232.541	107.25
232.775	102.25
233.009	107.25
233.243	108.25
233.477	123.25
233.711	110.25
233.945	107.25
234.179	126.25
234.413	115.25
234.647	128.25
234.881	112.25
235.115	127.25
235.349	122.25
235.583	112.25
235.817	129.25
236.051	133.25
236.285	124.25
236.519	114.25
236.753	126.25
236.987	147.25
237.221	183.25
237.455	244.25
237.689	175.25
237.922	137.25
238.156	137.25
238.39	131.25
238.624	118.25
238.858	143.25
239.091	127.25
239.325	120.25
239.559	123.25
239.793	135.25
240.027	143.25
240.26	154.25
240.494	160.25
240.728	155.25
240.961	153.25
241.195	156.25
241.429	158.25
241.662	135.25
241.896	155.25
242.13	135.25
242.363	136.25
242.597	131.25
242.83	154.25
243.064	146.25
243.298	152.25
243.531	138.25
243.765	143.25
243.998	150.25
244.232	160.25
244.465	144.25
244.699	141.25
244.932	140.25
245.166	130.25
245.399	147.25
245.633	152.25
245.866	153.25
246.099	135.25
246.333	140.25
246.566	163.25
246.8	158.25
247.033	175.25
247.266	163.25
247.5	161.25
247.733	164.25
247.966	175.25
248.2	181.25
248.433	179.25
248.666	188.25
248.899	185.25
249.133	206.25
249.366	215.25
249.599	200.25
249.832	199.25
250.066	187.25
250.299	184.25
250.532	213.25
250.765	212.25
250.998	228.25
251.231	224.25
251.465	228.25
251.698	217.25
251.931	210.25
252.164	212.25
252.397	203.25
252.63	205.25
252.863	205.25
253.096	232.25
253.329	228.25
253.562	224.25
253.795	235.25
254.028	213.25
254.261	227.25
254.494	238.25
254.727	256.25
254.96	300.25
255.193	283.25
255.426	240.25
255.659	245.25
255.892	247.25
256.124	253.25
256.357	245.25
256.59	245.25
256.823	229.25
257.056	235.25
257.289	223.25
257.521	228.25
257.754	203.25
257.987	224.25
258.22	243.25
258.452	226.25
258.685	226.25
258.918	219.25
259.151	227.25
259.383	217.25
259.616	244.25
259.849	224.25
260.081	248.25
260.314	265.25
260.547	269.25
260.779	264.25
261.012	267.25
261.244	251.25
261.477	239.25
261.71	240.25
261.942	231.25
262.175	248.25
262.407	243.25
262.64	228.25
262.872	236.25
263.105	241.25
263.337	230.25
263.57	227.25
263.802	239.25
264.035	229.25
264.267	213.25
264.499	231.25
264.732	235.25
264.964	225.25
265.197	236.25
265.429	221.25
265.661	251.25
265.894	239.25
266.126	239.25
266.358	225.25
266.591	223.25
266.823	239.25
267.055	246.25
267.287	258.25
267.52	233.25
267.752	266.25
267.984	248.25
268.216	269.25
268.448	259.25
268.681	249.25
268.913	257.25
269.145	292.25
269.377	298.25
269.609	288.25
269.841	311.25
270.073	295.25
270.306	285.25
270.538	327.25
270.77	313.25
271.002	344.25
271.234	311.25
271.466	325.25
271.698	340.25
271.93	337.25
272.162	358.25
272.394	325.25
272.626	326.25
272.858	297.25
273.09	286.25
273.322	299.25
273.553	296.25
273.785	291.25
274.017	301.25
274.249	293.25
274.481	287.25
274.713	288.25
274.945	303.25
275.176	308.25
275.408	281.25
275.64	290.25
275.872	288.25
276.104	291.25
276.335	288.25
276.567	302.25
276.799	289.25
277.031	325.25
277.262	351.25
277.494	328.25
277.726	340.25
277.957	321.25
278.189	301.25
278.421	296.25
278.652	301.25
278.884	287.25
279.115	309.25
279.347	299.25
279.579	287.25
279.81	300.25
280.042	289.25
280.273	288.25
280.505	292.25
280.736	304.25
280.968	302.25
281.199	279.25
281.431	288.25
281.662	291.25
281.894	284.25
282.125	294.25
282.356	312.25
282.588	316.25
282.819	325.25
283.051	315.25
283.282	272.25
283.513	291.25
283.745	284.25
283.976	300.25
284.207	299.25
284.439	275.25
284.67	307.25
284.901	335.25
285.132	296.25
285.364	309.25
285.595	332.25
285.826	290.25
286.057	308.25
286.288	301.25
286.52	315.25
286.751	301.25
286.982	303.25
287.213	305.25
287.444	316.25
287.675	322.25
287.906	316.25
288.138	327.25
288.369	343.25
288.6	334.25
288.831	341.25
289.062	342.25
289.293	316.25
289.524	335.25
289.755	316.25
289.986	313.25
290.217	309.25
290.448	322.25
290.679	302.25
290.91	325.25
291.141	309.25
291.371	327.25
291.602	331.25
291.833	319.25
292.064	328.25
292.295	318.25
292.526	317.25
292.757	327.25
292.987	319.25
293.218	329.25
293.449	334.25
293.68	332.25
293.91	314.25
294.141	333.25
294.372	332.25
294.603	328.25
294.833	332.25
295.064	316.25
295.295	320.25
295.525	320.25
295.756	328.25
295.987	337.25
296.217	366.25
296.448	364.25
296.679	344.25
296.909	333.25
297.14	331.25
297.37	331.25
297.601	341.25
297.831	328.25
298.062	349.25
298.292	341.25
298.523	324.25
298.753	335.25
298.984	319.25
299.214	346.25
299.445	351.25
299.675	342.25
299.905	353.25
300.136	336.25
300.366	334.25
300.597	356.25
300.827	365.25
301.057	348.25
301.288	358.25
301.518	348.25
301.748	372.25
301.979	375.25
302.209	358.25
302.439	369.25
302.669	353.25
302.9	341.25
303.13	381.25
303.36	339.25
303.59	349.25
303.82	366.25
304.051	357.25
304.281	361.25
304.511	362.25
304.741	351.25
304.971	360.25
305.201	341.25
305.431	369.25
305.661	355.25
305.891	361.25
306.121	355.25
306.352	373.25
306.582	357.25
306.812	362.25
307.042	366.25
307.272	377.25
307.502	361.25
307.731	375.25
307.961	361.25
308.191	368.25
308.421	361.25
308.651	363.25
308.881	365.25
309.111	377.25
309.341	371.25
309.571	388.25
309.8	381.25
310.03	398.25
310.26	418.25
310.49	389.25
310.72	399.25
310.949	420.25
311.179	411.25
311.409	414.25
311.639	385.25
311.868	381.25
312.098	417.25
312.328	387.25
312.557	428.25
312.787	426.25
313.017	435.25
313.246	404.25
313.476	387.25
313.706	404.25
313.935	430.25
314.165	429.25
314.394	427.25
314.624	427.25
314.853	399.25
315.083	417.25
315.312	420.25
315.542	421.25
315.771	429.25
316.001	423.25
316.23	411.25
316.46	402.25
316.689	409.25
316.919	413.25
317.148	404.25
317.377	413.25
317.607	395.25
317.836	407.25
318.065	409.25
318.295	401.25
318.524	422.25
318.753	407.25
318.983	372.25
319.212	395.25
319.441	416.25
319.67	409.25
319.9	405.25
320.129	398.25
320.358	417.25
320.587	417.25
320.816	396.25
321.046	419.25
321.275	430.25
321.504	412.25
321.733	410.25
321.962	438.25
322.191	432.25
322.42	451.25
322.649	469.25
322.878	450.25
323.108	470.25
323.337	488.25
323.566	509.25
323.795	515.25
324.024	546.25
324.253	656.25
324.482	927.25
324.71	1411.25
324.939	2085.25
325.168	1822.25
325.397	912.25
325.626	616.25
325.855	563.25
326.084	496.25
326.313	492.25
326.542	507.25
326.77	565.25
326.999	643.25
327.228	860.25
327.457	1263.25
327.686	1576.25
327.914	1054.25
328.143	683.25
328.372	592.25
328.6	579.25
328.829	555.25
329.058	580.25
329.287	576.25
329.515	544.25
329.744	526.25
329.972	544.25
330.201	546.25
330.43	574.25
330.658	583.25
330.887	611.25
331.115	571.25
331.344	555.25
331.572	519.25
331.801	534.25
332.03	501.25
332.258	525.25
332.486	507.25
332.715	491.25
332.943	506.25
333.172	502.25
333.4	490.25
333.629	501.25
333.857	525.25
334.085	542.25
334.314	551.25
334.542	575.25
334.771	572.25
334.999	569.25
335.227	512.25
335.455	482.25
335.684	499.25
335.912	503.25
336.14	486.25
336.369	486.25
336.597	495.25
336.825	489.25
337.053	496.25
337.281	469.25
337.51	492.25
337.738	472.25
337.966	464.25
338.194	486.25
338.422	489.25
338.65	475.25
338.878	469.25
339.106	459.25
339.334	471.25
339.562	459.25
339.79	449.25
340.018	457.25
340.246	487.25
340.474	461.25
340.702	462.25
340.93	471.25
341.158	469.25
341.386	432.25
341.614	470.25
341.842	465.25
342.07	442.25
342.298	482.25
342.526	442.25
342.754	447.25
342.981	450.25
343.209	449.25
343.437	456.25
343.665	462.25
343.893	475.25
344.12	496.25
344.348	463.25
344.576	483.25
344.804	477.25
345.031	480.25
345.259	477.25
345.487	472.25
345.714	450.25
345.942	457.25
346.17	444.25
346.397	443.25
346.625	435.25
346.853	457.25
347.08	444.25
347.308	458.25
347.535	438.25
347.763	458.25
347.99	462.25
348.218	455.25
348.445	465.25
348.673	447.25
348.9	457.25
349.128	432.25
349.355	451.25
349.583	414.25
349.81	437.25
350.037	415.25
350.265	443.25
350.492	427.25
350.72	425.25
350.947	439.25
351.174	428.25
351.402	441.25
351.629	453.25
351.856	452.25
352.083	452.25
352.311	451.25
352.538	450.25
352.765	445.25
352.992	427.25
353.22	443.25
353.447	437.25
353.674	423.25
353.901	440.25
354.128	419.25
354.355	433.25
354.583	432.25
354.81	424.25
355.037	424.25
355.264	424.25
355.491	420.25
355.718	410.25
355.945	429.25
356.172	430.25
356.399	415.25
356.626	424.25
356.853	408.25
357.08	421.25
357.307	439.25
357.534	406.25
357.761	430.25
357.988	419.25
358.215	411.25
358.441	423.25
358.668	429.25
358.895	411.25
359.122	423.25
359.349	423.25
359.576	452.25
359.802	453.25
360.029	465.25
360.256	487.25
360.483	448.25
360.709	451.25
360.936	447.25
361.163	440.25
361.39	437.25
361.616	441.25
361.843	445.25
362.07	425.25
362.296	433.25
362.523	449.25
362.749	456.25
362.976	422.25
363.203	434.25
363.429	405.25
363.656	422.25
363.882	431.25
364.109	442.25
364.335	429.25
364.562	429.25
364.788	435.25
365.015	439.25
365.241	445.25
365.468	405.25
365.694	443.25
365.92	436.25
366.147	418.25
366.373	430.25
366.599	415.25
366.826	429.25
367.052	433.25
367.278	429.25
367.505	411.25
367.731	436.25
367.957	411.25
368.184	430.25
368.41	431.25
368.636	429.25
368.862	447.25
369.089	435.25
369.315	427.25
369.541	443.25
369.767	440.25
369.993	428.25
370.219	436.25
370.445	409.25
370.672	423.25
370.898	430.25
371.124	424.25
371.35	429.25
371.576	429.25
371.802	417.25
372.028	417.25
372.254	442.25
372.48	444.25
372.706	442.25
372.932	420.25
373.158	413.25
373.384	436.25
373.61	427.25
373.835	446.25
374.061	423.25
374.287	450.25
374.513	451.25
374.739	433.25
374.965	424.25
375.191	445.25
375.416	443.25
375.642	417.25
375.868	447.25
376.094	422.25
376.319	437.25
376.545	430.25
376.771	425.25
376.997	423.25
377.222	432.25
377.448	402.25
377.674	415.25
377.899	435.25
378.125	433.25
378.35	433.25
378.576	423.25
378.802	409.25
379.027	439.25
379.253	439.25
379.478	424.25
379.704	445.25
379.929	424.25
380.155	428.25
380.38	443.25
380.606	432.25
380.831	439.25
381.057	423.25
381.282	443.25
381.507	431.25
381.733	429.25
381.958	433.25
382.184	423.25
382.409	430.25
382.634	448.25
382.86	446.25
383.085	443.25
383.31	464.25
383.535	447.25
383.761	449.25
383.986	465.25
384.211	449.25
384.436	455.25
384.662	478.25
384.887	455.25
385.112	479.25
385.337	466.25
385.562	492.25
385.787	488.25
386.013	469.25
386.238	492.25
386.463	491.25
386.688	473.25
386.913	468.25
387.138	456.25
387.363	457.25
387.588	490.25
387.813	479.25
388.038	489.25
388.263	477.25
388.488	476.25
388.713	488.25
388.938	468.25
389.163	466.25
389.387	478.25
389.612	473.25
389.837	472.25
390.062	477.25
390.287	471.25
390.512	465.25
390.736	471.25
390.961	477.25
391.186	487.25
391.411	485.25
391.636	494.25
391.86	509.25
392.085	475.25
392.31	485.25
392.534	493.25
392.759	491.25
392.984	488.25
393.208	484.25
393.433	490.25
393.658	481.25
393.882	474.25
394.107	459.25
394.331	481.25
394.556	485.25
394.78	476.25
395.005	489.25
395.229	499.25
395.454	498.25
395.678	515.25
395.903	530.25
396.127	558.25
396.352	557.25
396.576	513.25
396.801	512.25
397.025	476.25
397.249	500.25
397.474	528.25
397.698	523.25
397.922	527.25
398.147	537.25
398.371	544.25
398.595	558.25
398.82	573.25
399.044	565.25
399.268	597.25
399.492	639.25
399.717	647.25
399.941	691.25
400.165	698.25
400.389	729.25
400.613	647.25
400.837	586.25
401.062	576.25
401.286	561.25
401.51	559.25
401.734	564.25
401.958	547.25
402.182	578.25
402.406	552.25
402.63	565.25
402.854	585.25
403.078	567.25
403.302	597.25
403.526	575.25
403.75	590.25
403.974	577.25
404.198	584.25
404.422	611.25
404.645	609.25
404.869	585.25
405.093	620.25
405.317	646.25
405.541	706.25
405.765	651.25
405.988	605.25
406.212	633.25
406.436	638.25
406.66	633.25
406.883	633.25
407.107	635.25
407.331	678.25
407.555	759.25
407.778	790.25
408.002	704.25
408.226	667.25
408.449	632.25
408.673	619.25
408.896	666.25
409.12	686.25
409.344	675.25
409.567	607.25
409.791	604.25
410.014	579.25
410.238	584.25
410.461	600.25
410.685	599.25
410.908	607.25
411.132	616.25
411.355	680.25
411.578	638.25
411.802	589.25
412.025	575.25
412.249	570.25
412.472	623.25
412.695	647.25
412.919	640.25
413.142	593.25
413.365	555.25
413.589	572.25
413.812	551.25
414.035	544.25
414.258	563.25
414.482	543.25
414.705	556.25
414.928	556.25
415.151	534.25
415.374	535.25
415.597	536.25
415.821	551.25
416.044	546.25
416.267	535.25
416.49	555.25
416.713	546.25
416.936	558.25
417.159	545.25
417.382	547.25
417.605	560.25
417.828	564.25
418.051	587.25
418.274	579.25
418.497	564.25
418.72	572.25
418.943	547.25
419.166	565.25
419.389	624.25
419.611	581.25
419.834	595.25
420.057	582.25
420.28	579.25
420.503	582.25
420.726	573.25
420.948	576.25
421.171	613.25
421.394	643.25
421.617	574.25
421.839	567.25
422.062	564.25
422.285	602.25
422.507	631.25
422.73	715.25
422.953	689.25
423.175	628.25
423.398	597.25
423.621	604.25
423.843	619.25
424.066	594.25
424.288	608.25
424.511	633.25
424.733	691.25
424.956	779.25
425.178	743.25
425.401	728.25
425.623	743.25
425.846	648.25
426.068	604.25
426.291	609.25
426.513	549.25
426.735	599.25
426.958	647.25
427.18	718.25
427.402	850.25
427.625	921.25
427.847	796.25
428.069	725.25
428.292	647.25
428.514	593.25
428.736	576.25
428.958	564.25
429.181	540.25
429.403	554.25
429.625	552.25
429.847	584.25
430.069	662.25
430.292	649.25
430.514	591.25
430.736	563.25
430.958	553.25
431.18	529.25
431.402	551.25
431.624	503.25
431.846	548.25
432.068	530.25
432.29	502.25
432.512	538.25
432.734	521.25
432.956	544.25
433.178	543.25
433.4	556.25
433.622	533.25
433.844	521.25
434.066	512.25
434.287	511.25
434.509	518.25
434.731	538.25
434.953	536.25
435.175	558.25
435.397	596.25
435.618	595.25
435.84	606.25
436.062	729.25
436.284	806.25
436.505	711.25
436.727	620.25
436.949	604.25
437.17	564.25
437.392	560.25
437.614	550.25
437.835	583.25
438.057	665.25
438.278	785.25
438.5	796.25
438.721	863.25
438.943	843.25
439.165	671.25
439.386	608.25
439.608	605.25
439.829	616.25
440.05	633.25
440.272	678.25
440.493	635.25
440.715	600.25
440.936	568.25
441.158	583.25
441.379	554.25
441.6	557.25
441.822	591.25
442.043	638.25
442.264	715.25
442.486	778.25
442.707	639.25
442.928	612.25
443.149	631.25
443.371	645.25
443.592	680.25
443.813	779.25
444.034	844.25
444.255	732.25
444.476	661.25
444.698	619.25
444.919	624.25
445.14	720.25
445.361	690.25
445.582	631.25
445.803	699.25
446.024	809.25
446.245	813.25
446.466	734.25
446.687	637.25
446.908	629.25
447.129	569.25
447.35	546.25
447.571	558.25
447.792	555.25
448.013	534.25
448.234	580.25
448.455	611.25
448.675	728.25
448.896	836.25
449.117	737.25
449.338	672.25
449.559	789.25
449.779	904.25
450	716.25
450.221	581.25
450.442	569.25
450.662	521.25
450.883	544.25
451.104	547.25
451.324	519.25
451.545	499.25
451.766	535.25
451.986	478.25
452.207	485.25
452.428	501.25
452.648	476.25
452.869	484.25
453.089	501.25
453.31	524.25
453.53	515.25
453.751	492.25
453.971	474.25
454.192	500.25
454.412	483.25
454.633	471.25
454.853	482.25
455.073	499.25
455.294	500.25
455.514	582.25
455.734	554.25
455.955	513.25
456.175	455.25
456.395	455.25
456.616	461.25
456.836	493.25
457.056	468.25
457.276	456.25
457.497	450.25
457.717	473.25
457.937	479.25
458.157	496.25
458.377	474.25
458.598	501.25
458.818	549.25
459.038	621.25
459.258	652.25
459.478	572.25
459.698	546.25
459.918	529.25
460.138	526.25
460.358	525.25
460.578	537.25
460.798	551.25
461.018	560.25
461.238	553.25
461.458	545.25
461.678	538.25
461.898	548.25
462.118	538.25
462.338	583.25
462.558	578.25
462.777	557.25
462.997	615.25
463.217	604.25
463.437	631.25
463.657	597.25
463.876	607.25
464.096	587.25
464.316	587.25
464.536	596.25
464.755	580.25
464.975	573.25
465.195	618.25
465.414	633.25
465.634	593.25
465.854	551.25
466.073	543.25
466.293	527.25
466.512	525.25
466.732	522.25
466.951	513.25
467.171	503.25
467.391	504.25
467.61	505.25
467.829	504.25
468.049	513.25
468.268	499.25
468.488	490.25
468.707	506.25
468.927	504.25
469.146	503.25
469.365	481.25
469.585	479.25
469.804	505.25
470.023	521.25
470.243	509.25
470.462	501.25
470.681	505.25
470.901	531.25
471.12	545.25
471.339	521.25
471.558	511.25
471.777	503.25
471.997	504.25
472.216	500.25
472.435	549.25
472.654	534.25
472.873	485.25
473.092	489.25
473.311	487.25
473.53	521.25
473.749	527.25
473.968	568.25
474.187	655.25
474.406	669.25
474.625	555.25
474.844	549.25
475.063	502.25
475.282	501.25
475.501	522.25
475.72	506.25
475.939	508.25
476.158	512.25
476.377	516.25
476.596	520.25
476.814	530.25
477.033	535.25
477.252	547.25
477.471	571.25
477.69	533.25
477.908	542.25
478.127	572.25
478.346	557.25
478.564	570.25
478.783	595.25
479.002	592.25
479.22	583.25
479.439	589.25
479.658	599.25
479.876	595.25
480.095	645.25
480.313	656.25
480.532	649.25
480.751	618.25
480.969	656.25
481.188	672.25
481.406	686.25
481.624	631.25
481.843	605.25
482.061	615.25
482.28	608.25
482.498	596.25
482.717	593.25
482.935	601.25
483.153	589.25
483.372	581.25
483.59	575.25
483.808	575.25
484.027	589.25
484.245	603.25
484.463	603.25
484.681	618.25
484.9	604.25
485.118	607.25
485.336	608.25
485.554	616.25
485.772	624.25
485.99	612.25
486.209	596.25
486.427	635.25
486.645	628.25
486.863	628.25
487.081	620.25
487.299	640.25
487.517	627.25
487.735	615.25
487.953	652.25
488.171	649.25
488.389	617.25
488.607	617.25
488.825	653.25
489.043	620.25
489.261	641.25
489.479	661.25
489.696	653.25
489.914	688.25
490.132	665.25
490.35	713.25
490.568	676.25
490.786	671.25
491.003	676.25
491.221	689.25
491.439	682.25
491.657	688.25
491.874	732.25
492.092	712.25
492.31	725.25
492.527	729.25
492.745	705.25
492.963	727.25
493.18	750.25
493.398	728.25
493.615	760.25
493.833	746.25
494.05	771.25
494.268	750.25
494.485	727.25
494.703	745.25
494.92	743.25
495.138	750.25
495.355	779.25
495.573	765.25
495.79	764.25
496.008	755.25
496.225	747.25
496.442	763.25
496.66	737.25
496.877	756.25
497.094	757.25
497.312	763.25
497.529	749.25
497.746	783.25
497.963	806.25
498.181	839.25
498.398	826.25
498.615	864.25
498.832	866.25
499.049	901.25
499.267	919.25
499.484	957.25
499.701	1005.25
499.918	1073.25
500.135	1129.25
500.352	1159.25
500.569	1191.25
500.786	1167.25
501.003	1165.25
501.22	1132.25
501.437	1097.25
501.654	1035.25
