Data from 1976.PennyLincolnUp.Lamp.En5.5.200Scan.071719.P1.Changed Mount._HRD10591_16-01-27-900.txt Node
Date: Thu Jul 18 16:01:27 EDT 2019
User: cochatt
Spectrometer: HR+D1059
Trigger mode: 1
Integration Time (sec): 1.000000E-1
Scans to average: 1
Electric dark correction enabled: true
Nonlinearity correction enabled: false
Boxcar width: 0
XAxis mode: Wavelengths
Number of Pixels in Spectrum: 2048
>>>>>Begin Spectral Data<<<<<
223.165	-10.31
223.4	-10.31
223.635	-10.31
223.869	-2.31
224.104	-25.31
224.338	-20.31
224.573	-16.31
224.808	-17.31
225.042	-11.31
225.277	-6.31
225.511	5.69
225.746	6.69
225.98	1.69
226.215	5.69
226.449	7.69
226.683	25.69
226.918	27.69
227.152	28.69
227.387	36.69
227.621	34.69
227.856	38.69
228.09	46.69
228.324	46.69
228.559	57.69
228.793	57.69
229.027	90.69
229.262	115.69
229.496	119.69
229.73	141.69
229.964	145.69
230.199	122.69
230.433	110.69
230.667	119.69
230.901	127.69
231.136	124.69
231.37	115.69
231.604	118.69
231.838	108.69
232.072	108.69
232.306	99.69
232.541	106.69
232.775	126.69
233.009	122.69
233.243	115.69
233.477	124.69
233.711	108.69
233.945	123.69
234.179	125.69
234.413	110.69
234.647	129.69
234.881	117.69
235.115	124.69
235.349	113.69
235.583	107.69
235.817	123.69
236.051	123.69
236.285	116.69
236.519	125.69
236.753	140.69
236.987	145.69
237.221	162.69
237.455	213.69
237.689	179.69
237.922	140.69
238.156	151.69
238.39	135.69
238.624	134.69
238.858	127.69
239.091	139.69
239.325	129.69
239.559	133.69
239.793	138.69
240.027	134.69
240.26	123.69
240.494	142.69
240.728	157.69
240.961	140.69
241.195	139.69
241.429	139.69
241.662	139.69
241.896	127.69
242.13	131.69
242.363	134.69
242.597	138.69
242.83	140.69
243.064	126.69
243.298	131.69
243.531	142.69
243.765	128.69
243.998	143.69
244.232	154.69
244.465	149.69
244.699	153.69
244.932	143.69
245.166	153.69
245.399	149.69
245.633	135.69
245.866	146.69
246.099	146.69
246.333	158.69
246.566	153.69
246.8	158.69
247.033	154.69
247.266	162.69
247.5	161.69
247.733	175.69
247.966	164.69
248.2	175.69
248.433	162.69
248.666	171.69
248.899	186.69
249.133	212.69
249.366	209.69
249.599	202.69
249.832	189.69
250.066	181.69
250.299	164.69
250.532	185.69
250.765	206.69
250.998	210.69
251.231	221.69
251.465	216.69
251.698	202.69
251.931	203.69
252.164	201.69
252.397	191.69
252.63	199.69
252.863	214.69
253.096	212.69
253.329	226.69
253.562	233.69
253.795	201.69
254.028	226.69
254.261	225.69
254.494	242.69
254.727	249.69
254.96	270.69
255.193	254.69
255.426	237.69
255.659	231.69
255.892	241.69
256.124	250.69
256.357	240.69
256.59	238.69
256.823	207.69
257.056	224.69
257.289	206.69
257.521	226.69
257.754	214.69
257.987	193.69
258.22	208.69
258.452	229.69
258.685	218.69
258.918	209.69
259.151	208.69
259.383	214.69
259.616	237.69
259.849	238.69
260.081	239.69
260.314	261.69
260.547	250.69
260.779	236.69
261.012	263.69
261.244	229.69
261.477	216.69
261.71	238.69
261.942	230.69
262.175	244.69
262.407	242.69
262.64	199.69
262.872	208.69
263.105	218.69
263.337	214.69
263.57	225.69
263.802	205.69
264.035	218.69
264.267	223.69
264.499	233.69
264.732	226.69
264.964	234.69
265.197	220.69
265.429	203.69
265.661	208.69
265.894	226.69
266.126	234.69
266.358	221.69
266.591	232.69
266.823	250.69
267.055	255.69
267.287	250.69
267.52	204.69
267.752	236.69
267.984	222.69
268.216	247.69
268.448	230.69
268.681	250.69
268.913	252.69
269.145	259.69
269.377	281.69
269.609	263.69
269.841	274.69
270.073	264.69
270.306	309.69
270.538	315.69
270.77	314.69
271.002	302.69
271.234	277.69
271.466	314.69
271.698	322.69
271.93	329.69
272.162	338.69
272.394	319.69
272.626	325.69
272.858	302.69
273.09	307.69
273.322	286.69
273.553	279.69
273.785	273.69
274.017	276.69
274.249	282.69
274.481	283.69
274.713	287.69
274.945	290.69
275.176	257.69
275.408	271.69
275.64	274.69
275.872	262.69
276.104	265.69
276.335	278.69
276.567	277.69
276.799	305.69
277.031	315.69
277.262	332.69
277.494	353.69
277.726	327.69
277.957	285.69
278.189	298.69
278.421	282.69
278.652	277.69
278.884	279.69
279.115	283.69
279.347	282.69
279.579	266.69
279.81	275.69
280.042	289.69
280.273	282.69
280.505	282.69
280.736	282.69
280.968	281.69
281.199	300.69
281.431	298.69
281.662	297.69
281.894	281.69
282.125	300.69
282.356	315.69
282.588	319.69
282.819	299.69
283.051	308.69
283.282	281.69
283.513	291.69
283.745	301.69
283.976	313.69
284.207	327.69
284.439	307.69
284.67	290.69
284.901	295.69
285.132	301.69
285.364	285.69
285.595	315.69
285.826	291.69
286.057	298.69
286.288	290.69
286.52	310.69
286.751	311.69
286.982	307.69
287.213	309.69
287.444	325.69
287.675	307.69
287.906	313.69
288.138	312.69
288.369	325.69
288.6	310.69
288.831	309.69
289.062	319.69
289.293	317.69
289.524	320.69
289.755	307.69
289.986	304.69
290.217	301.69
290.448	303.69
290.679	306.69
290.91	314.69
291.141	283.69
291.371	330.69
291.602	312.69
291.833	301.69
292.064	322.69
292.295	314.69
292.526	311.69
292.757	324.69
292.987	311.69
293.218	326.69
293.449	308.69
293.68	325.69
293.91	302.69
294.141	327.69
294.372	334.69
294.603	306.69
294.833	317.69
295.064	316.69
295.295	321.69
295.525	320.69
295.756	316.69
295.987	327.69
296.217	363.69
296.448	360.69
296.679	353.69
296.909	329.69
297.14	322.69
297.37	325.69
297.601	317.69
297.831	319.69
298.062	305.69
298.292	327.69
298.523	340.69
298.753	343.69
298.984	332.69
299.214	341.69
299.445	339.69
299.675	334.69
299.905	339.69
300.136	325.69
300.366	321.69
300.597	328.69
300.827	325.69
301.057	339.69
301.288	366.69
301.518	336.69
301.748	347.69
301.979	339.69
302.209	367.69
302.439	354.69
302.669	341.69
302.9	337.69
303.13	345.69
303.36	356.69
303.59	346.69
303.82	356.69
304.051	359.69
304.281	360.69
304.511	347.69
304.741	356.69
304.971	350.69
305.201	345.69
305.431	361.69
305.661	356.69
305.891	357.69
306.121	349.69
306.352	354.69
306.582	360.69
306.812	352.69
307.042	373.69
307.272	345.69
307.502	346.69
307.731	352.69
307.961	349.69
308.191	357.69
308.421	372.69
308.651	358.69
308.881	355.69
309.111	364.69
309.341	343.69
309.571	358.69
309.8	350.69
310.03	357.69
310.26	383.69
310.49	393.69
310.72	396.69
310.949	398.69
311.179	426.69
311.409	389.69
311.639	420.69
311.868	377.69
312.098	373.69
312.328	385.69
312.557	414.69
312.787	435.69
313.017	426.69
313.246	420.69
313.476	405.69
313.706	388.69
313.935	418.69
314.165	410.69
314.394	409.69
314.624	415.69
314.853	415.69
315.083	405.69
315.312	418.69
315.542	399.69
315.771	391.69
316.001	395.69
316.23	400.69
316.46	389.69
316.689	402.69
316.919	380.69
317.148	406.69
317.377	409.69
317.607	402.69
317.836	403.69
318.065	413.69
318.295	403.69
318.524	392.69
318.753	396.69
318.983	410.69
319.212	397.69
319.441	406.69
319.67	424.69
319.9	397.69
320.129	389.69
320.358	383.69
320.587	413.69
320.816	393.69
321.046	403.69
321.275	409.69
321.504	390.69
321.733	404.69
321.962	403.69
322.191	434.69
322.42	431.69
322.649	449.69
322.878	437.69
323.108	473.69
323.337	468.69
323.566	482.69
323.795	510.69
324.024	552.69
324.253	642.69
324.482	895.69
324.71	1318.69
324.939	1980.69
325.168	1717.69
325.397	892.69
325.626	615.69
325.855	531.69
326.084	487.69
326.313	492.69
326.542	494.69
326.77	545.69
326.999	616.69
327.228	821.69
327.457	1221.69
327.686	1524.69
327.914	999.69
328.143	658.69
328.372	594.69
328.6	571.69
328.829	549.69
329.058	559.69
329.287	574.69
329.515	515.69
329.744	499.69
329.972	515.69
330.201	539.69
330.43	549.69
330.658	576.69
330.887	582.69
331.115	569.69
331.344	515.69
331.572	494.69
331.801	497.69
332.03	483.69
332.258	480.69
332.486	484.69
332.715	497.69
332.943	487.69
333.172	480.69
333.4	496.69
333.629	515.69
333.857	518.69
334.085	522.69
334.314	547.69
334.542	542.69
334.771	578.69
334.999	523.69
335.227	501.69
335.455	488.69
335.684	485.69
335.912	483.69
336.14	472.69
336.369	464.69
336.597	464.69
336.825	492.69
337.053	470.69
337.281	477.69
337.51	477.69
337.738	463.69
337.966	472.69
338.194	461.69
338.422	462.69
338.65	458.69
338.878	450.69
339.106	468.69
339.334	453.69
339.562	465.69
339.79	455.69
340.018	445.69
340.246	463.69
340.474	464.69
340.702	475.69
340.93	454.69
341.158	443.69
341.386	451.69
341.614	440.69
341.842	452.69
342.07	463.69
342.298	469.69
342.526	417.69
342.754	432.69
342.981	441.69
343.209	463.69
343.437	434.69
343.665	457.69
343.893	460.69
344.12	491.69
344.348	463.69
344.576	481.69
344.804	472.69
345.031	482.69
345.259	464.69
345.487	460.69
345.714	459.69
345.942	449.69
346.17	455.69
346.397	415.69
346.625	431.69
346.853	453.69
347.08	423.69
347.308	442.69
347.535	442.69
347.763	440.69
347.99	436.69
348.218	442.69
348.445	443.69
348.673	437.69
348.9	446.69
349.128	423.69
349.355	439.69
349.583	438.69
349.81	419.69
350.037	419.69
350.265	415.69
350.492	416.69
350.72	407.69
350.947	426.69
351.174	425.69
351.402	430.69
351.629	434.69
351.856	417.69
352.083	445.69
352.311	443.69
352.538	433.69
352.765	452.69
352.992	414.69
353.22	426.69
353.447	421.69
353.674	427.69
353.901	415.69
354.128	417.69
354.355	421.69
354.583	412.69
354.81	423.69
355.037	405.69
355.264	405.69
355.491	418.69
355.718	402.69
355.945	395.69
356.172	398.69
356.399	379.69
356.626	392.69
356.853	413.69
357.08	387.69
357.307	421.69
357.534	415.69
357.761	398.69
357.988	402.69
358.215	403.69
358.441	413.69
358.668	408.69
358.895	419.69
359.122	424.69
359.349	437.69
359.576	420.69
359.802	460.69
360.029	482.69
360.256	460.69
360.483	453.69
360.709	423.69
360.936	421.69
361.163	450.69
361.39	421.69
361.616	422.69
361.843	426.69
362.07	436.69
362.296	445.69
362.523	451.69
362.749	421.69
362.976	409.69
363.203	426.69
363.429	426.69
363.656	403.69
363.882	411.69
364.109	422.69
364.335	390.69
364.562	422.69
364.788	418.69
365.015	414.69
365.241	418.69
365.468	386.69
365.694	425.69
365.92	427.69
366.147	419.69
366.373	416.69
366.599	410.69
366.826	416.69
367.052	428.69
367.278	415.69
367.505	428.69
367.731	415.69
367.957	401.69
368.184	422.69
368.41	408.69
368.636	422.69
368.862	434.69
369.089	421.69
369.315	421.69
369.541	407.69
369.767	426.69
369.993	422.69
370.219	414.69
370.445	417.69
370.672	412.69
370.898	406.69
371.124	422.69
371.35	410.69
371.576	439.69
371.802	406.69
372.028	414.69
372.254	421.69
372.48	437.69
372.706	432.69
372.932	441.69
373.158	428.69
373.384	414.69
373.61	409.69
373.835	418.69
374.061	428.69
374.287	407.69
374.513	433.69
374.739	433.69
374.965	416.69
375.191	420.69
375.416	442.69
375.642	434.69
375.868	437.69
376.094	412.69
376.319	413.69
376.545	438.69
376.771	437.69
376.997	401.69
377.222	430.69
377.448	409.69
377.674	415.69
377.899	423.69
378.125	414.69
378.35	403.69
378.576	413.69
378.802	435.69
379.027	413.69
379.253	427.69
379.478	414.69
379.704	416.69
379.929	431.69
380.155	419.69
380.38	415.69
380.606	425.69
380.831	434.69
381.057	419.69
381.282	411.69
381.507	405.69
381.733	430.69
381.958	425.69
382.184	433.69
382.409	435.69
382.634	410.69
382.86	428.69
383.085	438.69
383.31	445.69
383.535	460.69
383.761	433.69
383.986	437.69
384.211	434.69
384.436	449.69
384.662	461.69
384.887	481.69
385.112	450.69
385.337	465.69
385.562	460.69
385.787	485.69
386.013	465.69
386.238	481.69
386.463	467.69
386.688	477.69
386.913	454.69
387.138	471.69
387.363	486.69
387.588	466.69
387.813	453.69
388.038	467.69
388.263	458.69
388.488	486.69
388.713	460.69
388.938	459.69
389.163	488.69
389.387	478.69
389.612	480.69
389.837	473.69
390.062	469.69
390.287	484.69
390.512	450.69
390.736	476.69
390.961	452.69
391.186	437.69
391.411	469.69
391.636	475.69
391.86	482.69
392.085	499.69
392.31	489.69
392.534	489.69
392.759	470.69
392.984	490.69
393.208	478.69
393.433	465.69
393.658	487.69
393.882	469.69
394.107	467.69
394.331	484.69
394.556	480.69
394.78	494.69
395.005	498.69
395.229	462.69
395.454	470.69
395.678	512.69
395.903	503.69
396.127	517.69
396.352	517.69
396.576	500.69
396.801	476.69
397.025	493.69
397.249	481.69
397.474	501.69
397.698	509.69
397.922	535.69
398.147	533.69
398.371	538.69
398.595	544.69
398.82	543.69
399.044	568.69
399.268	570.69
399.492	620.69
399.717	646.69
399.941	678.69
400.165	693.69
400.389	687.69
400.613	633.69
400.837	598.69
401.062	571.69
401.286	558.69
401.51	561.69
401.734	544.69
401.958	544.69
402.182	533.69
402.406	570.69
402.63	579.69
402.854	567.69
403.078	566.69
403.302	554.69
403.526	584.69
403.75	565.69
403.974	595.69
404.198	584.69
404.422	583.69
404.645	571.69
404.869	585.69
405.093	585.69
405.317	645.69
405.541	696.69
405.765	632.69
405.988	595.69
406.212	611.69
406.436	645.69
406.66	633.69
406.883	635.69
407.107	622.69
407.331	674.69
407.555	764.69
407.778	738.69
408.002	682.69
408.226	633.69
408.449	621.69
408.673	599.69
408.896	653.69
409.12	681.69
409.344	666.69
409.567	598.69
409.791	566.69
410.014	595.69
410.238	583.69
410.461	575.69
410.685	575.69
410.908	598.69
411.132	629.69
411.355	660.69
411.578	613.69
411.802	585.69
412.025	556.69
412.249	555.69
412.472	579.69
412.695	630.69
412.919	597.69
413.142	589.69
413.365	567.69
413.589	556.69
413.812	565.69
414.035	545.69
414.258	531.69
414.482	551.69
414.705	538.69
414.928	513.69
415.151	555.69
415.374	515.69
415.597	526.69
415.821	545.69
416.044	534.69
416.267	542.69
416.49	536.69
416.713	539.69
416.936	540.69
417.159	543.69
417.382	542.69
417.605	545.69
417.828	525.69
418.051	569.69
418.274	555.69
418.497	522.69
418.72	540.69
418.943	551.69
419.166	574.69
419.389	591.69
419.611	589.69
419.834	571.69
420.057	572.69
420.28	571.69
420.503	556.69
420.726	561.69
420.948	583.69
421.171	634.69
421.394	643.69
421.617	571.69
421.839	566.69
422.062	563.69
422.285	556.69
422.507	643.69
422.73	695.69
422.953	669.69
423.175	614.69
423.398	574.69
423.621	590.69
423.843	604.69
424.066	599.69
424.288	592.69
424.511	631.69
424.733	675.69
424.956	729.69
425.178	686.69
425.401	729.69
425.623	744.69
425.846	633.69
426.068	595.69
426.291	587.69
426.513	562.69
426.735	588.69
426.958	649.69
427.18	721.69
427.402	842.69
427.625	919.69
427.847	781.69
428.069	683.69
428.292	619.69
428.514	603.69
428.736	571.69
428.958	541.69
429.181	544.69
429.403	534.69
429.625	562.69
429.847	599.69
430.069	668.69
430.292	667.69
430.514	539.69
430.736	546.69
430.958	549.69
431.18	523.69
431.402	515.69
431.624	515.69
431.846	492.69
432.068	513.69
432.29	531.69
432.512	524.69
432.734	525.69
432.956	525.69
433.178	509.69
433.4	529.69
433.622	532.69
433.844	519.69
434.066	501.69
434.287	522.69
434.509	545.69
434.731	535.69
434.953	553.69
435.175	571.69
435.397	586.69
435.618	590.69
435.84	636.69
436.062	694.69
436.284	759.69
436.505	641.69
436.727	590.69
436.949	552.69
437.17	543.69
437.392	522.69
437.614	541.69
437.835	581.69
438.057	665.69
438.278	767.69
438.5	759.69
438.721	837.69
438.943	821.69
439.165	621.69
439.386	581.69
439.608	575.69
439.829	582.69
440.05	606.69
440.272	628.69
440.493	614.69
440.715	583.69
440.936	589.69
441.158	551.69
441.379	554.69
441.6	561.69
441.822	595.69
442.043	646.69
442.264	715.69
442.486	745.69
442.707	642.69
442.928	588.69
443.149	587.69
443.371	647.69
443.592	683.69
443.813	761.69
444.034	828.69
444.255	680.69
444.476	617.69
444.698	583.69
444.919	622.69
445.14	716.69
445.361	667.69
445.582	653.69
445.803	704.69
446.024	746.69
446.245	787.69
446.466	726.69
446.687	634.69
446.908	593.69
447.129	563.69
447.35	557.69
447.571	540.69
447.792	533.69
448.013	519.69
448.234	541.69
448.455	588.69
448.675	700.69
448.896	819.69
449.117	714.69
449.338	673.69
449.559	762.69
449.779	888.69
450	699.69
450.221	569.69
450.442	549.69
450.662	535.69
450.883	507.69
451.104	525.69
451.324	525.69
451.545	513.69
451.766	503.69
451.986	507.69
452.207	521.69
452.428	472.69
452.648	497.69
452.869	468.69
453.089	485.69
453.31	482.69
453.53	475.69
453.751	477.69
453.971	477.69
454.192	485.69
454.412	455.69
454.633	479.69
454.853	476.69
455.073	472.69
455.294	503.69
455.514	582.69
455.734	555.69
455.955	473.69
456.175	453.69
456.395	459.69
456.616	452.69
456.836	437.69
457.056	462.69
457.276	450.69
457.497	449.69
457.717	476.69
457.937	465.69
458.157	487.69
458.377	461.69
458.598	472.69
458.818	551.69
459.038	601.69
459.258	619.69
459.478	561.69
459.698	539.69
459.918	514.69
460.138	514.69
460.358	529.69
460.578	508.69
460.798	517.69
461.018	545.69
461.238	555.69
461.458	549.69
461.678	543.69
461.898	541.69
462.118	534.69
462.338	556.69
462.558	558.69
462.777	572.69
462.997	595.69
463.217	605.69
463.437	633.69
463.657	607.69
463.876	595.69
464.096	612.69
464.316	578.69
464.536	592.69
464.755	611.69
464.975	591.69
465.195	587.69
465.414	657.69
465.634	582.69
465.854	543.69
466.073	521.69
466.293	538.69
466.512	496.69
466.732	498.69
466.951	525.69
467.171	497.69
467.391	489.69
467.61	486.69
467.829	505.69
468.049	504.69
468.268	497.69
468.488	490.69
468.707	477.69
468.927	480.69
469.146	476.69
469.365	483.69
469.585	480.69
469.804	501.69
470.023	533.69
470.243	507.69
470.462	517.69
470.681	541.69
470.901	509.69
471.12	510.69
471.339	496.69
471.558	508.69
471.777	490.69
471.997	475.69
472.216	503.69
472.435	513.69
472.654	525.69
472.873	490.69
473.092	504.69
473.311	507.69
473.53	513.69
473.749	533.69
473.968	537.69
474.187	621.69
474.406	655.69
474.625	547.69
474.844	521.69
475.063	496.69
475.282	499.69
475.501	509.69
475.72	513.69
475.939	512.69
476.158	515.69
476.377	530.69
476.596	500.69
476.814	512.69
477.033	522.69
477.252	525.69
477.471	529.69
477.69	522.69
477.908	548.69
478.127	588.69
478.346	550.69
478.564	539.69
478.783	554.69
479.002	584.69
479.22	601.69
479.439	604.69
479.658	611.69
479.876	595.69
480.095	615.69
480.313	616.69
480.532	633.69
480.751	599.69
480.969	609.69
481.188	655.69
481.406	682.69
481.624	617.69
481.843	604.69
482.061	600.69
482.28	581.69
482.498	581.69
482.717	577.69
482.935	592.69
483.153	577.69
483.372	595.69
483.59	608.69
483.808	568.69
484.027	585.69
484.245	571.69
484.463	563.69
484.681	589.69
484.9	589.69
485.118	595.69
485.336	604.69
485.554	612.69
485.772	606.69
485.99	612.69
486.209	603.69
486.427	598.69
486.645	589.69
486.863	604.69
487.081	616.69
487.299	625.69
487.517	620.69
487.735	623.69
487.953	610.69
488.171	597.69
488.389	618.69
488.607	620.69
488.825	633.69
489.043	657.69
489.261	598.69
489.479	635.69
489.696	625.69
489.914	652.69
490.132	637.69
490.35	667.69
490.568	650.69
490.786	659.69
491.003	682.69
491.221	701.69
491.439	668.69
491.657	701.69
491.874	692.69
492.092	713.69
492.31	714.69
492.527	720.69
492.745	733.69
492.963	706.69
493.18	716.69
493.398	734.69
493.615	741.69
493.833	742.69
494.05	707.69
494.268	717.69
494.485	718.69
494.703	712.69
494.92	756.69
495.138	724.69
495.355	736.69
495.573	716.69
495.79	715.69
496.008	717.69
496.225	754.69
496.442	746.69
496.66	757.69
496.877	731.69
497.094	750.69
497.312	741.69
497.529	754.69
497.746	785.69
497.963	783.69
498.181	840.69
498.398	842.69
498.615	846.69
498.832	875.69
499.049	870.69
499.267	905.69
499.484	945.69
499.701	986.69
499.918	1034.69
500.135	1085.69
500.352	1170.69
500.569	1194.69
500.786	1193.69
501.003	1160.69
501.22	1101.69
501.437	1045.69
501.654	1018.69
