Data from 1976.PennyLincolnUp.Lamp.En5.5.200Scan.071719.P1.Changed Mount._HRD10591_16-01-15-861.txt Node
Date: Thu Jul 18 16:01:15 EDT 2019
User: cochatt
Spectrometer: HR+D1059
Trigger mode: 1
Integration Time (sec): 1.000000E-1
Scans to average: 1
Electric dark correction enabled: true
Nonlinearity correction enabled: false
Boxcar width: 0
XAxis mode: Wavelengths
Number of Pixels in Spectrum: 2048
>>>>>Begin Spectral Data<<<<<
223.165	-24.56
223.4	-24.56
223.635	-24.56
223.869	-9.56
224.104	-3.56
224.338	-10.56
224.573	-8.56
224.808	-10.56
225.042	-15.56
225.277	-10.56
225.511	-7.56
225.746	-4.56
225.98	8.44
226.215	4.44
226.449	9.44
226.683	29.44
226.918	16.44
227.152	37.44
227.387	39.44
227.621	47.44
227.856	35.44
228.09	48.44
228.324	42.44
228.559	54.44
228.793	62.44
229.027	88.44
229.262	95.44
229.496	118.44
229.73	142.44
229.964	158.44
230.199	122.44
230.433	108.44
230.667	129.44
230.901	116.44
231.136	106.44
231.37	121.44
231.604	126.44
231.838	99.44
232.072	118.44
232.306	126.44
232.541	118.44
232.775	119.44
233.009	125.44
233.243	104.44
233.477	104.44
233.711	117.44
233.945	126.44
234.179	111.44
234.413	122.44
234.647	119.44
234.881	122.44
235.115	120.44
235.349	120.44
235.583	127.44
235.817	120.44
236.051	136.44
236.285	134.44
236.519	135.44
236.753	142.44
236.987	140.44
237.221	175.44
237.455	234.44
237.689	170.44
237.922	139.44
238.156	143.44
238.39	139.44
238.624	129.44
238.858	136.44
239.091	139.44
239.325	131.44
239.559	128.44
239.793	136.44
240.027	130.44
240.26	156.44
240.494	162.44
240.728	149.44
240.961	156.44
241.195	154.44
241.429	159.44
241.662	136.44
241.896	144.44
242.13	141.44
242.363	141.44
242.597	153.44
242.83	156.44
243.064	148.44
243.298	139.44
243.531	147.44
243.765	146.44
243.998	137.44
244.232	150.44
244.465	154.44
244.699	153.44
244.932	151.44
245.166	154.44
245.399	157.44
245.633	155.44
245.866	162.44
246.099	158.44
246.333	160.44
246.566	158.44
246.8	156.44
247.033	160.44
247.266	153.44
247.5	174.44
247.733	186.44
247.966	162.44
248.2	182.44
248.433	173.44
248.666	186.44
248.899	188.44
249.133	204.44
249.366	206.44
249.599	208.44
249.832	194.44
250.066	196.44
250.299	201.44
250.532	187.44
250.765	202.44
250.998	228.44
251.231	217.44
251.465	220.44
251.698	226.44
251.931	197.44
252.164	196.44
252.397	208.44
252.63	213.44
252.863	212.44
253.096	241.44
253.329	228.44
253.562	230.44
253.795	221.44
254.028	214.44
254.261	235.44
254.494	218.44
254.727	270.44
254.96	272.44
255.193	261.44
255.426	256.44
255.659	228.44
255.892	247.44
256.124	258.44
256.357	230.44
256.59	232.44
256.823	237.44
257.056	220.44
257.289	205.44
257.521	213.44
257.754	203.44
257.987	196.44
258.22	211.44
258.452	216.44
258.685	214.44
258.918	209.44
259.151	232.44
259.383	233.44
259.616	246.44
259.849	240.44
260.081	245.44
260.314	264.44
260.547	268.44
260.779	268.44
261.012	247.44
261.244	253.44
261.477	255.44
261.71	214.44
261.942	236.44
262.175	255.44
262.407	258.44
262.64	235.44
262.872	246.44
263.105	229.44
263.337	231.44
263.57	227.44
263.802	223.44
264.035	211.44
264.267	218.44
264.499	214.44
264.732	223.44
264.964	232.44
265.197	222.44
265.429	227.44
265.661	233.44
265.894	229.44
266.126	240.44
266.358	235.44
266.591	245.44
266.823	229.44
267.055	247.44
267.287	262.44
267.52	234.44
267.752	238.44
267.984	246.44
268.216	239.44
268.448	234.44
268.681	227.44
268.913	255.44
269.145	266.44
269.377	266.44
269.609	290.44
269.841	276.44
270.073	287.44
270.306	298.44
270.538	316.44
270.77	331.44
271.002	318.44
271.234	304.44
271.466	296.44
271.698	342.44
271.93	346.44
272.162	315.44
272.394	336.44
272.626	326.44
272.858	296.44
273.09	289.44
273.322	291.44
273.553	294.44
273.785	295.44
274.017	299.44
274.249	290.44
274.481	274.44
274.713	269.44
274.945	273.44
275.176	282.44
275.408	282.44
275.64	286.44
275.872	260.44
276.104	291.44
276.335	276.44
276.567	275.44
276.799	287.44
277.031	319.44
277.262	330.44
277.494	343.44
277.726	323.44
277.957	303.44
278.189	306.44
278.421	299.44
278.652	306.44
278.884	307.44
279.115	288.44
279.347	292.44
279.579	288.44
279.81	288.44
280.042	300.44
280.273	286.44
280.505	287.44
280.736	299.44
280.968	283.44
281.199	287.44
281.431	295.44
281.662	302.44
281.894	290.44
282.125	303.44
282.356	326.44
282.588	308.44
282.819	308.44
283.051	305.44
283.282	278.44
283.513	311.44
283.745	301.44
283.976	297.44
284.207	304.44
284.439	318.44
284.67	298.44
284.901	303.44
285.132	309.44
285.364	312.44
285.595	309.44
285.826	315.44
286.057	303.44
286.288	307.44
286.52	318.44
286.751	301.44
286.982	305.44
287.213	310.44
287.444	296.44
287.675	299.44
287.906	313.44
288.138	329.44
288.369	332.44
288.6	326.44
288.831	323.44
289.062	320.44
289.293	317.44
289.524	335.44
289.755	317.44
289.986	307.44
290.217	317.44
290.448	298.44
290.679	332.44
290.91	324.44
291.141	325.44
291.371	328.44
291.602	320.44
291.833	317.44
292.064	306.44
292.295	316.44
292.526	325.44
292.757	322.44
292.987	325.44
293.218	315.44
293.449	319.44
293.68	319.44
293.91	320.44
294.141	309.44
294.372	318.44
294.603	308.44
294.833	314.44
295.064	306.44
295.295	334.44
295.525	324.44
295.756	331.44
295.987	350.44
296.217	349.44
296.448	366.44
296.679	343.44
296.909	337.44
297.14	328.44
297.37	317.44
297.601	337.44
297.831	320.44
298.062	347.44
298.292	341.44
298.523	336.44
298.753	323.44
298.984	335.44
299.214	341.44
299.445	325.44
299.675	348.44
299.905	340.44
300.136	342.44
300.366	350.44
300.597	322.44
300.827	339.44
301.057	353.44
301.288	376.44
301.518	357.44
301.748	356.44
301.979	371.44
302.209	349.44
302.439	370.44
302.669	336.44
302.9	368.44
303.13	348.44
303.36	351.44
303.59	361.44
303.82	358.44
304.051	340.44
304.281	354.44
304.511	362.44
304.741	359.44
304.971	365.44
305.201	361.44
305.431	343.44
305.661	367.44
305.891	350.44
306.121	354.44
306.352	355.44
306.582	358.44
306.812	366.44
307.042	351.44
307.272	380.44
307.502	364.44
307.731	363.44
307.961	357.44
308.191	364.44
308.421	367.44
308.651	378.44
308.881	356.44
309.111	362.44
309.341	380.44
309.571	380.44
309.8	391.44
310.03	395.44
310.26	379.44
310.49	373.44
310.72	395.44
310.949	394.44
311.179	423.44
311.409	392.44
311.639	384.44
311.868	398.44
312.098	396.44
312.328	414.44
312.557	396.44
312.787	427.44
313.017	433.44
313.246	418.44
313.476	384.44
313.706	394.44
313.935	403.44
314.165	410.44
314.394	430.44
314.624	412.44
314.853	393.44
315.083	405.44
315.312	400.44
315.542	408.44
315.771	382.44
316.001	394.44
316.23	380.44
316.46	405.44
316.689	392.44
316.919	389.44
317.148	387.44
317.377	432.44
317.607	400.44
317.836	421.44
318.065	394.44
318.295	394.44
318.524	386.44
318.753	401.44
318.983	398.44
319.212	398.44
319.441	429.44
319.67	400.44
319.9	436.44
320.129	413.44
320.358	416.44
320.587	420.44
320.816	414.44
321.046	422.44
321.275	413.44
321.504	423.44
321.733	455.44
321.962	429.44
322.191	434.44
322.42	442.44
322.649	456.44
322.878	476.44
323.108	475.44
323.337	480.44
323.566	479.44
323.795	517.44
324.024	543.44
324.253	630.44
324.482	882.44
324.71	1370.44
324.939	1964.44
325.168	1709.44
325.397	886.44
325.626	604.44
325.855	522.44
326.084	487.44
326.313	516.44
326.542	527.44
326.77	520.44
326.999	616.44
327.228	828.44
327.457	1234.44
327.686	1488.44
327.914	1007.44
328.143	679.44
328.372	618.44
328.6	563.44
328.829	573.44
329.058	570.44
329.287	567.44
329.515	534.44
329.744	528.44
329.972	498.44
330.201	528.44
330.43	571.44
330.658	580.44
330.887	616.44
331.115	606.44
331.344	551.44
331.572	525.44
331.801	482.44
332.03	505.44
332.258	498.44
332.486	495.44
332.715	495.44
332.943	485.44
333.172	484.44
333.4	506.44
333.629	506.44
333.857	501.44
334.085	539.44
334.314	556.44
334.542	560.44
334.771	598.44
334.999	536.44
335.227	483.44
335.455	501.44
335.684	515.44
335.912	489.44
336.14	487.44
336.369	452.44
336.597	482.44
336.825	502.44
337.053	484.44
337.281	482.44
337.51	478.44
337.738	474.44
337.966	450.44
338.194	484.44
338.422	481.44
338.65	463.44
338.878	470.44
339.106	435.44
339.334	456.44
339.562	451.44
339.79	465.44
340.018	454.44
340.246	474.44
340.474	475.44
340.702	467.44
340.93	468.44
341.158	460.44
341.386	460.44
341.614	454.44
341.842	466.44
342.07	462.44
342.298	469.44
342.526	437.44
342.754	443.44
342.981	428.44
343.209	438.44
343.437	449.44
343.665	471.44
343.893	470.44
344.12	486.44
344.348	467.44
344.576	491.44
344.804	491.44
345.031	461.44
345.259	471.44
345.487	467.44
345.714	445.44
345.942	455.44
346.17	463.44
346.397	441.44
346.625	437.44
346.853	466.44
347.08	443.44
347.308	445.44
347.535	447.44
347.763	460.44
347.99	441.44
348.218	439.44
348.445	451.44
348.673	461.44
348.9	428.44
349.128	444.44
349.355	443.44
349.583	418.44
349.81	428.44
350.037	422.44
350.265	428.44
350.492	409.44
350.72	415.44
350.947	430.44
351.174	423.44
351.402	457.44
351.629	456.44
351.856	436.44
352.083	452.44
352.311	443.44
352.538	450.44
352.765	460.44
352.992	450.44
353.22	442.44
353.447	431.44
353.674	412.44
353.901	425.44
354.128	434.44
354.355	408.44
354.583	405.44
354.81	423.44
355.037	426.44
355.264	420.44
355.491	416.44
355.718	423.44
355.945	419.44
356.172	409.44
356.399	420.44
356.626	434.44
356.853	424.44
357.08	404.44
357.307	406.44
357.534	398.44
357.761	418.44
357.988	415.44
358.215	439.44
358.441	414.44
358.668	408.44
358.895	424.44
359.122	433.44
359.349	410.44
359.576	432.44
359.802	455.44
360.029	450.44
360.256	468.44
360.483	463.44
360.709	457.44
360.936	454.44
361.163	459.44
361.39	434.44
361.616	444.44
361.843	439.44
362.07	459.44
362.296	428.44
362.523	429.44
362.749	434.44
362.976	456.44
363.203	429.44
363.429	448.44
363.656	429.44
363.882	404.44
364.109	431.44
364.335	434.44
364.562	406.44
364.788	424.44
365.015	435.44
365.241	415.44
365.468	440.44
365.694	427.44
365.92	431.44
366.147	429.44
366.373	435.44
366.599	438.44
366.826	421.44
367.052	420.44
367.278	439.44
367.505	421.44
367.731	425.44
367.957	413.44
368.184	411.44
368.41	456.44
368.636	407.44
368.862	423.44
369.089	444.44
369.315	420.44
369.541	436.44
369.767	427.44
369.993	419.44
370.219	423.44
370.445	443.44
370.672	454.44
370.898	425.44
371.124	456.44
371.35	452.44
371.576	431.44
371.802	424.44
372.028	440.44
372.254	422.44
372.48	411.44
372.706	434.44
372.932	439.44
373.158	443.44
373.384	439.44
373.61	431.44
373.835	426.44
374.061	428.44
374.287	430.44
374.513	438.44
374.739	444.44
374.965	449.44
375.191	459.44
375.416	451.44
375.642	456.44
375.868	456.44
376.094	451.44
376.319	401.44
376.545	424.44
376.771	419.44
376.997	426.44
377.222	436.44
377.448	440.44
377.674	428.44
377.899	426.44
378.125	428.44
378.35	427.44
378.576	426.44
378.802	432.44
379.027	439.44
379.253	444.44
379.478	418.44
379.704	419.44
379.929	435.44
380.155	422.44
380.38	420.44
380.606	440.44
380.831	424.44
381.057	421.44
381.282	414.44
381.507	408.44
381.733	416.44
381.958	442.44
382.184	441.44
382.409	428.44
382.634	436.44
382.86	429.44
383.085	442.44
383.31	440.44
383.535	464.44
383.761	450.44
383.986	451.44
384.211	479.44
384.436	463.44
384.662	471.44
384.887	473.44
385.112	462.44
385.337	463.44
385.562	470.44
385.787	466.44
386.013	470.44
386.238	473.44
386.463	474.44
386.688	479.44
386.913	493.44
387.138	470.44
387.363	479.44
387.588	468.44
387.813	476.44
388.038	493.44
388.263	470.44
388.488	451.44
388.713	474.44
388.938	474.44
389.163	465.44
389.387	490.44
389.612	460.44
389.837	480.44
390.062	477.44
390.287	492.44
390.512	460.44
390.736	458.44
390.961	483.44
391.186	477.44
391.411	490.44
391.636	475.44
391.86	486.44
392.085	515.44
392.31	515.44
392.534	474.44
392.759	486.44
392.984	490.44
393.208	486.44
393.433	511.44
393.658	474.44
393.882	479.44
394.107	472.44
394.331	474.44
394.556	470.44
394.78	514.44
395.005	484.44
395.229	507.44
395.454	506.44
395.678	533.44
395.903	504.44
396.127	519.44
396.352	524.44
396.576	506.44
396.801	493.44
397.025	505.44
397.249	515.44
397.474	500.44
397.698	501.44
397.922	525.44
398.147	539.44
398.371	562.44
398.595	512.44
398.82	529.44
399.044	549.44
399.268	605.44
399.492	626.44
399.717	692.44
399.941	698.44
400.165	719.44
400.389	702.44
400.613	623.44
400.837	604.44
401.062	586.44
401.286	571.44
401.51	564.44
401.734	567.44
401.958	550.44
402.182	563.44
402.406	582.44
402.63	575.44
402.854	574.44
403.078	586.44
403.302	584.44
403.526	616.44
403.75	591.44
403.974	564.44
404.198	591.44
404.422	590.44
404.645	586.44
404.869	583.44
405.093	643.44
405.317	671.44
405.541	717.44
405.765	651.44
405.988	617.44
406.212	618.44
406.436	618.44
406.66	639.44
406.883	624.44
407.107	652.44
407.331	703.44
407.555	772.44
407.778	765.44
408.002	702.44
408.226	658.44
408.449	653.44
408.673	628.44
408.896	662.44
409.12	716.44
409.344	673.44
409.567	642.44
409.791	603.44
410.014	550.44
410.238	581.44
410.461	586.44
410.685	581.44
410.908	595.44
411.132	623.44
411.355	647.44
411.578	629.44
411.802	588.44
412.025	574.44
412.249	590.44
412.472	632.44
412.695	652.44
412.919	631.44
413.142	584.44
413.365	564.44
413.589	578.44
413.812	550.44
414.035	534.44
414.258	520.44
414.482	548.44
414.705	534.44
414.928	549.44
415.151	550.44
415.374	543.44
415.597	542.44
415.821	547.44
416.044	535.44
416.267	530.44
416.49	523.44
416.713	542.44
416.936	542.44
417.159	537.44
417.382	544.44
417.605	558.44
417.828	540.44
418.051	575.44
418.274	551.44
418.497	566.44
418.72	554.44
418.943	537.44
419.166	586.44
419.389	589.44
419.611	586.44
419.834	568.44
420.057	598.44
420.28	574.44
420.503	573.44
420.726	578.44
420.948	584.44
421.171	611.44
421.394	668.44
421.617	585.44
421.839	577.44
422.062	570.44
422.285	580.44
422.507	639.44
422.73	713.44
422.953	700.44
423.175	640.44
423.398	607.44
423.621	609.44
423.843	604.44
424.066	611.44
424.288	628.44
424.511	631.44
424.733	655.44
424.956	746.44
425.178	759.44
425.401	708.44
425.623	754.44
425.846	656.44
426.068	611.44
426.291	591.44
426.513	593.44
426.735	604.44
426.958	659.44
427.18	723.44
427.402	877.44
427.625	913.44
427.847	804.44
428.069	708.44
428.292	650.44
428.514	605.44
428.736	566.44
428.958	576.44
429.181	551.44
429.403	538.44
429.625	546.44
429.847	566.44
430.069	678.44
430.292	674.44
430.514	565.44
430.736	541.44
430.958	538.44
431.18	548.44
431.402	543.44
431.624	511.44
431.846	522.44
432.068	511.44
432.29	543.44
432.512	520.44
432.734	533.44
432.956	527.44
433.178	549.44
433.4	522.44
433.622	538.44
433.844	530.44
434.066	514.44
434.287	536.44
434.509	543.44
434.731	563.44
434.953	557.44
435.175	581.44
435.397	594.44
435.618	595.44
435.84	615.44
436.062	728.44
436.284	802.44
436.505	683.44
436.727	587.44
436.949	566.44
437.17	552.44
437.392	549.44
437.614	556.44
437.835	618.44
438.057	666.44
438.278	774.44
438.5	801.44
438.721	853.44
438.943	835.44
439.165	664.44
439.386	600.44
439.608	599.44
439.829	590.44
440.05	612.44
440.272	636.44
440.493	632.44
440.715	582.44
440.936	585.44
441.158	580.44
441.379	565.44
441.6	560.44
441.822	584.44
442.043	659.44
442.264	729.44
442.486	751.44
442.707	667.44
442.928	627.44
443.149	600.44
443.371	614.44
443.592	680.44
443.813	783.44
444.034	834.44
444.255	710.44
444.476	649.44
444.698	623.44
444.919	633.44
445.14	739.44
445.361	665.44
445.582	654.44
445.803	705.44
446.024	810.44
446.245	830.44
446.466	744.44
446.687	655.44
446.908	583.44
447.129	567.44
447.35	555.44
447.571	565.44
447.792	551.44
448.013	550.44
448.234	569.44
448.455	602.44
448.675	706.44
448.896	866.44
449.117	720.44
449.338	678.44
449.559	779.44
449.779	867.44
450	704.44
450.221	578.44
450.442	552.44
450.662	545.44
450.883	537.44
451.104	566.44
451.324	532.44
451.545	530.44
451.766	517.44
451.986	506.44
452.207	463.44
452.428	506.44
452.648	507.44
452.869	484.44
453.089	492.44
453.31	538.44
453.53	507.44
453.751	491.44
453.971	495.44
454.192	486.44
454.412	500.44
454.633	482.44
454.853	486.44
455.073	487.44
455.294	498.44
455.514	565.44
455.734	573.44
455.955	478.44
456.175	462.44
456.395	469.44
456.616	451.44
456.836	462.44
457.056	457.44
457.276	436.44
457.497	470.44
457.717	470.44
457.937	499.44
458.157	470.44
458.377	478.44
458.598	459.44
458.818	540.44
459.038	610.44
459.258	640.44
459.478	562.44
459.698	536.44
459.918	526.44
460.138	521.44
460.358	555.44
460.578	559.44
460.798	557.44
461.018	556.44
461.238	538.44
461.458	534.44
461.678	556.44
461.898	566.44
462.118	548.44
462.338	564.44
462.558	586.44
462.777	584.44
462.997	596.44
463.217	620.44
463.437	636.44
463.657	604.44
463.876	594.44
464.096	615.44
464.316	592.44
464.536	598.44
464.755	593.44
464.975	576.44
465.195	590.44
465.414	641.44
465.634	580.44
465.854	564.44
466.073	532.44
466.293	538.44
466.512	523.44
466.732	523.44
466.951	495.44
467.171	498.44
467.391	513.44
467.61	528.44
467.829	521.44
468.049	508.44
468.268	486.44
468.488	478.44
468.707	472.44
468.927	488.44
469.146	478.44
469.365	474.44
469.585	476.44
469.804	510.44
470.023	525.44
470.243	500.44
470.462	518.44
470.681	535.44
470.901	512.44
471.12	496.44
471.339	507.44
471.558	519.44
471.777	523.44
471.997	501.44
472.216	522.44
472.435	521.44
472.654	525.44
472.873	504.44
473.092	513.44
473.311	498.44
473.53	519.44
473.749	523.44
473.968	566.44
474.187	619.44
474.406	676.44
474.625	566.44
474.844	536.44
475.063	498.44
475.282	492.44
475.501	519.44
475.72	501.44
475.939	509.44
476.158	515.44
476.377	508.44
476.596	514.44
476.814	543.44
477.033	513.44
477.252	516.44
477.471	523.44
477.69	564.44
477.908	560.44
478.127	559.44
478.346	556.44
478.564	568.44
478.783	566.44
479.002	550.44
479.22	601.44
479.439	591.44
479.658	599.44
479.876	602.44
480.095	632.44
480.313	658.44
480.532	631.44
480.751	609.44
480.969	629.44
481.188	665.44
481.406	687.44
481.624	633.44
481.843	635.44
482.061	627.44
482.28	596.44
482.498	576.44
482.717	605.44
482.935	586.44
483.153	579.44
483.372	612.44
483.59	564.44
483.808	584.44
484.027	598.44
484.245	600.44
484.463	605.44
484.681	587.44
484.9	591.44
485.118	600.44
485.336	614.44
485.554	603.44
485.772	604.44
485.99	612.44
486.209	628.44
486.427	583.44
486.645	638.44
486.863	630.44
487.081	632.44
487.299	641.44
487.517	644.44
487.735	648.44
487.953	639.44
488.171	649.44
488.389	630.44
488.607	623.44
488.825	628.44
489.043	622.44
489.261	606.44
489.479	643.44
489.696	666.44
489.914	631.44
490.132	653.44
490.35	659.44
490.568	662.44
490.786	656.44
491.003	706.44
491.221	698.44
491.439	699.44
491.657	685.44
491.874	708.44
492.092	743.44
492.31	721.44
492.527	702.44
492.745	726.44
492.963	712.44
493.18	731.44
493.398	738.44
493.615	721.44
493.833	732.44
494.05	735.44
494.268	754.44
494.485	741.44
494.703	740.44
494.92	773.44
495.138	759.44
495.355	730.44
495.573	750.44
495.79	751.44
496.008	765.44
496.225	743.44
496.442	741.44
496.66	757.44
496.877	764.44
497.094	747.44
497.312	742.44
497.529	774.44
497.746	806.44
497.963	806.44
498.181	828.44
498.398	836.44
498.615	874.44
498.832	873.44
499.049	905.44
499.267	940.44
499.484	982.44
499.701	996.44
499.918	1036.44
500.135	1116.44
500.352	1177.44
500.569	1219.44
500.786	1227.44
501.003	1189.44
501.22	1156.44
501.437	1097.44
501.654	1013.44
