Data from 1976.PennyLincolnUp.Lamp.En5.5.200Scan.071719.P1.Changed Mount._HRD10591_16-01-44-861.txt Node
Date: Thu Jul 18 16:01:44 EDT 2019
User: cochatt
Spectrometer: HR+D1059
Trigger mode: 1
Integration Time (sec): 1.000000E-1
Scans to average: 1
Electric dark correction enabled: true
Nonlinearity correction enabled: false
Boxcar width: 0
XAxis mode: Wavelengths
Number of Pixels in Spectrum: 2048
>>>>>Begin Spectral Data<<<<<
223.165	-7.38
223.4	-7.38
223.635	-7.38
223.869	-18.38
224.104	-24.38
224.338	-12.38
224.573	-14.38
224.808	-16.38
225.042	-11.38
225.277	-13.38
225.511	-12.38
225.746	8.62
225.98	18.62
226.215	10.62
226.449	8.62
226.683	23.62
226.918	27.62
227.152	32.62
227.387	35.62
227.621	24.62
227.856	38.62
228.09	42.62
228.324	48.62
228.559	69.62
228.793	55.62
229.027	102.62
229.262	95.62
229.496	105.62
229.73	124.62
229.964	155.62
230.199	111.62
230.433	117.62
230.667	123.62
230.901	118.62
231.136	106.62
231.37	114.62
231.604	101.62
231.838	124.62
232.072	111.62
232.306	115.62
232.541	111.62
232.775	113.62
233.009	118.62
233.243	117.62
233.477	119.62
233.711	127.62
233.945	123.62
234.179	108.62
234.413	105.62
234.647	122.62
234.881	113.62
235.115	120.62
235.349	123.62
235.583	113.62
235.817	133.62
236.051	125.62
236.285	134.62
236.519	137.62
236.753	138.62
236.987	127.62
237.221	165.62
237.455	224.62
237.689	172.62
237.922	131.62
238.156	131.62
238.39	128.62
238.624	120.62
238.858	121.62
239.091	139.62
239.325	125.62
239.559	140.62
239.793	119.62
240.027	142.62
240.26	154.62
240.494	161.62
240.728	147.62
240.961	139.62
241.195	165.62
241.429	133.62
241.662	122.62
241.896	131.62
242.13	135.62
242.363	141.62
242.597	152.62
242.83	149.62
243.064	148.62
243.298	145.62
243.531	130.62
243.765	149.62
243.998	147.62
244.232	158.62
244.465	165.62
244.699	151.62
244.932	156.62
245.166	157.62
245.399	143.62
245.633	151.62
245.866	134.62
246.099	143.62
246.333	155.62
246.566	152.62
246.8	141.62
247.033	156.62
247.266	168.62
247.5	161.62
247.733	162.62
247.966	166.62
248.2	181.62
248.433	193.62
248.666	183.62
248.899	179.62
249.133	200.62
249.366	209.62
249.599	197.62
249.832	199.62
250.066	194.62
250.299	185.62
250.532	190.62
250.765	219.62
250.998	222.62
251.231	241.62
251.465	221.62
251.698	208.62
251.931	223.62
252.164	198.62
252.397	208.62
252.63	199.62
252.863	212.62
253.096	213.62
253.329	247.62
253.562	211.62
253.795	242.62
254.028	225.62
254.261	228.62
254.494	239.62
254.727	259.62
254.96	284.62
255.193	271.62
255.426	263.62
255.659	226.62
255.892	228.62
256.124	229.62
256.357	247.62
256.59	230.62
256.823	205.62
257.056	217.62
257.289	228.62
257.521	217.62
257.754	212.62
257.987	216.62
258.22	221.62
258.452	220.62
258.685	221.62
258.918	240.62
259.151	222.62
259.383	224.62
259.616	245.62
259.849	246.62
260.081	235.62
260.314	252.62
260.547	279.62
260.779	243.62
261.012	245.62
261.244	243.62
261.477	233.62
261.71	226.62
261.942	224.62
262.175	235.62
262.407	231.62
262.64	210.62
262.872	219.62
263.105	232.62
263.337	220.62
263.57	226.62
263.802	224.62
264.035	223.62
264.267	226.62
264.499	236.62
264.732	229.62
264.964	218.62
265.197	216.62
265.429	230.62
265.661	229.62
265.894	234.62
266.126	227.62
266.358	226.62
266.591	213.62
266.823	221.62
267.055	234.62
267.287	253.62
267.52	236.62
267.752	226.62
267.984	239.62
268.216	265.62
268.448	262.62
268.681	265.62
268.913	251.62
269.145	284.62
269.377	317.62
269.609	286.62
269.841	263.62
270.073	284.62
270.306	295.62
270.538	327.62
270.77	335.62
271.002	323.62
271.234	297.62
271.466	320.62
271.698	323.62
271.93	341.62
272.162	323.62
272.394	356.62
272.626	315.62
272.858	307.62
273.09	308.62
273.322	307.62
273.553	280.62
273.785	296.62
274.017	281.62
274.249	302.62
274.481	272.62
274.713	281.62
274.945	282.62
275.176	297.62
275.408	261.62
275.64	294.62
275.872	275.62
276.104	271.62
276.335	283.62
276.567	273.62
276.799	296.62
277.031	325.62
277.262	315.62
277.494	323.62
277.726	317.62
277.957	332.62
278.189	298.62
278.421	288.62
278.652	305.62
278.884	298.62
279.115	285.62
279.347	266.62
279.579	266.62
279.81	284.62
280.042	282.62
280.273	289.62
280.505	296.62
280.736	290.62
280.968	284.62
281.199	305.62
281.431	302.62
281.662	308.62
281.894	306.62
282.125	307.62
282.356	306.62
282.588	329.62
282.819	327.62
283.051	290.62
283.282	303.62
283.513	295.62
283.745	304.62
283.976	321.62
284.207	300.62
284.439	305.62
284.67	309.62
284.901	307.62
285.132	314.62
285.364	306.62
285.595	310.62
285.826	299.62
286.057	307.62
286.288	293.62
286.52	331.62
286.751	320.62
286.982	300.62
287.213	315.62
287.444	313.62
287.675	316.62
287.906	301.62
288.138	323.62
288.369	321.62
288.6	323.62
288.831	314.62
289.062	319.62
289.293	335.62
289.524	316.62
289.755	325.62
289.986	312.62
290.217	300.62
290.448	329.62
290.679	332.62
290.91	317.62
291.141	315.62
291.371	304.62
291.602	327.62
291.833	329.62
292.064	316.62
292.295	328.62
292.526	327.62
292.757	315.62
292.987	307.62
293.218	325.62
293.449	310.62
293.68	329.62
293.91	313.62
294.141	329.62
294.372	319.62
294.603	317.62
294.833	329.62
295.064	343.62
295.295	329.62
295.525	325.62
295.756	332.62
295.987	338.62
296.217	359.62
296.448	359.62
296.679	341.62
296.909	320.62
297.14	347.62
297.37	311.62
297.601	322.62
297.831	330.62
298.062	344.62
298.292	323.62
298.523	346.62
298.753	347.62
298.984	338.62
299.214	345.62
299.445	339.62
299.675	337.62
299.905	346.62
300.136	332.62
300.366	350.62
300.597	346.62
300.827	350.62
301.057	360.62
301.288	369.62
301.518	369.62
301.748	347.62
301.979	369.62
302.209	363.62
302.439	379.62
302.669	360.62
302.9	339.62
303.13	375.62
303.36	372.62
303.59	367.62
303.82	381.62
304.051	385.62
304.281	363.62
304.511	367.62
304.741	354.62
304.971	351.62
305.201	361.62
305.431	368.62
305.661	346.62
305.891	360.62
306.121	352.62
306.352	367.62
306.582	351.62
306.812	356.62
307.042	376.62
307.272	376.62
307.502	371.62
307.731	381.62
307.961	378.62
308.191	368.62
308.421	367.62
308.651	344.62
308.881	354.62
309.111	378.62
309.341	374.62
309.571	353.62
309.8	393.62
310.03	391.62
310.26	410.62
310.49	409.62
310.72	410.62
310.949	422.62
311.179	407.62
311.409	413.62
311.639	393.62
311.868	412.62
312.098	420.62
312.328	414.62
312.557	417.62
312.787	419.62
313.017	426.62
313.246	408.62
313.476	411.62
313.706	405.62
313.935	420.62
314.165	401.62
314.394	417.62
314.624	423.62
314.853	429.62
315.083	405.62
315.312	394.62
315.542	408.62
315.771	396.62
316.001	377.62
316.23	424.62
316.46	399.62
316.689	423.62
316.919	416.62
317.148	428.62
317.377	423.62
317.607	417.62
317.836	421.62
318.065	402.62
318.295	423.62
318.524	396.62
318.753	394.62
318.983	424.62
319.212	393.62
319.441	400.62
319.67	417.62
319.9	428.62
320.129	417.62
320.358	401.62
320.587	390.62
320.816	393.62
321.046	440.62
321.275	430.62
321.504	425.62
321.733	428.62
321.962	448.62
322.191	435.62
322.42	460.62
322.649	461.62
322.878	469.62
323.108	443.62
323.337	508.62
323.566	510.62
323.795	517.62
324.024	553.62
324.253	646.62
324.482	917.62
324.71	1409.62
324.939	2068.62
325.168	1784.62
325.397	901.62
325.626	621.62
325.855	550.62
326.084	497.62
326.313	510.62
326.542	506.62
326.77	588.62
326.999	638.62
327.228	839.62
327.457	1273.62
327.686	1587.62
327.914	1063.62
328.143	676.62
328.372	583.62
328.6	588.62
328.829	540.62
329.058	577.62
329.287	572.62
329.515	561.62
329.744	533.62
329.972	522.62
330.201	549.62
330.43	577.62
330.658	592.62
330.887	615.62
331.115	603.62
331.344	532.62
331.572	524.62
331.801	535.62
332.03	523.62
332.258	522.62
332.486	478.62
332.715	488.62
332.943	494.62
333.172	483.62
333.4	513.62
333.629	529.62
333.857	531.62
334.085	537.62
334.314	549.62
334.542	575.62
334.771	593.62
334.999	553.62
335.227	515.62
335.455	495.62
335.684	503.62
335.912	498.62
336.14	492.62
336.369	495.62
336.597	485.62
336.825	495.62
337.053	499.62
337.281	482.62
337.51	497.62
337.738	471.62
337.966	476.62
338.194	493.62
338.422	489.62
338.65	487.62
338.878	444.62
339.106	448.62
339.334	455.62
339.562	467.62
339.79	461.62
340.018	452.62
340.246	451.62
340.474	493.62
340.702	469.62
340.93	464.62
341.158	455.62
341.386	493.62
341.614	457.62
341.842	469.62
342.07	440.62
342.298	464.62
342.526	452.62
342.754	448.62
342.981	431.62
343.209	446.62
343.437	472.62
343.665	482.62
343.893	479.62
344.12	511.62
344.348	488.62
344.576	482.62
344.804	492.62
345.031	474.62
345.259	466.62
345.487	466.62
345.714	451.62
345.942	431.62
346.17	467.62
346.397	454.62
346.625	437.62
346.853	440.62
347.08	448.62
347.308	445.62
347.535	456.62
347.763	452.62
347.99	426.62
348.218	449.62
348.445	450.62
348.673	434.62
348.9	457.62
349.128	426.62
349.355	421.62
349.583	441.62
349.81	437.62
350.037	437.62
350.265	447.62
350.492	443.62
350.72	437.62
350.947	450.62
351.174	440.62
351.402	461.62
351.629	431.62
351.856	444.62
352.083	445.62
352.311	443.62
352.538	448.62
352.765	447.62
352.992	442.62
353.22	447.62
353.447	425.62
353.674	455.62
353.901	422.62
354.128	421.62
354.355	422.62
354.583	420.62
354.81	435.62
355.037	419.62
355.264	448.62
355.491	415.62
355.718	433.62
355.945	396.62
356.172	410.62
356.399	419.62
356.626	441.62
356.853	425.62
357.08	412.62
357.307	425.62
357.534	403.62
357.761	396.62
357.988	434.62
358.215	408.62
358.441	416.62
358.668	414.62
358.895	407.62
359.122	427.62
359.349	422.62
359.576	434.62
359.802	464.62
360.029	481.62
360.256	502.62
360.483	476.62
360.709	435.62
360.936	443.62
361.163	443.62
361.39	457.62
361.616	444.62
361.843	426.62
362.07	419.62
362.296	455.62
362.523	452.62
362.749	437.62
362.976	409.62
363.203	430.62
363.429	421.62
363.656	421.62
363.882	417.62
364.109	425.62
364.335	412.62
364.562	426.62
364.788	421.62
365.015	427.62
365.241	446.62
365.468	435.62
365.694	413.62
365.92	441.62
366.147	419.62
366.373	420.62
366.599	431.62
366.826	411.62
367.052	432.62
367.278	429.62
367.505	417.62
367.731	428.62
367.957	417.62
368.184	425.62
368.41	422.62
368.636	428.62
368.862	432.62
369.089	440.62
369.315	411.62
369.541	409.62
369.767	428.62
369.993	417.62
370.219	418.62
370.445	425.62
370.672	432.62
370.898	429.62
371.124	424.62
371.35	440.62
371.576	437.62
371.802	460.62
372.028	423.62
372.254	416.62
372.48	433.62
372.706	443.62
372.932	466.62
373.158	433.62
373.384	436.62
373.61	436.62
373.835	420.62
374.061	428.62
374.287	424.62
374.513	442.62
374.739	434.62
374.965	446.62
375.191	451.62
375.416	443.62
375.642	459.62
375.868	437.62
376.094	450.62
376.319	417.62
376.545	452.62
376.771	428.62
376.997	411.62
377.222	429.62
377.448	425.62
377.674	423.62
377.899	423.62
378.125	417.62
378.35	424.62
378.576	429.62
378.802	433.62
379.027	429.62
379.253	420.62
379.478	408.62
379.704	411.62
379.929	431.62
380.155	441.62
380.38	426.62
380.606	443.62
380.831	427.62
381.057	426.62
381.282	438.62
381.507	462.62
381.733	439.62
381.958	434.62
382.184	431.62
382.409	453.62
382.634	442.62
382.86	449.62
383.085	470.62
383.31	449.62
383.535	439.62
383.761	451.62
383.986	465.62
384.211	469.62
384.436	465.62
384.662	459.62
384.887	474.62
385.112	471.62
385.337	475.62
385.562	459.62
385.787	491.62
386.013	490.62
386.238	490.62
386.463	475.62
386.688	464.62
386.913	475.62
387.138	483.62
387.363	480.62
387.588	485.62
387.813	480.62
388.038	482.62
388.263	476.62
388.488	489.62
388.713	487.62
388.938	472.62
389.163	474.62
389.387	469.62
389.612	475.62
389.837	478.62
390.062	481.62
390.287	492.62
390.512	477.62
390.736	486.62
390.961	497.62
391.186	490.62
391.411	519.62
391.636	496.62
391.86	497.62
392.085	514.62
392.31	498.62
392.534	499.62
392.759	504.62
392.984	494.62
393.208	488.62
393.433	476.62
393.658	486.62
393.882	507.62
394.107	473.62
394.331	480.62
394.556	492.62
394.78	461.62
395.005	495.62
395.229	501.62
395.454	520.62
395.678	517.62
395.903	520.62
396.127	550.62
396.352	554.62
396.576	502.62
396.801	505.62
397.025	504.62
397.249	508.62
397.474	515.62
397.698	531.62
397.922	552.62
398.147	556.62
398.371	548.62
398.595	542.62
398.82	551.62
399.044	565.62
399.268	586.62
399.492	630.62
399.717	681.62
399.941	716.62
400.165	711.62
400.389	704.62
400.613	667.62
400.837	624.62
401.062	593.62
401.286	578.62
401.51	556.62
401.734	560.62
401.958	571.62
402.182	575.62
402.406	577.62
402.63	572.62
402.854	571.62
403.078	592.62
403.302	591.62
403.526	599.62
403.75	592.62
403.974	577.62
404.198	576.62
404.422	581.62
404.645	597.62
404.869	607.62
405.093	627.62
405.317	673.62
405.541	717.62
405.765	672.62
405.988	624.62
406.212	626.62
406.436	612.62
406.66	647.62
406.883	638.62
407.107	669.62
407.331	734.62
407.555	795.62
407.778	779.62
408.002	726.62
408.226	637.62
408.449	661.62
408.673	644.62
408.896	650.62
409.12	751.62
409.344	700.62
409.567	609.62
409.791	615.62
410.014	589.62
410.238	564.62
410.461	592.62
410.685	583.62
410.908	591.62
411.132	648.62
411.355	673.62
411.578	639.62
411.802	585.62
412.025	586.62
412.249	591.62
412.472	614.62
412.695	625.62
412.919	631.62
413.142	592.62
413.365	563.62
413.589	594.62
413.812	563.62
414.035	539.62
414.258	550.62
414.482	558.62
414.705	540.62
414.928	539.62
415.151	541.62
415.374	540.62
415.597	576.62
415.821	536.62
416.044	551.62
416.267	539.62
416.49	529.62
416.713	533.62
416.936	546.62
417.159	540.62
417.382	553.62
417.605	556.62
417.828	570.62
418.051	573.62
418.274	583.62
418.497	550.62
418.72	570.62
418.943	542.62
419.166	550.62
419.389	599.62
419.611	590.62
419.834	577.62
420.057	580.62
420.28	592.62
420.503	579.62
420.726	593.62
420.948	604.62
421.171	610.62
421.394	667.62
421.617	598.62
421.839	575.62
422.062	561.62
422.285	571.62
422.507	642.62
422.73	743.62
422.953	673.62
423.175	634.62
423.398	612.62
423.621	607.62
423.843	632.62
424.066	610.62
424.288	633.62
424.511	632.62
424.733	679.62
424.956	775.62
425.178	732.62
425.401	699.62
425.623	753.62
425.846	647.62
426.068	604.62
426.291	617.62
426.513	603.62
426.735	611.62
426.958	631.62
427.18	735.62
427.402	888.62
427.625	973.62
427.847	837.62
428.069	711.62
428.292	628.62
428.514	599.62
428.736	590.62
428.958	599.62
429.181	553.62
429.403	532.62
429.625	567.62
429.847	590.62
430.069	678.62
430.292	673.62
430.514	588.62
430.736	570.62
430.958	548.62
431.18	553.62
431.402	533.62
431.624	533.62
431.846	524.62
432.068	530.62
432.29	529.62
432.512	539.62
432.734	531.62
432.956	531.62
433.178	517.62
433.4	546.62
433.622	542.62
433.844	532.62
434.066	540.62
434.287	530.62
434.509	525.62
434.731	548.62
434.953	547.62
435.175	591.62
435.397	605.62
435.618	615.62
435.84	654.62
436.062	755.62
436.284	826.62
436.505	681.62
436.727	636.62
436.949	581.62
437.17	568.62
437.392	551.62
437.614	569.62
437.835	578.62
438.057	666.62
438.278	798.62
438.5	752.62
438.721	871.62
438.943	839.62
439.165	665.62
439.386	608.62
439.608	605.62
439.829	602.62
440.05	616.62
440.272	684.62
440.493	634.62
440.715	599.62
440.936	571.62
441.158	536.62
441.379	577.62
441.6	575.62
441.822	595.62
442.043	641.62
442.264	748.62
442.486	767.62
442.707	648.62
442.928	604.62
443.149	637.62
443.371	653.62
443.592	696.62
443.813	774.62
444.034	841.62
444.255	697.62
444.476	636.62
444.698	632.62
444.919	593.62
445.14	725.62
445.361	683.62
445.582	662.62
445.803	694.62
446.024	829.62
446.245	809.62
446.466	771.62
446.687	645.62
446.908	614.62
447.129	573.62
447.35	576.62
447.571	549.62
447.792	552.62
448.013	554.62
448.234	565.62
448.455	599.62
448.675	758.62
448.896	875.62
449.117	721.62
449.338	688.62
449.559	796.62
449.779	919.62
450	707.62
450.221	621.62
450.442	565.62
450.662	534.62
450.883	536.62
451.104	561.62
451.324	542.62
451.545	529.62
451.766	520.62
451.986	503.62
452.207	495.62
452.428	467.62
452.648	497.62
452.869	504.62
453.089	509.62
453.31	515.62
453.53	525.62
453.751	483.62
453.971	501.62
454.192	488.62
454.412	487.62
454.633	481.62
454.853	476.62
455.073	481.62
455.294	514.62
455.514	583.62
455.734	580.62
455.955	481.62
456.175	479.62
456.395	464.62
456.616	446.62
456.836	468.62
457.056	488.62
457.276	465.62
457.497	471.62
457.717	475.62
457.937	485.62
458.157	483.62
458.377	477.62
458.598	486.62
458.818	543.62
459.038	623.62
459.258	636.62
459.478	570.62
459.698	538.62
459.918	535.62
460.138	531.62
460.358	523.62
460.578	555.62
460.798	568.62
461.018	548.62
461.238	549.62
461.458	578.62
461.678	555.62
461.898	560.62
462.118	561.62
462.338	587.62
462.558	577.62
462.777	611.62
462.997	609.62
463.217	651.62
463.437	635.62
463.657	615.62
463.876	599.62
464.096	600.62
464.316	596.62
464.536	599.62
464.755	592.62
464.975	588.62
465.195	626.62
465.414	659.62
465.634	611.62
465.854	544.62
466.073	549.62
466.293	527.62
466.512	505.62
466.732	528.62
466.951	501.62
467.171	513.62
467.391	509.62
467.61	511.62
467.829	498.62
468.049	528.62
468.268	522.62
468.488	502.62
468.707	488.62
468.927	504.62
469.146	479.62
469.365	504.62
469.585	512.62
469.804	500.62
470.023	499.62
470.243	518.62
470.462	529.62
470.681	543.62
470.901	529.62
471.12	538.62
471.339	521.62
471.558	511.62
471.777	518.62
471.997	507.62
472.216	524.62
472.435	546.62
472.654	527.62
472.873	508.62
473.092	495.62
473.311	490.62
473.53	484.62
473.749	518.62
473.968	543.62
474.187	655.62
474.406	684.62
474.625	567.62
474.844	508.62
475.063	507.62
475.282	524.62
475.501	535.62
475.72	527.62
475.939	510.62
476.158	531.62
476.377	526.62
476.596	502.62
476.814	527.62
477.033	542.62
477.252	540.62
477.471	561.62
477.69	553.62
477.908	568.62
478.127	561.62
478.346	559.62
478.564	597.62
478.783	565.62
479.002	602.62
479.22	592.62
479.439	577.62
479.658	611.62
479.876	607.62
480.095	655.62
480.313	663.62
480.532	632.62
480.751	635.62
480.969	660.62
481.188	693.62
481.406	703.62
481.624	639.62
481.843	610.62
482.061	627.62
482.28	588.62
482.498	591.62
482.717	630.62
482.935	608.62
483.153	606.62
483.372	611.62
483.59	598.62
483.808	579.62
484.027	587.62
484.245	604.62
484.463	592.62
484.681	623.62
484.9	605.62
485.118	603.62
485.336	615.62
485.554	616.62
485.772	634.62
485.99	617.62
486.209	627.62
486.427	633.62
486.645	634.62
486.863	645.62
487.081	655.62
487.299	632.62
487.517	649.62
487.735	644.62
487.953	643.62
488.171	648.62
488.389	635.62
488.607	632.62
488.825	619.62
489.043	661.62
489.261	679.62
489.479	645.62
489.696	621.62
489.914	667.62
490.132	657.62
490.35	667.62
490.568	659.62
490.786	683.62
491.003	691.62
491.221	711.62
491.439	697.62
491.657	744.62
491.874	747.62
492.092	726.62
492.31	733.62
492.527	738.62
492.745	745.62
492.963	727.62
493.18	740.62
493.398	743.62
493.615	770.62
493.833	769.62
494.05	756.62
494.268	750.62
494.485	758.62
494.703	741.62
494.92	774.62
495.138	782.62
495.355	752.62
495.573	755.62
495.79	761.62
496.008	760.62
496.225	749.62
496.442	763.62
496.66	787.62
496.877	764.62
497.094	791.62
497.312	758.62
497.529	760.62
497.746	831.62
497.963	819.62
498.181	839.62
498.398	835.62
498.615	869.62
498.832	880.62
499.049	917.62
499.267	951.62
499.484	995.62
499.701	1031.62
499.918	1073.62
500.135	1123.62
500.352	1184.62
500.569	1237.62
500.786	1236.62
501.003	1196.62
501.22	1148.62
501.437	1095.62
501.654	1070.62
