Data from 1976.PennyLincolnUp.Lamp.En5.5.200Scan.071719.P1.Changed Mount._HRD10591_16-01-11-861.txt Node
Date: Thu Jul 18 16:01:11 EDT 2019
User: cochatt
Spectrometer: HR+D1059
Trigger mode: 1
Integration Time (sec): 1.000000E-1
Scans to average: 1
Electric dark correction enabled: true
Nonlinearity correction enabled: false
Boxcar width: 0
XAxis mode: Wavelengths
Number of Pixels in Spectrum: 2048
>>>>>Begin Spectral Data<<<<<
223.165	-13.88
223.4	-13.88
223.635	-13.88
223.869	2.12
224.104	-27.88
224.338	-8.88
224.573	-19.88
224.808	-20.88
225.042	-12.88
225.277	-2.88
225.511	-11.88
225.746	2.12
225.98	13.12
226.215	8.12
226.449	17.12
226.683	21.12
226.918	30.12
227.152	25.12
227.387	27.12
227.621	39.12
227.856	58.12
228.09	38.12
228.324	46.12
228.559	53.12
228.793	70.12
229.027	103.12
229.262	120.12
229.496	125.12
229.73	139.12
229.964	155.12
230.199	134.12
230.433	126.12
230.667	122.12
230.901	101.12
231.136	118.12
231.37	127.12
231.604	109.12
231.838	117.12
232.072	130.12
232.306	119.12
232.541	116.12
232.775	125.12
233.009	123.12
233.243	125.12
233.477	111.12
233.711	123.12
233.945	119.12
234.179	118.12
234.413	131.12
234.647	120.12
234.881	123.12
235.115	130.12
235.349	115.12
235.583	133.12
235.817	141.12
236.051	128.12
236.285	126.12
236.519	143.12
236.753	138.12
236.987	151.12
237.221	171.12
237.455	226.12
237.689	183.12
237.922	149.12
238.156	132.12
238.39	144.12
238.624	135.12
238.858	124.12
239.091	134.12
239.325	132.12
239.559	130.12
239.793	129.12
240.027	139.12
240.26	151.12
240.494	160.12
240.728	148.12
240.961	160.12
241.195	149.12
241.429	145.12
241.662	145.12
241.896	136.12
242.13	141.12
242.363	151.12
242.597	132.12
242.83	145.12
243.064	151.12
243.298	132.12
243.531	142.12
243.765	151.12
243.998	140.12
244.232	143.12
244.465	168.12
244.699	148.12
244.932	144.12
245.166	155.12
245.399	150.12
245.633	145.12
245.866	159.12
246.099	149.12
246.333	167.12
246.566	155.12
246.8	152.12
247.033	165.12
247.266	157.12
247.5	158.12
247.733	178.12
247.966	172.12
248.2	174.12
248.433	158.12
248.666	189.12
248.899	200.12
249.133	203.12
249.366	204.12
249.599	202.12
249.832	183.12
250.066	193.12
250.299	191.12
250.532	202.12
250.765	210.12
250.998	229.12
251.231	222.12
251.465	234.12
251.698	208.12
251.931	204.12
252.164	210.12
252.397	216.12
252.63	212.12
252.863	208.12
253.096	233.12
253.329	243.12
253.562	232.12
253.795	209.12
254.028	236.12
254.261	226.12
254.494	221.12
254.727	253.12
254.96	298.12
255.193	278.12
255.426	251.12
255.659	239.12
255.892	245.12
256.124	232.12
256.357	263.12
256.59	238.12
256.823	227.12
257.056	236.12
257.289	222.12
257.521	216.12
257.754	229.12
257.987	216.12
258.22	208.12
258.452	226.12
258.685	212.12
258.918	212.12
259.151	224.12
259.383	249.12
259.616	242.12
259.849	242.12
260.081	231.12
260.314	262.12
260.547	283.12
260.779	249.12
261.012	239.12
261.244	228.12
261.477	236.12
261.71	217.12
261.942	248.12
262.175	223.12
262.407	232.12
262.64	225.12
262.872	232.12
263.105	243.12
263.337	227.12
263.57	219.12
263.802	231.12
264.035	242.12
264.267	222.12
264.499	227.12
264.732	221.12
264.964	223.12
265.197	228.12
265.429	228.12
265.661	226.12
265.894	252.12
266.126	235.12
266.358	225.12
266.591	249.12
266.823	244.12
267.055	236.12
267.287	242.12
267.52	234.12
267.752	238.12
267.984	244.12
268.216	258.12
268.448	235.12
268.681	264.12
268.913	240.12
269.145	285.12
269.377	293.12
269.609	290.12
269.841	279.12
270.073	273.12
270.306	329.12
270.538	344.12
270.77	349.12
271.002	324.12
271.234	318.12
271.466	303.12
271.698	333.12
271.93	331.12
272.162	341.12
272.394	338.12
272.626	322.12
272.858	313.12
273.09	298.12
273.322	300.12
273.553	281.12
273.785	303.12
274.017	303.12
274.249	297.12
274.481	285.12
274.713	279.12
274.945	297.12
275.176	287.12
275.408	286.12
275.64	275.12
275.872	294.12
276.104	298.12
276.335	281.12
276.567	299.12
276.799	313.12
277.031	328.12
277.262	323.12
277.494	328.12
277.726	314.12
277.957	308.12
278.189	301.12
278.421	298.12
278.652	293.12
278.884	296.12
279.115	304.12
279.347	309.12
279.579	290.12
279.81	292.12
280.042	295.12
280.273	303.12
280.505	290.12
280.736	277.12
280.968	295.12
281.199	281.12
281.431	285.12
281.662	285.12
281.894	293.12
282.125	295.12
282.356	303.12
282.588	341.12
282.819	323.12
283.051	319.12
283.282	298.12
283.513	301.12
283.745	312.12
283.976	326.12
284.207	312.12
284.439	326.12
284.67	303.12
284.901	305.12
285.132	310.12
285.364	314.12
285.595	315.12
285.826	305.12
286.057	318.12
286.288	312.12
286.52	314.12
286.751	312.12
286.982	331.12
287.213	303.12
287.444	300.12
287.675	311.12
287.906	303.12
288.138	335.12
288.369	334.12
288.6	341.12
288.831	322.12
289.062	336.12
289.293	314.12
289.524	323.12
289.755	306.12
289.986	315.12
290.217	351.12
290.448	338.12
290.679	311.12
290.91	312.12
291.141	312.12
291.371	319.12
291.602	319.12
291.833	312.12
292.064	303.12
292.295	345.12
292.526	332.12
292.757	310.12
292.987	328.12
293.218	323.12
293.449	326.12
293.68	306.12
293.91	326.12
294.141	325.12
294.372	307.12
294.603	315.12
294.833	325.12
295.064	315.12
295.295	332.12
295.525	330.12
295.756	320.12
295.987	329.12
296.217	330.12
296.448	361.12
296.679	326.12
296.909	342.12
297.14	326.12
297.37	347.12
297.601	332.12
297.831	330.12
298.062	333.12
298.292	338.12
298.523	348.12
298.753	332.12
298.984	324.12
299.214	337.12
299.445	326.12
299.675	349.12
299.905	348.12
300.136	339.12
300.366	355.12
300.597	351.12
300.827	350.12
301.057	361.12
301.288	365.12
301.518	347.12
301.748	355.12
301.979	349.12
302.209	372.12
302.439	359.12
302.669	368.12
302.9	358.12
303.13	368.12
303.36	372.12
303.59	360.12
303.82	366.12
304.051	359.12
304.281	355.12
304.511	360.12
304.741	359.12
304.971	354.12
305.201	352.12
305.431	376.12
305.661	358.12
305.891	351.12
306.121	375.12
306.352	373.12
306.582	367.12
306.812	370.12
307.042	390.12
307.272	370.12
307.502	358.12
307.731	398.12
307.961	377.12
308.191	367.12
308.421	369.12
308.651	363.12
308.881	365.12
309.111	367.12
309.341	375.12
309.571	398.12
309.8	380.12
310.03	382.12
310.26	394.12
310.49	404.12
310.72	392.12
310.949	411.12
311.179	415.12
311.409	400.12
311.639	420.12
311.868	404.12
312.098	413.12
312.328	400.12
312.557	434.12
312.787	446.12
313.017	426.12
313.246	408.12
313.476	392.12
313.706	409.12
313.935	397.12
314.165	404.12
314.394	422.12
314.624	416.12
314.853	419.12
315.083	411.12
315.312	406.12
315.542	417.12
315.771	406.12
316.001	412.12
316.23	393.12
316.46	405.12
316.689	390.12
316.919	410.12
317.148	432.12
317.377	404.12
317.607	406.12
317.836	431.12
318.065	409.12
318.295	421.12
318.524	387.12
318.753	394.12
318.983	414.12
319.212	426.12
319.441	424.12
319.67	431.12
319.9	406.12
320.129	410.12
320.358	411.12
320.587	409.12
320.816	409.12
321.046	422.12
321.275	386.12
321.504	415.12
321.733	447.12
321.962	442.12
322.191	454.12
322.42	469.12
322.649	436.12
322.878	454.12
323.108	470.12
323.337	495.12
323.566	500.12
323.795	542.12
324.024	567.12
324.253	668.12
324.482	926.12
324.71	1396.12
324.939	2005.12
325.168	1725.12
325.397	890.12
325.626	634.12
325.855	535.12
326.084	514.12
326.313	513.12
326.542	530.12
326.77	564.12
326.999	630.12
327.228	806.12
327.457	1237.12
327.686	1519.12
327.914	981.12
328.143	677.12
328.372	608.12
328.6	560.12
328.829	568.12
329.058	578.12
329.287	567.12
329.515	551.12
329.744	528.12
329.972	524.12
330.201	546.12
330.43	568.12
330.658	583.12
330.887	613.12
331.115	596.12
331.344	529.12
331.572	506.12
331.801	515.12
332.03	496.12
332.258	506.12
332.486	483.12
332.715	498.12
332.943	502.12
333.172	491.12
333.4	490.12
333.629	523.12
333.857	515.12
334.085	545.12
334.314	547.12
334.542	588.12
334.771	579.12
334.999	530.12
335.227	518.12
335.455	526.12
335.684	476.12
335.912	477.12
336.14	494.12
336.369	486.12
336.597	491.12
336.825	476.12
337.053	486.12
337.281	474.12
337.51	462.12
337.738	487.12
337.966	482.12
338.194	472.12
338.422	498.12
338.65	453.12
338.878	476.12
339.106	467.12
339.334	467.12
339.562	463.12
339.79	464.12
340.018	488.12
340.246	476.12
340.474	461.12
340.702	458.12
340.93	460.12
341.158	450.12
341.386	455.12
341.614	444.12
341.842	457.12
342.07	452.12
342.298	465.12
342.526	449.12
342.754	442.12
342.981	448.12
343.209	458.12
343.437	462.12
343.665	461.12
343.893	474.12
344.12	507.12
344.348	483.12
344.576	453.12
344.804	484.12
345.031	464.12
345.259	482.12
345.487	487.12
345.714	473.12
345.942	445.12
346.17	453.12
346.397	446.12
346.625	443.12
346.853	435.12
347.08	432.12
347.308	439.12
347.535	446.12
347.763	451.12
347.99	452.12
348.218	459.12
348.445	453.12
348.673	443.12
348.9	432.12
349.128	470.12
349.355	432.12
349.583	448.12
349.81	449.12
350.037	450.12
350.265	442.12
350.492	425.12
350.72	416.12
350.947	438.12
351.174	443.12
351.402	451.12
351.629	439.12
351.856	438.12
352.083	445.12
352.311	434.12
352.538	450.12
352.765	452.12
352.992	450.12
353.22	429.12
353.447	443.12
353.674	447.12
353.901	421.12
354.128	443.12
354.355	432.12
354.583	429.12
354.81	434.12
355.037	429.12
355.264	439.12
355.491	435.12
355.718	423.12
355.945	418.12
356.172	427.12
356.399	433.12
356.626	406.12
356.853	437.12
357.08	432.12
357.307	406.12
357.534	420.12
357.761	433.12
357.988	417.12
358.215	396.12
358.441	413.12
358.668	412.12
358.895	427.12
359.122	437.12
359.349	437.12
359.576	422.12
359.802	472.12
360.029	455.12
360.256	483.12
360.483	459.12
360.709	459.12
360.936	427.12
361.163	458.12
361.39	433.12
361.616	458.12
361.843	442.12
362.07	440.12
362.296	423.12
362.523	426.12
362.749	427.12
362.976	449.12
363.203	457.12
363.429	415.12
363.656	421.12
363.882	424.12
364.109	415.12
364.335	428.12
364.562	430.12
364.788	422.12
365.015	447.12
365.241	419.12
365.468	432.12
365.694	422.12
365.92	428.12
366.147	430.12
366.373	441.12
366.599	419.12
366.826	406.12
367.052	429.12
367.278	424.12
367.505	445.12
367.731	425.12
367.957	436.12
368.184	422.12
368.41	438.12
368.636	413.12
368.862	434.12
369.089	434.12
369.315	427.12
369.541	435.12
369.767	439.12
369.993	425.12
370.219	419.12
370.445	417.12
370.672	436.12
370.898	435.12
371.124	433.12
371.35	430.12
371.576	442.12
371.802	430.12
372.028	424.12
372.254	445.12
372.48	444.12
372.706	452.12
372.932	435.12
373.158	440.12
373.384	445.12
373.61	444.12
373.835	422.12
374.061	437.12
374.287	439.12
374.513	450.12
374.739	445.12
374.965	455.12
375.191	454.12
375.416	439.12
375.642	463.12
375.868	442.12
376.094	454.12
376.319	423.12
376.545	444.12
376.771	427.12
376.997	413.12
377.222	434.12
377.448	441.12
377.674	421.12
377.899	394.12
378.125	406.12
378.35	437.12
378.576	424.12
378.802	431.12
379.027	440.12
379.253	427.12
379.478	464.12
379.704	430.12
379.929	416.12
380.155	433.12
380.38	421.12
380.606	429.12
380.831	438.12
381.057	438.12
381.282	414.12
381.507	442.12
381.733	428.12
381.958	437.12
382.184	454.12
382.409	450.12
382.634	463.12
382.86	456.12
383.085	438.12
383.31	438.12
383.535	461.12
383.761	471.12
383.986	455.12
384.211	450.12
384.436	468.12
384.662	454.12
384.887	474.12
385.112	456.12
385.337	482.12
385.562	463.12
385.787	466.12
386.013	472.12
386.238	488.12
386.463	485.12
386.688	497.12
386.913	461.12
387.138	492.12
387.363	497.12
387.588	482.12
387.813	475.12
388.038	486.12
388.263	481.12
388.488	488.12
388.713	485.12
388.938	483.12
389.163	473.12
389.387	490.12
389.612	469.12
389.837	495.12
390.062	488.12
390.287	492.12
390.512	469.12
390.736	484.12
390.961	460.12
391.186	478.12
391.411	490.12
391.636	494.12
391.86	493.12
392.085	520.12
392.31	508.12
392.534	500.12
392.759	486.12
392.984	487.12
393.208	460.12
393.433	490.12
393.658	499.12
393.882	486.12
394.107	489.12
394.331	478.12
394.556	510.12
394.78	471.12
395.005	478.12
395.229	508.12
395.454	494.12
395.678	491.12
395.903	535.12
396.127	526.12
396.352	531.12
396.576	508.12
396.801	518.12
397.025	515.12
397.249	502.12
397.474	521.12
397.698	526.12
397.922	537.12
398.147	540.12
398.371	570.12
398.595	552.12
398.82	552.12
399.044	586.12
399.268	608.12
399.492	642.12
399.717	674.12
399.941	708.12
400.165	718.12
400.389	682.12
400.613	663.12
400.837	584.12
401.062	595.12
401.286	562.12
401.51	565.12
401.734	548.12
401.958	564.12
402.182	553.12
402.406	571.12
402.63	586.12
402.854	553.12
403.078	569.12
403.302	584.12
403.526	610.12
403.75	614.12
403.974	620.12
404.198	590.12
404.422	602.12
404.645	594.12
404.869	614.12
405.093	648.12
405.317	666.12
405.541	702.12
405.765	649.12
405.988	593.12
406.212	604.12
406.436	642.12
406.66	628.12
406.883	621.12
407.107	659.12
407.331	694.12
407.555	765.12
407.778	788.12
408.002	696.12
408.226	640.12
408.449	653.12
408.673	623.12
408.896	670.12
409.12	721.12
409.344	698.12
409.567	632.12
409.791	603.12
410.014	596.12
410.238	576.12
410.461	608.12
410.685	604.12
410.908	596.12
411.132	615.12
411.355	668.12
411.578	618.12
411.802	569.12
412.025	575.12
412.249	601.12
412.472	618.12
412.695	638.12
412.919	624.12
413.142	602.12
413.365	600.12
413.589	579.12
413.812	561.12
414.035	551.12
414.258	560.12
414.482	553.12
414.705	550.12
414.928	548.12
415.151	564.12
415.374	557.12
415.597	563.12
415.821	551.12
416.044	554.12
416.267	560.12
416.49	560.12
416.713	547.12
416.936	562.12
417.159	572.12
417.382	576.12
417.605	547.12
417.828	568.12
418.051	570.12
418.274	568.12
418.497	564.12
418.72	567.12
418.943	552.12
419.166	582.12
419.389	617.12
419.611	605.12
419.834	586.12
420.057	580.12
420.28	571.12
420.503	583.12
420.726	569.12
420.948	592.12
421.171	654.12
421.394	680.12
421.617	608.12
421.839	578.12
422.062	572.12
422.285	578.12
422.507	647.12
422.73	712.12
422.953	700.12
423.175	619.12
423.398	593.12
423.621	612.12
423.843	622.12
424.066	612.12
424.288	621.12
424.511	641.12
424.733	672.12
424.956	788.12
425.178	764.12
425.401	724.12
425.623	742.12
425.846	648.12
426.068	628.12
426.291	613.12
426.513	606.12
426.735	606.12
426.958	652.12
427.18	730.12
427.402	876.12
427.625	943.12
427.847	820.12
428.069	724.12
428.292	635.12
428.514	603.12
428.736	572.12
428.958	590.12
429.181	553.12
429.403	556.12
429.625	566.12
429.847	592.12
430.069	674.12
430.292	690.12
430.514	591.12
430.736	568.12
430.958	553.12
431.18	530.12
431.402	527.12
431.624	522.12
431.846	506.12
432.068	534.12
432.29	509.12
432.512	542.12
432.734	550.12
432.956	521.12
433.178	537.12
433.4	563.12
433.622	528.12
433.844	564.12
434.066	544.12
434.287	539.12
434.509	557.12
434.731	541.12
434.953	554.12
435.175	580.12
435.397	589.12
435.618	609.12
435.84	648.12
436.062	737.12
436.284	814.12
436.505	674.12
436.727	605.12
436.949	592.12
437.17	539.12
437.392	579.12
437.614	575.12
437.835	589.12
438.057	676.12
438.278	813.12
438.5	777.12
438.721	871.12
438.943	839.12
439.165	671.12
439.386	613.12
439.608	602.12
439.829	591.12
440.05	620.12
440.272	686.12
440.493	636.12
440.715	598.12
440.936	587.12
441.158	546.12
441.379	566.12
441.6	595.12
441.822	598.12
442.043	643.12
442.264	729.12
442.486	774.12
442.707	646.12
442.928	606.12
443.149	626.12
443.371	637.12
443.592	712.12
443.813	780.12
444.034	853.12
444.255	716.12
444.476	631.12
444.698	609.12
444.919	604.12
445.14	758.12
445.361	694.12
445.582	656.12
445.803	710.12
446.024	806.12
446.245	807.12
446.466	751.12
446.687	640.12
446.908	598.12
447.129	566.12
447.35	553.12
447.571	561.12
447.792	533.12
448.013	558.12
448.234	554.12
448.455	604.12
448.675	728.12
448.896	851.12
449.117	703.12
449.338	684.12
449.559	807.12
449.779	878.12
450	698.12
450.221	599.12
450.442	580.12
450.662	528.12
450.883	540.12
451.104	563.12
451.324	528.12
451.545	500.12
451.766	503.12
451.986	490.12
452.207	478.12
452.428	509.12
452.648	498.12
452.869	494.12
453.089	472.12
453.31	487.12
453.53	484.12
453.751	458.12
453.971	502.12
454.192	504.12
454.412	492.12
454.633	474.12
454.853	473.12
455.073	485.12
455.294	511.12
455.514	573.12
455.734	569.12
455.955	513.12
456.175	490.12
456.395	460.12
456.616	468.12
456.836	460.12
457.056	459.12
457.276	451.12
457.497	462.12
457.717	463.12
457.937	469.12
458.157	491.12
458.377	493.12
458.598	514.12
458.818	526.12
459.038	614.12
459.258	667.12
459.478	563.12
459.698	512.12
459.918	539.12
460.138	538.12
460.358	532.12
460.578	569.12
460.798	567.12
461.018	574.12
461.238	557.12
461.458	560.12
461.678	535.12
461.898	544.12
462.118	527.12
462.338	579.12
462.558	562.12
462.777	578.12
462.997	627.12
463.217	636.12
463.437	650.12
463.657	610.12
463.876	580.12
464.096	601.12
464.316	600.12
464.536	610.12
464.755	593.12
464.975	611.12
465.195	620.12
465.414	651.12
465.634	581.12
465.854	549.12
466.073	537.12
466.293	532.12
466.512	508.12
466.732	524.12
466.951	517.12
467.171	521.12
467.391	510.12
467.61	528.12
467.829	522.12
468.049	515.12
468.268	524.12
468.488	493.12
468.707	485.12
468.927	492.12
469.146	485.12
469.365	486.12
469.585	489.12
469.804	508.12
470.023	525.12
470.243	526.12
470.462	504.12
470.681	525.12
470.901	548.12
471.12	541.12
471.339	494.12
471.558	533.12
471.777	500.12
471.997	482.12
472.216	523.12
472.435	539.12
472.654	507.12
472.873	500.12
473.092	485.12
473.311	524.12
473.53	514.12
473.749	515.12
473.968	555.12
474.187	671.12
474.406	690.12
474.625	581.12
474.844	516.12
475.063	518.12
475.282	524.12
475.501	524.12
475.72	518.12
475.939	507.12
476.158	540.12
476.377	527.12
476.596	554.12
476.814	525.12
477.033	541.12
477.252	547.12
477.471	559.12
477.69	549.12
477.908	558.12
478.127	564.12
478.346	551.12
478.564	557.12
478.783	576.12
479.002	590.12
479.22	591.12
479.439	605.12
479.658	639.12
479.876	642.12
480.095	630.12
480.313	654.12
480.532	651.12
480.751	635.12
480.969	628.12
481.188	672.12
481.406	699.12
481.624	640.12
481.843	600.12
482.061	563.12
482.28	599.12
482.498	588.12
482.717	613.12
482.935	617.12
483.153	590.12
483.372	602.12
483.59	587.12
483.808	599.12
484.027	587.12
484.245	597.12
484.463	630.12
484.681	608.12
484.9	620.12
485.118	623.12
485.336	611.12
485.554	625.12
485.772	613.12
485.99	622.12
486.209	614.12
486.427	631.12
486.645	624.12
486.863	636.12
487.081	632.12
487.299	627.12
487.517	634.12
487.735	650.12
487.953	659.12
488.171	656.12
488.389	632.12
488.607	613.12
488.825	639.12
489.043	644.12
489.261	646.12
489.479	677.12
489.696	660.12
489.914	655.12
490.132	642.12
490.35	692.12
490.568	683.12
490.786	678.12
491.003	681.12
491.221	682.12
491.439	709.12
491.657	713.12
491.874	726.12
492.092	729.12
492.31	710.12
492.527	746.12
492.745	720.12
492.963	738.12
493.18	755.12
493.398	751.12
493.615	784.12
493.833	749.12
494.05	742.12
494.268	740.12
494.485	741.12
494.703	739.12
494.92	756.12
495.138	754.12
495.355	724.12
495.573	760.12
495.79	752.12
496.008	764.12
496.225	770.12
496.442	763.12
496.66	756.12
496.877	782.12
497.094	780.12
497.312	777.12
497.529	789.12
497.746	794.12
497.963	809.12
498.181	831.12
498.398	837.12
498.615	843.12
498.832	886.12
499.049	921.12
499.267	947.12
499.484	1001.12
499.701	1035.12
499.918	1064.12
500.135	1132.12
500.352	1204.12
500.569	1218.12
500.786	1242.12
501.003	1168.12
501.22	1166.12
501.437	1077.12
501.654	1062.12
