Data from 1976.PennyLincolnUp.Lamp.En5.5.200Scan.071719.P1.Changed Mount._HRD10591_16-00-40-860.txt Node
Date: Thu Jul 18 16:00:40 EDT 2019
User: cochatt
Spectrometer: HR+D1059
Trigger mode: 1
Integration Time (sec): 1.000000E-1
Scans to average: 1
Electric dark correction enabled: true
Nonlinearity correction enabled: false
Boxcar width: 0
XAxis mode: Wavelengths
Number of Pixels in Spectrum: 2048
>>>>>Begin Spectral Data<<<<<
223.165	-23.5
223.4	-23.5
223.635	-23.5
223.869	-9.5
224.104	-22.5
224.338	-14.5
224.573	-14.5
224.808	-2.5
225.042	5.5
225.277	-14.5
225.511	-6.5
225.746	-12.5
225.98	-1.5
226.215	6.5
226.449	11.5
226.683	33.5
226.918	28.5
227.152	36.5
227.387	38.5
227.621	43.5
227.856	45.5
228.09	40.5
228.324	39.5
228.559	58.5
228.793	78.5
229.027	102.5
229.262	114.5
229.496	110.5
229.73	113.5
229.964	148.5
230.199	157.5
230.433	127.5
230.667	126.5
230.901	124.5
231.136	117.5
231.37	123.5
231.604	124.5
231.838	113.5
232.072	102.5
232.306	103.5
232.541	102.5
232.775	124.5
233.009	128.5
233.243	118.5
233.477	127.5
233.711	117.5
233.945	117.5
234.179	122.5
234.413	124.5
234.647	119.5
234.881	118.5
235.115	120.5
235.349	109.5
235.583	121.5
235.817	108.5
236.051	129.5
236.285	127.5
236.519	127.5
236.753	133.5
236.987	143.5
237.221	174.5
237.455	225.5
237.689	177.5
237.922	144.5
238.156	146.5
238.39	134.5
238.624	132.5
238.858	132.5
239.091	114.5
239.325	117.5
239.559	129.5
239.793	129.5
240.027	133.5
240.26	129.5
240.494	171.5
240.728	166.5
240.961	151.5
241.195	147.5
241.429	135.5
241.662	127.5
241.896	128.5
242.13	137.5
242.363	129.5
242.597	130.5
242.83	136.5
243.064	141.5
243.298	154.5
243.531	149.5
243.765	133.5
243.998	146.5
244.232	134.5
244.465	122.5
244.699	149.5
244.932	153.5
245.166	153.5
245.399	153.5
245.633	144.5
245.866	151.5
246.099	159.5
246.333	156.5
246.566	151.5
246.8	171.5
247.033	143.5
247.266	169.5
247.5	170.5
247.733	164.5
247.966	179.5
248.2	181.5
248.433	165.5
248.666	173.5
248.899	174.5
249.133	204.5
249.366	219.5
249.599	203.5
249.832	202.5
250.066	165.5
250.299	181.5
250.532	208.5
250.765	212.5
250.998	210.5
251.231	202.5
251.465	210.5
251.698	211.5
251.931	210.5
252.164	192.5
252.397	203.5
252.63	208.5
252.863	205.5
253.096	222.5
253.329	215.5
253.562	218.5
253.795	214.5
254.028	217.5
254.261	220.5
254.494	222.5
254.727	235.5
254.96	270.5
255.193	265.5
255.426	239.5
255.659	237.5
255.892	206.5
256.124	224.5
256.357	229.5
256.59	229.5
256.823	227.5
257.056	207.5
257.289	209.5
257.521	189.5
257.754	195.5
257.987	215.5
258.22	218.5
258.452	202.5
258.685	214.5
258.918	218.5
259.151	207.5
259.383	213.5
259.616	217.5
259.849	234.5
260.081	240.5
260.314	249.5
260.547	235.5
260.779	253.5
261.012	244.5
261.244	223.5
261.477	220.5
261.71	228.5
261.942	228.5
262.175	219.5
262.407	230.5
262.64	206.5
262.872	218.5
263.105	221.5
263.337	216.5
263.57	240.5
263.802	205.5
264.035	211.5
264.267	217.5
264.499	215.5
264.732	221.5
264.964	213.5
265.197	218.5
265.429	218.5
265.661	221.5
265.894	198.5
266.126	236.5
266.358	219.5
266.591	235.5
266.823	245.5
267.055	234.5
267.287	220.5
267.52	219.5
267.752	231.5
267.984	234.5
268.216	228.5
268.448	244.5
268.681	253.5
268.913	234.5
269.145	262.5
269.377	295.5
269.609	284.5
269.841	273.5
270.073	275.5
270.306	285.5
270.538	308.5
270.77	319.5
271.002	308.5
271.234	292.5
271.466	321.5
271.698	317.5
271.93	312.5
272.162	310.5
272.394	310.5
272.626	305.5
272.858	295.5
273.09	306.5
273.322	281.5
273.553	273.5
273.785	264.5
274.017	263.5
274.249	257.5
274.481	279.5
274.713	281.5
274.945	292.5
275.176	284.5
275.408	279.5
275.64	272.5
275.872	266.5
276.104	270.5
276.335	271.5
276.567	275.5
276.799	291.5
277.031	319.5
277.262	324.5
277.494	331.5
277.726	302.5
277.957	288.5
278.189	280.5
278.421	280.5
278.652	285.5
278.884	285.5
279.115	255.5
279.347	272.5
279.579	278.5
279.81	264.5
280.042	291.5
280.273	292.5
280.505	281.5
280.736	267.5
280.968	285.5
281.199	276.5
281.431	278.5
281.662	284.5
281.894	279.5
282.125	294.5
282.356	289.5
282.588	305.5
282.819	311.5
283.051	281.5
283.282	291.5
283.513	284.5
283.745	289.5
283.976	312.5
284.207	300.5
284.439	300.5
284.67	297.5
284.901	286.5
285.132	301.5
285.364	291.5
285.595	283.5
285.826	294.5
286.057	302.5
286.288	288.5
286.52	305.5
286.751	297.5
286.982	292.5
287.213	313.5
287.444	303.5
287.675	326.5
287.906	315.5
288.138	326.5
288.369	303.5
288.6	320.5
288.831	319.5
289.062	302.5
289.293	299.5
289.524	300.5
289.755	303.5
289.986	311.5
290.217	290.5
290.448	273.5
290.679	294.5
290.91	300.5
291.141	298.5
291.371	313.5
291.602	311.5
291.833	303.5
292.064	309.5
292.295	292.5
292.526	293.5
292.757	314.5
292.987	311.5
293.218	313.5
293.449	300.5
293.68	321.5
293.91	313.5
294.141	299.5
294.372	305.5
294.603	307.5
294.833	323.5
295.064	299.5
295.295	296.5
295.525	307.5
295.756	324.5
295.987	328.5
296.217	331.5
296.448	340.5
296.679	339.5
296.909	326.5
297.14	316.5
297.37	338.5
297.601	313.5
297.831	334.5
298.062	327.5
298.292	321.5
298.523	318.5
298.753	340.5
298.984	333.5
299.214	319.5
299.445	311.5
299.675	315.5
299.905	311.5
300.136	335.5
300.366	350.5
300.597	322.5
300.827	329.5
301.057	352.5
301.288	346.5
301.518	341.5
301.748	328.5
301.979	341.5
302.209	341.5
302.439	351.5
302.669	356.5
302.9	349.5
303.13	316.5
303.36	353.5
303.59	354.5
303.82	373.5
304.051	330.5
304.281	348.5
304.511	325.5
304.741	363.5
304.971	335.5
305.201	335.5
305.431	359.5
305.661	353.5
305.891	340.5
306.121	342.5
306.352	340.5
306.582	350.5
306.812	330.5
307.042	365.5
307.272	330.5
307.502	347.5
307.731	346.5
307.961	350.5
308.191	343.5
308.421	334.5
308.651	357.5
308.881	373.5
309.111	350.5
309.341	365.5
309.571	360.5
309.8	375.5
310.03	362.5
310.26	374.5
310.49	377.5
310.72	385.5
310.949	387.5
311.179	394.5
311.409	377.5
311.639	381.5
311.868	383.5
312.098	378.5
312.328	386.5
312.557	414.5
312.787	424.5
313.017	394.5
313.246	400.5
313.476	389.5
313.706	367.5
313.935	375.5
314.165	394.5
314.394	399.5
314.624	388.5
314.853	382.5
315.083	379.5
315.312	398.5
315.542	372.5
315.771	371.5
316.001	391.5
316.23	374.5
316.46	391.5
316.689	375.5
316.919	393.5
317.148	386.5
317.377	403.5
317.607	385.5
317.836	399.5
318.065	398.5
318.295	376.5
318.524	384.5
318.753	391.5
318.983	400.5
319.212	390.5
319.441	418.5
319.67	405.5
319.9	390.5
320.129	382.5
320.358	389.5
320.587	402.5
320.816	380.5
321.046	398.5
321.275	399.5
321.504	385.5
321.733	399.5
321.962	413.5
322.191	399.5
322.42	419.5
322.649	427.5
322.878	420.5
323.108	441.5
323.337	466.5
323.566	466.5
323.795	499.5
324.024	522.5
324.253	607.5
324.482	833.5
324.71	1227.5
324.939	1805.5
325.168	1560.5
325.397	827.5
325.626	599.5
325.855	529.5
326.084	462.5
326.313	485.5
326.542	504.5
326.77	509.5
326.999	591.5
327.228	750.5
327.457	1121.5
327.686	1375.5
327.914	910.5
328.143	637.5
328.372	581.5
328.6	557.5
328.829	522.5
329.058	537.5
329.287	514.5
329.515	528.5
329.744	503.5
329.972	509.5
330.201	502.5
330.43	529.5
330.658	542.5
330.887	574.5
331.115	526.5
331.344	487.5
331.572	471.5
331.801	488.5
332.03	490.5
332.258	471.5
332.486	449.5
332.715	460.5
332.943	477.5
333.172	487.5
333.4	478.5
333.629	505.5
333.857	505.5
334.085	518.5
334.314	515.5
334.542	540.5
334.771	535.5
334.999	506.5
335.227	459.5
335.455	475.5
335.684	481.5
335.912	476.5
336.14	467.5
336.369	466.5
336.597	470.5
336.825	456.5
337.053	466.5
337.281	451.5
337.51	465.5
337.738	428.5
337.966	458.5
338.194	458.5
338.422	454.5
338.65	460.5
338.878	447.5
339.106	437.5
339.334	445.5
339.562	443.5
339.79	444.5
340.018	452.5
340.246	449.5
340.474	437.5
340.702	441.5
340.93	444.5
341.158	436.5
341.386	440.5
341.614	437.5
341.842	428.5
342.07	433.5
342.298	427.5
342.526	422.5
342.754	410.5
342.981	418.5
343.209	435.5
343.437	460.5
343.665	441.5
343.893	466.5
344.12	467.5
344.348	453.5
344.576	475.5
344.804	435.5
345.031	451.5
345.259	472.5
345.487	451.5
345.714	461.5
345.942	458.5
346.17	411.5
346.397	413.5
346.625	415.5
346.853	423.5
347.08	403.5
347.308	417.5
347.535	437.5
347.763	442.5
347.99	411.5
348.218	435.5
348.445	423.5
348.673	437.5
348.9	414.5
349.128	423.5
349.355	423.5
349.583	416.5
349.81	433.5
350.037	402.5
350.265	407.5
350.492	397.5
350.72	440.5
350.947	415.5
351.174	409.5
351.402	447.5
351.629	403.5
351.856	418.5
352.083	427.5
352.311	441.5
352.538	427.5
352.765	429.5
352.992	432.5
353.22	402.5
353.447	403.5
353.674	425.5
353.901	423.5
354.128	409.5
354.355	414.5
354.583	394.5
354.81	377.5
355.037	417.5
355.264	387.5
355.491	403.5
355.718	411.5
355.945	377.5
356.172	414.5
356.399	379.5
356.626	398.5
356.853	402.5
357.08	420.5
357.307	404.5
357.534	382.5
357.761	393.5
357.988	399.5
358.215	404.5
358.441	391.5
358.668	393.5
358.895	407.5
359.122	403.5
359.349	418.5
359.576	411.5
359.802	453.5
360.029	448.5
360.256	476.5
360.483	454.5
360.709	419.5
360.936	426.5
361.163	419.5
361.39	415.5
361.616	423.5
361.843	436.5
362.07	420.5
362.296	406.5
362.523	406.5
362.749	428.5
362.976	417.5
363.203	412.5
363.429	414.5
363.656	421.5
363.882	417.5
364.109	394.5
364.335	410.5
364.562	421.5
364.788	423.5
365.015	395.5
365.241	401.5
365.468	418.5
365.694	413.5
365.92	390.5
366.147	409.5
366.373	414.5
366.599	410.5
366.826	403.5
367.052	391.5
367.278	420.5
367.505	409.5
367.731	399.5
367.957	411.5
368.184	414.5
368.41	423.5
368.636	402.5
368.862	443.5
369.089	423.5
369.315	401.5
369.541	412.5
369.767	406.5
369.993	419.5
370.219	418.5
370.445	412.5
370.672	418.5
370.898	420.5
371.124	422.5
371.35	418.5
371.576	425.5
371.802	408.5
372.028	407.5
372.254	412.5
372.48	409.5
372.706	400.5
372.932	425.5
373.158	435.5
373.384	423.5
373.61	436.5
373.835	419.5
374.061	409.5
374.287	414.5
374.513	425.5
374.739	427.5
374.965	416.5
375.191	417.5
375.416	421.5
375.642	404.5
375.868	417.5
376.094	408.5
376.319	426.5
376.545	408.5
376.771	408.5
376.997	413.5
377.222	407.5
377.448	396.5
377.674	425.5
377.899	415.5
378.125	416.5
378.35	410.5
378.576	421.5
378.802	412.5
379.027	423.5
379.253	400.5
379.478	401.5
379.704	423.5
379.929	418.5
380.155	417.5
380.38	423.5
380.606	415.5
380.831	405.5
381.057	422.5
381.282	428.5
381.507	410.5
381.733	421.5
381.958	417.5
382.184	428.5
382.409	417.5
382.634	417.5
382.86	429.5
383.085	420.5
383.31	427.5
383.535	422.5
383.761	427.5
383.986	441.5
384.211	453.5
384.436	437.5
384.662	455.5
384.887	460.5
385.112	445.5
385.337	467.5
385.562	460.5
385.787	464.5
386.013	457.5
386.238	467.5
386.463	464.5
386.688	474.5
386.913	441.5
387.138	459.5
387.363	492.5
387.588	479.5
387.813	462.5
388.038	447.5
388.263	479.5
388.488	460.5
388.713	455.5
388.938	464.5
389.163	458.5
389.387	452.5
389.612	440.5
389.837	466.5
390.062	477.5
390.287	460.5
390.512	444.5
390.736	460.5
390.961	469.5
391.186	473.5
391.411	477.5
391.636	479.5
391.86	479.5
392.085	507.5
392.31	485.5
392.534	482.5
392.759	472.5
392.984	443.5
393.208	476.5
393.433	480.5
393.658	478.5
393.882	468.5
394.107	457.5
394.331	463.5
394.556	461.5
394.78	473.5
395.005	475.5
395.229	473.5
395.454	472.5
395.678	510.5
395.903	505.5
396.127	501.5
396.352	516.5
396.576	515.5
396.801	478.5
397.025	479.5
397.249	491.5
397.474	519.5
397.698	512.5
397.922	503.5
398.147	516.5
398.371	519.5
398.595	520.5
398.82	522.5
399.044	574.5
399.268	579.5
399.492	600.5
399.717	645.5
399.941	681.5
400.165	683.5
400.389	670.5
400.613	609.5
400.837	546.5
401.062	585.5
401.286	543.5
401.51	539.5
401.734	539.5
401.958	553.5
402.182	523.5
402.406	558.5
402.63	558.5
402.854	563.5
403.078	565.5
403.302	565.5
403.526	570.5
403.75	553.5
403.974	575.5
404.198	579.5
404.422	568.5
404.645	575.5
404.869	560.5
405.093	588.5
405.317	630.5
405.541	661.5
405.765	610.5
405.988	581.5
406.212	587.5
406.436	620.5
406.66	618.5
406.883	628.5
407.107	635.5
407.331	683.5
407.555	748.5
407.778	754.5
408.002	681.5
408.226	627.5
408.449	637.5
408.673	636.5
408.896	646.5
409.12	664.5
409.344	631.5
409.567	591.5
409.791	567.5
410.014	581.5
410.238	549.5
410.461	574.5
410.685	557.5
410.908	565.5
411.132	611.5
411.355	641.5
411.578	611.5
411.802	565.5
412.025	573.5
412.249	533.5
412.472	598.5
412.695	628.5
412.919	599.5
413.142	567.5
413.365	534.5
413.589	555.5
413.812	528.5
414.035	536.5
414.258	525.5
414.482	553.5
414.705	552.5
414.928	545.5
415.151	545.5
415.374	543.5
415.597	540.5
415.821	532.5
416.044	531.5
416.267	541.5
416.49	536.5
416.713	505.5
416.936	490.5
417.159	518.5
417.382	505.5
417.605	535.5
417.828	540.5
418.051	544.5
418.274	551.5
418.497	544.5
418.72	527.5
418.943	538.5
419.166	537.5
419.389	578.5
419.611	591.5
419.834	567.5
420.057	577.5
420.28	560.5
420.503	568.5
420.726	548.5
420.948	574.5
421.171	587.5
421.394	633.5
421.617	560.5
421.839	545.5
422.062	547.5
422.285	567.5
422.507	610.5
422.73	716.5
422.953	677.5
423.175	590.5
423.398	584.5
423.621	588.5
423.843	584.5
424.066	586.5
424.288	565.5
424.511	607.5
424.733	658.5
424.956	725.5
425.178	711.5
425.401	659.5
425.623	717.5
425.846	612.5
426.068	605.5
426.291	576.5
426.513	565.5
426.735	583.5
426.958	630.5
427.18	713.5
427.402	798.5
427.625	884.5
427.847	773.5
428.069	663.5
428.292	611.5
428.514	573.5
428.736	517.5
428.958	543.5
429.181	541.5
429.403	534.5
429.625	550.5
429.847	543.5
430.069	610.5
430.292	655.5
430.514	554.5
430.736	542.5
430.958	531.5
431.18	528.5
431.402	521.5
431.624	483.5
431.846	484.5
432.068	516.5
432.29	519.5
432.512	512.5
432.734	499.5
432.956	514.5
433.178	523.5
433.4	531.5
433.622	503.5
433.844	511.5
434.066	509.5
434.287	504.5
434.509	525.5
434.731	535.5
434.953	555.5
435.175	538.5
435.397	584.5
435.618	549.5
435.84	619.5
436.062	712.5
436.284	748.5
436.505	610.5
436.727	570.5
436.949	527.5
437.17	528.5
437.392	519.5
437.614	552.5
437.835	551.5
438.057	631.5
438.278	757.5
438.5	742.5
438.721	829.5
438.943	787.5
439.165	616.5
439.386	588.5
439.608	580.5
439.829	574.5
440.05	574.5
440.272	619.5
440.493	579.5
440.715	571.5
440.936	550.5
441.158	543.5
441.379	549.5
441.6	565.5
441.822	593.5
442.043	611.5
442.264	680.5
442.486	747.5
442.707	648.5
442.928	595.5
443.149	581.5
443.371	622.5
443.592	645.5
443.813	749.5
444.034	799.5
444.255	670.5
444.476	611.5
444.698	598.5
444.919	622.5
445.14	702.5
445.361	641.5
445.582	618.5
445.803	655.5
446.024	768.5
446.245	781.5
446.466	699.5
446.687	613.5
446.908	592.5
447.129	542.5
447.35	547.5
447.571	513.5
447.792	503.5
448.013	525.5
448.234	533.5
448.455	587.5
448.675	674.5
448.896	823.5
449.117	676.5
449.338	641.5
449.559	735.5
449.779	844.5
450	679.5
450.221	567.5
450.442	535.5
450.662	517.5
450.883	501.5
451.104	510.5
451.324	511.5
451.545	499.5
451.766	474.5
451.986	474.5
452.207	453.5
452.428	483.5
452.648	451.5
452.869	465.5
453.089	482.5
453.31	474.5
453.53	463.5
453.751	467.5
453.971	451.5
454.192	457.5
454.412	472.5
454.633	463.5
454.853	462.5
455.073	438.5
455.294	485.5
455.514	540.5
455.734	525.5
455.955	481.5
456.175	449.5
456.395	448.5
456.616	457.5
456.836	441.5
457.056	450.5
457.276	416.5
457.497	444.5
457.717	445.5
457.937	451.5
458.157	451.5
458.377	460.5
458.598	455.5
458.818	519.5
459.038	582.5
459.258	631.5
459.478	561.5
459.698	530.5
459.918	509.5
460.138	520.5
460.358	519.5
460.578	520.5
460.798	510.5
461.018	522.5
461.238	539.5
461.458	530.5
461.678	519.5
461.898	513.5
462.118	538.5
462.338	566.5
462.558	569.5
462.777	565.5
462.997	585.5
463.217	603.5
463.437	604.5
463.657	599.5
463.876	578.5
464.096	586.5
464.316	564.5
464.536	574.5
464.755	568.5
464.975	563.5
465.195	587.5
465.414	612.5
465.634	561.5
465.854	534.5
466.073	504.5
466.293	516.5
466.512	494.5
466.732	482.5
466.951	469.5
467.171	467.5
467.391	485.5
467.61	466.5
467.829	497.5
468.049	451.5
468.268	485.5
468.488	460.5
468.707	469.5
468.927	474.5
469.146	463.5
469.365	470.5
469.585	476.5
469.804	485.5
470.023	479.5
470.243	513.5
470.462	497.5
470.681	508.5
470.901	505.5
471.12	489.5
471.339	443.5
471.558	490.5
471.777	487.5
471.997	499.5
472.216	482.5
472.435	523.5
472.654	491.5
472.873	505.5
473.092	472.5
473.311	475.5
473.53	501.5
473.749	492.5
473.968	522.5
474.187	625.5
474.406	630.5
474.625	533.5
474.844	492.5
475.063	501.5
475.282	517.5
475.501	500.5
475.72	483.5
475.939	505.5
476.158	484.5
476.377	509.5
476.596	502.5
476.814	517.5
477.033	487.5
477.252	515.5
477.471	518.5
477.69	523.5
477.908	533.5
478.127	516.5
478.346	549.5
478.564	564.5
478.783	564.5
479.002	568.5
479.22	576.5
479.439	569.5
479.658	587.5
479.876	593.5
480.095	594.5
480.313	638.5
480.532	638.5
480.751	605.5
480.969	648.5
481.188	645.5
481.406	662.5
481.624	596.5
481.843	598.5
482.061	586.5
482.28	577.5
482.498	557.5
482.717	579.5
482.935	568.5
483.153	563.5
483.372	574.5
483.59	567.5
483.808	559.5
484.027	557.5
484.245	564.5
484.463	584.5
484.681	586.5
484.9	572.5
485.118	549.5
485.336	591.5
485.554	576.5
485.772	603.5
485.99	598.5
486.209	608.5
486.427	591.5
486.645	589.5
486.863	616.5
487.081	590.5
487.299	622.5
487.517	611.5
487.735	604.5
487.953	618.5
488.171	604.5
488.389	608.5
488.607	618.5
488.825	612.5
489.043	628.5
489.261	606.5
489.479	625.5
489.696	625.5
489.914	630.5
490.132	652.5
490.35	617.5
490.568	633.5
490.786	656.5
491.003	649.5
491.221	670.5
491.439	685.5
491.657	665.5
491.874	703.5
492.092	672.5
492.31	727.5
492.527	692.5
492.745	708.5
492.963	705.5
493.18	691.5
493.398	702.5
493.615	722.5
493.833	726.5
494.05	709.5
494.268	710.5
494.485	708.5
494.703	723.5
494.92	713.5
495.138	699.5
495.355	703.5
495.573	697.5
495.79	729.5
496.008	725.5
496.225	746.5
496.442	708.5
496.66	758.5
496.877	715.5
497.094	747.5
497.312	744.5
497.529	759.5
497.746	755.5
497.963	774.5
498.181	758.5
498.398	801.5
498.615	854.5
498.832	835.5
499.049	859.5
499.267	907.5
499.484	945.5
499.701	979.5
499.918	1002.5
500.135	1086.5
500.352	1145.5
500.569	1161.5
500.786	1177.5
501.003	1130.5
501.22	1095.5
501.437	1061.5
501.654	961.5
501.871	939.5
502.088	915.5
502.305	891.5
502.522	867.5
502.739	847.5
502.956	786.5
503.172	796.5
503.389	758.5
503.606	760.5
503.823	748.5
504.04	764.5
504.256	741.5
504.473	722.5
504.69	727.5
504.907	723.5
505.123	703.5
505.34	695.5
505.557	678.5
505.773	697.5
505.99	705.5
506.207	685.5
506.423	678.5
506.64	681.5
506.856	669.5
507.073	681.5
507.289	684.5
507.506	646.5
507.722	680.5
507.939	671.5
508.155	661.5
508.372	628.5
508.588	631.5
508.805	620.5
509.021	644.5
509.238	658.5
509.454	646.5
509.67	638.5
509.887	623.5
510.103	627.5
510.319	607.5
510.536	689.5
510.752	1049.5
510.968	846.5
511.184	637.5
511.401	618.5
511.617	593.5
511.833	587.5
512.049	592.5
512.265	607.5
512.481	591.5
512.698	575.5
512.914	588.5
513.13	604.5
513.346	590.5
513.562	600.5
513.778	597.5
513.994	627.5
514.21	598.5
514.426	631.5
514.642	643.5
514.858	656.5
515.074	693.5
515.29	760.5
515.506	1013.5
515.721	891.5
515.937	682.5
516.153	651.5
516.369	630.5
516.585	639.5
516.801	621.5
517.016	637.5
517.232	645.5
517.448	661.5
517.664	645.5
517.879	673.5
518.095	633.5
518.311	618.5
518.527	636.5
518.742	636.5
518.958	618.5
519.173	607.5
519.389	600.5
