Data from 1976.PennyLincolnUp.Lamp.En5.5.200Scan.071719.P1.Changed Mount._HRD10591_16-01-39-861.txt Node
Date: Thu Jul 18 16:01:39 EDT 2019
User: cochatt
Spectrometer: HR+D1059
Trigger mode: 1
Integration Time (sec): 1.000000E-1
Scans to average: 1
Electric dark correction enabled: true
Nonlinearity correction enabled: false
Boxcar width: 0
XAxis mode: Wavelengths
Number of Pixels in Spectrum: 2048
>>>>>Begin Spectral Data<<<<<
223.165	-9.5
223.4	-9.5
223.635	-9.5
223.869	-17.5
224.104	-11.5
224.338	-20.5
224.573	-21.5
224.808	-2.5
225.042	-4.5
225.277	-19.5
225.511	-8.5
225.746	1.5
225.98	2.5
226.215	22.5
226.449	23.5
226.683	20.5
226.918	15.5
227.152	29.5
227.387	24.5
227.621	18.5
227.856	56.5
228.09	51.5
228.324	35.5
228.559	48.5
228.793	76.5
229.027	91.5
229.262	109.5
229.496	119.5
229.73	132.5
229.964	151.5
230.199	121.5
230.433	121.5
230.667	107.5
230.901	118.5
231.136	112.5
231.37	125.5
231.604	119.5
231.838	123.5
232.072	101.5
232.306	101.5
232.541	107.5
232.775	118.5
233.009	109.5
233.243	115.5
233.477	120.5
233.711	105.5
233.945	114.5
234.179	124.5
234.413	107.5
234.647	108.5
234.881	116.5
235.115	122.5
235.349	124.5
235.583	135.5
235.817	131.5
236.051	129.5
236.285	131.5
236.519	118.5
236.753	131.5
236.987	157.5
237.221	183.5
237.455	242.5
237.689	180.5
237.922	151.5
238.156	142.5
238.39	125.5
238.624	128.5
238.858	124.5
239.091	122.5
239.325	108.5
239.559	109.5
239.793	123.5
240.027	130.5
240.26	141.5
240.494	156.5
240.728	157.5
240.961	162.5
241.195	139.5
241.429	148.5
241.662	131.5
241.896	150.5
242.13	135.5
242.363	151.5
242.597	144.5
242.83	151.5
243.064	145.5
243.298	134.5
243.531	149.5
243.765	126.5
243.998	136.5
244.232	137.5
244.465	149.5
244.699	153.5
244.932	162.5
245.166	145.5
245.399	146.5
245.633	155.5
245.866	154.5
246.099	138.5
246.333	141.5
246.566	149.5
246.8	149.5
247.033	162.5
247.266	166.5
247.5	159.5
247.733	198.5
247.966	181.5
248.2	179.5
248.433	182.5
248.666	199.5
248.899	193.5
249.133	195.5
249.366	205.5
249.599	189.5
249.832	173.5
250.066	175.5
250.299	169.5
250.532	203.5
250.765	204.5
250.998	214.5
251.231	240.5
251.465	224.5
251.698	199.5
251.931	209.5
252.164	197.5
252.397	210.5
252.63	217.5
252.863	205.5
253.096	210.5
253.329	217.5
253.562	233.5
253.795	213.5
254.028	217.5
254.261	216.5
254.494	238.5
254.727	261.5
254.96	270.5
255.193	266.5
255.426	244.5
255.659	230.5
255.892	241.5
256.124	240.5
256.357	251.5
256.59	235.5
256.823	226.5
257.056	234.5
257.289	227.5
257.521	219.5
257.754	225.5
257.987	205.5
258.22	239.5
258.452	221.5
258.685	214.5
258.918	218.5
259.151	215.5
259.383	226.5
259.616	214.5
259.849	220.5
260.081	260.5
260.314	257.5
260.547	269.5
260.779	256.5
261.012	229.5
261.244	227.5
261.477	232.5
261.71	245.5
261.942	222.5
262.175	245.5
262.407	235.5
262.64	204.5
262.872	221.5
263.105	238.5
263.337	222.5
263.57	222.5
263.802	233.5
264.035	224.5
264.267	213.5
264.499	236.5
264.732	243.5
264.964	209.5
265.197	226.5
265.429	238.5
265.661	229.5
265.894	236.5
266.126	242.5
266.358	233.5
266.591	229.5
266.823	228.5
267.055	243.5
267.287	261.5
267.52	241.5
267.752	257.5
267.984	232.5
268.216	229.5
268.448	243.5
268.681	266.5
268.913	269.5
269.145	270.5
269.377	295.5
269.609	290.5
269.841	276.5
270.073	294.5
270.306	315.5
270.538	323.5
270.77	317.5
271.002	326.5
271.234	325.5
271.466	322.5
271.698	333.5
271.93	345.5
272.162	330.5
272.394	328.5
272.626	305.5
272.858	296.5
273.09	297.5
273.322	281.5
273.553	272.5
273.785	270.5
274.017	280.5
274.249	289.5
274.481	290.5
274.713	265.5
274.945	287.5
275.176	281.5
275.408	283.5
275.64	277.5
275.872	269.5
276.104	286.5
276.335	288.5
276.567	283.5
276.799	296.5
277.031	319.5
277.262	355.5
277.494	323.5
277.726	315.5
277.957	312.5
278.189	289.5
278.421	307.5
278.652	307.5
278.884	312.5
279.115	305.5
279.347	298.5
279.579	279.5
279.81	285.5
280.042	279.5
280.273	308.5
280.505	287.5
280.736	281.5
280.968	284.5
281.199	278.5
281.431	282.5
281.662	291.5
281.894	298.5
282.125	302.5
282.356	306.5
282.588	328.5
282.819	322.5
283.051	298.5
283.282	294.5
283.513	311.5
283.745	308.5
283.976	306.5
284.207	315.5
284.439	299.5
284.67	306.5
284.901	306.5
285.132	314.5
285.364	310.5
285.595	301.5
285.826	293.5
286.057	301.5
286.288	293.5
286.52	294.5
286.751	311.5
286.982	315.5
287.213	317.5
287.444	301.5
287.675	314.5
287.906	331.5
288.138	325.5
288.369	340.5
288.6	330.5
288.831	302.5
289.062	316.5
289.293	308.5
289.524	316.5
289.755	312.5
289.986	302.5
290.217	317.5
290.448	329.5
290.679	318.5
290.91	317.5
291.141	322.5
291.371	300.5
291.602	300.5
291.833	302.5
292.064	297.5
292.295	304.5
292.526	307.5
292.757	327.5
292.987	322.5
293.218	302.5
293.449	318.5
293.68	327.5
293.91	308.5
294.141	318.5
294.372	315.5
294.603	319.5
294.833	341.5
295.064	331.5
295.295	329.5
295.525	337.5
295.756	322.5
295.987	337.5
296.217	352.5
296.448	352.5
296.679	324.5
296.909	322.5
297.14	329.5
297.37	330.5
297.601	320.5
297.831	327.5
298.062	342.5
298.292	328.5
298.523	339.5
298.753	339.5
298.984	313.5
299.214	333.5
299.445	339.5
299.675	357.5
299.905	337.5
300.136	327.5
300.366	331.5
300.597	370.5
300.827	358.5
301.057	362.5
301.288	346.5
301.518	344.5
301.748	342.5
301.979	361.5
302.209	356.5
302.439	356.5
302.669	345.5
302.9	366.5
303.13	364.5
303.36	337.5
303.59	363.5
303.82	359.5
304.051	364.5
304.281	360.5
304.511	347.5
304.741	353.5
304.971	353.5
305.201	359.5
305.431	331.5
305.661	373.5
305.891	335.5
306.121	378.5
306.352	361.5
306.582	353.5
306.812	354.5
307.042	351.5
307.272	367.5
307.502	366.5
307.731	366.5
307.961	347.5
308.191	360.5
308.421	353.5
308.651	370.5
308.881	377.5
309.111	366.5
309.341	368.5
309.571	373.5
309.8	373.5
310.03	390.5
310.26	384.5
310.49	405.5
310.72	420.5
310.949	417.5
311.179	398.5
311.409	420.5
311.639	413.5
311.868	406.5
312.098	400.5
312.328	403.5
312.557	430.5
312.787	420.5
313.017	424.5
313.246	394.5
313.476	382.5
313.706	389.5
313.935	415.5
314.165	394.5
314.394	425.5
314.624	412.5
314.853	393.5
315.083	405.5
315.312	397.5
315.542	386.5
315.771	387.5
316.001	398.5
316.23	404.5
316.46	389.5
316.689	411.5
316.919	406.5
317.148	403.5
317.377	430.5
317.607	418.5
317.836	393.5
318.065	413.5
318.295	393.5
318.524	408.5
318.753	396.5
318.983	385.5
319.212	395.5
319.441	417.5
319.67	412.5
319.9	419.5
320.129	399.5
320.358	410.5
320.587	415.5
320.816	409.5
321.046	413.5
321.275	411.5
321.504	407.5
321.733	421.5
321.962	449.5
322.191	430.5
322.42	445.5
322.649	459.5
322.878	443.5
323.108	435.5
323.337	483.5
323.566	498.5
323.795	523.5
324.024	540.5
324.253	671.5
324.482	906.5
324.71	1390.5
324.939	2039.5
325.168	1774.5
325.397	889.5
325.626	633.5
325.855	532.5
326.084	517.5
326.313	491.5
326.542	505.5
326.77	537.5
326.999	624.5
327.228	847.5
327.457	1234.5
327.686	1570.5
327.914	1064.5
328.143	665.5
328.372	595.5
328.6	579.5
328.829	530.5
329.058	566.5
329.287	581.5
329.515	551.5
329.744	535.5
329.972	529.5
330.201	546.5
330.43	585.5
330.658	583.5
330.887	621.5
331.115	596.5
331.344	516.5
331.572	525.5
331.801	515.5
332.03	502.5
332.258	501.5
332.486	486.5
332.715	484.5
332.943	476.5
333.172	485.5
333.4	502.5
333.629	513.5
333.857	509.5
334.085	532.5
334.314	533.5
334.542	564.5
334.771	571.5
334.999	528.5
335.227	507.5
335.455	501.5
335.684	493.5
335.912	483.5
336.14	492.5
336.369	453.5
336.597	475.5
336.825	530.5
337.053	495.5
337.281	486.5
337.51	465.5
337.738	477.5
337.966	470.5
338.194	457.5
338.422	489.5
338.65	469.5
338.878	468.5
339.106	463.5
339.334	458.5
339.562	445.5
339.79	451.5
340.018	461.5
340.246	474.5
340.474	484.5
340.702	461.5
340.93	443.5
341.158	447.5
341.386	466.5
341.614	446.5
341.842	439.5
342.07	437.5
342.298	436.5
342.526	434.5
342.754	432.5
342.981	439.5
343.209	439.5
343.437	428.5
343.665	471.5
343.893	490.5
344.12	495.5
344.348	465.5
344.576	469.5
344.804	455.5
345.031	470.5
345.259	466.5
345.487	472.5
345.714	452.5
345.942	439.5
346.17	472.5
346.397	439.5
346.625	435.5
346.853	449.5
347.08	447.5
347.308	440.5
347.535	436.5
347.763	436.5
347.99	442.5
348.218	456.5
348.445	459.5
348.673	461.5
348.9	437.5
349.128	424.5
349.355	443.5
349.583	438.5
349.81	433.5
350.037	420.5
350.265	430.5
350.492	437.5
350.72	415.5
350.947	435.5
351.174	431.5
351.402	441.5
351.629	447.5
351.856	439.5
352.083	458.5
352.311	443.5
352.538	447.5
352.765	438.5
352.992	444.5
353.22	444.5
353.447	426.5
353.674	414.5
353.901	429.5
354.128	441.5
354.355	415.5
354.583	427.5
354.81	410.5
355.037	421.5
355.264	397.5
355.491	398.5
355.718	406.5
355.945	424.5
356.172	432.5
356.399	408.5
356.626	403.5
356.853	415.5
357.08	418.5
357.307	426.5
357.534	412.5
357.761	395.5
357.988	399.5
358.215	422.5
358.441	398.5
358.668	407.5
358.895	429.5
359.122	427.5
359.349	435.5
359.576	442.5
359.802	468.5
360.029	471.5
360.256	474.5
360.483	475.5
360.709	424.5
360.936	434.5
361.163	414.5
361.39	446.5
361.616	436.5
361.843	442.5
362.07	427.5
362.296	418.5
362.523	424.5
362.749	443.5
362.976	413.5
363.203	428.5
363.429	422.5
363.656	436.5
363.882	422.5
364.109	423.5
364.335	443.5
364.562	419.5
364.788	423.5
365.015	429.5
365.241	407.5
365.468	405.5
365.694	444.5
365.92	437.5
366.147	421.5
366.373	423.5
366.599	418.5
366.826	402.5
367.052	427.5
367.278	410.5
367.505	410.5
367.731	429.5
367.957	425.5
368.184	406.5
368.41	427.5
368.636	446.5
368.862	443.5
369.089	446.5
369.315	429.5
369.541	420.5
369.767	420.5
369.993	430.5
370.219	436.5
370.445	428.5
370.672	413.5
370.898	425.5
371.124	403.5
371.35	411.5
371.576	440.5
371.802	440.5
372.028	415.5
372.254	438.5
372.48	421.5
372.706	430.5
372.932	424.5
373.158	419.5
373.384	434.5
373.61	409.5
373.835	431.5
374.061	424.5
374.287	451.5
374.513	430.5
374.739	427.5
374.965	445.5
375.191	463.5
375.416	440.5
375.642	419.5
375.868	427.5
376.094	412.5
376.319	428.5
376.545	440.5
376.771	417.5
376.997	415.5
377.222	409.5
377.448	416.5
377.674	423.5
377.899	389.5
378.125	415.5
378.35	401.5
378.576	432.5
378.802	440.5
379.027	426.5
379.253	429.5
379.478	416.5
379.704	408.5
379.929	442.5
380.155	422.5
380.38	421.5
380.606	430.5
380.831	422.5
381.057	424.5
381.282	438.5
381.507	437.5
381.733	439.5
381.958	426.5
382.184	412.5
382.409	420.5
382.634	439.5
382.86	440.5
383.085	443.5
383.31	438.5
383.535	443.5
383.761	448.5
383.986	446.5
384.211	469.5
384.436	439.5
384.662	454.5
384.887	449.5
385.112	481.5
385.337	463.5
385.562	483.5
385.787	463.5
386.013	470.5
386.238	482.5
386.463	469.5
386.688	497.5
386.913	472.5
387.138	470.5
387.363	459.5
387.588	477.5
387.813	483.5
388.038	474.5
388.263	471.5
388.488	471.5
388.713	484.5
388.938	463.5
389.163	470.5
389.387	475.5
389.612	476.5
389.837	483.5
390.062	468.5
390.287	480.5
390.512	458.5
390.736	454.5
390.961	478.5
391.186	490.5
391.411	486.5
391.636	470.5
391.86	489.5
392.085	504.5
392.31	490.5
392.534	502.5
392.759	477.5
392.984	488.5
393.208	494.5
393.433	498.5
393.658	482.5
393.882	484.5
394.107	474.5
394.331	493.5
394.556	463.5
394.78	485.5
395.005	464.5
395.229	490.5
395.454	485.5
395.678	505.5
395.903	517.5
396.127	538.5
396.352	517.5
396.576	528.5
396.801	488.5
397.025	489.5
397.249	514.5
397.474	513.5
397.698	521.5
397.922	549.5
398.147	539.5
398.371	577.5
398.595	525.5
398.82	544.5
399.044	575.5
399.268	577.5
399.492	619.5
399.717	678.5
399.941	679.5
400.165	699.5
400.389	675.5
400.613	599.5
400.837	582.5
401.062	579.5
401.286	566.5
401.51	580.5
401.734	564.5
401.958	556.5
402.182	569.5
402.406	549.5
402.63	594.5
402.854	569.5
403.078	576.5
403.302	575.5
403.526	573.5
403.75	589.5
403.974	582.5
404.198	574.5
404.422	599.5
404.645	589.5
404.869	593.5
405.093	632.5
405.317	659.5
405.541	690.5
405.765	632.5
405.988	602.5
406.212	614.5
406.436	635.5
406.66	618.5
406.883	632.5
407.107	661.5
407.331	690.5
407.555	771.5
407.778	769.5
408.002	727.5
408.226	653.5
408.449	632.5
408.673	635.5
408.896	651.5
409.12	712.5
409.344	637.5
409.567	609.5
409.791	607.5
410.014	600.5
410.238	586.5
410.461	592.5
410.685	574.5
410.908	583.5
411.132	622.5
411.355	655.5
411.578	646.5
411.802	575.5
412.025	562.5
412.249	590.5
412.472	605.5
412.695	641.5
412.919	634.5
413.142	575.5
413.365	571.5
413.589	539.5
413.812	564.5
414.035	563.5
414.258	577.5
414.482	541.5
414.705	544.5
414.928	552.5
415.151	562.5
415.374	546.5
415.597	539.5
415.821	531.5
416.044	533.5
416.267	548.5
416.49	542.5
416.713	536.5
416.936	529.5
417.159	537.5
417.382	520.5
417.605	558.5
417.828	552.5
418.051	595.5
418.274	565.5
418.497	546.5
418.72	546.5
418.943	550.5
419.166	548.5
419.389	620.5
419.611	595.5
419.834	577.5
420.057	563.5
420.28	556.5
420.503	576.5
420.726	547.5
420.948	593.5
421.171	621.5
421.394	639.5
421.617	606.5
421.839	567.5
422.062	571.5
422.285	575.5
422.507	646.5
422.73	718.5
422.953	690.5
423.175	619.5
423.398	583.5
423.621	603.5
423.843	635.5
424.066	610.5
424.288	595.5
424.511	619.5
424.733	669.5
424.956	742.5
425.178	725.5
425.401	718.5
425.623	755.5
425.846	634.5
426.068	604.5
426.291	599.5
426.513	585.5
426.735	585.5
426.958	650.5
427.18	709.5
427.402	894.5
427.625	939.5
427.847	820.5
428.069	722.5
428.292	645.5
428.514	581.5
428.736	565.5
428.958	561.5
429.181	554.5
429.403	555.5
429.625	568.5
429.847	604.5
430.069	651.5
430.292	653.5
430.514	566.5
430.736	556.5
430.958	557.5
431.18	534.5
431.402	533.5
431.624	511.5
431.846	527.5
432.068	534.5
432.29	547.5
432.512	525.5
432.734	540.5
432.956	525.5
433.178	539.5
433.4	527.5
433.622	519.5
433.844	531.5
434.066	518.5
434.287	521.5
434.509	550.5
434.731	555.5
434.953	540.5
435.175	551.5
435.397	593.5
435.618	594.5
435.84	633.5
436.062	725.5
436.284	821.5
436.505	683.5
436.727	619.5
436.949	581.5
437.17	549.5
437.392	520.5
437.614	559.5
437.835	599.5
438.057	702.5
438.278	777.5
438.5	765.5
438.721	852.5
438.943	813.5
439.165	666.5
439.386	625.5
439.608	606.5
439.829	574.5
440.05	598.5
440.272	656.5
440.493	629.5
440.715	569.5
440.936	579.5
441.158	547.5
441.379	544.5
441.6	582.5
441.822	605.5
442.043	658.5
442.264	737.5
442.486	775.5
442.707	656.5
442.928	597.5
443.149	617.5
443.371	631.5
443.592	666.5
443.813	776.5
444.034	845.5
444.255	715.5
444.476	645.5
444.698	622.5
444.919	628.5
445.14	717.5
445.361	671.5
445.582	666.5
445.803	696.5
446.024	784.5
446.245	805.5
446.466	718.5
446.687	643.5
446.908	607.5
447.129	585.5
447.35	558.5
447.571	531.5
447.792	565.5
448.013	551.5
448.234	588.5
448.455	599.5
448.675	713.5
448.896	814.5
449.117	704.5
449.338	681.5
449.559	793.5
449.779	883.5
450	703.5
450.221	576.5
450.442	535.5
450.662	535.5
450.883	545.5
451.104	534.5
451.324	523.5
451.545	524.5
451.766	505.5
451.986	464.5
452.207	472.5
452.428	464.5
452.648	484.5
452.869	470.5
453.089	495.5
453.31	500.5
453.53	479.5
453.751	464.5
453.971	471.5
454.192	489.5
454.412	484.5
454.633	493.5
454.853	489.5
455.073	487.5
455.294	507.5
455.514	567.5
455.734	574.5
455.955	486.5
456.175	463.5
456.395	472.5
456.616	436.5
456.836	451.5
457.056	456.5
457.276	460.5
457.497	478.5
457.717	469.5
457.937	463.5
458.157	471.5
458.377	484.5
458.598	503.5
458.818	535.5
459.038	620.5
459.258	617.5
459.478	568.5
459.698	545.5
459.918	520.5
460.138	542.5
460.358	541.5
460.578	565.5
460.798	521.5
461.018	544.5
461.238	563.5
461.458	533.5
461.678	523.5
461.898	563.5
462.118	548.5
462.338	579.5
462.558	575.5
462.777	589.5
462.997	561.5
463.217	607.5
463.437	618.5
463.657	609.5
463.876	578.5
464.096	609.5
464.316	602.5
464.536	583.5
464.755	599.5
464.975	570.5
465.195	606.5
465.414	647.5
465.634	590.5
465.854	538.5
466.073	525.5
466.293	518.5
466.512	519.5
466.732	501.5
466.951	524.5
467.171	504.5
467.391	491.5
467.61	502.5
467.829	535.5
468.049	513.5
468.268	505.5
468.488	503.5
468.707	518.5
468.927	495.5
469.146	469.5
469.365	502.5
469.585	497.5
469.804	503.5
470.023	517.5
470.243	525.5
470.462	498.5
470.681	528.5
470.901	505.5
471.12	499.5
471.339	490.5
471.558	518.5
471.777	520.5
471.997	499.5
472.216	499.5
472.435	548.5
472.654	523.5
472.873	483.5
473.092	506.5
473.311	501.5
473.53	507.5
473.749	526.5
473.968	563.5
474.187	653.5
474.406	671.5
474.625	577.5
474.844	541.5
475.063	529.5
475.282	523.5
475.501	511.5
475.72	499.5
475.939	509.5
476.158	517.5
476.377	507.5
476.596	520.5
476.814	529.5
477.033	540.5
477.252	546.5
477.471	528.5
477.69	561.5
477.908	547.5
478.127	576.5
478.346	566.5
478.564	583.5
478.783	585.5
479.002	576.5
479.22	574.5
479.439	576.5
479.658	614.5
479.876	626.5
480.095	622.5
480.313	649.5
480.532	639.5
480.751	633.5
480.969	616.5
481.188	679.5
481.406	719.5
481.624	635.5
481.843	611.5
482.061	586.5
482.28	588.5
482.498	587.5
482.717	577.5
482.935	573.5
483.153	585.5
483.372	614.5
483.59	588.5
483.808	600.5
484.027	568.5
484.245	587.5
484.463	582.5
484.681	612.5
484.9	595.5
485.118	587.5
485.336	607.5
485.554	609.5
485.772	599.5
485.99	602.5
486.209	609.5
486.427	614.5
486.645	616.5
486.863	622.5
487.081	632.5
487.299	645.5
487.517	638.5
487.735	633.5
487.953	613.5
488.171	611.5
488.389	622.5
488.607	645.5
488.825	641.5
489.043	631.5
489.261	614.5
489.479	625.5
489.696	645.5
489.914	647.5
490.132	674.5
490.35	668.5
490.568	675.5
490.786	663.5
491.003	710.5
491.221	710.5
491.439	705.5
491.657	716.5
491.874	746.5
492.092	736.5
492.31	747.5
492.527	717.5
492.745	724.5
492.963	746.5
493.18	733.5
493.398	718.5
493.615	753.5
493.833	729.5
494.05	769.5
494.268	741.5
494.485	743.5
494.703	748.5
494.92	749.5
495.138	728.5
495.355	746.5
495.573	784.5
495.79	741.5
496.008	755.5
496.225	746.5
496.442	751.5
496.66	739.5
496.877	745.5
497.094	758.5
497.312	751.5
497.529	783.5
497.746	799.5
497.963	804.5
498.181	828.5
498.398	837.5
498.615	801.5
498.832	859.5
499.049	891.5
499.267	929.5
499.484	979.5
499.701	1021.5
499.918	1043.5
500.135	1109.5
500.352	1194.5
500.569	1173.5
500.786	1249.5
501.003	1184.5
501.22	1147.5
501.437	1070.5
501.654	1038.5
501.871	1014.5
502.088	942.5
502.305	907.5
502.522	881.5
502.739	862.5
502.956	821.5
503.172	830.5
503.389	787.5
503.606	795.5
503.823	820.5
504.04	760.5
504.256	789.5
504.473	770.5
504.69	739.5
504.907	780.5
505.123	779.5
505.34	715.5
505.557	725.5
505.773	713.5
505.99	699.5
506.207	715.5
506.423	693.5
506.64	702.5
506.856	680.5
507.073	679.5
507.289	689.5
507.506	682.5
507.722	696.5
507.939	700.5
508.155	684.5
508.372	654.5
508.588	670.5
508.805	646.5
509.021	649.5
509.238	700.5
509.454	678.5
509.67	691.5
509.887	663.5
510.103	650.5
510.319	647.5
510.536	733.5
510.752	1090.5
510.968	926.5
511.184	652.5
511.401	610.5
511.617	641.5
511.833	648.5
512.049	627.5
512.265	645.5
512.481	629.5
512.698	652.5
512.914	603.5
513.13	605.5
513.346	605.5
513.562	609.5
513.778	592.5
513.994	607.5
514.21	636.5
514.426	653.5
514.642	650.5
514.858	722.5
515.074	721.5
515.29	823.5
515.506	1115.5
515.721	948.5
515.937	730.5
516.153	677.5
516.369	657.5
516.585	647.5
516.801	655.5
517.016	647.5
517.232	666.5
517.448	660.5
517.664	664.5
517.879	678.5
518.095	689.5
518.311	655.5
518.527	661.5
518.742	654.5
518.958	621.5
519.173	617.5
519.389	635.5
