Data from 1976.PennyLincolnUp.Lamp.En5.5.200Scan.071719.P1.Changed Mount._HRD10591_15-59-59-860.txt Node
Date: Thu Jul 18 15:59:59 EDT 2019
User: cochatt
Spectrometer: HR+D1059
Trigger mode: 1
Integration Time (sec): 1.000000E-1
Scans to average: 1
Electric dark correction enabled: true
Nonlinearity correction enabled: false
Boxcar width: 0
XAxis mode: Wavelengths
Number of Pixels in Spectrum: 2048
>>>>>Begin Spectral Data<<<<<
223.165	-20.06
223.4	-20.06
223.635	-20.06
223.869	-23.06
224.104	-6.06
224.338	-20.06
224.573	-27.06
224.808	-11.06
225.042	-8.06
225.277	3.94
225.511	-5.06
225.746	-0.06
225.98	7.94
226.215	8.94
226.449	11.94
226.683	18.94
226.918	36.94
227.152	31.94
227.387	21.94
227.621	32.94
227.856	39.94
228.09	41.94
228.324	49.94
228.559	65.94
228.793	69.94
229.027	79.94
229.262	91.94
229.496	93.94
229.73	122.94
229.964	132.94
230.199	116.94
230.433	123.94
230.667	94.94
230.901	104.94
231.136	108.94
231.37	108.94
231.604	100.94
231.838	106.94
232.072	98.94
232.306	112.94
232.541	115.94
232.775	116.94
233.009	121.94
233.243	113.94
233.477	126.94
233.711	119.94
233.945	118.94
234.179	122.94
234.413	113.94
234.647	117.94
234.881	125.94
235.115	122.94
235.349	120.94
235.583	110.94
235.817	115.94
236.051	118.94
236.285	113.94
236.519	120.94
236.753	110.94
236.987	123.94
237.221	162.94
237.455	191.94
237.689	169.94
237.922	130.94
238.156	124.94
238.39	131.94
238.624	130.94
238.858	124.94
239.091	122.94
239.325	131.94
239.559	123.94
239.793	120.94
240.027	127.94
240.26	121.94
240.494	139.94
240.728	150.94
240.961	140.94
241.195	144.94
241.429	125.94
241.662	139.94
241.896	134.94
242.13	132.94
242.363	123.94
242.597	124.94
242.83	143.94
243.064	126.94
243.298	126.94
243.531	140.94
243.765	149.94
243.998	132.94
244.232	128.94
244.465	144.94
244.699	146.94
244.932	136.94
245.166	156.94
245.399	147.94
245.633	129.94
245.866	144.94
246.099	130.94
246.333	160.94
246.566	146.94
246.8	144.94
247.033	155.94
247.266	146.94
247.5	159.94
247.733	176.94
247.966	172.94
248.2	166.94
248.433	162.94
248.666	171.94
248.899	160.94
249.133	177.94
249.366	194.94
249.599	192.94
249.832	151.94
250.066	173.94
250.299	177.94
250.532	186.94
250.765	186.94
250.998	215.94
251.231	223.94
251.465	210.94
251.698	183.94
251.931	191.94
252.164	196.94
252.397	183.94
252.63	193.94
252.863	204.94
253.096	198.94
253.329	206.94
253.562	213.94
253.795	206.94
254.028	209.94
254.261	204.94
254.494	203.94
254.727	246.94
254.96	272.94
255.193	255.94
255.426	222.94
255.659	209.94
255.892	216.94
256.124	230.94
256.357	219.94
256.59	206.94
256.823	210.94
257.056	207.94
257.289	202.94
257.521	203.94
257.754	214.94
257.987	211.94
258.22	215.94
258.452	207.94
258.685	212.94
258.918	199.94
259.151	194.94
259.383	209.94
259.616	213.94
259.849	214.94
260.081	230.94
260.314	254.94
260.547	245.94
260.779	231.94
261.012	231.94
261.244	220.94
261.477	218.94
261.71	223.94
261.942	228.94
262.175	218.94
262.407	228.94
262.64	224.94
262.872	192.94
263.105	215.94
263.337	216.94
263.57	211.94
263.802	191.94
264.035	211.94
264.267	219.94
264.499	197.94
264.732	228.94
264.964	218.94
265.197	208.94
265.429	216.94
265.661	221.94
265.894	207.94
266.126	211.94
266.358	222.94
266.591	225.94
266.823	210.94
267.055	225.94
267.287	216.94
267.52	238.94
267.752	219.94
267.984	218.94
268.216	224.94
268.448	222.94
268.681	240.94
268.913	246.94
269.145	233.94
269.377	256.94
269.609	250.94
269.841	257.94
270.073	266.94
270.306	283.94
270.538	297.94
270.77	274.94
271.002	306.94
271.234	286.94
271.466	297.94
271.698	264.94
271.93	297.94
272.162	306.94
272.394	308.94
272.626	285.94
272.858	268.94
273.09	273.94
273.322	272.94
273.553	277.94
273.785	246.94
274.017	268.94
274.249	280.94
274.481	257.94
274.713	262.94
274.945	260.94
275.176	261.94
275.408	258.94
275.64	256.94
275.872	258.94
276.104	269.94
276.335	254.94
276.567	272.94
276.799	268.94
277.031	297.94
277.262	310.94
277.494	306.94
277.726	297.94
277.957	279.94
278.189	274.94
278.421	266.94
278.652	307.94
278.884	272.94
279.115	273.94
279.347	257.94
279.579	261.94
279.81	256.94
280.042	260.94
280.273	272.94
280.505	278.94
280.736	271.94
280.968	271.94
281.199	278.94
281.431	277.94
281.662	267.94
281.894	272.94
282.125	274.94
282.356	280.94
282.588	285.94
282.819	315.94
283.051	278.94
283.282	285.94
283.513	276.94
283.745	271.94
283.976	281.94
284.207	299.94
284.439	300.94
284.67	286.94
284.901	267.94
285.132	293.94
285.364	275.94
285.595	278.94
285.826	272.94
286.057	282.94
286.288	279.94
286.52	276.94
286.751	278.94
286.982	286.94
287.213	294.94
287.444	290.94
287.675	285.94
287.906	274.94
288.138	299.94
288.369	298.94
288.6	308.94
288.831	309.94
289.062	288.94
289.293	286.94
289.524	305.94
289.755	294.94
289.986	294.94
290.217	288.94
290.448	293.94
290.679	303.94
290.91	293.94
291.141	286.94
291.371	294.94
291.602	303.94
291.833	302.94
292.064	298.94
292.295	305.94
292.526	283.94
292.757	275.94
292.987	289.94
293.218	280.94
293.449	292.94
293.68	308.94
293.91	294.94
294.141	288.94
294.372	301.94
294.603	300.94
294.833	285.94
295.064	303.94
295.295	286.94
295.525	306.94
295.756	323.94
295.987	296.94
296.217	337.94
296.448	318.94
296.679	325.94
296.909	312.94
297.14	294.94
297.37	303.94
297.601	312.94
297.831	283.94
298.062	306.94
298.292	307.94
298.523	332.94
298.753	320.94
298.984	323.94
299.214	310.94
299.445	313.94
299.675	320.94
299.905	317.94
300.136	334.94
300.366	311.94
300.597	315.94
300.827	328.94
301.057	325.94
301.288	344.94
301.518	342.94
301.748	320.94
301.979	326.94
302.209	298.94
302.439	348.94
302.669	328.94
302.9	314.94
303.13	330.94
303.36	342.94
303.59	332.94
303.82	340.94
304.051	328.94
304.281	326.94
304.511	349.94
304.741	322.94
304.971	331.94
305.201	335.94
305.431	341.94
305.661	336.94
305.891	320.94
306.121	328.94
306.352	364.94
306.582	332.94
306.812	306.94
307.042	316.94
307.272	334.94
307.502	336.94
307.731	327.94
307.961	331.94
308.191	342.94
308.421	342.94
308.651	335.94
308.881	326.94
309.111	337.94
309.341	353.94
309.571	329.94
309.8	338.94
310.03	345.94
310.26	349.94
310.49	346.94
310.72	355.94
310.949	376.94
311.179	376.94
311.409	354.94
311.639	361.94
311.868	371.94
312.098	350.94
312.328	366.94
312.557	394.94
312.787	386.94
313.017	403.94
313.246	376.94
313.476	374.94
313.706	379.94
313.935	366.94
314.165	394.94
314.394	380.94
314.624	387.94
314.853	369.94
315.083	378.94
315.312	375.94
315.542	378.94
315.771	367.94
316.001	383.94
316.23	385.94
316.46	379.94
316.689	375.94
316.919	369.94
317.148	372.94
317.377	391.94
317.607	387.94
317.836	355.94
318.065	382.94
318.295	361.94
318.524	382.94
318.753	362.94
318.983	376.94
319.212	378.94
319.441	358.94
319.67	360.94
319.9	387.94
320.129	381.94
320.358	370.94
320.587	361.94
320.816	384.94
321.046	382.94
321.275	392.94
321.504	378.94
321.733	377.94
321.962	402.94
322.191	400.94
322.42	397.94
322.649	414.94
322.878	428.94
323.108	404.94
323.337	436.94
323.566	456.94
323.795	475.94
324.024	483.94
324.253	552.94
324.482	761.94
324.71	1173.94
324.939	1662.94
325.168	1470.94
325.397	786.94
325.626	552.94
325.855	455.94
326.084	449.94
326.313	445.94
326.542	459.94
326.77	477.94
326.999	542.94
327.228	693.94
327.457	1022.94
327.686	1289.94
327.914	865.94
328.143	588.94
328.372	531.94
328.6	483.94
328.829	482.94
329.058	499.94
329.287	480.94
329.515	486.94
329.744	457.94
329.972	461.94
330.201	461.94
330.43	488.94
330.658	522.94
330.887	554.94
331.115	526.94
331.344	471.94
331.572	450.94
331.801	457.94
332.03	465.94
332.258	467.94
332.486	451.94
332.715	435.94
332.943	425.94
333.172	466.94
333.4	427.94
333.629	447.94
333.857	464.94
334.085	478.94
334.314	500.94
334.542	520.94
334.771	482.94
334.999	488.94
335.227	463.94
335.455	473.94
335.684	446.94
335.912	451.94
336.14	449.94
336.369	427.94
336.597	457.94
336.825	443.94
337.053	435.94
337.281	423.94
337.51	430.94
337.738	433.94
337.966	424.94
338.194	434.94
338.422	415.94
338.65	431.94
338.878	442.94
339.106	429.94
339.334	414.94
339.562	437.94
339.79	425.94
340.018	415.94
340.246	394.94
340.474	414.94
340.702	423.94
340.93	419.94
341.158	420.94
341.386	426.94
341.614	401.94
341.842	417.94
342.07	424.94
342.298	407.94
342.526	414.94
342.754	414.94
342.981	426.94
343.209	407.94
343.437	453.94
343.665	434.94
343.893	435.94
344.12	459.94
344.348	464.94
344.576	453.94
344.804	432.94
345.031	438.94
345.259	450.94
345.487	415.94
345.714	440.94
345.942	388.94
346.17	408.94
346.397	378.94
346.625	415.94
346.853	394.94
347.08	393.94
347.308	405.94
347.535	408.94
347.763	426.94
347.99	417.94
348.218	403.94
348.445	407.94
348.673	400.94
348.9	416.94
349.128	418.94
349.355	379.94
349.583	406.94
349.81	392.94
350.037	375.94
350.265	390.94
350.492	397.94
350.72	399.94
350.947	391.94
351.174	402.94
351.402	406.94
351.629	364.94
351.856	399.94
352.083	406.94
352.311	407.94
352.538	388.94
352.765	418.94
352.992	415.94
353.22	406.94
353.447	377.94
353.674	396.94
353.901	394.94
354.128	385.94
354.355	369.94
354.583	378.94
354.81	376.94
355.037	373.94
355.264	389.94
355.491	387.94
355.718	375.94
355.945	388.94
356.172	371.94
356.399	369.94
356.626	383.94
356.853	377.94
357.08	378.94
357.307	367.94
357.534	393.94
357.761	376.94
357.988	372.94
358.215	384.94
358.441	388.94
358.668	393.94
358.895	393.94
359.122	396.94
359.349	403.94
359.576	400.94
359.802	404.94
360.029	417.94
360.256	453.94
360.483	416.94
360.709	408.94
360.936	404.94
361.163	391.94
361.39	389.94
361.616	396.94
361.843	399.94
362.07	415.94
362.296	399.94
362.523	414.94
362.749	390.94
362.976	392.94
363.203	404.94
363.429	387.94
363.656	383.94
363.882	381.94
364.109	404.94
364.335	399.94
364.562	391.94
364.788	386.94
365.015	426.94
365.241	379.94
365.468	395.94
365.694	379.94
365.92	387.94
366.147	385.94
366.373	395.94
366.599	383.94
366.826	386.94
367.052	392.94
367.278	392.94
367.505	385.94
367.731	391.94
367.957	389.94
368.184	391.94
368.41	403.94
368.636	405.94
368.862	400.94
369.089	389.94
369.315	386.94
369.541	386.94
369.767	388.94
369.993	396.94
370.219	385.94
370.445	401.94
370.672	401.94
370.898	392.94
371.124	390.94
371.35	400.94
371.576	406.94
371.802	382.94
372.028	393.94
372.254	404.94
372.48	402.94
372.706	397.94
372.932	404.94
373.158	411.94
373.384	414.94
373.61	398.94
373.835	415.94
374.061	392.94
374.287	395.94
374.513	408.94
374.739	414.94
374.965	413.94
375.191	401.94
375.416	412.94
375.642	403.94
375.868	406.94
376.094	390.94
376.319	411.94
376.545	405.94
376.771	382.94
376.997	408.94
377.222	410.94
377.448	391.94
377.674	406.94
377.899	400.94
378.125	393.94
378.35	395.94
378.576	402.94
378.802	378.94
379.027	417.94
379.253	411.94
379.478	409.94
379.704	408.94
379.929	394.94
380.155	403.94
380.38	388.94
380.606	395.94
380.831	377.94
381.057	399.94
381.282	404.94
381.507	410.94
381.733	411.94
381.958	401.94
382.184	423.94
382.409	414.94
382.634	410.94
382.86	427.94
383.085	419.94
383.31	396.94
383.535	392.94
383.761	425.94
383.986	434.94
384.211	451.94
384.436	411.94
384.662	430.94
384.887	449.94
385.112	425.94
385.337	446.94
385.562	441.94
385.787	424.94
386.013	444.94
386.238	467.94
386.463	460.94
386.688	463.94
386.913	455.94
387.138	446.94
387.363	453.94
387.588	439.94
387.813	442.94
388.038	440.94
388.263	437.94
388.488	442.94
388.713	450.94
388.938	437.94
389.163	442.94
389.387	461.94
389.612	436.94
389.837	440.94
390.062	443.94
390.287	436.94
390.512	470.94
390.736	442.94
390.961	443.94
391.186	459.94
391.411	471.94
391.636	467.94
391.86	466.94
392.085	471.94
392.31	476.94
392.534	466.94
392.759	483.94
392.984	443.94
393.208	442.94
393.433	445.94
393.658	462.94
393.882	442.94
394.107	460.94
394.331	467.94
394.556	455.94
394.78	455.94
395.005	455.94
395.229	452.94
395.454	462.94
395.678	480.94
395.903	475.94
396.127	492.94
396.352	491.94
396.576	470.94
396.801	461.94
397.025	452.94
397.249	483.94
397.474	472.94
397.698	472.94
397.922	538.94
398.147	491.94
398.371	511.94
398.595	476.94
398.82	500.94
399.044	499.94
399.268	546.94
399.492	584.94
399.717	638.94
399.941	652.94
400.165	645.94
400.389	667.94
400.613	613.94
400.837	550.94
401.062	522.94
401.286	505.94
401.51	522.94
401.734	516.94
401.958	524.94
402.182	555.94
402.406	525.94
402.63	537.94
402.854	523.94
403.078	566.94
403.302	546.94
403.526	562.94
403.75	521.94
403.974	530.94
404.198	532.94
404.422	536.94
404.645	568.94
404.869	550.94
405.093	552.94
405.317	601.94
405.541	646.94
405.765	582.94
405.988	571.94
406.212	569.94
406.436	553.94
406.66	577.94
406.883	584.94
407.107	587.94
407.331	639.94
407.555	700.94
407.778	706.94
408.002	640.94
408.226	624.94
408.449	582.94
408.673	564.94
408.896	644.94
409.12	653.94
409.344	624.94
409.567	559.94
409.791	549.94
410.014	539.94
410.238	531.94
410.461	536.94
410.685	526.94
410.908	546.94
411.132	571.94
411.355	630.94
411.578	571.94
411.802	534.94
412.025	534.94
412.249	537.94
412.472	547.94
412.695	576.94
412.919	569.94
413.142	522.94
413.365	523.94
413.589	515.94
413.812	513.94
414.035	515.94
414.258	502.94
414.482	497.94
414.705	514.94
414.928	511.94
415.151	501.94
415.374	500.94
415.597	491.94
415.821	489.94
416.044	511.94
416.267	530.94
416.49	513.94
416.713	484.94
416.936	493.94
417.159	498.94
417.382	520.94
417.605	512.94
417.828	528.94
418.051	525.94
418.274	538.94
418.497	524.94
418.72	510.94
418.943	483.94
419.166	533.94
419.389	569.94
419.611	541.94
419.834	543.94
420.057	546.94
420.28	565.94
420.503	522.94
420.726	542.94
420.948	553.94
421.171	578.94
421.394	590.94
421.617	581.94
421.839	510.94
422.062	531.94
422.285	515.94
422.507	586.94
422.73	629.94
422.953	660.94
423.175	575.94
423.398	544.94
423.621	541.94
423.843	566.94
424.066	556.94
424.288	580.94
424.511	587.94
424.733	625.94
424.956	704.94
425.178	658.94
425.401	646.94
425.623	702.94
425.846	573.94
426.068	550.94
426.291	558.94
426.513	545.94
426.735	545.94
426.958	590.94
427.18	642.94
427.402	768.94
427.625	866.94
427.847	766.94
428.069	660.94
428.292	583.94
428.514	538.94
428.736	518.94
428.958	528.94
429.181	516.94
429.403	512.94
429.625	513.94
429.847	523.94
430.069	592.94
430.292	596.94
430.514	527.94
430.736	532.94
430.958	508.94
431.18	487.94
431.402	478.94
431.624	480.94
431.846	466.94
432.068	460.94
432.29	494.94
432.512	475.94
432.734	498.94
432.956	508.94
433.178	491.94
433.4	502.94
433.622	508.94
433.844	498.94
434.066	487.94
434.287	498.94
434.509	486.94
434.731	521.94
434.953	515.94
435.175	520.94
435.397	550.94
435.618	553.94
435.84	580.94
436.062	646.94
436.284	719.94
436.505	589.94
436.727	559.94
436.949	532.94
437.17	500.94
437.392	510.94
437.614	504.94
437.835	539.94
438.057	627.94
438.278	732.94
438.5	709.94
438.721	774.94
438.943	784.94
439.165	603.94
439.386	550.94
439.608	556.94
439.829	544.94
440.05	565.94
440.272	610.94
440.493	598.94
440.715	545.94
440.936	505.94
441.158	518.94
441.379	519.94
441.6	552.94
441.822	551.94
442.043	590.94
442.264	667.94
442.486	704.94
442.707	628.94
442.928	561.94
443.149	578.94
443.371	592.94
443.592	628.94
443.813	707.94
444.034	753.94
444.255	650.94
444.476	572.94
444.698	584.94
444.919	607.94
445.14	674.94
445.361	633.94
445.582	580.94
445.803	620.94
446.024	744.94
446.245	758.94
446.466	696.94
446.687	610.94
446.908	540.94
447.129	525.94
447.35	498.94
447.571	494.94
447.792	498.94
448.013	498.94
448.234	504.94
448.455	525.94
448.675	676.94
448.896	795.94
449.117	659.94
449.338	600.94
449.559	716.94
449.779	817.94
450	644.94
450.221	512.94
450.442	475.94
450.662	513.94
450.883	499.94
451.104	494.94
451.324	483.94
451.545	460.94
451.766	451.94
451.986	450.94
452.207	450.94
452.428	424.94
452.648	456.94
452.869	455.94
453.089	448.94
453.31	470.94
453.53	468.94
453.751	425.94
453.971	442.94
454.192	462.94
454.412	433.94
454.633	430.94
454.853	436.94
455.073	447.94
455.294	465.94
455.514	524.94
455.734	517.94
455.955	459.94
456.175	429.94
456.395	431.94
456.616	428.94
456.836	421.94
457.056	427.94
457.276	417.94
457.497	430.94
457.717	425.94
457.937	431.94
458.157	456.94
458.377	428.94
458.598	463.94
458.818	486.94
459.038	555.94
459.258	588.94
459.478	514.94
459.698	484.94
459.918	483.94
460.138	517.94
460.358	484.94
460.578	487.94
460.798	491.94
461.018	505.94
461.238	518.94
461.458	503.94
461.678	491.94
461.898	521.94
462.118	499.94
462.338	527.94
462.558	521.94
462.777	531.94
462.997	570.94
463.217	592.94
463.437	584.94
463.657	542.94
463.876	561.94
464.096	558.94
464.316	567.94
464.536	559.94
464.755	561.94
464.975	566.94
465.195	556.94
465.414	591.94
465.634	547.94
465.854	534.94
466.073	504.94
466.293	488.94
466.512	481.94
466.732	462.94
466.951	470.94
467.171	451.94
467.391	446.94
467.61	453.94
467.829	473.94
468.049	464.94
468.268	474.94
468.488	468.94
468.707	447.94
468.927	454.94
469.146	467.94
469.365	458.94
469.585	459.94
469.804	468.94
470.023	474.94
470.243	480.94
470.462	490.94
470.681	492.94
470.901	478.94
471.12	472.94
471.339	475.94
471.558	472.94
471.777	474.94
471.997	435.94
472.216	464.94
472.435	481.94
472.654	461.94
472.873	480.94
473.092	470.94
473.311	470.94
473.53	472.94
473.749	466.94
473.968	493.94
474.187	594.94
474.406	627.94
474.625	523.94
474.844	490.94
475.063	466.94
475.282	453.94
475.501	457.94
475.72	470.94
475.939	468.94
476.158	473.94
476.377	479.94
476.596	487.94
476.814	486.94
477.033	503.94
477.252	497.94
477.471	494.94
477.69	527.94
477.908	496.94
478.127	517.94
478.346	515.94
478.564	544.94
478.783	537.94
479.002	558.94
479.22	535.94
479.439	545.94
479.658	543.94
479.876	548.94
480.095	568.94
480.313	597.94
480.532	592.94
480.751	561.94
480.969	568.94
481.188	610.94
481.406	612.94
481.624	595.94
481.843	564.94
482.061	524.94
482.28	533.94
482.498	562.94
482.717	536.94
482.935	549.94
483.153	550.94
483.372	553.94
483.59	570.94
483.808	545.94
484.027	534.94
484.245	548.94
484.463	558.94
484.681	558.94
484.9	559.94
485.118	551.94
485.336	566.94
485.554	562.94
485.772	572.94
485.99	593.94
486.209	568.94
486.427	566.94
486.645	570.94
486.863	578.94
487.081	562.94
487.299	580.94
487.517	595.94
487.735	571.94
487.953	592.94
488.171	572.94
488.389	600.94
488.607	583.94
488.825	585.94
489.043	566.94
489.261	583.94
489.479	590.94
489.696	603.94
489.914	620.94
490.132	599.94
490.35	609.94
490.568	624.94
490.786	598.94
491.003	601.94
491.221	615.94
491.439	615.94
491.657	636.94
491.874	658.94
492.092	646.94
492.31	667.94
492.527	670.94
492.745	674.94
492.963	687.94
493.18	676.94
493.398	696.94
493.615	697.94
493.833	700.94
494.05	683.94
494.268	689.94
494.485	682.94
494.703	672.94
494.92	678.94
495.138	677.94
495.355	674.94
495.573	703.94
495.79	694.94
496.008	676.94
496.225	681.94
496.442	700.94
496.66	699.94
496.877	680.94
497.094	694.94
497.312	708.94
497.529	705.94
497.746	743.94
497.963	720.94
498.181	755.94
498.398	755.94
498.615	781.94
498.832	799.94
499.049	826.94
499.267	861.94
499.484	896.94
499.701	922.94
499.918	965.94
500.135	1059.94
500.352	1101.94
500.569	1099.94
500.786	1095.94
501.003	1113.94
501.22	1078.94
501.437	1006.94
501.654	968.94
