Data from 1976.PennyLincolnUp.Lamp.En5.5.200Scan.071719.P1.Changed Mount._HRD10591_16-02-07-895.txt Node
Date: Thu Jul 18 16:02:07 EDT 2019
User: cochatt
Spectrometer: HR+D1059
Trigger mode: 1
Integration Time (sec): 1.000000E-1
Scans to average: 1
Electric dark correction enabled: true
Nonlinearity correction enabled: false
Boxcar width: 0
XAxis mode: Wavelengths
Number of Pixels in Spectrum: 2048
>>>>>Begin Spectral Data<<<<<
223.165	-12.38
223.4	-12.38
223.635	-12.38
223.869	-33.38
224.104	-13.38
224.338	-9.38
224.573	-1.38
224.808	0.62
225.042	0.62
225.277	-14.38
225.511	-13.38
225.746	-1.38
225.98	10.62
226.215	9.62
226.449	9.62
226.683	25.62
226.918	21.62
227.152	20.62
227.387	26.62
227.621	48.62
227.856	36.62
228.09	33.62
228.324	53.62
228.559	53.62
228.793	47.62
229.027	97.62
229.262	87.62
229.496	105.62
229.73	125.62
229.964	151.62
230.199	133.62
230.433	109.62
230.667	122.62
230.901	121.62
231.136	111.62
231.37	121.62
231.604	128.62
231.838	116.62
232.072	102.62
232.306	113.62
232.541	100.62
232.775	120.62
233.009	111.62
233.243	123.62
233.477	120.62
233.711	113.62
233.945	121.62
234.179	116.62
234.413	106.62
234.647	121.62
234.881	120.62
235.115	115.62
235.349	123.62
235.583	126.62
235.817	123.62
236.051	119.62
236.285	121.62
236.519	122.62
236.753	137.62
236.987	141.62
237.221	164.62
237.455	223.62
237.689	196.62
237.922	138.62
238.156	139.62
238.39	134.62
238.624	125.62
238.858	133.62
239.091	115.62
239.325	125.62
239.559	121.62
239.793	115.62
240.027	121.62
240.26	135.62
240.494	155.62
240.728	151.62
240.961	163.62
241.195	133.62
241.429	140.62
241.662	132.62
241.896	129.62
242.13	131.62
242.363	140.62
242.597	135.62
242.83	157.62
243.064	151.62
243.298	145.62
243.531	138.62
243.765	145.62
243.998	157.62
244.232	154.62
244.465	157.62
244.699	160.62
244.932	141.62
245.166	151.62
245.399	140.62
245.633	150.62
245.866	148.62
246.099	153.62
246.333	157.62
246.566	153.62
246.8	155.62
247.033	155.62
247.266	170.62
247.5	154.62
247.733	167.62
247.966	168.62
248.2	174.62
248.433	171.62
248.666	197.62
248.899	183.62
249.133	201.62
249.366	212.62
249.599	209.62
249.832	185.62
250.066	190.62
250.299	178.62
250.532	200.62
250.765	207.62
250.998	225.62
251.231	237.62
251.465	209.62
251.698	213.62
251.931	201.62
252.164	176.62
252.397	190.62
252.63	201.62
252.863	230.62
253.096	230.62
253.329	229.62
253.562	228.62
253.795	230.62
254.028	233.62
254.261	218.62
254.494	221.62
254.727	265.62
254.96	299.62
255.193	275.62
255.426	259.62
255.659	247.62
255.892	229.62
256.124	244.62
256.357	239.62
256.59	240.62
256.823	222.62
257.056	213.62
257.289	209.62
257.521	226.62
257.754	207.62
257.987	236.62
258.22	214.62
258.452	202.62
258.685	210.62
258.918	205.62
259.151	230.62
259.383	237.62
259.616	235.62
259.849	217.62
260.081	244.62
260.314	263.62
260.547	262.62
260.779	251.62
261.012	248.62
261.244	235.62
261.477	219.62
261.71	230.62
261.942	240.62
262.175	255.62
262.407	239.62
262.64	215.62
262.872	216.62
263.105	235.62
263.337	226.62
263.57	238.62
263.802	225.62
264.035	215.62
264.267	240.62
264.499	223.62
264.732	226.62
264.964	225.62
265.197	226.62
265.429	241.62
265.661	231.62
265.894	242.62
266.126	244.62
266.358	239.62
266.591	217.62
266.823	235.62
267.055	241.62
267.287	232.62
267.52	211.62
267.752	235.62
267.984	244.62
268.216	217.62
268.448	255.62
268.681	233.62
268.913	249.62
269.145	268.62
269.377	277.62
269.609	285.62
269.841	278.62
270.073	289.62
270.306	296.62
270.538	318.62
270.77	339.62
271.002	313.62
271.234	305.62
271.466	311.62
271.698	321.62
271.93	322.62
272.162	337.62
272.394	323.62
272.626	316.62
272.858	310.62
273.09	289.62
273.322	303.62
273.553	278.62
273.785	292.62
274.017	269.62
274.249	266.62
274.481	281.62
274.713	263.62
274.945	285.62
275.176	275.62
275.408	298.62
275.64	285.62
275.872	298.62
276.104	261.62
276.335	285.62
276.567	299.62
276.799	304.62
277.031	319.62
277.262	335.62
277.494	330.62
277.726	336.62
277.957	311.62
278.189	309.62
278.421	312.62
278.652	301.62
278.884	305.62
279.115	297.62
279.347	286.62
279.579	278.62
279.81	279.62
280.042	280.62
280.273	281.62
280.505	288.62
280.736	301.62
280.968	291.62
281.199	288.62
281.431	285.62
281.662	285.62
281.894	272.62
282.125	307.62
282.356	307.62
282.588	338.62
282.819	320.62
283.051	306.62
283.282	284.62
283.513	295.62
283.745	304.62
283.976	310.62
284.207	281.62
284.439	294.62
284.67	306.62
284.901	321.62
285.132	290.62
285.364	305.62
285.595	314.62
285.826	306.62
286.057	317.62
286.288	317.62
286.52	311.62
286.751	321.62
286.982	322.62
287.213	294.62
287.444	312.62
287.675	307.62
287.906	314.62
288.138	330.62
288.369	331.62
288.6	325.62
288.831	318.62
289.062	337.62
289.293	322.62
289.524	315.62
289.755	313.62
289.986	306.62
290.217	325.62
290.448	320.62
290.679	311.62
290.91	290.62
291.141	319.62
291.371	319.62
291.602	317.62
291.833	313.62
292.064	326.62
292.295	319.62
292.526	322.62
292.757	314.62
292.987	335.62
293.218	307.62
293.449	330.62
293.68	337.62
293.91	325.62
294.141	347.62
294.372	308.62
294.603	308.62
294.833	323.62
295.064	325.62
295.295	316.62
295.525	308.62
295.756	331.62
295.987	309.62
296.217	354.62
296.448	356.62
296.679	337.62
296.909	341.62
297.14	316.62
297.37	339.62
297.601	346.62
297.831	331.62
298.062	350.62
298.292	337.62
298.523	317.62
298.753	358.62
298.984	335.62
299.214	329.62
299.445	343.62
299.675	327.62
299.905	339.62
300.136	339.62
300.366	327.62
300.597	330.62
300.827	342.62
301.057	356.62
301.288	347.62
301.518	353.62
301.748	349.62
301.979	357.62
302.209	359.62
302.439	368.62
302.669	360.62
302.9	355.62
303.13	363.62
303.36	381.62
303.59	362.62
303.82	373.62
304.051	373.62
304.281	372.62
304.511	368.62
304.741	365.62
304.971	353.62
305.201	346.62
305.431	362.62
305.661	336.62
305.891	338.62
306.121	353.62
306.352	344.62
306.582	371.62
306.812	365.62
307.042	361.62
307.272	357.62
307.502	345.62
307.731	375.62
307.961	373.62
308.191	364.62
308.421	339.62
308.651	376.62
308.881	376.62
309.111	382.62
309.341	355.62
309.571	379.62
309.8	373.62
310.03	383.62
310.26	391.62
310.49	394.62
310.72	395.62
310.949	410.62
311.179	423.62
311.409	398.62
311.639	407.62
311.868	403.62
312.098	403.62
312.328	430.62
312.557	419.62
312.787	442.62
313.017	429.62
313.246	408.62
313.476	399.62
313.706	401.62
313.935	394.62
314.165	415.62
314.394	408.62
314.624	439.62
314.853	411.62
315.083	391.62
315.312	385.62
315.542	390.62
315.771	415.62
316.001	386.62
316.23	385.62
316.46	394.62
316.689	407.62
316.919	403.62
317.148	423.62
317.377	423.62
317.607	405.62
317.836	397.62
318.065	399.62
318.295	392.62
318.524	403.62
318.753	417.62
318.983	413.62
319.212	394.62
319.441	416.62
319.67	433.62
319.9	405.62
320.129	399.62
320.358	405.62
320.587	416.62
320.816	411.62
321.046	433.62
321.275	419.62
321.504	414.62
321.733	419.62
321.962	426.62
322.191	430.62
322.42	450.62
322.649	448.62
322.878	442.62
323.108	464.62
323.337	495.62
323.566	510.62
323.795	509.62
324.024	556.62
324.253	663.62
324.482	895.62
324.71	1407.62
324.939	2063.62
325.168	1798.62
325.397	913.62
325.626	622.62
325.855	539.62
326.084	484.62
326.313	495.62
326.542	503.62
326.77	528.62
326.999	635.62
327.228	848.62
327.457	1256.62
327.686	1533.62
327.914	1034.62
328.143	673.62
328.372	625.62
328.6	574.62
328.829	563.62
329.058	543.62
329.287	560.62
329.515	573.62
329.744	513.62
329.972	514.62
330.201	524.62
330.43	561.62
330.658	589.62
330.887	601.62
331.115	588.62
331.344	529.62
331.572	510.62
331.801	525.62
332.03	501.62
332.258	500.62
332.486	509.62
332.715	487.62
332.943	476.62
333.172	498.62
333.4	519.62
333.629	503.62
333.857	517.62
334.085	538.62
334.314	547.62
334.542	579.62
334.771	566.62
334.999	552.62
335.227	541.62
335.455	507.62
335.684	514.62
335.912	486.62
336.14	480.62
336.369	481.62
336.597	475.62
336.825	483.62
337.053	469.62
337.281	470.62
337.51	474.62
337.738	470.62
337.966	464.62
338.194	489.62
338.422	497.62
338.65	459.62
338.878	471.62
339.106	456.62
339.334	461.62
339.562	473.62
339.79	459.62
340.018	441.62
340.246	455.62
340.474	465.62
340.702	481.62
340.93	444.62
341.158	449.62
341.386	475.62
341.614	472.62
341.842	440.62
342.07	460.62
342.298	473.62
342.526	453.62
342.754	435.62
342.981	435.62
343.209	468.62
343.437	445.62
343.665	460.62
343.893	488.62
344.12	477.62
344.348	462.62
344.576	483.62
344.804	490.62
345.031	481.62
345.259	480.62
345.487	470.62
345.714	468.62
345.942	455.62
346.17	461.62
346.397	437.62
346.625	443.62
346.853	427.62
347.08	433.62
347.308	431.62
347.535	459.62
347.763	452.62
347.99	453.62
348.218	450.62
348.445	453.62
348.673	437.62
348.9	424.62
349.128	439.62
349.355	435.62
349.583	422.62
349.81	413.62
350.037	431.62
350.265	416.62
350.492	453.62
350.72	429.62
350.947	418.62
351.174	419.62
351.402	463.62
351.629	432.62
351.856	444.62
352.083	442.62
352.311	442.62
352.538	458.62
352.765	455.62
352.992	444.62
353.22	448.62
353.447	440.62
353.674	414.62
353.901	433.62
354.128	437.62
354.355	433.62
354.583	435.62
354.81	419.62
355.037	427.62
355.264	430.62
355.491	417.62
355.718	393.62
355.945	425.62
356.172	408.62
356.399	419.62
356.626	407.62
356.853	412.62
357.08	423.62
357.307	414.62
357.534	403.62
357.761	416.62
357.988	395.62
358.215	423.62
358.441	426.62
358.668	415.62
358.895	424.62
359.122	413.62
359.349	433.62
359.576	423.62
359.802	449.62
360.029	461.62
360.256	483.62
360.483	469.62
360.709	437.62
360.936	461.62
361.163	459.62
361.39	429.62
361.616	451.62
361.843	428.62
362.07	455.62
362.296	433.62
362.523	431.62
362.749	433.62
362.976	435.62
363.203	440.62
363.429	410.62
363.656	414.62
363.882	418.62
364.109	417.62
364.335	430.62
364.562	396.62
364.788	413.62
365.015	424.62
365.241	417.62
365.468	426.62
365.694	426.62
365.92	440.62
366.147	425.62
366.373	417.62
366.599	411.62
366.826	433.62
367.052	407.62
367.278	439.62
367.505	437.62
367.731	411.62
367.957	403.62
368.184	408.62
368.41	437.62
368.636	429.62
368.862	432.62
369.089	438.62
369.315	468.62
369.541	435.62
369.767	422.62
369.993	407.62
370.219	420.62
370.445	420.62
370.672	413.62
370.898	430.62
371.124	443.62
371.35	412.62
371.576	418.62
371.802	431.62
372.028	444.62
372.254	435.62
372.48	431.62
372.706	429.62
372.932	446.62
373.158	419.62
373.384	433.62
373.61	443.62
373.835	442.62
374.061	435.62
374.287	433.62
374.513	429.62
374.739	457.62
374.965	425.62
375.191	436.62
375.416	454.62
375.642	429.62
375.868	442.62
376.094	424.62
376.319	432.62
376.545	439.62
376.771	424.62
376.997	411.62
377.222	431.62
377.448	431.62
377.674	453.62
377.899	436.62
378.125	447.62
378.35	409.62
378.576	410.62
378.802	412.62
379.027	429.62
379.253	396.62
379.478	425.62
379.704	419.62
379.929	415.62
380.155	437.62
380.38	441.62
380.606	439.62
380.831	402.62
381.057	449.62
381.282	422.62
381.507	433.62
381.733	442.62
381.958	430.62
382.184	430.62
382.409	450.62
382.634	442.62
382.86	448.62
383.085	440.62
383.31	453.62
383.535	466.62
383.761	449.62
383.986	465.62
384.211	487.62
384.436	482.62
384.662	469.62
384.887	474.62
385.112	453.62
385.337	485.62
385.562	471.62
385.787	450.62
386.013	473.62
386.238	489.62
386.463	496.62
386.688	473.62
386.913	479.62
387.138	491.62
387.363	487.62
387.588	476.62
387.813	451.62
388.038	469.62
388.263	469.62
388.488	482.62
388.713	486.62
388.938	482.62
389.163	475.62
389.387	486.62
389.612	481.62
389.837	476.62
390.062	488.62
390.287	474.62
390.512	481.62
390.736	471.62
390.961	489.62
391.186	498.62
391.411	488.62
391.636	475.62
391.86	487.62
392.085	495.62
392.31	501.62
392.534	505.62
392.759	509.62
392.984	508.62
393.208	486.62
393.433	481.62
393.658	464.62
393.882	482.62
394.107	479.62
394.331	472.62
394.556	481.62
394.78	507.62
395.005	509.62
395.229	512.62
395.454	497.62
395.678	509.62
395.903	531.62
396.127	512.62
396.352	537.62
396.576	509.62
396.801	518.62
397.025	505.62
397.249	531.62
397.474	520.62
397.698	507.62
397.922	537.62
398.147	548.62
398.371	545.62
398.595	548.62
398.82	546.62
399.044	564.62
399.268	602.62
399.492	644.62
399.717	670.62
399.941	709.62
400.165	709.62
400.389	711.62
400.613	629.62
400.837	591.62
401.062	599.62
401.286	578.62
401.51	552.62
401.734	573.62
401.958	563.62
402.182	574.62
402.406	560.62
402.63	560.62
402.854	558.62
403.078	561.62
403.302	579.62
403.526	571.62
403.75	590.62
403.974	570.62
404.198	592.62
404.422	599.62
404.645	597.62
404.869	598.62
405.093	627.62
405.317	650.62
405.541	712.62
405.765	640.62
405.988	625.62
406.212	618.62
406.436	633.62
406.66	651.62
406.883	631.62
407.107	665.62
407.331	688.62
407.555	753.62
407.778	736.62
408.002	710.62
408.226	641.62
408.449	654.62
408.673	665.62
408.896	657.62
409.12	682.62
409.344	678.62
409.567	622.62
409.791	610.62
410.014	595.62
410.238	594.62
410.461	577.62
410.685	601.62
410.908	619.62
411.132	647.62
411.355	659.62
411.578	629.62
411.802	593.62
412.025	561.62
412.249	593.62
412.472	618.62
412.695	650.62
412.919	637.62
413.142	614.62
413.365	579.62
413.589	562.62
413.812	579.62
414.035	554.62
414.258	538.62
414.482	546.62
414.705	548.62
414.928	558.62
415.151	570.62
415.374	533.62
415.597	557.62
415.821	526.62
416.044	537.62
416.267	566.62
416.49	539.62
416.713	511.62
416.936	547.62
417.159	545.62
417.382	546.62
417.605	578.62
417.828	539.62
418.051	561.62
418.274	565.62
418.497	555.62
418.72	555.62
418.943	546.62
419.166	586.62
419.389	617.62
419.611	621.62
419.834	593.62
420.057	580.62
420.28	591.62
420.503	590.62
420.726	592.62
420.948	593.62
421.171	627.62
421.394	645.62
421.617	602.62
421.839	574.62
422.062	553.62
422.285	599.62
422.507	634.62
422.73	708.62
422.953	685.62
423.175	586.62
423.398	582.62
423.621	623.62
423.843	609.62
424.066	613.62
424.288	607.62
424.511	642.62
424.733	651.62
424.956	762.62
425.178	734.62
425.401	723.62
425.623	728.62
425.846	671.62
426.068	615.62
426.291	579.62
426.513	603.62
426.735	610.62
426.958	643.62
427.18	729.62
427.402	872.62
427.625	924.62
427.847	809.62
428.069	702.62
428.292	655.62
428.514	591.62
428.736	573.62
428.958	590.62
429.181	549.62
429.403	555.62
429.625	553.62
429.847	607.62
430.069	667.62
430.292	655.62
430.514	587.62
430.736	549.62
430.958	531.62
431.18	535.62
431.402	528.62
431.624	542.62
431.846	530.62
432.068	530.62
432.29	511.62
432.512	505.62
432.734	517.62
432.956	531.62
433.178	550.62
433.4	569.62
433.622	534.62
433.844	535.62
434.066	523.62
434.287	527.62
434.509	536.62
434.731	545.62
434.953	568.62
435.175	577.62
435.397	603.62
435.618	603.62
435.84	609.62
436.062	705.62
436.284	791.62
436.505	665.62
436.727	590.62
436.949	576.62
437.17	538.62
437.392	543.62
437.614	575.62
437.835	574.62
438.057	697.62
438.278	794.62
438.5	806.62
438.721	875.62
438.943	823.62
439.165	649.62
439.386	617.62
439.608	626.62
439.829	589.62
440.05	617.62
440.272	665.62
440.493	641.62
440.715	597.62
440.936	546.62
441.158	563.62
441.379	546.62
441.6	590.62
441.822	602.62
442.043	628.62
442.264	724.62
442.486	763.62
442.707	682.62
442.928	597.62
443.149	643.62
443.371	625.62
443.592	675.62
443.813	771.62
444.034	861.62
444.255	728.62
444.476	657.62
444.698	615.62
444.919	613.62
445.14	741.62
445.361	675.62
445.582	637.62
445.803	694.62
446.024	810.62
446.245	809.62
446.466	735.62
446.687	646.62
446.908	595.62
447.129	565.62
447.35	556.62
447.571	538.62
447.792	545.62
448.013	534.62
448.234	583.62
448.455	610.62
448.675	720.62
448.896	843.62
449.117	735.62
449.338	693.62
449.559	787.62
449.779	928.62
450	725.62
450.221	619.62
450.442	545.62
450.662	528.62
450.883	523.62
451.104	536.62
451.324	541.62
451.545	516.62
451.766	491.62
451.986	477.62
452.207	493.62
452.428	485.62
452.648	479.62
452.869	486.62
453.089	509.62
453.31	524.62
453.53	485.62
453.751	489.62
453.971	487.62
454.192	478.62
454.412	488.62
454.633	487.62
454.853	486.62
455.073	480.62
455.294	517.62
455.514	565.62
455.734	565.62
455.955	473.62
456.175	459.62
456.395	460.62
456.616	446.62
456.836	458.62
457.056	475.62
457.276	442.62
457.497	458.62
457.717	469.62
457.937	465.62
458.157	506.62
458.377	488.62
458.598	502.62
458.818	553.62
459.038	628.62
459.258	639.62
459.478	566.62
459.698	535.62
459.918	536.62
460.138	524.62
460.358	519.62
460.578	537.62
460.798	551.62
461.018	545.62
461.238	544.62
461.458	552.62
461.678	545.62
461.898	554.62
462.118	563.62
462.338	560.62
462.558	562.62
462.777	606.62
462.997	590.62
463.217	630.62
463.437	624.62
463.657	587.62
463.876	600.62
464.096	616.62
464.316	594.62
464.536	599.62
464.755	589.62
464.975	591.62
465.195	615.62
465.414	633.62
465.634	579.62
465.854	550.62
466.073	557.62
466.293	521.62
466.512	528.62
466.732	508.62
466.951	501.62
467.171	490.62
467.391	525.62
467.61	514.62
467.829	518.62
468.049	521.62
468.268	529.62
468.488	490.62
468.707	480.62
468.927	490.62
469.146	468.62
469.365	499.62
469.585	505.62
469.804	512.62
470.023	525.62
470.243	500.62
470.462	518.62
470.681	536.62
470.901	533.62
471.12	519.62
471.339	509.62
471.558	518.62
471.777	531.62
471.997	515.62
472.216	524.62
472.435	538.62
472.654	545.62
472.873	509.62
473.092	511.62
473.311	507.62
473.53	503.62
473.749	532.62
473.968	573.62
474.187	649.62
474.406	674.62
474.625	563.62
474.844	511.62
475.063	519.62
475.282	508.62
475.501	527.62
475.72	533.62
475.939	521.62
476.158	526.62
476.377	532.62
476.596	527.62
476.814	530.62
477.033	552.62
477.252	547.62
477.471	541.62
477.69	534.62
477.908	544.62
478.127	572.62
478.346	559.62
478.564	573.62
478.783	557.62
479.002	585.62
479.22	547.62
479.439	595.62
479.658	600.62
479.876	622.62
480.095	638.62
480.313	652.62
480.532	651.62
480.751	659.62
480.969	642.62
481.188	667.62
481.406	720.62
481.624	633.62
481.843	631.62
482.061	616.62
482.28	585.62
482.498	615.62
482.717	567.62
482.935	589.62
483.153	584.62
483.372	633.62
483.59	603.62
483.808	606.62
484.027	582.62
484.245	582.62
484.463	603.62
484.681	625.62
484.9	609.62
485.118	609.62
485.336	608.62
485.554	602.62
485.772	628.62
485.99	627.62
486.209	606.62
486.427	623.62
486.645	617.62
486.863	641.62
487.081	667.62
487.299	642.62
487.517	635.62
487.735	629.62
487.953	646.62
488.171	638.62
488.389	652.62
488.607	653.62
488.825	632.62
489.043	632.62
489.261	633.62
489.479	655.62
489.696	637.62
489.914	637.62
490.132	686.62
490.35	650.62
490.568	688.62
490.786	697.62
491.003	706.62
491.221	725.62
491.439	706.62
491.657	731.62
491.874	719.62
492.092	720.62
492.31	743.62
492.527	744.62
492.745	729.62
492.963	742.62
493.18	772.62
493.398	751.62
493.615	743.62
493.833	735.62
494.05	759.62
494.268	725.62
494.485	764.62
494.703	774.62
494.92	781.62
495.138	744.62
495.355	761.62
495.573	768.62
495.79	760.62
496.008	754.62
496.225	750.62
496.442	766.62
496.66	760.62
496.877	762.62
497.094	794.62
497.312	767.62
497.529	785.62
497.746	793.62
497.963	833.62
498.181	821.62
498.398	863.62
498.615	889.62
498.832	875.62
499.049	899.62
499.267	942.62
499.484	992.62
499.701	1025.62
499.918	1081.62
500.135	1127.62
500.352	1185.62
500.569	1215.62
500.786	1239.62
501.003	1205.62
501.22	1137.62
501.437	1117.62
501.654	1039.62
