Data from 1976.PennyLincolnUp.Lamp.En5.5.200Scan.071719.P1.Changed Mount._HRD10591_16-01-20-861.txt Node
Date: Thu Jul 18 16:01:20 EDT 2019
User: cochatt
Spectrometer: HR+D1059
Trigger mode: 1
Integration Time (sec): 1.000000E-1
Scans to average: 1
Electric dark correction enabled: true
Nonlinearity correction enabled: false
Boxcar width: 0
XAxis mode: Wavelengths
Number of Pixels in Spectrum: 2048
>>>>>Begin Spectral Data<<<<<
223.165	-24
223.4	-24
223.635	-24
223.869	-18
224.104	-20
224.338	-19
224.573	-14
224.808	-8
225.042	-10
225.277	1
225.511	-4
225.746	-1
225.98	6
226.215	16
226.449	0
226.683	24
226.918	35
227.152	36
227.387	23
227.621	51
227.856	43
228.09	39
228.324	51
228.559	59
228.793	58
229.027	104
229.262	108
229.496	122
229.73	133
229.964	133
230.199	135
230.433	103
230.667	110
230.901	113
231.136	124
231.37	129
231.604	118
231.838	108
232.072	115
232.306	115
232.541	114
232.775	108
233.009	106
233.243	111
233.477	99
233.711	123
233.945	123
234.179	108
234.413	115
234.647	113
234.881	123
235.115	122
235.349	104
235.583	125
235.817	104
236.051	119
236.285	140
236.519	121
236.753	123
236.987	146
237.221	199
237.455	215
237.689	181
237.922	137
238.156	154
238.39	133
238.624	140
238.858	118
239.091	125
239.325	135
239.559	131
239.793	136
240.027	135
240.26	151
240.494	151
240.728	161
240.961	146
241.195	138
241.429	147
241.662	138
241.896	129
242.13	140
242.363	137
242.597	129
242.83	145
243.064	148
243.298	133
243.531	157
243.765	133
243.998	134
244.232	153
244.465	150
244.699	155
244.932	148
245.166	146
245.399	156
245.633	158
245.866	147
246.099	145
246.333	144
246.566	160
246.8	166
247.033	153
247.266	153
247.5	169
247.733	174
247.966	165
248.2	167
248.433	169
248.666	189
248.899	195
249.133	200
249.366	199
249.599	185
249.832	177
250.066	180
250.299	175
250.532	185
250.765	198
250.998	231
251.231	231
251.465	222
251.698	217
251.931	203
252.164	201
252.397	211
252.63	213
252.863	221
253.096	222
253.329	233
253.562	222
253.795	217
254.028	217
254.261	229
254.494	220
254.727	261
254.96	264
255.193	266
255.426	251
255.659	219
255.892	232
256.124	217
256.357	247
256.59	231
256.823	210
257.056	216
257.289	228
257.521	218
257.754	217
257.987	220
258.22	217
258.452	219
258.685	206
258.918	218
259.151	215
259.383	229
259.616	228
259.849	228
260.081	242
260.314	261
260.547	264
260.779	261
261.012	223
261.244	227
261.477	233
261.71	233
261.942	240
262.175	233
262.407	227
262.64	216
262.872	220
263.105	229
263.337	221
263.57	216
263.802	221
264.035	221
264.267	215
264.499	223
264.732	232
264.964	243
265.197	235
265.429	235
265.661	234
265.894	221
266.126	220
266.358	217
266.591	228
266.823	221
267.055	241
267.287	227
267.52	236
267.752	237
267.984	226
268.216	242
268.448	251
268.681	241
268.913	257
269.145	273
269.377	290
269.609	294
269.841	293
270.073	276
270.306	288
270.538	309
270.77	317
271.002	313
271.234	307
271.466	306
271.698	326
271.93	300
272.162	332
272.394	323
272.626	302
272.858	297
273.09	281
273.322	273
273.553	275
273.785	260
274.017	271
274.249	272
274.481	267
274.713	265
274.945	281
275.176	301
275.408	273
275.64	285
275.872	268
276.104	274
276.335	288
276.567	294
276.799	287
277.031	309
277.262	330
277.494	343
277.726	317
277.957	287
278.189	266
278.421	285
278.652	279
278.884	294
279.115	290
279.347	271
279.579	294
279.81	300
280.042	270
280.273	284
280.505	281
280.736	297
280.968	274
281.199	276
281.431	288
281.662	291
281.894	300
282.125	305
282.356	313
282.588	300
282.819	309
283.051	296
283.282	279
283.513	277
283.745	293
283.976	289
284.207	291
284.439	312
284.67	306
284.901	316
285.132	297
285.364	305
285.595	274
285.826	297
286.057	296
286.288	288
286.52	287
286.751	313
286.982	326
287.213	325
287.444	293
287.675	307
287.906	323
288.138	315
288.369	299
288.6	332
288.831	302
289.062	323
289.293	300
289.524	327
289.755	301
289.986	319
290.217	300
290.448	291
290.679	316
290.91	328
291.141	317
291.371	307
291.602	307
291.833	312
292.064	316
292.295	306
292.526	327
292.757	322
292.987	308
293.218	300
293.449	316
293.68	333
293.91	314
294.141	317
294.372	313
294.603	307
294.833	318
295.064	319
295.295	305
295.525	309
295.756	319
295.987	322
296.217	351
296.448	333
296.679	309
296.909	321
297.14	313
297.37	318
297.601	331
297.831	330
298.062	327
298.292	332
298.523	313
298.753	325
298.984	330
299.214	351
299.445	317
299.675	331
299.905	331
300.136	335
300.366	329
300.597	341
300.827	335
301.057	348
301.288	365
301.518	361
301.748	336
301.979	345
302.209	359
302.439	354
302.669	346
302.9	358
303.13	339
303.36	355
303.59	355
303.82	379
304.051	361
304.281	357
304.511	354
304.741	335
304.971	349
305.201	329
305.431	350
305.661	337
305.891	362
306.121	356
306.352	364
306.582	354
306.812	341
307.042	347
307.272	360
307.502	338
307.731	355
307.961	357
308.191	357
308.421	353
308.651	349
308.881	353
309.111	366
309.341	359
309.571	370
309.8	365
310.03	363
310.26	373
310.49	389
310.72	391
310.949	381
311.179	400
311.409	395
311.639	376
311.868	377
312.098	386
312.328	386
312.557	410
312.787	399
313.017	379
313.246	393
313.476	410
313.706	393
313.935	400
314.165	398
314.394	418
314.624	418
314.853	402
315.083	409
315.312	393
315.542	399
315.771	402
316.001	389
316.23	386
316.46	397
316.689	382
316.919	403
317.148	395
317.377	404
317.607	426
317.836	403
318.065	407
318.295	398
318.524	395
318.753	390
318.983	386
319.212	378
319.441	403
319.67	422
319.9	399
320.129	381
320.358	399
320.587	415
320.816	404
321.046	418
321.275	420
321.504	398
321.733	402
321.962	407
322.191	431
322.42	448
322.649	443
322.878	459
323.108	462
323.337	460
323.566	484
323.795	494
324.024	543
324.253	620
324.482	863
324.71	1340
324.939	1941
325.168	1673
325.397	867
325.626	586
325.855	532
326.084	460
326.313	491
326.542	480
326.77	542
326.999	588
327.228	773
327.457	1167
327.686	1437
327.914	983
328.143	659
328.372	597
328.6	561
328.829	545
329.058	548
329.287	549
329.515	535
329.744	514
329.972	524
330.201	519
330.43	558
330.658	552
330.887	603
331.115	597
331.344	509
331.572	493
331.801	485
332.03	499
332.258	492
332.486	481
332.715	467
332.943	443
333.172	492
333.4	497
333.629	510
333.857	522
334.085	528
334.314	532
334.542	567
334.771	582
334.999	509
335.227	499
335.455	501
335.684	482
335.912	488
336.14	484
336.369	469
336.597	478
336.825	456
337.053	451
337.281	450
337.51	462
337.738	469
337.966	477
338.194	470
338.422	486
338.65	446
338.878	474
339.106	454
339.334	452
339.562	452
339.79	454
340.018	461
340.246	451
340.474	455
340.702	448
340.93	449
341.158	426
341.386	435
341.614	439
341.842	434
342.07	426
342.298	435
342.526	451
342.754	420
342.981	413
343.209	442
343.437	456
343.665	459
343.893	474
344.12	485
344.348	470
344.576	471
344.804	466
345.031	467
345.259	465
345.487	458
345.714	458
345.942	473
346.17	429
346.397	445
346.625	445
346.853	442
347.08	418
347.308	419
347.535	443
347.763	452
347.99	437
348.218	450
348.445	436
348.673	422
348.9	449
349.128	407
349.355	412
349.583	427
349.81	419
350.037	411
350.265	428
350.492	399
350.72	430
350.947	414
351.174	437
351.402	422
351.629	420
351.856	434
352.083	437
352.311	434
352.538	443
352.765	435
352.992	409
353.22	429
353.447	420
353.674	408
353.901	429
354.128	388
354.355	411
354.583	398
354.81	411
355.037	405
355.264	399
355.491	393
355.718	403
355.945	403
356.172	412
356.399	413
356.626	414
356.853	405
357.08	400
357.307	425
357.534	407
357.761	409
357.988	406
358.215	403
358.441	398
358.668	393
358.895	393
359.122	418
359.349	416
359.576	421
359.802	452
360.029	469
360.256	490
360.483	462
360.709	441
360.936	426
361.163	430
361.39	423
361.616	456
361.843	421
362.07	425
362.296	442
362.523	423
362.749	437
362.976	433
363.203	421
363.429	407
363.656	425
363.882	428
364.109	420
364.335	424
364.562	436
364.788	427
365.015	434
365.241	400
365.468	420
365.694	441
365.92	430
366.147	433
366.373	411
366.599	401
366.826	399
367.052	407
367.278	400
367.505	404
367.731	411
367.957	424
368.184	411
368.41	433
368.636	422
368.862	441
369.089	425
369.315	436
369.541	405
369.767	406
369.993	419
370.219	420
370.445	403
370.672	411
370.898	423
371.124	410
371.35	409
371.576	415
371.802	425
372.028	405
372.254	411
372.48	428
372.706	426
372.932	406
373.158	426
373.384	411
373.61	432
373.835	419
374.061	417
374.287	429
374.513	429
374.739	426
374.965	439
375.191	439
375.416	435
375.642	401
375.868	411
376.094	416
376.319	431
376.545	419
376.771	460
376.997	408
377.222	420
377.448	433
377.674	409
377.899	412
378.125	423
378.35	413
378.576	412
378.802	424
379.027	410
379.253	439
379.478	428
379.704	413
379.929	401
380.155	426
380.38	422
380.606	427
380.831	410
381.057	405
381.282	401
381.507	423
381.733	413
381.958	419
382.184	419
382.409	424
382.634	427
382.86	449
383.085	441
383.31	424
383.535	445
383.761	449
383.986	449
384.211	461
384.436	465
384.662	451
384.887	456
385.112	459
385.337	450
385.562	457
385.787	464
386.013	444
386.238	487
386.463	461
386.688	465
386.913	473
387.138	460
387.363	450
387.588	462
387.813	463
388.038	455
388.263	477
388.488	485
388.713	479
388.938	473
389.163	486
389.387	467
389.612	479
389.837	460
390.062	457
390.287	472
390.512	453
390.736	456
390.961	451
391.186	457
391.411	450
391.636	474
391.86	468
392.085	516
392.31	503
392.534	481
392.759	490
392.984	482
393.208	474
393.433	476
393.658	473
393.882	451
394.107	473
394.331	471
394.556	472
394.78	494
395.005	484
395.229	476
395.454	480
395.678	502
395.903	509
396.127	534
396.352	533
396.576	508
396.801	485
397.025	492
397.249	506
397.474	499
397.698	532
397.922	506
398.147	538
398.371	527
398.595	533
398.82	532
399.044	538
399.268	587
399.492	598
399.717	664
399.941	658
400.165	680
400.389	709
400.613	639
400.837	567
401.062	566
401.286	565
401.51	562
401.734	530
401.958	547
402.182	556
402.406	557
402.63	567
402.854	553
403.078	575
403.302	564
403.526	568
403.75	558
403.974	577
404.198	579
404.422	568
404.645	598
404.869	585
405.093	582
405.317	651
405.541	677
405.765	603
405.988	573
406.212	606
406.436	599
406.66	614
406.883	632
407.107	635
407.331	665
407.555	744
407.778	737
408.002	651
408.226	649
408.449	618
408.673	600
408.896	624
409.12	669
409.344	649
409.567	587
409.791	586
410.014	566
410.238	577
410.461	557
410.685	590
410.908	589
411.132	602
411.355	651
411.578	637
411.802	570
412.025	573
412.249	545
412.472	585
412.695	648
412.919	628
413.142	589
413.365	565
413.589	546
413.812	522
414.035	559
414.258	548
414.482	540
414.705	549
414.928	531
415.151	550
415.374	531
415.597	532
415.821	524
416.044	531
416.267	534
416.49	549
416.713	540
416.936	545
417.159	556
417.382	540
417.605	515
417.828	540
418.051	569
418.274	554
418.497	545
418.72	554
418.943	533
419.166	559
419.389	585
419.611	579
419.834	573
420.057	585
420.28	558
420.503	583
420.726	541
420.948	557
421.171	625
421.394	643
421.617	581
421.839	565
422.062	558
422.285	573
422.507	625
422.73	675
422.953	671
423.175	599
423.398	573
423.621	569
423.843	611
424.066	633
424.288	627
424.511	594
424.733	666
424.956	744
425.178	728
425.401	707
425.623	715
425.846	624
426.068	582
426.291	593
426.513	569
426.735	585
426.958	627
427.18	712
427.402	855
427.625	931
427.847	801
428.069	672
428.292	609
428.514	583
428.736	568
428.958	533
429.181	528
429.403	531
429.625	539
429.847	586
430.069	659
430.292	669
430.514	562
430.736	537
430.958	536
431.18	525
431.402	536
431.624	489
431.846	512
432.068	529
432.29	511
432.512	497
432.734	524
432.956	506
433.178	542
433.4	538
433.622	519
433.844	531
434.066	527
434.287	513
434.509	547
434.731	529
434.953	550
435.175	556
435.397	565
435.618	591
435.84	623
436.062	710
436.284	808
436.505	653
436.727	585
436.949	554
437.17	543
437.392	543
437.614	555
437.835	585
438.057	659
438.278	789
438.5	746
438.721	851
438.943	801
439.165	649
439.386	596
439.608	601
439.829	609
440.05	584
440.272	631
440.493	630
440.715	585
440.936	569
441.158	525
441.379	544
441.6	563
441.822	594
442.043	618
442.264	712
442.486	747
442.707	649
442.928	610
443.149	590
443.371	637
443.592	667
443.813	763
444.034	823
444.255	686
444.476	625
444.698	625
444.919	609
445.14	719
445.361	671
445.582	641
445.803	675
446.024	802
446.245	801
446.466	726
446.687	630
446.908	579
447.129	571
447.35	556
447.571	519
447.792	517
448.013	556
448.234	552
448.455	609
448.675	706
448.896	824
449.117	681
449.338	663
449.559	773
449.779	890
450	666
450.221	565
450.442	552
450.662	488
450.883	510
451.104	525
451.324	520
451.545	493
451.766	486
451.986	489
452.207	480
452.428	484
452.648	486
452.869	476
453.089	479
453.31	488
453.53	479
453.751	468
453.971	488
454.192	478
454.412	482
454.633	477
454.853	468
455.073	452
455.294	488
455.514	567
455.734	581
455.955	479
456.175	467
456.395	458
456.616	465
456.836	472
457.056	453
457.276	441
457.497	465
457.717	455
457.937	455
458.157	457
458.377	479
458.598	475
458.818	533
459.038	600
459.258	626
459.478	533
459.698	510
459.918	518
460.138	514
460.358	532
460.578	538
460.798	552
461.018	539
461.238	535
461.458	513
461.678	525
461.898	520
462.118	530
462.338	533
462.558	554
462.777	578
462.997	609
463.217	598
463.437	606
463.657	607
463.876	586
464.096	587
464.316	594
464.536	580
464.755	581
464.975	581
465.195	578
465.414	636
465.634	573
465.854	529
466.073	536
466.293	485
466.512	506
466.732	478
466.951	469
467.171	484
467.391	495
467.61	494
467.829	494
468.049	488
468.268	501
468.488	483
468.707	494
468.927	483
469.146	487
469.365	485
469.585	499
469.804	489
470.023	473
470.243	493
470.462	499
470.681	533
470.901	507
471.12	515
471.339	501
471.558	507
471.777	509
471.997	487
472.216	518
472.435	498
472.654	498
472.873	487
473.092	484
473.311	484
473.53	487
473.749	503
473.968	535
474.187	645
474.406	656
474.625	555
474.844	506
475.063	490
475.282	482
475.501	522
475.72	519
475.939	502
476.158	519
476.377	516
476.596	512
476.814	515
477.033	522
477.252	533
477.471	538
477.69	547
477.908	535
478.127	552
478.346	525
478.564	550
478.783	557
479.002	582
479.22	591
479.439	582
479.658	592
479.876	597
480.095	597
480.313	627
480.532	620
480.751	615
480.969	605
481.188	649
481.406	657
481.624	615
481.843	588
482.061	588
482.28	586
482.498	603
482.717	589
482.935	588
483.153	597
483.372	579
483.59	565
483.808	592
484.027	589
484.245	578
484.463	574
484.681	595
484.9	573
485.118	588
485.336	582
485.554	598
485.772	596
485.99	599
486.209	595
486.427	587
486.645	609
486.863	633
487.081	611
487.299	603
487.517	595
487.735	621
487.953	637
488.171	621
488.389	620
488.607	629
488.825	620
489.043	634
489.261	613
489.479	635
489.696	628
489.914	654
490.132	618
490.35	668
490.568	670
490.786	662
491.003	658
491.221	682
491.439	682
491.657	695
491.874	702
492.092	701
492.31	732
492.527	699
492.745	698
492.963	723
493.18	720
493.398	724
493.615	730
493.833	744
494.05	754
494.268	723
494.485	723
494.703	726
494.92	759
495.138	740
495.355	723
495.573	714
495.79	728
496.008	738
496.225	726
496.442	713
496.66	750
496.877	734
497.094	724
497.312	730
497.529	773
497.746	769
497.963	795
498.181	830
498.398	826
498.615	841
498.832	843
499.049	858
499.267	888
499.484	941
499.701	973
499.918	1000
500.135	1090
500.352	1170
500.569	1182
500.786	1199
501.003	1149
501.22	1115
501.437	1019
501.654	1002
501.871	979
502.088	958
502.305	921
502.522	875
502.739	837
502.956	822
503.172	819
503.389	788
503.606	769
503.823	748
504.04	753
504.256	759
504.473	749
504.69	779
504.907	771
505.123	724
505.34	709
505.557	696
505.773	686
505.99	721
506.207	692
506.423	690
506.64	705
506.856	682
507.073	687
507.289	666
507.506	675
507.722	681
507.939	676
508.155	670
508.372	643
508.588	655
508.805	659
509.021	648
509.238	681
509.454	650
509.67	680
509.887	642
510.103	647
510.319	654
510.536	720
510.752	1037
510.968	885
511.184	651
511.401	622
511.617	637
511.833	606
512.049	593
512.265	596
512.481	592
512.698	623
512.914	631
513.13	598
513.346	610
513.562	597
513.778	611
513.994	612
514.21	595
514.426	626
514.642	669
514.858	654
515.074	702
515.29	779
515.506	1055
515.721	918
515.937	701
516.153	649
516.369	638
516.585	630
516.801	630
517.016	653
517.232	667
517.448	654
517.664	667
517.879	656
518.095	663
518.311	663
518.527	640
518.742	652
518.958	630
519.173	613
519.389	639
519.605	617
519.82	632
520.036	611
520.251	645
520.467	638
520.682	656
520.898	675
521.113	668
521.329	695
521.544	738
521.76	871
521.975	1308
522.19	1282
522.406	805
522.621	653
522.836	591
523.052	598
523.267	570
523.482	545
523.698	561
523.913	553
524.128	553
524.343	531
524.559	546
524.774	527
524.989	537
525.204	542
525.419	531
525.634	533
525.849	527
526.064	514
526.28	520
526.495	498
526.71	493
526.925	493
527.14	504
527.355	511
527.57	510
527.785	525
527.999	506
528.214	490
528.429	523
528.644	492
528.859	511
529.074	525
529.289	517
529.503	579
529.718	580
529.933	528
530.148	517
530.363	527
530.577	520
530.792	505
531.007	514
531.221	503
531.436	494
531.651	510
531.865	496
532.08	474
532.295	494
532.509	470
532.724	483
532.938	491
533.153	472
533.367	497
533.582	485
533.796	509
534.011	467
534.225	490
534.44	493
534.654	479
534.868	484
535.083	489
535.297	493
535.511	491
535.726	491
535.94	498
536.154	503
536.369	477
536.583	493
536.797	468
537.011	474
537.225	456
537.44	460
537.654	470
537.868	473
538.082	474
538.296	463
538.51	463
538.724	457
538.938	481
539.153	454
539.367	476
539.581	462
539.795	464
540.009	468
540.222	470
540.436	479
540.65	471
540.864	463
541.078	463
541.292	471
541.506	490
541.72	458
541.934	479
542.147	498
542.361	485
542.575	460
542.789	465
543.002	460
543.216	475
543.43	488
543.644	469
543.857	469
544.071	468
544.285	477
544.498	463
544.712	455
544.925	481
545.139	467
545.352	453
545.566	456
545.779	453
545.993	444
546.206	437
546.42	463
546.633	468
546.847	463
547.06	454
547.274	481
547.487	470
547.7	467
547.914	454
548.127	459
548.34	463
548.554	451
548.767	484
548.98	485
549.193	459
549.407	451
549.62	467
549.833	466
550.046	444
550.259	460
550.473	450
550.686	465
550.899	462
551.112	455
551.325	447
551.538	429
551.751	462
551.964	469
552.177	461
552.39	426
552.603	458
552.816	466
553.029	463
553.242	455
553.455	477
553.667	474
553.88	495
554.093	466
554.306	461
554.519	468
554.732	460
554.944	441
555.157	434
555.37	465
555.583	436
555.795	439
556.008	420
556.221	449
556.433	421
556.646	421
556.859	413
557.071	421
557.284	405
557.496	411
557.709	421
557.921	411
558.134	407
558.346	407
558.559	398
558.771	403
558.984	414
559.196	415
559.409	399
559.621	414
559.833	403
560.046	402
560.258	390
560.47	403
560.683	381
560.895	396
561.107	389
561.32	381
561.532	405
561.744	417
561.956	412
562.168	400
562.381	390
562.593	403
562.805	400
563.017	390
563.229	405
