Data from 1976.PennyLincolnUp.Lamp.En5.5.200Scan.071719.P1.Changed Mount._HRD10591_15-59-33-860.txt Node
Date: Thu Jul 18 15:59:33 EDT 2019
User: cochatt
Spectrometer: HR+D1059
Trigger mode: 1
Integration Time (sec): 1.000000E-1
Scans to average: 1
Electric dark correction enabled: true
Nonlinearity correction enabled: false
Boxcar width: 0
XAxis mode: Wavelengths
Number of Pixels in Spectrum: 2048
>>>>>Begin Spectral Data<<<<<
223.165	-17.81
223.4	-17.81
223.635	-17.81
223.869	-26.81
224.104	-19.81
224.338	-19.81
224.573	-6.81
224.808	-9.81
225.042	-4.81
225.277	-10.81
225.511	-5.81
225.746	12.19
225.98	-1.81
226.215	9.19
226.449	23.19
226.683	18.19
226.918	31.19
227.152	30.19
227.387	25.19
227.621	40.19
227.856	34.19
228.09	34.19
228.324	50.19
228.559	47.19
228.793	50.19
229.027	86.19
229.262	95.19
229.496	96.19
229.73	129.19
229.964	122.19
230.199	91.19
230.433	100.19
230.667	104.19
230.901	105.19
231.136	98.19
231.37	101.19
231.604	99.19
231.838	105.19
232.072	112.19
232.306	102.19
232.541	106.19
232.775	115.19
233.009	106.19
233.243	114.19
233.477	107.19
233.711	104.19
233.945	104.19
234.179	106.19
234.413	110.19
234.647	122.19
234.881	111.19
235.115	94.19
235.349	119.19
235.583	91.19
235.817	115.19
236.051	114.19
236.285	112.19
236.519	122.19
236.753	120.19
236.987	133.19
237.221	166.19
237.455	180.19
237.689	157.19
237.922	126.19
238.156	124.19
238.39	124.19
238.624	128.19
238.858	113.19
239.091	116.19
239.325	121.19
239.559	107.19
239.793	126.19
240.027	100.19
240.26	122.19
240.494	145.19
240.728	116.19
240.961	134.19
241.195	129.19
241.429	126.19
241.662	127.19
241.896	127.19
242.13	138.19
242.363	125.19
242.597	115.19
242.83	126.19
243.064	132.19
243.298	130.19
243.531	144.19
243.765	128.19
243.998	116.19
244.232	138.19
244.465	136.19
244.699	136.19
244.932	131.19
245.166	129.19
245.399	128.19
245.633	150.19
245.866	139.19
246.099	137.19
246.333	136.19
246.566	133.19
246.8	139.19
247.033	126.19
247.266	152.19
247.5	146.19
247.733	160.19
247.966	151.19
248.2	151.19
248.433	155.19
248.666	159.19
248.899	166.19
249.133	185.19
249.366	180.19
249.599	186.19
249.832	195.19
250.066	160.19
250.299	166.19
250.532	165.19
250.765	178.19
250.998	201.19
251.231	194.19
251.465	190.19
251.698	184.19
251.931	179.19
252.164	182.19
252.397	188.19
252.63	179.19
252.863	171.19
253.096	187.19
253.329	206.19
253.562	191.19
253.795	198.19
254.028	196.19
254.261	197.19
254.494	211.19
254.727	211.19
254.96	231.19
255.193	225.19
255.426	208.19
255.659	209.19
255.892	216.19
256.124	195.19
256.357	215.19
256.59	199.19
256.823	188.19
257.056	180.19
257.289	193.19
257.521	195.19
257.754	191.19
257.987	167.19
258.22	188.19
258.452	183.19
258.685	189.19
258.918	203.19
259.151	193.19
259.383	191.19
259.616	192.19
259.849	210.19
260.081	222.19
260.314	219.19
260.547	220.19
260.779	216.19
261.012	216.19
261.244	201.19
261.477	207.19
261.71	202.19
261.942	206.19
262.175	204.19
262.407	195.19
262.64	195.19
262.872	201.19
263.105	216.19
263.337	192.19
263.57	197.19
263.802	210.19
264.035	201.19
264.267	206.19
264.499	214.19
264.732	180.19
264.964	207.19
265.197	196.19
265.429	213.19
265.661	200.19
265.894	210.19
266.126	205.19
266.358	208.19
266.591	206.19
266.823	209.19
267.055	219.19
267.287	201.19
267.52	195.19
267.752	204.19
267.984	215.19
268.216	217.19
268.448	207.19
268.681	222.19
268.913	217.19
269.145	228.19
269.377	246.19
269.609	250.19
269.841	246.19
270.073	239.19
270.306	262.19
270.538	286.19
270.77	256.19
271.002	243.19
271.234	262.19
271.466	267.19
271.698	268.19
271.93	275.19
272.162	266.19
272.394	278.19
272.626	262.19
272.858	230.19
273.09	260.19
273.322	258.19
273.553	245.19
273.785	235.19
274.017	235.19
274.249	240.19
274.481	252.19
274.713	236.19
274.945	272.19
275.176	241.19
275.408	260.19
275.64	234.19
275.872	257.19
276.104	244.19
276.335	243.19
276.567	255.19
276.799	242.19
277.031	265.19
277.262	275.19
277.494	286.19
277.726	274.19
277.957	268.19
278.189	257.19
278.421	252.19
278.652	254.19
278.884	234.19
279.115	242.19
279.347	259.19
279.579	262.19
279.81	260.19
280.042	241.19
280.273	246.19
280.505	276.19
280.736	257.19
280.968	242.19
281.199	263.19
281.431	247.19
281.662	251.19
281.894	254.19
282.125	262.19
282.356	267.19
282.588	264.19
282.819	257.19
283.051	263.19
283.282	250.19
283.513	261.19
283.745	263.19
283.976	274.19
284.207	278.19
284.439	257.19
284.67	271.19
284.901	264.19
285.132	274.19
285.364	276.19
285.595	260.19
285.826	268.19
286.057	262.19
286.288	255.19
286.52	260.19
286.751	263.19
286.982	279.19
287.213	262.19
287.444	266.19
287.675	283.19
287.906	285.19
288.138	292.19
288.369	279.19
288.6	282.19
288.831	286.19
289.062	287.19
289.293	273.19
289.524	281.19
289.755	287.19
289.986	278.19
290.217	271.19
290.448	271.19
290.679	278.19
290.91	268.19
291.141	275.19
291.371	270.19
291.602	271.19
291.833	284.19
292.064	283.19
292.295	277.19
292.526	270.19
292.757	269.19
292.987	275.19
293.218	290.19
293.449	283.19
293.68	275.19
293.91	291.19
294.141	281.19
294.372	292.19
294.603	280.19
294.833	276.19
295.064	278.19
295.295	268.19
295.525	282.19
295.756	295.19
295.987	279.19
296.217	275.19
296.448	309.19
296.679	278.19
296.909	284.19
297.14	306.19
297.37	299.19
297.601	286.19
297.831	283.19
298.062	294.19
298.292	275.19
298.523	294.19
298.753	297.19
298.984	281.19
299.214	300.19
299.445	286.19
299.675	298.19
299.905	297.19
300.136	281.19
300.366	297.19
300.597	300.19
300.827	292.19
301.057	307.19
301.288	311.19
301.518	303.19
301.748	305.19
301.979	303.19
302.209	318.19
302.439	302.19
302.669	309.19
302.9	305.19
303.13	311.19
303.36	308.19
303.59	298.19
303.82	306.19
304.051	318.19
304.281	314.19
304.511	315.19
304.741	311.19
304.971	325.19
305.201	312.19
305.431	336.19
305.661	312.19
305.891	319.19
306.121	314.19
306.352	321.19
306.582	321.19
306.812	315.19
307.042	320.19
307.272	320.19
307.502	320.19
307.731	318.19
307.961	327.19
308.191	315.19
308.421	329.19
308.651	302.19
308.881	314.19
309.111	323.19
309.341	303.19
309.571	318.19
309.8	329.19
310.03	326.19
310.26	332.19
310.49	341.19
310.72	332.19
310.949	348.19
311.179	335.19
311.409	341.19
311.639	346.19
311.868	325.19
312.098	350.19
312.328	350.19
312.557	337.19
312.787	362.19
313.017	362.19
313.246	349.19
313.476	341.19
313.706	345.19
313.935	350.19
314.165	351.19
314.394	350.19
314.624	352.19
314.853	359.19
315.083	344.19
315.312	364.19
315.542	324.19
315.771	346.19
316.001	350.19
316.23	332.19
316.46	332.19
316.689	332.19
316.919	354.19
317.148	329.19
317.377	327.19
317.607	366.19
317.836	355.19
318.065	346.19
318.295	349.19
318.524	366.19
318.753	347.19
318.983	342.19
319.212	344.19
319.441	351.19
319.67	347.19
319.9	356.19
320.129	352.19
320.358	372.19
320.587	352.19
320.816	338.19
321.046	356.19
321.275	387.19
321.504	370.19
321.733	343.19
321.962	334.19
322.191	360.19
322.42	380.19
322.649	388.19
322.878	383.19
323.108	378.19
323.337	386.19
323.566	405.19
323.795	442.19
324.024	460.19
324.253	500.19
324.482	649.19
324.71	1003.19
324.939	1492.19
325.168	1295.19
325.397	667.19
325.626	488.19
325.855	426.19
326.084	420.19
326.313	399.19
326.542	406.19
326.77	446.19
326.999	482.19
327.228	641.19
327.457	912.19
327.686	1109.19
327.914	722.19
328.143	529.19
328.372	467.19
328.6	470.19
328.829	440.19
329.058	444.19
329.287	442.19
329.515	456.19
329.744	430.19
329.972	427.19
330.201	444.19
330.43	449.19
330.658	468.19
330.887	467.19
331.115	473.19
331.344	422.19
331.572	424.19
331.801	416.19
332.03	411.19
332.258	422.19
332.486	430.19
332.715	424.19
332.943	410.19
333.172	419.19
333.4	430.19
333.629	424.19
333.857	449.19
334.085	449.19
334.314	453.19
334.542	447.19
334.771	459.19
334.999	448.19
335.227	435.19
335.455	423.19
335.684	439.19
335.912	415.19
336.14	421.19
336.369	426.19
336.597	394.19
336.825	420.19
337.053	418.19
337.281	435.19
337.51	420.19
337.738	407.19
337.966	412.19
338.194	436.19
338.422	396.19
338.65	394.19
338.878	409.19
339.106	404.19
339.334	399.19
339.562	400.19
339.79	407.19
340.018	392.19
340.246	412.19
340.474	395.19
340.702	386.19
340.93	388.19
341.158	415.19
341.386	394.19
341.614	393.19
341.842	392.19
342.07	394.19
342.298	390.19
342.526	400.19
342.754	372.19
342.981	377.19
343.209	392.19
343.437	411.19
343.665	410.19
343.893	423.19
344.12	423.19
344.348	405.19
344.576	393.19
344.804	422.19
345.031	414.19
345.259	383.19
345.487	385.19
345.714	395.19
345.942	376.19
346.17	378.19
346.397	393.19
346.625	375.19
346.853	386.19
347.08	359.19
347.308	378.19
347.535	382.19
347.763	396.19
347.99	380.19
348.218	371.19
348.445	381.19
348.673	368.19
348.9	402.19
349.128	376.19
349.355	356.19
349.583	369.19
349.81	383.19
350.037	386.19
350.265	380.19
350.492	363.19
350.72	370.19
350.947	374.19
351.174	402.19
351.402	368.19
351.629	374.19
351.856	386.19
352.083	373.19
352.311	387.19
352.538	382.19
352.765	396.19
352.992	379.19
353.22	357.19
353.447	360.19
353.674	378.19
353.901	375.19
354.128	366.19
354.355	375.19
354.583	382.19
354.81	361.19
355.037	350.19
355.264	359.19
355.491	361.19
355.718	360.19
355.945	371.19
356.172	352.19
356.399	355.19
356.626	352.19
356.853	362.19
357.08	353.19
357.307	332.19
357.534	362.19
357.761	368.19
357.988	372.19
358.215	347.19
358.441	354.19
358.668	357.19
358.895	352.19
359.122	363.19
359.349	371.19
359.576	390.19
359.802	387.19
360.029	414.19
360.256	418.19
360.483	403.19
360.709	378.19
360.936	374.19
361.163	369.19
361.39	368.19
361.616	378.19
361.843	374.19
362.07	380.19
362.296	380.19
362.523	391.19
362.749	362.19
362.976	354.19
363.203	388.19
363.429	369.19
363.656	372.19
363.882	373.19
364.109	370.19
364.335	370.19
364.562	361.19
364.788	382.19
365.015	382.19
365.241	347.19
365.468	368.19
365.694	375.19
365.92	383.19
366.147	377.19
366.373	379.19
366.599	356.19
366.826	344.19
367.052	341.19
367.278	375.19
367.505	364.19
367.731	371.19
367.957	366.19
368.184	375.19
368.41	377.19
368.636	374.19
368.862	390.19
369.089	371.19
369.315	371.19
369.541	364.19
369.767	379.19
369.993	372.19
370.219	368.19
370.445	397.19
370.672	382.19
370.898	382.19
371.124	373.19
371.35	370.19
371.576	377.19
371.802	360.19
372.028	400.19
372.254	382.19
372.48	388.19
372.706	382.19
372.932	376.19
373.158	378.19
373.384	373.19
373.61	390.19
373.835	402.19
374.061	372.19
374.287	368.19
374.513	404.19
374.739	397.19
374.965	397.19
375.191	378.19
375.416	388.19
375.642	380.19
375.868	373.19
376.094	380.19
376.319	394.19
376.545	369.19
376.771	356.19
376.997	382.19
377.222	368.19
377.448	370.19
377.674	369.19
377.899	370.19
378.125	371.19
378.35	375.19
378.576	382.19
378.802	393.19
379.027	395.19
379.253	373.19
379.478	371.19
379.704	388.19
379.929	374.19
380.155	375.19
380.38	384.19
380.606	380.19
380.831	379.19
381.057	380.19
381.282	378.19
381.507	384.19
381.733	358.19
381.958	386.19
382.184	383.19
382.409	390.19
382.634	386.19
382.86	386.19
383.085	405.19
383.31	389.19
383.535	416.19
383.761	408.19
383.986	405.19
384.211	394.19
384.436	432.19
384.662	405.19
384.887	417.19
385.112	406.19
385.337	411.19
385.562	414.19
385.787	422.19
386.013	432.19
386.238	427.19
386.463	423.19
386.688	422.19
386.913	423.19
387.138	431.19
387.363	433.19
387.588	429.19
387.813	437.19
388.038	416.19
388.263	434.19
388.488	432.19
388.713	440.19
388.938	418.19
389.163	432.19
389.387	404.19
389.612	418.19
389.837	422.19
390.062	400.19
390.287	405.19
390.512	416.19
390.736	412.19
390.961	411.19
391.186	420.19
391.411	441.19
391.636	421.19
391.86	421.19
392.085	438.19
392.31	443.19
392.534	441.19
392.759	436.19
392.984	424.19
393.208	440.19
393.433	415.19
393.658	442.19
393.882	434.19
394.107	426.19
394.331	416.19
394.556	441.19
394.78	436.19
395.005	432.19
395.229	440.19
395.454	430.19
395.678	452.19
395.903	473.19
396.127	463.19
396.352	470.19
396.576	437.19
396.801	453.19
397.025	460.19
397.249	429.19
397.474	456.19
397.698	461.19
397.922	489.19
398.147	503.19
398.371	507.19
398.595	464.19
398.82	491.19
399.044	489.19
399.268	520.19
399.492	568.19
399.717	582.19
399.941	608.19
400.165	617.19
400.389	613.19
400.613	570.19
400.837	525.19
401.062	505.19
401.286	504.19
401.51	483.19
401.734	505.19
401.958	506.19
402.182	488.19
402.406	494.19
402.63	512.19
402.854	512.19
403.078	509.19
403.302	489.19
403.526	516.19
403.75	490.19
403.974	520.19
404.198	506.19
404.422	525.19
404.645	521.19
404.869	510.19
405.093	544.19
405.317	576.19
405.541	582.19
405.765	543.19
405.988	525.19
406.212	514.19
406.436	547.19
406.66	572.19
406.883	546.19
407.107	574.19
407.331	631.19
407.555	619.19
407.778	656.19
408.002	614.19
408.226	556.19
408.449	583.19
408.673	545.19
408.896	573.19
409.12	583.19
409.344	578.19
409.567	532.19
409.791	553.19
410.014	534.19
410.238	507.19
410.461	512.19
410.685	506.19
410.908	517.19
411.132	548.19
411.355	599.19
411.578	567.19
411.802	506.19
412.025	509.19
412.249	532.19
412.472	526.19
412.695	539.19
412.919	550.19
413.142	526.19
413.365	506.19
413.589	471.19
413.812	489.19
414.035	483.19
414.258	494.19
414.482	494.19
414.705	486.19
414.928	481.19
415.151	472.19
415.374	463.19
415.597	489.19
415.821	474.19
416.044	489.19
416.267	492.19
416.49	464.19
416.713	454.19
416.936	484.19
417.159	468.19
417.382	494.19
417.605	481.19
417.828	497.19
418.051	490.19
418.274	489.19
418.497	459.19
418.72	480.19
418.943	467.19
419.166	500.19
419.389	526.19
419.611	519.19
419.834	513.19
420.057	513.19
420.28	499.19
420.503	511.19
420.726	490.19
420.948	495.19
421.171	542.19
421.394	577.19
421.617	512.19
421.839	484.19
422.062	491.19
422.285	484.19
422.507	542.19
422.73	596.19
422.953	585.19
423.175	566.19
423.398	525.19
423.621	528.19
423.843	536.19
424.066	546.19
424.288	521.19
424.511	536.19
424.733	573.19
424.956	652.19
425.178	628.19
425.401	620.19
425.623	655.19
425.846	559.19
426.068	519.19
426.291	510.19
426.513	514.19
426.735	528.19
426.958	564.19
427.18	603.19
427.402	731.19
427.625	800.19
427.847	674.19
428.069	582.19
428.292	542.19
428.514	489.19
428.736	481.19
428.958	491.19
429.181	468.19
429.403	445.19
429.625	470.19
429.847	487.19
430.069	568.19
430.292	570.19
430.514	502.19
430.736	474.19
430.958	468.19
431.18	457.19
431.402	490.19
431.624	459.19
431.846	434.19
432.068	454.19
432.29	467.19
432.512	456.19
432.734	472.19
432.956	441.19
433.178	473.19
433.4	463.19
433.622	467.19
433.844	466.19
434.066	456.19
434.287	467.19
434.509	450.19
434.731	472.19
434.953	484.19
435.175	514.19
435.397	516.19
435.618	521.19
435.84	558.19
436.062	603.19
436.284	692.19
436.505	578.19
436.727	509.19
436.949	494.19
437.17	496.19
437.392	482.19
437.614	496.19
437.835	516.19
438.057	566.19
438.278	650.19
438.5	654.19
438.721	723.19
438.943	688.19
439.165	563.19
439.386	498.19
439.608	520.19
439.829	524.19
440.05	527.19
440.272	553.19
440.493	528.19
440.715	487.19
440.936	490.19
441.158	501.19
441.379	479.19
441.6	542.19
441.822	521.19
442.043	547.19
442.264	610.19
442.486	652.19
442.707	584.19
442.928	530.19
443.149	555.19
443.371	568.19
443.592	564.19
443.813	660.19
444.034	700.19
444.255	592.19
444.476	561.19
444.698	551.19
444.919	565.19
445.14	680.19
445.361	617.19
445.582	575.19
445.803	601.19
446.024	672.19
446.245	674.19
446.466	633.19
446.687	547.19
446.908	515.19
447.129	472.19
447.35	468.19
447.571	474.19
447.792	458.19
448.013	474.19
448.234	482.19
448.455	524.19
448.675	599.19
448.896	711.19
449.117	595.19
449.338	590.19
449.559	651.19
449.779	750.19
450	597.19
450.221	488.19
450.442	457.19
450.662	452.19
450.883	446.19
451.104	470.19
451.324	447.19
451.545	430.19
451.766	442.19
451.986	414.19
452.207	444.19
452.428	418.19
452.648	424.19
452.869	419.19
453.089	438.19
453.31	424.19
453.53	424.19
453.751	403.19
453.971	422.19
454.192	438.19
454.412	424.19
454.633	418.19
454.853	390.19
455.073	428.19
455.294	435.19
455.514	487.19
455.734	471.19
455.955	427.19
456.175	396.19
456.395	405.19
456.616	390.19
456.836	408.19
457.056	414.19
457.276	402.19
457.497	398.19
457.717	403.19
457.937	411.19
458.157	417.19
458.377	394.19
458.598	425.19
458.818	467.19
459.038	513.19
459.258	559.19
459.478	494.19
459.698	464.19
459.918	454.19
460.138	470.19
460.358	478.19
460.578	486.19
460.798	468.19
461.018	489.19
461.238	510.19
461.458	492.19
461.678	477.19
461.898	501.19
462.118	468.19
462.338	498.19
462.558	516.19
462.777	523.19
462.997	525.19
463.217	559.19
463.437	548.19
463.657	516.19
463.876	534.19
464.096	548.19
464.316	522.19
464.536	522.19
464.755	532.19
464.975	505.19
465.195	520.19
465.414	566.19
465.634	501.19
465.854	473.19
466.073	459.19
466.293	459.19
466.512	457.19
466.732	458.19
466.951	432.19
467.171	436.19
467.391	444.19
467.61	449.19
467.829	445.19
468.049	435.19
468.268	443.19
468.488	441.19
468.707	449.19
468.927	438.19
469.146	414.19
469.365	418.19
469.585	434.19
469.804	443.19
470.023	462.19
470.243	460.19
470.462	436.19
470.681	450.19
470.901	456.19
471.12	447.19
471.339	445.19
471.558	446.19
471.777	452.19
471.997	442.19
472.216	438.19
472.435	431.19
472.654	455.19
472.873	437.19
473.092	439.19
473.311	453.19
473.53	430.19
473.749	434.19
473.968	481.19
474.187	555.19
474.406	576.19
474.625	497.19
474.844	450.19
475.063	452.19
475.282	442.19
475.501	449.19
475.72	451.19
475.939	446.19
476.158	451.19
476.377	458.19
476.596	458.19
476.814	456.19
477.033	470.19
477.252	473.19
477.471	471.19
477.69	478.19
477.908	481.19
478.127	498.19
478.346	496.19
478.564	490.19
478.783	507.19
479.002	528.19
479.22	514.19
479.439	531.19
479.658	521.19
479.876	546.19
480.095	541.19
480.313	562.19
480.532	576.19
480.751	554.19
480.969	583.19
481.188	568.19
481.406	568.19
481.624	546.19
481.843	520.19
482.061	518.19
482.28	510.19
482.498	524.19
482.717	526.19
482.935	518.19
483.153	551.19
483.372	521.19
483.59	510.19
483.808	512.19
484.027	507.19
484.245	508.19
484.463	508.19
484.681	529.19
484.9	518.19
485.118	533.19
485.336	543.19
485.554	531.19
485.772	562.19
485.99	542.19
486.209	544.19
486.427	543.19
486.645	539.19
486.863	552.19
487.081	569.19
487.299	558.19
487.517	546.19
487.735	539.19
487.953	566.19
488.171	562.19
488.389	546.19
488.607	544.19
488.825	568.19
489.043	543.19
489.261	562.19
489.479	555.19
489.696	548.19
489.914	579.19
490.132	564.19
490.35	554.19
490.568	593.19
490.786	578.19
491.003	598.19
491.221	604.19
491.439	617.19
491.657	619.19
491.874	629.19
492.092	628.19
492.31	612.19
492.527	634.19
492.745	625.19
492.963	633.19
493.18	618.19
493.398	635.19
493.615	630.19
493.833	638.19
494.05	643.19
494.268	636.19
494.485	636.19
494.703	641.19
494.92	618.19
495.138	648.19
495.355	644.19
495.573	650.19
495.79	676.19
496.008	682.19
496.225	655.19
496.442	630.19
496.66	623.19
496.877	663.19
497.094	623.19
497.312	675.19
497.529	651.19
497.746	668.19
497.963	672.19
498.181	715.19
498.398	730.19
498.615	734.19
498.832	783.19
499.049	784.19
499.267	818.19
499.484	844.19
499.701	885.19
499.918	956.19
500.135	991.19
500.352	1047.19
500.569	1059.19
500.786	1074.19
501.003	1059.19
501.22	1034.19
501.437	933.19
501.654	895.19
501.871	869.19
