Data from 1976.PennyLincolnUp.Lamp.En5.5.200Scan.071719.P1.Changed Mount._HRD10591_16-02-17-864.txt Node
Date: Thu Jul 18 16:02:17 EDT 2019
User: cochatt
Spectrometer: HR+D1059
Trigger mode: 1
Integration Time (sec): 1.000000E-1
Scans to average: 1
Electric dark correction enabled: true
Nonlinearity correction enabled: false
Boxcar width: 0
XAxis mode: Wavelengths
Number of Pixels in Spectrum: 2048
>>>>>Begin Spectral Data<<<<<
223.165	-20.56
223.4	-20.56
223.635	-20.56
223.869	-21.56
224.104	-12.56
224.338	-16.56
224.573	-12.56
224.808	-8.56
225.042	-18.56
225.277	10.44
225.511	-6.56
225.746	-4.56
225.98	-4.56
226.215	12.44
226.449	15.44
226.683	31.44
226.918	32.44
227.152	24.44
227.387	39.44
227.621	52.44
227.856	55.44
228.09	43.44
228.324	57.44
228.559	43.44
228.793	60.44
229.027	94.44
229.262	115.44
229.496	111.44
229.73	141.44
229.964	161.44
230.199	115.44
230.433	103.44
230.667	110.44
230.901	119.44
231.136	107.44
231.37	112.44
231.604	133.44
231.838	114.44
232.072	126.44
232.306	107.44
232.541	110.44
232.775	121.44
233.009	94.44
233.243	107.44
233.477	116.44
233.711	106.44
233.945	123.44
234.179	130.44
234.413	126.44
234.647	127.44
234.881	115.44
235.115	124.44
235.349	123.44
235.583	125.44
235.817	126.44
236.051	144.44
236.285	140.44
236.519	126.44
236.753	132.44
236.987	150.44
237.221	190.44
237.455	237.44
237.689	199.44
237.922	147.44
238.156	134.44
238.39	130.44
238.624	118.44
238.858	122.44
239.091	137.44
239.325	134.44
239.559	142.44
239.793	114.44
240.027	136.44
240.26	154.44
240.494	179.44
240.728	163.44
240.961	146.44
241.195	134.44
241.429	133.44
241.662	148.44
241.896	157.44
242.13	141.44
242.363	135.44
242.597	134.44
242.83	142.44
243.064	151.44
243.298	144.44
243.531	140.44
243.765	149.44
243.998	140.44
244.232	148.44
244.465	159.44
244.699	150.44
244.932	150.44
245.166	145.44
245.399	162.44
245.633	136.44
245.866	168.44
246.099	170.44
246.333	160.44
246.566	150.44
246.8	166.44
247.033	160.44
247.266	167.44
247.5	168.44
247.733	180.44
247.966	181.44
248.2	182.44
248.433	184.44
248.666	167.44
248.899	186.44
249.133	206.44
249.366	224.44
249.599	231.44
249.832	197.44
250.066	178.44
250.299	182.44
250.532	198.44
250.765	229.44
250.998	234.44
251.231	237.44
251.465	230.44
251.698	207.44
251.931	204.44
252.164	188.44
252.397	216.44
252.63	209.44
252.863	218.44
253.096	194.44
253.329	237.44
253.562	219.44
253.795	226.44
254.028	234.44
254.261	236.44
254.494	249.44
254.727	250.44
254.96	298.44
255.193	300.44
255.426	262.44
255.659	233.44
255.892	243.44
256.124	236.44
256.357	245.44
256.59	236.44
256.823	235.44
257.056	235.44
257.289	217.44
257.521	207.44
257.754	210.44
257.987	212.44
258.22	234.44
258.452	213.44
258.685	215.44
258.918	210.44
259.151	236.44
259.383	250.44
259.616	238.44
259.849	239.44
260.081	252.44
260.314	248.44
260.547	273.44
260.779	266.44
261.012	248.44
261.244	212.44
261.477	226.44
261.71	234.44
261.942	219.44
262.175	241.44
262.407	227.44
262.64	227.44
262.872	238.44
263.105	215.44
263.337	227.44
263.57	228.44
263.802	217.44
264.035	242.44
264.267	218.44
264.499	216.44
264.732	221.44
264.964	241.44
265.197	230.44
265.429	228.44
265.661	225.44
265.894	254.44
266.126	242.44
266.358	221.44
266.591	235.44
266.823	254.44
267.055	238.44
267.287	250.44
267.52	254.44
267.752	229.44
267.984	230.44
268.216	237.44
268.448	259.44
268.681	255.44
268.913	260.44
269.145	286.44
269.377	296.44
269.609	310.44
269.841	294.44
270.073	289.44
270.306	323.44
270.538	347.44
270.77	343.44
271.002	316.44
271.234	299.44
271.466	308.44
271.698	326.44
271.93	338.44
272.162	338.44
272.394	334.44
272.626	329.44
272.858	319.44
273.09	291.44
273.322	301.44
273.553	294.44
273.785	285.44
274.017	284.44
274.249	272.44
274.481	268.44
274.713	295.44
274.945	291.44
275.176	286.44
275.408	288.44
275.64	279.44
275.872	278.44
276.104	274.44
276.335	280.44
276.567	284.44
276.799	310.44
277.031	318.44
277.262	322.44
277.494	315.44
277.726	329.44
277.957	310.44
278.189	298.44
278.421	292.44
278.652	271.44
278.884	306.44
279.115	292.44
279.347	311.44
279.579	299.44
279.81	290.44
280.042	300.44
280.273	303.44
280.505	310.44
280.736	302.44
280.968	304.44
281.199	284.44
281.431	308.44
281.662	292.44
281.894	294.44
282.125	291.44
282.356	296.44
282.588	310.44
282.819	321.44
283.051	310.44
283.282	292.44
283.513	309.44
283.745	312.44
283.976	331.44
284.207	303.44
284.439	321.44
284.67	311.44
284.901	319.44
285.132	302.44
285.364	312.44
285.595	293.44
285.826	307.44
286.057	316.44
286.288	303.44
286.52	313.44
286.751	299.44
286.982	326.44
287.213	291.44
287.444	310.44
287.675	320.44
287.906	314.44
288.138	312.44
288.369	341.44
288.6	336.44
288.831	324.44
289.062	331.44
289.293	322.44
289.524	324.44
289.755	331.44
289.986	317.44
290.217	317.44
290.448	330.44
290.679	318.44
290.91	350.44
291.141	325.44
291.371	328.44
291.602	321.44
291.833	339.44
292.064	318.44
292.295	317.44
292.526	311.44
292.757	325.44
292.987	308.44
293.218	308.44
293.449	311.44
293.68	334.44
293.91	328.44
294.141	318.44
294.372	326.44
294.603	323.44
294.833	331.44
295.064	326.44
295.295	329.44
295.525	331.44
295.756	313.44
295.987	346.44
296.217	344.44
296.448	371.44
296.679	349.44
296.909	341.44
297.14	331.44
297.37	346.44
297.601	326.44
297.831	331.44
298.062	332.44
298.292	322.44
298.523	338.44
298.753	341.44
298.984	327.44
299.214	327.44
299.445	355.44
299.675	334.44
299.905	343.44
300.136	338.44
300.366	349.44
300.597	351.44
300.827	345.44
301.057	357.44
301.288	356.44
301.518	360.44
301.748	336.44
301.979	350.44
302.209	374.44
302.439	352.44
302.669	374.44
302.9	372.44
303.13	344.44
303.36	378.44
303.59	354.44
303.82	355.44
304.051	355.44
304.281	367.44
304.511	358.44
304.741	364.44
304.971	375.44
305.201	374.44
305.431	371.44
305.661	354.44
305.891	349.44
306.121	359.44
306.352	364.44
306.582	366.44
306.812	370.44
307.042	375.44
307.272	360.44
307.502	358.44
307.731	368.44
307.961	376.44
308.191	355.44
308.421	382.44
308.651	382.44
308.881	377.44
309.111	356.44
309.341	368.44
309.571	388.44
309.8	376.44
310.03	385.44
310.26	388.44
310.49	386.44
310.72	403.44
310.949	418.44
311.179	418.44
311.409	396.44
311.639	382.44
311.868	404.44
312.098	414.44
312.328	415.44
312.557	411.44
312.787	414.44
313.017	425.44
313.246	416.44
313.476	411.44
313.706	400.44
313.935	408.44
314.165	407.44
314.394	420.44
314.624	420.44
314.853	387.44
315.083	386.44
315.312	404.44
315.542	406.44
315.771	394.44
316.001	408.44
316.23	397.44
316.46	408.44
316.689	397.44
316.919	410.44
317.148	408.44
317.377	425.44
317.607	424.44
317.836	404.44
318.065	416.44
318.295	420.44
318.524	426.44
318.753	403.44
318.983	381.44
319.212	392.44
319.441	408.44
319.67	426.44
319.9	417.44
320.129	400.44
320.358	410.44
320.587	417.44
320.816	419.44
321.046	421.44
321.275	418.44
321.504	443.44
321.733	402.44
321.962	428.44
322.191	457.44
322.42	450.44
322.649	446.44
322.878	456.44
323.108	469.44
323.337	496.44
323.566	487.44
323.795	536.44
324.024	559.44
324.253	657.44
324.482	913.44
324.71	1418.44
324.939	2088.44
325.168	1811.44
325.397	911.44
325.626	632.44
325.855	548.44
326.084	492.44
326.313	514.44
326.542	520.44
326.77	533.44
326.999	638.44
327.228	859.44
327.457	1277.44
327.686	1575.44
327.914	1061.44
328.143	669.44
328.372	609.44
328.6	559.44
328.829	581.44
329.058	580.44
329.287	592.44
329.515	548.44
329.744	542.44
329.972	538.44
330.201	533.44
330.43	584.44
330.658	601.44
330.887	617.44
331.115	580.44
331.344	532.44
331.572	526.44
331.801	507.44
332.03	535.44
332.258	508.44
332.486	482.44
332.715	514.44
332.943	500.44
333.172	510.44
333.4	522.44
333.629	525.44
333.857	524.44
334.085	543.44
334.314	557.44
334.542	572.44
334.771	593.44
334.999	559.44
335.227	527.44
335.455	515.44
335.684	486.44
335.912	495.44
336.14	492.44
336.369	487.44
336.597	486.44
336.825	500.44
337.053	473.44
337.281	473.44
337.51	447.44
337.738	493.44
337.966	491.44
338.194	492.44
338.422	499.44
338.65	465.44
338.878	463.44
339.106	460.44
339.334	480.44
339.562	452.44
339.79	483.44
340.018	462.44
340.246	454.44
340.474	461.44
340.702	455.44
340.93	455.44
341.158	458.44
341.386	466.44
341.614	463.44
341.842	433.44
342.07	436.44
342.298	468.44
342.526	448.44
342.754	446.44
342.981	457.44
343.209	464.44
343.437	472.44
343.665	468.44
343.893	475.44
344.12	476.44
344.348	479.44
344.576	513.44
344.804	478.44
345.031	468.44
345.259	476.44
345.487	490.44
345.714	468.44
345.942	460.44
346.17	484.44
346.397	438.44
346.625	429.44
346.853	437.44
347.08	416.44
347.308	444.44
347.535	442.44
347.763	448.44
347.99	448.44
348.218	443.44
348.445	461.44
348.673	432.44
348.9	425.44
349.128	445.44
349.355	438.44
349.583	426.44
349.81	430.44
350.037	430.44
350.265	439.44
350.492	421.44
350.72	443.44
350.947	430.44
351.174	427.44
351.402	454.44
351.629	452.44
351.856	477.44
352.083	427.44
352.311	434.44
352.538	444.44
352.765	456.44
352.992	444.44
353.22	438.44
353.447	441.44
353.674	436.44
353.901	431.44
354.128	427.44
354.355	431.44
354.583	418.44
354.81	420.44
355.037	427.44
355.264	413.44
355.491	411.44
355.718	410.44
355.945	419.44
356.172	414.44
356.399	439.44
356.626	429.44
356.853	403.44
357.08	419.44
357.307	413.44
357.534	432.44
357.761	413.44
357.988	411.44
358.215	420.44
358.441	423.44
358.668	423.44
358.895	429.44
359.122	422.44
359.349	425.44
359.576	432.44
359.802	462.44
360.029	492.44
360.256	473.44
360.483	462.44
360.709	443.44
360.936	435.44
361.163	464.44
361.39	454.44
361.616	455.44
361.843	456.44
362.07	436.44
362.296	439.44
362.523	452.44
362.749	437.44
362.976	435.44
363.203	419.44
363.429	435.44
363.656	431.44
363.882	408.44
364.109	394.44
364.335	437.44
364.562	421.44
364.788	407.44
365.015	434.44
365.241	421.44
365.468	444.44
365.694	440.44
365.92	423.44
366.147	426.44
366.373	424.44
366.599	431.44
366.826	422.44
367.052	411.44
367.278	434.44
367.505	414.44
367.731	420.44
367.957	432.44
368.184	422.44
368.41	454.44
368.636	426.44
368.862	436.44
369.089	406.44
369.315	429.44
369.541	400.44
369.767	420.44
369.993	438.44
370.219	414.44
370.445	416.44
370.672	419.44
370.898	424.44
371.124	411.44
371.35	424.44
371.576	447.44
371.802	410.44
372.028	422.44
372.254	432.44
372.48	453.44
372.706	448.44
372.932	421.44
373.158	444.44
373.384	442.44
373.61	439.44
373.835	461.44
374.061	438.44
374.287	428.44
374.513	439.44
374.739	442.44
374.965	454.44
375.191	454.44
375.416	451.44
375.642	439.44
375.868	441.44
376.094	430.44
376.319	417.44
376.545	444.44
376.771	426.44
376.997	416.44
377.222	421.44
377.448	427.44
377.674	428.44
377.899	437.44
378.125	427.44
378.35	435.44
378.576	407.44
378.802	428.44
379.027	419.44
379.253	434.44
379.478	427.44
379.704	410.44
379.929	423.44
380.155	418.44
380.38	446.44
380.606	428.44
380.831	434.44
381.057	414.44
381.282	441.44
381.507	433.44
381.733	431.44
381.958	441.44
382.184	438.44
382.409	439.44
382.634	428.44
382.86	456.44
383.085	461.44
383.31	445.44
383.535	461.44
383.761	453.44
383.986	445.44
384.211	441.44
384.436	470.44
384.662	470.44
384.887	488.44
385.112	466.44
385.337	484.44
385.562	478.44
385.787	462.44
386.013	459.44
386.238	480.44
386.463	486.44
386.688	500.44
386.913	468.44
387.138	464.44
387.363	486.44
387.588	499.44
387.813	490.44
388.038	490.44
388.263	478.44
388.488	482.44
388.713	484.44
388.938	460.44
389.163	478.44
389.387	492.44
389.612	448.44
389.837	470.44
390.062	470.44
390.287	475.44
390.512	483.44
390.736	464.44
390.961	478.44
391.186	481.44
391.411	478.44
391.636	490.44
391.86	510.44
392.085	498.44
392.31	501.44
392.534	496.44
392.759	500.44
392.984	500.44
393.208	478.44
393.433	478.44
393.658	475.44
393.882	478.44
394.107	467.44
394.331	496.44
394.556	479.44
394.78	495.44
395.005	498.44
395.229	502.44
395.454	494.44
395.678	513.44
395.903	515.44
396.127	527.44
396.352	546.44
396.576	520.44
396.801	518.44
397.025	488.44
397.249	511.44
397.474	518.44
397.698	508.44
397.922	520.44
398.147	568.44
398.371	576.44
398.595	561.44
398.82	548.44
399.044	566.44
399.268	589.44
399.492	631.44
399.717	684.44
399.941	703.44
400.165	714.44
400.389	690.44
400.613	669.44
400.837	628.44
401.062	590.44
401.286	564.44
401.51	574.44
401.734	562.44
401.958	608.44
402.182	564.44
402.406	558.44
402.63	583.44
402.854	592.44
403.078	563.44
403.302	578.44
403.526	595.44
403.75	597.44
403.974	590.44
404.198	599.44
404.422	571.44
404.645	593.44
404.869	597.44
405.093	601.44
405.317	654.44
405.541	699.44
405.765	634.44
405.988	604.44
406.212	617.44
406.436	637.44
406.66	636.44
406.883	641.44
407.107	648.44
407.331	706.44
407.555	764.44
407.778	763.44
408.002	728.44
408.226	642.44
408.449	642.44
408.673	627.44
408.896	644.44
409.12	717.44
409.344	679.44
409.567	629.44
409.791	614.44
410.014	596.44
410.238	579.44
410.461	580.44
410.685	589.44
410.908	582.44
411.132	636.44
411.355	652.44
411.578	646.44
411.802	595.44
412.025	590.44
412.249	598.44
412.472	598.44
412.695	657.44
412.919	644.44
413.142	607.44
413.365	570.44
413.589	570.44
413.812	546.44
414.035	538.44
414.258	551.44
414.482	557.44
414.705	544.44
414.928	547.44
415.151	542.44
415.374	552.44
415.597	559.44
415.821	540.44
416.044	532.44
416.267	551.44
416.49	556.44
416.713	520.44
416.936	550.44
417.159	550.44
417.382	551.44
417.605	557.44
417.828	559.44
418.051	587.44
418.274	565.44
418.497	534.44
418.72	549.44
418.943	542.44
419.166	557.44
419.389	588.44
419.611	598.44
419.834	591.44
420.057	601.44
420.28	608.44
420.503	562.44
420.726	559.44
420.948	582.44
421.171	625.44
421.394	640.44
421.617	598.44
421.839	548.44
422.062	567.44
422.285	575.44
422.507	666.44
422.73	749.44
422.953	704.44
423.175	619.44
423.398	611.44
423.621	577.44
423.843	610.44
424.066	621.44
424.288	604.44
424.511	622.44
424.733	674.44
424.956	786.44
425.178	739.44
425.401	733.44
425.623	761.44
425.846	654.44
426.068	600.44
426.291	589.44
426.513	602.44
426.735	611.44
426.958	643.44
427.18	745.44
427.402	879.44
427.625	964.44
427.847	819.44
428.069	700.44
428.292	614.44
428.514	585.44
428.736	562.44
428.958	557.44
429.181	551.44
429.403	562.44
429.625	551.44
429.847	594.44
430.069	690.44
430.292	664.44
430.514	567.44
430.736	546.44
430.958	538.44
431.18	549.44
431.402	535.44
431.624	523.44
431.846	530.44
432.068	500.44
432.29	563.44
432.512	546.44
432.734	533.44
432.956	518.44
433.178	519.44
433.4	555.44
433.622	528.44
433.844	511.44
434.066	542.44
434.287	552.44
434.509	552.44
434.731	555.44
434.953	559.44
435.175	566.44
435.397	588.44
435.618	625.44
435.84	619.44
436.062	762.44
436.284	804.44
436.505	694.44
436.727	617.44
436.949	572.44
437.17	564.44
437.392	566.44
437.614	558.44
437.835	589.44
438.057	683.44
438.278	768.44
438.5	792.44
438.721	899.44
438.943	860.44
439.165	672.44
439.386	619.44
439.608	626.44
439.829	593.44
440.05	630.44
440.272	676.44
440.493	614.44
440.715	586.44
440.936	562.44
441.158	570.44
441.379	553.44
441.6	565.44
441.822	607.44
442.043	640.44
442.264	740.44
442.486	788.44
442.707	660.44
442.928	628.44
443.149	592.44
443.371	650.44
443.592	678.44
443.813	796.44
444.034	876.44
444.255	689.44
444.476	645.44
444.698	621.44
444.919	615.44
445.14	708.44
445.361	673.44
445.582	658.44
445.803	693.44
446.024	815.44
446.245	832.44
446.466	751.44
446.687	656.44
446.908	598.44
447.129	567.44
447.35	551.44
447.571	553.44
447.792	540.44
448.013	575.44
448.234	589.44
448.455	624.44
448.675	736.44
448.896	906.44
449.117	735.44
449.338	679.44
449.559	808.44
449.779	904.44
450	719.44
450.221	606.44
450.442	548.44
450.662	548.44
450.883	532.44
451.104	534.44
451.324	536.44
451.545	528.44
451.766	522.44
451.986	472.44
452.207	477.44
452.428	484.44
452.648	492.44
452.869	479.44
453.089	492.44
453.31	520.44
453.53	519.44
453.751	484.44
453.971	488.44
454.192	509.44
454.412	495.44
454.633	477.44
454.853	471.44
455.073	488.44
455.294	498.44
455.514	590.44
455.734	574.44
455.955	501.44
456.175	460.44
456.395	491.44
456.616	439.44
456.836	455.44
457.056	465.44
457.276	455.44
457.497	445.44
457.717	474.44
457.937	467.44
458.157	492.44
458.377	494.44
458.598	505.44
458.818	557.44
459.038	626.44
459.258	646.44
459.478	565.44
459.698	528.44
459.918	519.44
460.138	533.44
460.358	544.44
460.578	551.44
460.798	553.44
461.018	574.44
461.238	556.44
461.458	565.44
461.678	529.44
461.898	554.44
462.118	570.44
462.338	552.44
462.558	587.44
462.777	576.44
462.997	604.44
463.217	631.44
463.437	628.44
463.657	599.44
463.876	614.44
464.096	607.44
464.316	591.44
464.536	595.44
464.755	604.44
464.975	574.44
465.195	610.44
465.414	634.44
465.634	593.44
465.854	544.44
466.073	532.44
466.293	526.44
466.512	520.44
466.732	509.44
466.951	520.44
467.171	510.44
467.391	483.44
467.61	484.44
467.829	517.44
468.049	540.44
468.268	495.44
468.488	521.44
468.707	490.44
468.927	504.44
469.146	498.44
469.365	475.44
469.585	518.44
469.804	510.44
470.023	496.44
470.243	516.44
470.462	524.44
470.681	527.44
470.901	543.44
471.12	505.44
471.339	527.44
471.558	513.44
471.777	511.44
471.997	501.44
472.216	530.44
472.435	533.44
472.654	528.44
472.873	503.44
473.092	502.44
473.311	502.44
473.53	495.44
473.749	522.44
473.968	542.44
474.187	665.44
474.406	706.44
474.625	576.44
474.844	520.44
475.063	493.44
475.282	490.44
475.501	516.44
475.72	502.44
475.939	522.44
476.158	512.44
476.377	520.44
476.596	520.44
476.814	560.44
477.033	528.44
477.252	546.44
477.471	528.44
477.69	525.44
477.908	543.44
478.127	576.44
478.346	576.44
478.564	589.44
478.783	597.44
479.002	583.44
479.22	579.44
479.439	589.44
479.658	617.44
479.876	591.44
480.095	623.44
480.313	649.44
480.532	618.44
480.751	656.44
480.969	631.44
481.188	683.44
481.406	703.44
481.624	661.44
481.843	611.44
482.061	603.44
482.28	604.44
482.498	586.44
482.717	567.44
482.935	600.44
483.153	615.44
483.372	599.44
483.59	615.44
483.808	581.44
484.027	603.44
484.245	587.44
484.463	605.44
484.681	619.44
484.9	590.44
485.118	621.44
485.336	610.44
485.554	612.44
485.772	615.44
485.99	651.44
486.209	632.44
486.427	620.44
486.645	603.44
486.863	662.44
487.081	632.44
487.299	627.44
487.517	630.44
487.735	617.44
487.953	666.44
488.171	620.44
488.389	647.44
488.607	624.44
488.825	635.44
489.043	631.44
489.261	643.44
489.479	642.44
489.696	637.44
489.914	627.44
490.132	652.44
490.35	666.44
490.568	662.44
490.786	682.44
491.003	693.44
491.221	719.44
491.439	715.44
491.657	724.44
491.874	734.44
492.092	740.44
492.31	730.44
492.527	739.44
492.745	717.44
492.963	719.44
493.18	762.44
493.398	741.44
493.615	744.44
493.833	740.44
494.05	762.44
494.268	762.44
494.485	764.44
494.703	754.44
494.92	765.44
495.138	768.44
495.355	772.44
495.573	748.44
495.79	744.44
496.008	774.44
496.225	746.44
496.442	754.44
496.66	772.44
496.877	764.44
497.094	763.44
497.312	777.44
497.529	751.44
497.746	782.44
497.963	806.44
498.181	839.44
498.398	830.44
498.615	842.44
498.832	891.44
499.049	894.44
499.267	924.44
499.484	956.44
499.701	1022.44
499.918	1065.44
500.135	1099.44
500.352	1167.44
500.569	1188.44
500.786	1232.44
501.003	1185.44
501.22	1126.44
501.437	1071.44
501.654	1014.44
