Data from 1976.PennyLincolnUp.Lamp.En5.5.200Scan.071719.P1.Changed Mount._HRD10591_16-02-30-862.txt Node
Date: Thu Jul 18 16:02:30 EDT 2019
User: cochatt
Spectrometer: HR+D1059
Trigger mode: 1
Integration Time (sec): 1.000000E-1
Scans to average: 1
Electric dark correction enabled: true
Nonlinearity correction enabled: false
Boxcar width: 0
XAxis mode: Wavelengths
Number of Pixels in Spectrum: 2048
>>>>>Begin Spectral Data<<<<<
223.165	-24.31
223.4	-24.31
223.635	-24.31
223.869	-0.31
224.104	-30.31
224.338	-15.31
224.573	-18.31
224.808	-15.31
225.042	3.69
225.277	6.69
225.511	-8.31
225.746	14.69
225.98	8.69
226.215	10.69
226.449	5.69
226.683	18.69
226.918	18.69
227.152	24.69
227.387	29.69
227.621	32.69
227.856	36.69
228.09	34.69
228.324	46.69
228.559	46.69
228.793	67.69
229.027	93.69
229.262	95.69
229.496	119.69
229.73	132.69
229.964	157.69
230.199	122.69
230.433	105.69
230.667	112.69
230.901	102.69
231.136	113.69
231.37	117.69
231.604	94.69
231.838	107.69
232.072	103.69
232.306	110.69
232.541	105.69
232.775	105.69
233.009	111.69
233.243	103.69
233.477	117.69
233.711	125.69
233.945	129.69
234.179	135.69
234.413	113.69
234.647	103.69
234.881	117.69
235.115	125.69
235.349	104.69
235.583	119.69
235.817	133.69
236.051	125.69
236.285	123.69
236.519	123.69
236.753	130.69
236.987	140.69
237.221	166.69
237.455	205.69
237.689	180.69
237.922	149.69
238.156	135.69
238.39	114.69
238.624	139.69
238.858	134.69
239.091	127.69
239.325	117.69
239.559	128.69
239.793	131.69
240.027	139.69
240.26	144.69
240.494	143.69
240.728	167.69
240.961	131.69
241.195	149.69
241.429	125.69
241.662	135.69
241.896	139.69
242.13	139.69
242.363	124.69
242.597	139.69
242.83	148.69
243.064	149.69
243.298	137.69
243.531	143.69
243.765	128.69
243.998	129.69
244.232	142.69
244.465	137.69
244.699	142.69
244.932	146.69
245.166	145.69
245.399	147.69
245.633	150.69
245.866	153.69
246.099	139.69
246.333	147.69
246.566	145.69
246.8	158.69
247.033	152.69
247.266	167.69
247.5	168.69
247.733	149.69
247.966	176.69
248.2	176.69
248.433	168.69
248.666	167.69
248.899	190.69
249.133	205.69
249.366	207.69
249.599	184.69
249.832	175.69
250.066	179.69
250.299	186.69
250.532	200.69
250.765	215.69
250.998	229.69
251.231	241.69
251.465	219.69
251.698	212.69
251.931	205.69
252.164	214.69
252.397	200.69
252.63	194.69
252.863	222.69
253.096	208.69
253.329	220.69
253.562	223.69
253.795	213.69
254.028	225.69
254.261	219.69
254.494	244.69
254.727	252.69
254.96	298.69
255.193	271.69
255.426	258.69
255.659	246.69
255.892	234.69
256.124	231.69
256.357	232.69
256.59	237.69
256.823	211.69
257.056	221.69
257.289	211.69
257.521	208.69
257.754	208.69
257.987	232.69
258.22	195.69
258.452	209.69
258.685	225.69
258.918	235.69
259.151	223.69
259.383	229.69
259.616	238.69
259.849	234.69
260.081	235.69
260.314	267.69
260.547	253.69
260.779	253.69
261.012	242.69
261.244	233.69
261.477	242.69
261.71	237.69
261.942	249.69
262.175	244.69
262.407	245.69
262.64	233.69
262.872	222.69
263.105	241.69
263.337	217.69
263.57	224.69
263.802	229.69
264.035	223.69
264.267	219.69
264.499	239.69
264.732	230.69
264.964	224.69
265.197	208.69
265.429	208.69
265.661	229.69
265.894	221.69
266.126	226.69
266.358	232.69
266.591	237.69
266.823	251.69
267.055	241.69
267.287	233.69
267.52	243.69
267.752	233.69
267.984	255.69
268.216	234.69
268.448	253.69
268.681	247.69
268.913	263.69
269.145	285.69
269.377	293.69
269.609	292.69
269.841	297.69
270.073	297.69
270.306	290.69
270.538	324.69
270.77	325.69
271.002	309.69
271.234	301.69
271.466	315.69
271.698	310.69
271.93	337.69
272.162	313.69
272.394	319.69
272.626	307.69
272.858	308.69
273.09	290.69
273.322	309.69
273.553	289.69
273.785	283.69
274.017	279.69
274.249	278.69
274.481	292.69
274.713	283.69
274.945	287.69
275.176	283.69
275.408	285.69
275.64	301.69
275.872	284.69
276.104	280.69
276.335	281.69
276.567	281.69
276.799	310.69
277.031	325.69
277.262	341.69
277.494	333.69
277.726	315.69
277.957	299.69
278.189	294.69
278.421	289.69
278.652	286.69
278.884	305.69
279.115	285.69
279.347	283.69
279.579	276.69
279.81	269.69
280.042	294.69
280.273	296.69
280.505	301.69
280.736	280.69
280.968	277.69
281.199	288.69
281.431	295.69
281.662	299.69
281.894	277.69
282.125	304.69
282.356	290.69
282.588	330.69
282.819	325.69
283.051	294.69
283.282	283.69
283.513	309.69
283.745	320.69
283.976	302.69
284.207	310.69
284.439	305.69
284.67	311.69
284.901	291.69
285.132	308.69
285.364	303.69
285.595	310.69
285.826	312.69
286.057	293.69
286.288	293.69
286.52	303.69
286.751	308.69
286.982	309.69
287.213	311.69
287.444	310.69
287.675	308.69
287.906	311.69
288.138	341.69
288.369	323.69
288.6	329.69
288.831	341.69
289.062	306.69
289.293	303.69
289.524	322.69
289.755	321.69
289.986	316.69
290.217	301.69
290.448	324.69
290.679	337.69
290.91	314.69
291.141	320.69
291.371	317.69
291.602	317.69
291.833	290.69
292.064	324.69
292.295	289.69
292.526	315.69
292.757	299.69
292.987	313.69
293.218	307.69
293.449	322.69
293.68	340.69
293.91	319.69
294.141	315.69
294.372	309.69
294.603	302.69
294.833	329.69
295.064	327.69
295.295	327.69
295.525	334.69
295.756	315.69
295.987	337.69
296.217	338.69
296.448	369.69
296.679	333.69
296.909	328.69
297.14	327.69
297.37	330.69
297.601	337.69
297.831	330.69
298.062	327.69
298.292	318.69
298.523	338.69
298.753	342.69
298.984	331.69
299.214	337.69
299.445	341.69
299.675	336.69
299.905	357.69
300.136	372.69
300.366	337.69
300.597	337.69
300.827	361.69
301.057	363.69
301.288	349.69
301.518	351.69
301.748	357.69
301.979	369.69
302.209	365.69
302.439	365.69
302.669	367.69
302.9	368.69
303.13	346.69
303.36	369.69
303.59	359.69
303.82	373.69
304.051	369.69
304.281	381.69
304.511	361.69
304.741	368.69
304.971	351.69
305.201	365.69
305.431	367.69
305.661	367.69
305.891	373.69
306.121	371.69
306.352	351.69
306.582	366.69
306.812	353.69
307.042	354.69
307.272	374.69
307.502	347.69
307.731	351.69
307.961	363.69
308.191	373.69
308.421	366.69
308.651	360.69
308.881	357.69
309.111	369.69
309.341	357.69
309.571	387.69
309.8	393.69
310.03	388.69
310.26	416.69
310.49	400.69
310.72	399.69
310.949	427.69
311.179	419.69
311.409	402.69
311.639	377.69
311.868	406.69
312.098	396.69
312.328	432.69
312.557	441.69
312.787	416.69
313.017	417.69
313.246	416.69
313.476	389.69
313.706	399.69
313.935	405.69
314.165	410.69
314.394	405.69
314.624	421.69
314.853	418.69
315.083	399.69
315.312	407.69
315.542	393.69
315.771	385.69
316.001	418.69
316.23	412.69
316.46	411.69
316.689	413.69
316.919	387.69
317.148	406.69
317.377	421.69
317.607	416.69
317.836	413.69
318.065	418.69
318.295	414.69
318.524	410.69
318.753	413.69
318.983	394.69
319.212	392.69
319.441	403.69
319.67	397.69
319.9	418.69
320.129	411.69
320.358	423.69
320.587	406.69
320.816	409.69
321.046	409.69
321.275	424.69
321.504	423.69
321.733	413.69
321.962	426.69
322.191	433.69
322.42	421.69
322.649	471.69
322.878	467.69
323.108	462.69
323.337	483.69
323.566	496.69
323.795	522.69
324.024	563.69
324.253	655.69
324.482	916.69
324.71	1393.69
324.939	2073.69
325.168	1731.69
325.397	875.69
325.626	619.69
325.855	537.69
326.084	503.69
326.313	501.69
326.542	501.69
326.77	538.69
326.999	648.69
327.228	827.69
327.457	1277.69
327.686	1562.69
327.914	1027.69
328.143	695.69
328.372	616.69
328.6	571.69
328.829	560.69
329.058	552.69
329.287	589.69
329.515	555.69
329.744	521.69
329.972	536.69
330.201	535.69
330.43	584.69
330.658	595.69
330.887	598.69
331.115	602.69
331.344	522.69
331.572	513.69
331.801	530.69
332.03	511.69
332.258	484.69
332.486	486.69
332.715	490.69
332.943	519.69
333.172	503.69
333.4	480.69
333.629	504.69
333.857	542.69
334.085	517.69
334.314	541.69
334.542	563.69
334.771	606.69
334.999	545.69
335.227	521.69
335.455	516.69
335.684	494.69
335.912	478.69
336.14	471.69
336.369	494.69
336.597	489.69
336.825	484.69
337.053	466.69
337.281	490.69
337.51	482.69
337.738	469.69
337.966	442.69
338.194	497.69
338.422	477.69
338.65	482.69
338.878	461.69
339.106	436.69
339.334	460.69
339.562	469.69
339.79	486.69
340.018	449.69
340.246	458.69
340.474	453.69
340.702	458.69
340.93	463.69
341.158	434.69
341.386	458.69
341.614	456.69
341.842	466.69
342.07	448.69
342.298	471.69
342.526	442.69
342.754	448.69
342.981	436.69
343.209	439.69
343.437	440.69
343.665	465.69
343.893	481.69
344.12	501.69
344.348	490.69
344.576	494.69
344.804	488.69
345.031	484.69
345.259	486.69
345.487	484.69
345.714	453.69
345.942	450.69
346.17	457.69
346.397	424.69
346.625	456.69
346.853	440.69
347.08	444.69
347.308	441.69
347.535	446.69
347.763	440.69
347.99	461.69
348.218	447.69
348.445	457.69
348.673	454.69
348.9	450.69
349.128	445.69
349.355	430.69
349.583	426.69
349.81	421.69
350.037	431.69
350.265	429.69
350.492	411.69
350.72	418.69
350.947	430.69
351.174	441.69
351.402	448.69
351.629	437.69
351.856	441.69
352.083	457.69
352.311	441.69
352.538	462.69
352.765	452.69
352.992	447.69
353.22	440.69
353.447	451.69
353.674	441.69
353.901	431.69
354.128	431.69
354.355	405.69
354.583	418.69
354.81	421.69
355.037	419.69
355.264	402.69
355.491	425.69
355.718	411.69
355.945	424.69
356.172	397.69
356.399	433.69
356.626	414.69
356.853	417.69
357.08	430.69
357.307	393.69
357.534	403.69
357.761	405.69
357.988	415.69
358.215	418.69
358.441	409.69
358.668	409.69
358.895	431.69
359.122	427.69
359.349	419.69
359.576	419.69
359.802	435.69
360.029	447.69
360.256	488.69
360.483	465.69
360.709	427.69
360.936	443.69
361.163	439.69
361.39	432.69
361.616	418.69
361.843	458.69
362.07	433.69
362.296	456.69
362.523	455.69
362.749	442.69
362.976	442.69
363.203	449.69
363.429	420.69
363.656	433.69
363.882	423.69
364.109	421.69
364.335	424.69
364.562	412.69
364.788	408.69
365.015	426.69
365.241	437.69
365.468	425.69
365.694	437.69
365.92	416.69
366.147	428.69
366.373	413.69
366.599	409.69
366.826	437.69
367.052	415.69
367.278	410.69
367.505	428.69
367.731	414.69
367.957	412.69
368.184	421.69
368.41	431.69
368.636	421.69
368.862	447.69
369.089	434.69
369.315	422.69
369.541	418.69
369.767	437.69
369.993	438.69
370.219	425.69
370.445	424.69
370.672	429.69
370.898	441.69
371.124	422.69
371.35	438.69
371.576	447.69
371.802	416.69
372.028	424.69
372.254	414.69
372.48	433.69
372.706	425.69
372.932	434.69
373.158	427.69
373.384	446.69
373.61	452.69
373.835	442.69
374.061	426.69
374.287	419.69
374.513	438.69
374.739	421.69
374.965	436.69
375.191	445.69
375.416	461.69
375.642	437.69
375.868	423.69
376.094	436.69
376.319	451.69
376.545	420.69
376.771	445.69
376.997	430.69
377.222	431.69
377.448	428.69
377.674	437.69
377.899	421.69
378.125	420.69
378.35	420.69
378.576	413.69
378.802	413.69
379.027	419.69
379.253	438.69
379.478	421.69
379.704	429.69
379.929	435.69
380.155	427.69
380.38	421.69
380.606	422.69
380.831	429.69
381.057	417.69
381.282	417.69
381.507	440.69
381.733	442.69
381.958	431.69
382.184	419.69
382.409	438.69
382.634	447.69
382.86	416.69
383.085	423.69
383.31	468.69
383.535	475.69
383.761	448.69
383.986	471.69
384.211	453.69
384.436	431.69
384.662	446.69
384.887	459.69
385.112	462.69
385.337	474.69
385.562	487.69
385.787	479.69
386.013	501.69
386.238	468.69
386.463	470.69
386.688	481.69
386.913	484.69
387.138	456.69
387.363	480.69
387.588	473.69
387.813	516.69
388.038	466.69
388.263	479.69
388.488	484.69
388.713	482.69
388.938	474.69
389.163	483.69
389.387	498.69
389.612	467.69
389.837	497.69
390.062	450.69
390.287	484.69
390.512	472.69
390.736	472.69
390.961	486.69
391.186	474.69
391.411	497.69
391.636	514.69
391.86	486.69
392.085	509.69
392.31	515.69
392.534	488.69
392.759	493.69
392.984	497.69
393.208	488.69
393.433	463.69
393.658	500.69
393.882	469.69
394.107	487.69
394.331	483.69
394.556	503.69
394.78	493.69
395.005	489.69
395.229	472.69
395.454	510.69
395.678	509.69
395.903	511.69
396.127	532.69
396.352	513.69
396.576	497.69
396.801	482.69
397.025	519.69
397.249	477.69
397.474	515.69
397.698	531.69
397.922	536.69
398.147	536.69
398.371	558.69
398.595	527.69
398.82	545.69
399.044	573.69
399.268	585.69
399.492	642.69
399.717	691.69
399.941	716.69
400.165	712.69
400.389	689.69
400.613	642.69
400.837	601.69
401.062	581.69
401.286	571.69
401.51	536.69
401.734	544.69
401.958	545.69
402.182	551.69
402.406	589.69
402.63	581.69
402.854	575.69
403.078	563.69
403.302	566.69
403.526	574.69
403.75	580.69
403.974	587.69
404.198	583.69
404.422	591.69
404.645	569.69
404.869	597.69
405.093	607.69
405.317	639.69
405.541	703.69
405.765	653.69
405.988	616.69
406.212	605.69
406.436	615.69
406.66	637.69
406.883	651.69
407.107	636.69
407.331	706.69
407.555	765.69
407.778	761.69
408.002	712.69
408.226	673.69
408.449	660.69
408.673	651.69
408.896	665.69
409.12	703.69
409.344	647.69
409.567	615.69
409.791	586.69
410.014	585.69
410.238	578.69
410.461	587.69
410.685	593.69
410.908	602.69
411.132	651.69
411.355	663.69
411.578	632.69
411.802	594.69
412.025	580.69
412.249	587.69
412.472	624.69
412.695	659.69
412.919	639.69
413.142	613.69
413.365	561.69
413.589	585.69
413.812	584.69
414.035	553.69
414.258	545.69
414.482	527.69
414.705	545.69
414.928	553.69
415.151	545.69
415.374	537.69
415.597	564.69
415.821	544.69
416.044	537.69
416.267	541.69
416.49	549.69
416.713	562.69
416.936	542.69
417.159	537.69
417.382	566.69
417.605	547.69
417.828	545.69
418.051	578.69
418.274	567.69
418.497	558.69
418.72	550.69
418.943	557.69
419.166	591.69
419.389	611.69
419.611	583.69
419.834	567.69
420.057	621.69
420.28	577.69
420.503	577.69
420.726	581.69
420.948	585.69
421.171	637.69
421.394	674.69
421.617	606.69
421.839	573.69
422.062	577.69
422.285	594.69
422.507	654.69
422.73	697.69
422.953	695.69
423.175	600.69
423.398	596.69
423.621	607.69
423.843	625.69
424.066	623.69
424.288	610.69
424.511	626.69
424.733	665.69
424.956	782.69
425.178	726.69
425.401	718.69
425.623	728.69
425.846	674.69
426.068	613.69
426.291	583.69
426.513	587.69
426.735	605.69
426.958	663.69
427.18	743.69
427.402	880.69
427.625	980.69
427.847	801.69
428.069	705.69
428.292	618.69
428.514	596.69
428.736	554.69
428.958	569.69
429.181	548.69
429.403	559.69
429.625	567.69
429.847	613.69
430.069	660.69
430.292	653.69
430.514	568.69
430.736	548.69
430.958	544.69
431.18	528.69
431.402	540.69
431.624	533.69
431.846	508.69
432.068	523.69
432.29	546.69
432.512	534.69
432.734	565.69
432.956	545.69
433.178	543.69
433.4	569.69
433.622	539.69
433.844	521.69
434.066	526.69
434.287	535.69
434.509	533.69
434.731	555.69
434.953	558.69
435.175	574.69
435.397	595.69
435.618	595.69
435.84	614.69
436.062	733.69
436.284	805.69
436.505	677.69
436.727	610.69
436.949	564.69
437.17	570.69
437.392	546.69
437.614	575.69
437.835	607.69
438.057	680.69
438.278	783.69
438.5	763.69
438.721	881.69
438.943	817.69
439.165	674.69
439.386	605.69
439.608	587.69
439.829	612.69
440.05	642.69
440.272	694.69
440.493	644.69
440.715	615.69
440.936	589.69
441.158	564.69
441.379	560.69
441.6	573.69
441.822	618.69
442.043	635.69
442.264	728.69
442.486	790.69
442.707	662.69
442.928	608.69
443.149	631.69
443.371	629.69
443.592	697.69
443.813	803.69
444.034	881.69
444.255	712.69
444.476	641.69
444.698	641.69
444.919	622.69
445.14	728.69
445.361	647.69
445.582	637.69
445.803	690.69
446.024	795.69
446.245	810.69
446.466	742.69
446.687	629.69
446.908	597.69
447.129	573.69
447.35	552.69
447.571	551.69
447.792	533.69
448.013	529.69
448.234	544.69
448.455	604.69
448.675	737.69
448.896	889.69
449.117	712.69
449.338	688.69
449.559	763.69
449.779	895.69
450	735.69
450.221	592.69
450.442	549.69
450.662	557.69
450.883	554.69
451.104	545.69
451.324	539.69
451.545	542.69
451.766	514.69
451.986	490.69
452.207	504.69
452.428	498.69
452.648	481.69
452.869	495.69
453.089	507.69
453.31	507.69
453.53	504.69
453.751	505.69
453.971	484.69
454.192	507.69
454.412	505.69
454.633	479.69
454.853	474.69
455.073	481.69
455.294	499.69
455.514	588.69
455.734	553.69
455.955	484.69
456.175	481.69
456.395	472.69
456.616	447.69
456.836	433.69
457.056	445.69
457.276	461.69
457.497	471.69
457.717	448.69
457.937	466.69
458.157	475.69
458.377	445.69
458.598	477.69
458.818	520.69
459.038	613.69
459.258	633.69
459.478	579.69
459.698	531.69
459.918	524.69
460.138	510.69
460.358	541.69
460.578	521.69
460.798	562.69
461.018	562.69
461.238	560.69
461.458	546.69
461.678	539.69
461.898	537.69
462.118	546.69
462.338	568.69
462.558	569.69
462.777	612.69
462.997	599.69
463.217	639.69
463.437	635.69
463.657	611.69
463.876	593.69
464.096	612.69
464.316	587.69
464.536	595.69
464.755	601.69
464.975	594.69
465.195	627.69
465.414	644.69
465.634	592.69
465.854	562.69
466.073	538.69
466.293	539.69
466.512	498.69
466.732	524.69
466.951	504.69
467.171	510.69
467.391	517.69
467.61	529.69
467.829	547.69
468.049	523.69
468.268	520.69
468.488	482.69
468.707	483.69
468.927	471.69
469.146	488.69
469.365	509.69
469.585	483.69
469.804	497.69
470.023	503.69
470.243	496.69
470.462	517.69
470.681	522.69
470.901	528.69
471.12	530.69
471.339	502.69
471.558	529.69
471.777	518.69
471.997	505.69
472.216	522.69
472.435	536.69
472.654	537.69
472.873	518.69
473.092	499.69
473.311	511.69
473.53	512.69
473.749	519.69
473.968	547.69
474.187	658.69
474.406	688.69
474.625	564.69
474.844	537.69
475.063	517.69
475.282	509.69
475.501	517.69
475.72	516.69
475.939	507.69
476.158	517.69
476.377	521.69
476.596	514.69
476.814	529.69
477.033	524.69
477.252	539.69
477.471	519.69
477.69	546.69
477.908	559.69
478.127	543.69
478.346	543.69
478.564	558.69
478.783	579.69
479.002	597.69
479.22	599.69
479.439	615.69
479.658	619.69
479.876	621.69
480.095	621.69
480.313	641.69
480.532	656.69
480.751	641.69
480.969	629.69
481.188	681.69
481.406	681.69
481.624	669.69
481.843	616.69
482.061	617.69
482.28	630.69
482.498	621.69
482.717	579.69
482.935	607.69
483.153	596.69
483.372	586.69
483.59	587.69
483.808	605.69
484.027	584.69
484.245	587.69
484.463	584.69
484.681	591.69
484.9	597.69
485.118	591.69
485.336	623.69
485.554	623.69
485.772	626.69
485.99	608.69
486.209	609.69
486.427	611.69
486.645	630.69
486.863	637.69
487.081	625.69
487.299	638.69
487.517	633.69
487.735	631.69
487.953	641.69
488.171	647.69
488.389	645.69
488.607	653.69
488.825	628.69
489.043	625.69
489.261	639.69
489.479	643.69
489.696	655.69
489.914	645.69
490.132	665.69
490.35	670.69
490.568	666.69
490.786	680.69
491.003	683.69
491.221	705.69
491.439	709.69
491.657	706.69
491.874	726.69
492.092	735.69
492.31	726.69
492.527	727.69
492.745	719.69
492.963	732.69
493.18	731.69
493.398	760.69
493.615	746.69
493.833	751.69
494.05	747.69
494.268	773.69
494.485	722.69
494.703	746.69
494.92	752.69
495.138	777.69
495.355	782.69
495.573	773.69
495.79	751.69
496.008	772.69
496.225	756.69
496.442	764.69
496.66	768.69
496.877	753.69
497.094	752.69
497.312	783.69
497.529	803.69
497.746	775.69
497.963	829.69
498.181	832.69
498.398	856.69
498.615	830.69
498.832	885.69
499.049	909.69
499.267	931.69
499.484	980.69
499.701	1031.69
499.918	1035.69
500.135	1098.69
500.352	1169.69
500.569	1231.69
500.786	1224.69
501.003	1199.69
501.22	1152.69
501.437	1069.69
501.654	1099.69
