Data from 1976.PennyLincolnUp.Lamp.En5.5.200Scan.071719.P1.Changed Mount._HRD10591_16-01-32-880.txt Node
Date: Thu Jul 18 16:01:32 EDT 2019
User: cochatt
Spectrometer: HR+D1059
Trigger mode: 1
Integration Time (sec): 1.000000E-1
Scans to average: 1
Electric dark correction enabled: true
Nonlinearity correction enabled: false
Boxcar width: 0
XAxis mode: Wavelengths
Number of Pixels in Spectrum: 2048
>>>>>Begin Spectral Data<<<<<
223.165	-20.25
223.4	-20.25
223.635	-20.25
223.869	-32.25
224.104	-31.25
224.338	-2.25
224.573	-5.25
224.808	-8.25
225.042	-9.25
225.277	-11.25
225.511	-7.25
225.746	13.75
225.98	-2.25
226.215	12.75
226.449	13.75
226.683	23.75
226.918	31.75
227.152	33.75
227.387	33.75
227.621	41.75
227.856	49.75
228.09	63.75
228.324	39.75
228.559	58.75
228.793	75.75
229.027	89.75
229.262	106.75
229.496	115.75
229.73	124.75
229.964	151.75
230.199	132.75
230.433	108.75
230.667	115.75
230.901	105.75
231.136	109.75
231.37	109.75
231.604	116.75
231.838	107.75
232.072	108.75
232.306	104.75
232.541	109.75
232.775	111.75
233.009	117.75
233.243	109.75
233.477	121.75
233.711	132.75
233.945	118.75
234.179	126.75
234.413	126.75
234.647	127.75
234.881	124.75
235.115	126.75
235.349	134.75
235.583	126.75
235.817	127.75
236.051	130.75
236.285	131.75
236.519	135.75
236.753	139.75
236.987	142.75
237.221	176.75
237.455	228.75
237.689	190.75
237.922	144.75
238.156	150.75
238.39	132.75
238.624	131.75
238.858	126.75
239.091	137.75
239.325	134.75
239.559	127.75
239.793	129.75
240.027	137.75
240.26	135.75
240.494	160.75
240.728	147.75
240.961	151.75
241.195	150.75
241.429	157.75
241.662	149.75
241.896	141.75
242.13	135.75
242.363	136.75
242.597	143.75
242.83	155.75
243.064	149.75
243.298	147.75
243.531	139.75
243.765	135.75
243.998	145.75
244.232	155.75
244.465	149.75
244.699	157.75
244.932	147.75
245.166	155.75
245.399	153.75
245.633	160.75
245.866	140.75
246.099	150.75
246.333	157.75
246.566	147.75
246.8	155.75
247.033	156.75
247.266	163.75
247.5	171.75
247.733	168.75
247.966	184.75
248.2	186.75
248.433	158.75
248.666	187.75
248.899	198.75
249.133	209.75
249.366	215.75
249.599	202.75
249.832	187.75
250.066	189.75
250.299	202.75
250.532	198.75
250.765	207.75
250.998	229.75
251.231	236.75
251.465	227.75
251.698	223.75
251.931	206.75
252.164	213.75
252.397	208.75
252.63	220.75
252.863	222.75
253.096	222.75
253.329	224.75
253.562	244.75
253.795	233.75
254.028	224.75
254.261	223.75
254.494	237.75
254.727	273.75
254.96	293.75
255.193	270.75
255.426	267.75
255.659	238.75
255.892	229.75
256.124	262.75
256.357	237.75
256.59	252.75
256.823	231.75
257.056	217.75
257.289	233.75
257.521	218.75
257.754	238.75
257.987	236.75
258.22	220.75
258.452	209.75
258.685	219.75
258.918	232.75
259.151	219.75
259.383	246.75
259.616	234.75
259.849	231.75
260.081	245.75
260.314	274.75
260.547	285.75
260.779	252.75
261.012	228.75
261.244	257.75
261.477	244.75
261.71	233.75
261.942	243.75
262.175	237.75
262.407	252.75
262.64	238.75
262.872	229.75
263.105	224.75
263.337	233.75
263.57	228.75
263.802	220.75
264.035	227.75
264.267	223.75
264.499	228.75
264.732	231.75
264.964	231.75
265.197	235.75
265.429	234.75
265.661	240.75
265.894	259.75
266.126	232.75
266.358	239.75
266.591	216.75
266.823	250.75
267.055	253.75
267.287	253.75
267.52	240.75
267.752	237.75
267.984	233.75
268.216	240.75
268.448	251.75
268.681	240.75
268.913	251.75
269.145	265.75
269.377	309.75
269.609	286.75
269.841	288.75
270.073	286.75
270.306	312.75
270.538	336.75
270.77	335.75
271.002	324.75
271.234	311.75
271.466	323.75
271.698	329.75
271.93	333.75
272.162	326.75
272.394	329.75
272.626	321.75
272.858	310.75
273.09	300.75
273.322	307.75
273.553	306.75
273.785	282.75
274.017	287.75
274.249	287.75
274.481	288.75
274.713	281.75
274.945	283.75
275.176	275.75
275.408	293.75
275.64	284.75
275.872	285.75
276.104	290.75
276.335	286.75
276.567	286.75
276.799	311.75
277.031	342.75
277.262	358.75
277.494	353.75
277.726	338.75
277.957	320.75
278.189	295.75
278.421	289.75
278.652	300.75
278.884	318.75
279.115	298.75
279.347	295.75
279.579	296.75
279.81	292.75
280.042	300.75
280.273	281.75
280.505	294.75
280.736	291.75
280.968	279.75
281.199	299.75
281.431	302.75
281.662	293.75
281.894	277.75
282.125	292.75
282.356	312.75
282.588	317.75
282.819	328.75
283.051	308.75
283.282	319.75
283.513	310.75
283.745	307.75
283.976	320.75
284.207	309.75
284.439	337.75
284.67	326.75
284.901	324.75
285.132	301.75
285.364	305.75
285.595	301.75
285.826	304.75
286.057	315.75
286.288	313.75
286.52	304.75
286.751	323.75
286.982	319.75
287.213	316.75
287.444	299.75
287.675	333.75
287.906	320.75
288.138	350.75
288.369	328.75
288.6	318.75
288.831	325.75
289.062	313.75
289.293	342.75
289.524	315.75
289.755	303.75
289.986	319.75
290.217	314.75
290.448	307.75
290.679	347.75
290.91	309.75
291.141	312.75
291.371	333.75
291.602	335.75
291.833	321.75
292.064	303.75
292.295	295.75
292.526	328.75
292.757	324.75
292.987	322.75
293.218	326.75
293.449	329.75
293.68	323.75
293.91	325.75
294.141	317.75
294.372	327.75
294.603	333.75
294.833	331.75
295.064	319.75
295.295	341.75
295.525	348.75
295.756	329.75
295.987	334.75
296.217	344.75
296.448	355.75
296.679	326.75
296.909	325.75
297.14	342.75
297.37	348.75
297.601	352.75
297.831	328.75
298.062	324.75
298.292	345.75
298.523	357.75
298.753	339.75
298.984	323.75
299.214	327.75
299.445	366.75
299.675	339.75
299.905	355.75
300.136	346.75
300.366	360.75
300.597	341.75
300.827	375.75
301.057	354.75
301.288	345.75
301.518	349.75
301.748	368.75
301.979	360.75
302.209	348.75
302.439	363.75
302.669	356.75
302.9	356.75
303.13	368.75
303.36	387.75
303.59	363.75
303.82	352.75
304.051	362.75
304.281	354.75
304.511	365.75
304.741	352.75
304.971	371.75
305.201	356.75
305.431	331.75
305.661	368.75
305.891	377.75
306.121	359.75
306.352	355.75
306.582	388.75
306.812	385.75
307.042	381.75
307.272	372.75
307.502	368.75
307.731	379.75
307.961	364.75
308.191	372.75
308.421	365.75
308.651	362.75
308.881	375.75
309.111	379.75
309.341	373.75
309.571	380.75
309.8	400.75
310.03	389.75
310.26	389.75
310.49	391.75
310.72	397.75
310.949	413.75
311.179	421.75
311.409	404.75
311.639	406.75
311.868	397.75
312.098	393.75
312.328	399.75
312.557	422.75
312.787	409.75
313.017	436.75
313.246	423.75
313.476	410.75
313.706	400.75
313.935	397.75
314.165	416.75
314.394	439.75
314.624	447.75
314.853	411.75
315.083	405.75
315.312	402.75
315.542	402.75
315.771	400.75
316.001	403.75
316.23	396.75
316.46	417.75
316.689	401.75
316.919	414.75
317.148	409.75
317.377	431.75
317.607	441.75
317.836	388.75
318.065	440.75
318.295	389.75
318.524	405.75
318.753	409.75
318.983	416.75
319.212	400.75
319.441	403.75
319.67	409.75
319.9	414.75
320.129	401.75
320.358	405.75
320.587	421.75
320.816	420.75
321.046	416.75
321.275	426.75
321.504	421.75
321.733	431.75
321.962	430.75
322.191	435.75
322.42	423.75
322.649	453.75
322.878	479.75
323.108	484.75
323.337	490.75
323.566	503.75
323.795	522.75
324.024	568.75
324.253	629.75
324.482	917.75
324.71	1415.75
324.939	2020.75
325.168	1790.75
325.397	917.75
325.626	635.75
325.855	517.75
326.084	509.75
326.313	516.75
326.542	501.75
326.77	561.75
326.999	627.75
327.228	827.75
327.457	1242.75
327.686	1515.75
327.914	1033.75
328.143	695.75
328.372	598.75
328.6	570.75
328.829	540.75
329.058	573.75
329.287	595.75
329.515	535.75
329.744	528.75
329.972	517.75
330.201	521.75
330.43	553.75
330.658	582.75
330.887	613.75
331.115	591.75
331.344	528.75
331.572	533.75
331.801	500.75
332.03	527.75
332.258	509.75
332.486	478.75
332.715	493.75
332.943	509.75
333.172	496.75
333.4	527.75
333.629	519.75
333.857	525.75
334.085	526.75
334.314	530.75
334.542	575.75
334.771	580.75
334.999	544.75
335.227	519.75
335.455	503.75
335.684	502.75
335.912	488.75
336.14	481.75
336.369	486.75
336.597	507.75
336.825	505.75
337.053	478.75
337.281	469.75
337.51	471.75
337.738	480.75
337.966	475.75
338.194	482.75
338.422	472.75
338.65	477.75
338.878	468.75
339.106	457.75
339.334	462.75
339.562	469.75
339.79	463.75
340.018	462.75
340.246	469.75
340.474	486.75
340.702	477.75
340.93	488.75
341.158	465.75
341.386	459.75
341.614	444.75
341.842	480.75
342.07	448.75
342.298	442.75
342.526	449.75
342.754	441.75
342.981	449.75
343.209	430.75
343.437	465.75
343.665	456.75
343.893	477.75
344.12	503.75
344.348	475.75
344.576	494.75
344.804	489.75
345.031	478.75
345.259	494.75
345.487	473.75
345.714	478.75
345.942	451.75
346.17	443.75
346.397	449.75
346.625	448.75
346.853	435.75
347.08	436.75
347.308	439.75
347.535	453.75
347.763	464.75
347.99	453.75
348.218	468.75
348.445	448.75
348.673	462.75
348.9	468.75
349.128	457.75
349.355	413.75
349.583	432.75
349.81	431.75
350.037	429.75
350.265	449.75
350.492	451.75
350.72	451.75
350.947	443.75
351.174	444.75
351.402	484.75
351.629	438.75
351.856	447.75
352.083	464.75
352.311	448.75
352.538	459.75
352.765	453.75
352.992	437.75
353.22	443.75
353.447	443.75
353.674	418.75
353.901	450.75
354.128	428.75
354.355	421.75
354.583	416.75
354.81	400.75
355.037	432.75
355.264	411.75
355.491	431.75
355.718	425.75
355.945	416.75
356.172	409.75
356.399	419.75
356.626	408.75
356.853	437.75
357.08	430.75
357.307	415.75
357.534	410.75
357.761	407.75
357.988	417.75
358.215	433.75
358.441	432.75
358.668	423.75
358.895	431.75
359.122	436.75
359.349	452.75
359.576	455.75
359.802	477.75
360.029	479.75
360.256	478.75
360.483	455.75
360.709	469.75
360.936	454.75
361.163	457.75
361.39	457.75
361.616	432.75
361.843	430.75
362.07	435.75
362.296	447.75
362.523	432.75
362.749	439.75
362.976	435.75
363.203	432.75
363.429	429.75
363.656	423.75
363.882	439.75
364.109	456.75
364.335	417.75
364.562	422.75
364.788	433.75
365.015	423.75
365.241	415.75
365.468	428.75
365.694	439.75
365.92	457.75
366.147	426.75
366.373	426.75
366.599	432.75
366.826	416.75
367.052	419.75
367.278	431.75
367.505	403.75
367.731	424.75
367.957	425.75
368.184	424.75
368.41	462.75
368.636	465.75
368.862	456.75
369.089	468.75
369.315	422.75
369.541	440.75
369.767	437.75
369.993	429.75
370.219	430.75
370.445	413.75
370.672	446.75
370.898	429.75
371.124	449.75
371.35	436.75
371.576	443.75
371.802	429.75
372.028	428.75
372.254	436.75
372.48	426.75
372.706	433.75
372.932	445.75
373.158	455.75
373.384	449.75
373.61	442.75
373.835	445.75
374.061	446.75
374.287	434.75
374.513	453.75
374.739	457.75
374.965	446.75
375.191	449.75
375.416	446.75
375.642	450.75
375.868	443.75
376.094	446.75
376.319	440.75
376.545	446.75
376.771	445.75
376.997	437.75
377.222	426.75
377.448	417.75
377.674	426.75
377.899	447.75
378.125	426.75
378.35	438.75
378.576	419.75
378.802	426.75
379.027	425.75
379.253	432.75
379.478	428.75
379.704	428.75
379.929	430.75
380.155	417.75
380.38	433.75
380.606	455.75
380.831	447.75
381.057	443.75
381.282	445.75
381.507	432.75
381.733	452.75
381.958	439.75
382.184	444.75
382.409	443.75
382.634	445.75
382.86	475.75
383.085	455.75
383.31	456.75
383.535	458.75
383.761	453.75
383.986	461.75
384.211	470.75
384.436	461.75
384.662	469.75
384.887	479.75
385.112	469.75
385.337	481.75
385.562	472.75
385.787	493.75
386.013	483.75
386.238	496.75
386.463	491.75
386.688	498.75
386.913	480.75
387.138	467.75
387.363	479.75
387.588	478.75
387.813	476.75
388.038	498.75
388.263	493.75
388.488	478.75
388.713	487.75
388.938	480.75
389.163	493.75
389.387	502.75
389.612	467.75
389.837	476.75
390.062	463.75
390.287	473.75
390.512	505.75
390.736	477.75
390.961	485.75
391.186	499.75
391.411	513.75
391.636	510.75
391.86	495.75
392.085	511.75
392.31	501.75
392.534	513.75
392.759	512.75
392.984	495.75
393.208	490.75
393.433	491.75
393.658	514.75
393.882	485.75
394.107	474.75
394.331	491.75
394.556	501.75
394.78	499.75
395.005	506.75
395.229	496.75
395.454	494.75
395.678	494.75
395.903	526.75
396.127	541.75
396.352	549.75
396.576	509.75
396.801	505.75
397.025	514.75
397.249	537.75
397.474	516.75
397.698	529.75
397.922	538.75
398.147	551.75
398.371	540.75
398.595	545.75
398.82	547.75
399.044	571.75
399.268	608.75
399.492	644.75
399.717	695.75
399.941	717.75
400.165	711.75
400.389	715.75
400.613	647.75
400.837	611.75
401.062	569.75
401.286	574.75
401.51	575.75
401.734	555.75
401.958	584.75
402.182	575.75
402.406	595.75
402.63	588.75
402.854	577.75
403.078	596.75
403.302	589.75
403.526	586.75
403.75	607.75
403.974	598.75
404.198	590.75
404.422	590.75
404.645	598.75
404.869	611.75
405.093	631.75
405.317	645.75
405.541	700.75
405.765	663.75
405.988	621.75
406.212	653.75
406.436	645.75
406.66	651.75
406.883	632.75
407.107	660.75
407.331	682.75
407.555	776.75
407.778	776.75
408.002	693.75
408.226	675.75
408.449	649.75
408.673	645.75
408.896	645.75
409.12	718.75
409.344	684.75
409.567	608.75
409.791	593.75
410.014	580.75
410.238	587.75
410.461	574.75
410.685	601.75
410.908	620.75
411.132	658.75
411.355	675.75
411.578	638.75
411.802	581.75
412.025	596.75
412.249	619.75
412.472	604.75
412.695	657.75
412.919	639.75
413.142	605.75
413.365	584.75
413.589	536.75
413.812	553.75
414.035	560.75
414.258	561.75
414.482	549.75
414.705	558.75
414.928	545.75
415.151	590.75
415.374	560.75
415.597	543.75
415.821	555.75
416.044	585.75
416.267	563.75
416.49	556.75
416.713	541.75
416.936	551.75
417.159	541.75
417.382	551.75
417.605	564.75
417.828	555.75
418.051	560.75
418.274	567.75
418.497	554.75
418.72	579.75
418.943	550.75
419.166	597.75
419.389	607.75
419.611	603.75
419.834	583.75
420.057	590.75
420.28	576.75
420.503	586.75
420.726	591.75
420.948	600.75
421.171	629.75
421.394	667.75
421.617	585.75
421.839	573.75
422.062	590.75
422.285	593.75
422.507	643.75
422.73	729.75
422.953	695.75
423.175	646.75
423.398	609.75
423.621	603.75
423.843	624.75
424.066	637.75
424.288	619.75
424.511	643.75
424.733	676.75
424.956	755.75
425.178	736.75
425.401	729.75
425.623	740.75
425.846	646.75
426.068	624.75
426.291	617.75
426.513	602.75
426.735	609.75
426.958	646.75
427.18	737.75
427.402	849.75
427.625	986.75
427.847	809.75
428.069	703.75
428.292	641.75
428.514	625.75
428.736	576.75
428.958	564.75
429.181	549.75
429.403	567.75
429.625	567.75
429.847	600.75
430.069	677.75
430.292	679.75
430.514	574.75
430.736	569.75
430.958	543.75
431.18	524.75
431.402	511.75
431.624	525.75
431.846	541.75
432.068	535.75
432.29	539.75
432.512	541.75
432.734	544.75
432.956	550.75
433.178	526.75
433.4	544.75
433.622	547.75
433.844	544.75
434.066	544.75
434.287	527.75
434.509	541.75
434.731	566.75
434.953	549.75
435.175	586.75
435.397	616.75
435.618	628.75
435.84	631.75
436.062	737.75
436.284	835.75
436.505	691.75
436.727	629.75
436.949	574.75
437.17	555.75
437.392	537.75
437.614	592.75
437.835	599.75
438.057	691.75
438.278	781.75
438.5	801.75
438.721	883.75
438.943	854.75
439.165	688.75
439.386	607.75
439.608	614.75
439.829	583.75
440.05	632.75
440.272	675.75
440.493	642.75
440.715	593.75
440.936	556.75
441.158	565.75
441.379	584.75
441.6	609.75
441.822	602.75
442.043	647.75
442.264	733.75
442.486	785.75
442.707	663.75
442.928	631.75
443.149	648.75
443.371	656.75
443.592	696.75
443.813	790.75
444.034	863.75
444.255	712.75
444.476	665.75
444.698	643.75
444.919	632.75
445.14	775.75
445.361	692.75
445.582	664.75
445.803	710.75
446.024	829.75
446.245	853.75
446.466	757.75
446.687	662.75
446.908	601.75
447.129	567.75
447.35	550.75
447.571	555.75
447.792	565.75
448.013	537.75
448.234	560.75
448.455	599.75
448.675	750.75
448.896	868.75
449.117	714.75
449.338	671.75
449.559	801.75
449.779	914.75
450	738.75
450.221	589.75
450.442	556.75
450.662	550.75
450.883	530.75
451.104	545.75
451.324	549.75
451.545	532.75
451.766	499.75
451.986	493.75
452.207	477.75
452.428	488.75
452.648	489.75
452.869	488.75
453.089	488.75
453.31	523.75
453.53	523.75
453.751	501.75
453.971	489.75
454.192	511.75
454.412	512.75
454.633	478.75
454.853	503.75
455.073	501.75
455.294	544.75
455.514	579.75
455.734	571.75
455.955	500.75
456.175	479.75
456.395	481.75
456.616	479.75
456.836	491.75
457.056	468.75
457.276	443.75
457.497	480.75
457.717	469.75
457.937	476.75
458.157	469.75
458.377	472.75
458.598	496.75
458.818	549.75
459.038	627.75
459.258	666.75
459.478	573.75
459.698	519.75
459.918	547.75
460.138	533.75
460.358	529.75
460.578	552.75
460.798	542.75
461.018	561.75
461.238	563.75
461.458	569.75
461.678	534.75
461.898	559.75
462.118	559.75
462.338	560.75
462.558	576.75
462.777	581.75
462.997	631.75
463.217	615.75
463.437	639.75
463.657	605.75
463.876	596.75
464.096	591.75
464.316	591.75
464.536	616.75
464.755	613.75
464.975	619.75
465.195	621.75
465.414	643.75
465.634	590.75
465.854	589.75
466.073	538.75
466.293	524.75
466.512	496.75
466.732	501.75
466.951	508.75
467.171	506.75
467.391	537.75
467.61	507.75
467.829	521.75
468.049	511.75
468.268	503.75
468.488	539.75
468.707	492.75
468.927	507.75
469.146	467.75
469.365	513.75
469.585	501.75
469.804	510.75
470.023	520.75
470.243	520.75
470.462	536.75
470.681	540.75
470.901	532.75
471.12	504.75
471.339	515.75
471.558	492.75
471.777	515.75
471.997	496.75
472.216	509.75
472.435	529.75
472.654	545.75
472.873	524.75
473.092	511.75
473.311	509.75
473.53	523.75
473.749	519.75
473.968	559.75
474.187	655.75
474.406	699.75
474.625	599.75
474.844	505.75
475.063	495.75
475.282	508.75
475.501	525.75
475.72	524.75
475.939	540.75
476.158	534.75
476.377	539.75
476.596	540.75
476.814	532.75
477.033	549.75
477.252	544.75
477.471	548.75
477.69	545.75
477.908	539.75
478.127	565.75
478.346	584.75
478.564	600.75
478.783	585.75
479.002	599.75
479.22	595.75
479.439	616.75
479.658	605.75
479.876	615.75
480.095	629.75
480.313	651.75
480.532	638.75
480.751	656.75
480.969	649.75
481.188	687.75
481.406	697.75
481.624	658.75
481.843	614.75
482.061	622.75
482.28	615.75
482.498	584.75
482.717	609.75
482.935	611.75
483.153	592.75
483.372	570.75
483.59	607.75
483.808	596.75
484.027	592.75
484.245	601.75
484.463	591.75
484.681	620.75
484.9	596.75
485.118	619.75
485.336	608.75
485.554	623.75
485.772	611.75
485.99	627.75
486.209	638.75
486.427	602.75
486.645	623.75
486.863	634.75
487.081	658.75
487.299	650.75
487.517	627.75
487.735	619.75
487.953	641.75
488.171	635.75
488.389	635.75
488.607	636.75
488.825	637.75
489.043	670.75
489.261	663.75
489.479	671.75
489.696	650.75
489.914	645.75
490.132	635.75
490.35	677.75
490.568	681.75
490.786	671.75
491.003	698.75
491.221	696.75
491.439	715.75
491.657	714.75
491.874	731.75
492.092	728.75
492.31	723.75
492.527	763.75
492.745	747.75
492.963	742.75
493.18	758.75
493.398	771.75
493.615	744.75
493.833	726.75
494.05	768.75
494.268	779.75
494.485	759.75
494.703	753.75
494.92	767.75
495.138	773.75
495.355	748.75
495.573	764.75
495.79	743.75
496.008	789.75
496.225	774.75
496.442	791.75
496.66	759.75
496.877	785.75
497.094	793.75
497.312	776.75
497.529	821.75
497.746	812.75
497.963	854.75
498.181	836.75
498.398	878.75
498.615	862.75
498.832	885.75
499.049	913.75
499.267	969.75
499.484	993.75
499.701	1016.75
499.918	1068.75
500.135	1112.75
500.352	1191.75
500.569	1240.75
500.786	1229.75
501.003	1203.75
501.22	1151.75
501.437	1095.75
501.654	1028.75
