Data from 1976.PennyLincolnUp.Lamp.En5.5.200Scan.071719.P1.Changed Mount._HRD10591_15-59-55-860.txt Node
Date: Thu Jul 18 15:59:55 EDT 2019
User: cochatt
Spectrometer: HR+D1059
Trigger mode: 1
Integration Time (sec): 1.000000E-1
Scans to average: 1
Electric dark correction enabled: true
Nonlinearity correction enabled: false
Boxcar width: 0
XAxis mode: Wavelengths
Number of Pixels in Spectrum: 2048
>>>>>Begin Spectral Data<<<<<
223.165	-2.69
223.4	-2.69
223.635	-2.69
223.869	-19.69
224.104	-23.69
224.338	-9.69
224.573	-28.69
224.808	-11.69
225.042	-14.69
225.277	5.31
225.511	6.31
225.746	8.31
225.98	5.31
226.215	-0.69
226.449	9.31
226.683	14.31
226.918	25.31
227.152	37.31
227.387	49.31
227.621	43.31
227.856	34.31
228.09	51.31
228.324	53.31
228.559	54.31
228.793	67.31
229.027	94.31
229.262	102.31
229.496	113.31
229.73	132.31
229.964	149.31
230.199	127.31
230.433	115.31
230.667	104.31
230.901	111.31
231.136	106.31
231.37	108.31
231.604	121.31
231.838	109.31
232.072	125.31
232.306	112.31
232.541	107.31
232.775	108.31
233.009	111.31
233.243	114.31
233.477	113.31
233.711	111.31
233.945	124.31
234.179	117.31
234.413	122.31
234.647	129.31
234.881	116.31
235.115	116.31
235.349	123.31
235.583	104.31
235.817	123.31
236.051	121.31
236.285	120.31
236.519	116.31
236.753	126.31
236.987	128.31
237.221	180.31
237.455	219.31
237.689	181.31
237.922	130.31
238.156	139.31
238.39	115.31
238.624	126.31
238.858	123.31
239.091	114.31
239.325	121.31
239.559	123.31
239.793	123.31
240.027	113.31
240.26	120.31
240.494	144.31
240.728	155.31
240.961	152.31
241.195	144.31
241.429	132.31
241.662	155.31
241.896	143.31
242.13	136.31
242.363	142.31
242.597	129.31
242.83	135.31
243.064	142.31
243.298	129.31
243.531	141.31
243.765	144.31
243.998	136.31
244.232	125.31
244.465	164.31
244.699	139.31
244.932	147.31
245.166	153.31
245.399	126.31
245.633	153.31
245.866	141.31
246.099	140.31
246.333	143.31
246.566	153.31
246.8	149.31
247.033	149.31
247.266	136.31
247.5	156.31
247.733	178.31
247.966	155.31
248.2	172.31
248.433	175.31
248.666	166.31
248.899	164.31
249.133	188.31
249.366	194.31
249.599	182.31
249.832	180.31
250.066	181.31
250.299	167.31
250.532	180.31
250.765	189.31
250.998	202.31
251.231	214.31
251.465	205.31
251.698	207.31
251.931	199.31
252.164	185.31
252.397	200.31
252.63	191.31
252.863	175.31
253.096	195.31
253.329	238.31
253.562	208.31
253.795	212.31
254.028	217.31
254.261	192.31
254.494	209.31
254.727	231.31
254.96	253.31
255.193	242.31
255.426	236.31
255.659	248.31
255.892	215.31
256.124	241.31
256.357	241.31
256.59	209.31
256.823	209.31
257.056	212.31
257.289	211.31
257.521	190.31
257.754	209.31
257.987	221.31
258.22	198.31
258.452	221.31
258.685	219.31
258.918	226.31
259.151	198.31
259.383	210.31
259.616	212.31
259.849	228.31
260.081	229.31
260.314	227.31
260.547	238.31
260.779	236.31
261.012	223.31
261.244	217.31
261.477	219.31
261.71	213.31
261.942	207.31
262.175	209.31
262.407	227.31
262.64	214.31
262.872	205.31
263.105	219.31
263.337	209.31
263.57	217.31
263.802	206.31
264.035	213.31
264.267	227.31
264.499	210.31
264.732	212.31
264.964	220.31
265.197	218.31
265.429	206.31
265.661	218.31
265.894	207.31
266.126	211.31
266.358	214.31
266.591	227.31
266.823	226.31
267.055	242.31
267.287	213.31
267.52	245.31
267.752	226.31
267.984	233.31
268.216	222.31
268.448	227.31
268.681	228.31
268.913	243.31
269.145	265.31
269.377	259.31
269.609	267.31
269.841	253.31
270.073	279.31
270.306	277.31
270.538	302.31
270.77	301.31
271.002	305.31
271.234	281.31
271.466	293.31
271.698	307.31
271.93	309.31
272.162	308.31
272.394	328.31
272.626	305.31
272.858	291.31
273.09	279.31
273.322	266.31
273.553	261.31
273.785	268.31
274.017	271.31
274.249	269.31
274.481	262.31
274.713	244.31
274.945	248.31
275.176	262.31
275.408	269.31
275.64	284.31
275.872	255.31
276.104	266.31
276.335	272.31
276.567	259.31
276.799	295.31
277.031	300.31
277.262	314.31
277.494	301.31
277.726	316.31
277.957	284.31
278.189	271.31
278.421	275.31
278.652	289.31
278.884	278.31
279.115	281.31
279.347	280.31
279.579	253.31
279.81	267.31
280.042	265.31
280.273	271.31
280.505	285.31
280.736	267.31
280.968	257.31
281.199	271.31
281.431	279.31
281.662	279.31
281.894	272.31
282.125	287.31
282.356	300.31
282.588	309.31
282.819	293.31
283.051	287.31
283.282	282.31
283.513	279.31
283.745	281.31
283.976	268.31
284.207	274.31
284.439	298.31
284.67	281.31
284.901	300.31
285.132	279.31
285.364	291.31
285.595	288.31
285.826	286.31
286.057	292.31
286.288	279.31
286.52	297.31
286.751	291.31
286.982	288.31
287.213	299.31
287.444	297.31
287.675	291.31
287.906	302.31
288.138	288.31
288.369	308.31
288.6	318.31
288.831	318.31
289.062	314.31
289.293	275.31
289.524	326.31
289.755	306.31
289.986	321.31
290.217	284.31
290.448	307.31
290.679	308.31
290.91	313.31
291.141	288.31
291.371	297.31
291.602	301.31
291.833	286.31
292.064	311.31
292.295	297.31
292.526	295.31
292.757	305.31
292.987	307.31
293.218	308.31
293.449	325.31
293.68	313.31
293.91	305.31
294.141	301.31
294.372	312.31
294.603	311.31
294.833	291.31
295.064	296.31
295.295	291.31
295.525	305.31
295.756	316.31
295.987	308.31
296.217	334.31
296.448	337.31
296.679	312.31
296.909	301.31
297.14	307.31
297.37	326.31
297.601	298.31
297.831	320.31
298.062	307.31
298.292	314.31
298.523	329.31
298.753	315.31
298.984	308.31
299.214	318.31
299.445	320.31
299.675	318.31
299.905	313.31
300.136	320.31
300.366	315.31
300.597	318.31
300.827	335.31
301.057	326.31
301.288	343.31
301.518	331.31
301.748	340.31
301.979	334.31
302.209	349.31
302.439	340.31
302.669	330.31
302.9	327.31
303.13	332.31
303.36	349.31
303.59	345.31
303.82	335.31
304.051	339.31
304.281	334.31
304.511	332.31
304.741	322.31
304.971	331.31
305.201	335.31
305.431	345.31
305.661	338.31
305.891	335.31
306.121	332.31
306.352	327.31
306.582	319.31
306.812	331.31
307.042	332.31
307.272	340.31
307.502	353.31
307.731	336.31
307.961	332.31
308.191	341.31
308.421	349.31
308.651	342.31
308.881	336.31
309.111	356.31
309.341	339.31
309.571	345.31
309.8	335.31
310.03	357.31
310.26	365.31
310.49	377.31
310.72	362.31
310.949	369.31
311.179	390.31
311.409	358.31
311.639	369.31
311.868	365.31
312.098	359.31
312.328	387.31
312.557	395.31
312.787	391.31
313.017	386.31
313.246	396.31
313.476	370.31
313.706	374.31
313.935	384.31
314.165	384.31
314.394	406.31
314.624	395.31
314.853	390.31
315.083	378.31
315.312	392.31
315.542	378.31
315.771	357.31
316.001	365.31
316.23	379.31
316.46	381.31
316.689	374.31
316.919	374.31
317.148	362.31
317.377	381.31
317.607	373.31
317.836	377.31
318.065	367.31
318.295	379.31
318.524	389.31
318.753	360.31
318.983	388.31
319.212	361.31
319.441	374.31
319.67	381.31
319.9	378.31
320.129	412.31
320.358	382.31
320.587	375.31
320.816	366.31
321.046	368.31
321.275	393.31
321.504	373.31
321.733	387.31
321.962	391.31
322.191	418.31
322.42	408.31
322.649	415.31
322.878	422.31
323.108	415.31
323.337	429.31
323.566	439.31
323.795	440.31
324.024	507.31
324.253	578.31
324.482	796.31
324.71	1191.31
324.939	1762.31
325.168	1513.31
325.397	773.31
325.626	542.31
325.855	458.31
326.084	459.31
326.313	433.31
326.542	461.31
326.77	476.31
326.999	571.31
327.228	720.31
327.457	1059.31
327.686	1308.31
327.914	883.31
328.143	592.31
328.372	548.31
328.6	520.31
328.829	487.31
329.058	513.31
329.287	518.31
329.515	480.31
329.744	470.31
329.972	488.31
330.201	474.31
330.43	488.31
330.658	503.31
330.887	559.31
331.115	521.31
331.344	481.31
331.572	457.31
331.801	490.31
332.03	460.31
332.258	449.31
332.486	443.31
332.715	451.31
332.943	458.31
333.172	466.31
333.4	477.31
333.629	467.31
333.857	481.31
334.085	483.31
334.314	483.31
334.542	509.31
334.771	535.31
334.999	489.31
335.227	468.31
335.455	468.31
335.684	459.31
335.912	459.31
336.14	442.31
336.369	449.31
336.597	441.31
336.825	458.31
337.053	449.31
337.281	430.31
337.51	438.31
337.738	436.31
337.966	449.31
338.194	438.31
338.422	445.31
338.65	466.31
338.878	451.31
339.106	418.31
339.334	427.31
339.562	428.31
339.79	433.31
340.018	417.31
340.246	449.31
340.474	427.31
340.702	408.31
340.93	435.31
341.158	413.31
341.386	434.31
341.614	431.31
341.842	431.31
342.07	441.31
342.298	426.31
342.526	411.31
342.754	406.31
342.981	415.31
343.209	399.31
343.437	412.31
343.665	429.31
343.893	437.31
344.12	430.31
344.348	450.31
344.576	466.31
344.804	458.31
345.031	452.31
345.259	458.31
345.487	422.31
345.714	423.31
345.942	398.31
346.17	420.31
346.397	423.31
346.625	412.31
346.853	408.31
347.08	422.31
347.308	423.31
347.535	426.31
347.763	414.31
347.99	412.31
348.218	422.31
348.445	412.31
348.673	410.31
348.9	405.31
349.128	403.31
349.355	405.31
349.583	403.31
349.81	403.31
350.037	405.31
350.265	383.31
350.492	391.31
350.72	413.31
350.947	425.31
351.174	406.31
351.402	425.31
351.629	420.31
351.856	412.31
352.083	386.31
352.311	410.31
352.538	420.31
352.765	419.31
352.992	424.31
353.22	414.31
353.447	410.31
353.674	389.31
353.901	380.31
354.128	402.31
354.355	414.31
354.583	392.31
354.81	398.31
355.037	382.31
355.264	378.31
355.491	386.31
355.718	389.31
355.945	390.31
356.172	378.31
356.399	394.31
356.626	389.31
356.853	396.31
357.08	391.31
357.307	381.31
357.534	370.31
357.761	386.31
357.988	383.31
358.215	392.31
358.441	401.31
358.668	387.31
358.895	385.31
359.122	394.31
359.349	394.31
359.576	405.31
359.802	410.31
360.029	432.31
360.256	435.31
360.483	435.31
360.709	410.31
360.936	411.31
361.163	412.31
361.39	418.31
361.616	428.31
361.843	417.31
362.07	397.31
362.296	405.31
362.523	400.31
362.749	387.31
362.976	393.31
363.203	414.31
363.429	399.31
363.656	397.31
363.882	390.31
364.109	408.31
364.335	361.31
364.562	377.31
364.788	401.31
365.015	395.31
365.241	390.31
365.468	397.31
365.694	387.31
365.92	390.31
366.147	415.31
366.373	395.31
366.599	394.31
366.826	379.31
367.052	378.31
367.278	393.31
367.505	397.31
367.731	411.31
367.957	419.31
368.184	394.31
368.41	414.31
368.636	419.31
368.862	423.31
369.089	420.31
369.315	410.31
369.541	414.31
369.767	407.31
369.993	409.31
370.219	399.31
370.445	394.31
370.672	391.31
370.898	399.31
371.124	416.31
371.35	411.31
371.576	403.31
371.802	413.31
372.028	393.31
372.254	400.31
372.48	423.31
372.706	404.31
372.932	406.31
373.158	411.31
373.384	405.31
373.61	408.31
373.835	409.31
374.061	398.31
374.287	387.31
374.513	414.31
374.739	413.31
374.965	423.31
375.191	409.31
375.416	421.31
375.642	407.31
375.868	423.31
376.094	399.31
376.319	408.31
376.545	383.31
376.771	402.31
376.997	406.31
377.222	406.31
377.448	396.31
377.674	396.31
377.899	399.31
378.125	404.31
378.35	397.31
378.576	409.31
378.802	415.31
379.027	408.31
379.253	390.31
379.478	408.31
379.704	393.31
379.929	399.31
380.155	397.31
380.38	413.31
380.606	411.31
380.831	400.31
381.057	403.31
381.282	421.31
381.507	420.31
381.733	415.31
381.958	418.31
382.184	394.31
382.409	410.31
382.634	393.31
382.86	413.31
383.085	422.31
383.31	423.31
383.535	424.31
383.761	422.31
383.986	428.31
384.211	423.31
384.436	435.31
384.662	427.31
384.887	442.31
385.112	441.31
385.337	433.31
385.562	450.31
385.787	453.31
386.013	457.31
386.238	444.31
386.463	455.31
386.688	456.31
386.913	444.31
387.138	462.31
387.363	445.31
387.588	471.31
387.813	453.31
388.038	443.31
388.263	447.31
388.488	448.31
388.713	461.31
388.938	455.31
389.163	438.31
389.387	434.31
389.612	459.31
389.837	458.31
390.062	420.31
390.287	448.31
390.512	460.31
390.736	457.31
390.961	463.31
391.186	477.31
391.411	440.31
391.636	463.31
391.86	482.31
392.085	484.31
392.31	470.31
392.534	458.31
392.759	467.31
392.984	463.31
393.208	460.31
393.433	476.31
393.658	460.31
393.882	429.31
394.107	462.31
394.331	468.31
394.556	463.31
394.78	462.31
395.005	455.31
395.229	475.31
395.454	467.31
395.678	462.31
395.903	486.31
396.127	497.31
396.352	492.31
396.576	479.31
396.801	456.31
397.025	487.31
397.249	479.31
397.474	480.31
397.698	497.31
397.922	474.31
398.147	499.31
398.371	528.31
398.595	501.31
398.82	511.31
399.044	532.31
399.268	569.31
399.492	581.31
399.717	658.31
399.941	655.31
400.165	676.31
400.389	650.31
400.613	607.31
400.837	569.31
401.062	547.31
401.286	553.31
401.51	520.31
401.734	517.31
401.958	508.31
402.182	535.31
402.406	524.31
402.63	550.31
402.854	538.31
403.078	545.31
403.302	534.31
403.526	538.31
403.75	551.31
403.974	545.31
404.198	542.31
404.422	545.31
404.645	569.31
404.869	559.31
405.093	579.31
405.317	614.31
405.541	635.31
405.765	583.31
405.988	573.31
406.212	583.31
406.436	584.31
406.66	581.31
406.883	592.31
407.107	634.31
407.331	637.31
407.555	727.31
407.778	717.31
408.002	657.31
408.226	620.31
408.449	602.31
408.673	586.31
408.896	618.31
409.12	651.31
409.344	630.31
409.567	569.31
409.791	558.31
410.014	555.31
410.238	553.31
410.461	518.31
410.685	575.31
410.908	548.31
411.132	607.31
411.355	631.31
411.578	605.31
411.802	550.31
412.025	556.31
412.249	540.31
412.472	562.31
412.695	596.31
412.919	602.31
413.142	547.31
413.365	566.31
413.589	548.31
413.812	512.31
414.035	531.31
414.258	532.31
414.482	524.31
414.705	511.31
414.928	536.31
415.151	546.31
415.374	507.31
415.597	507.31
415.821	498.31
416.044	515.31
416.267	493.31
416.49	521.31
416.713	503.31
416.936	497.31
417.159	518.31
417.382	519.31
417.605	531.31
417.828	523.31
418.051	527.31
418.274	518.31
418.497	528.31
418.72	516.31
418.943	506.31
419.166	533.31
419.389	575.31
419.611	566.31
419.834	571.31
420.057	547.31
420.28	513.31
420.503	518.31
420.726	530.31
420.948	550.31
421.171	563.31
421.394	629.31
421.617	557.31
421.839	556.31
422.062	531.31
422.285	538.31
422.507	595.31
422.73	667.31
422.953	660.31
423.175	587.31
423.398	554.31
423.621	563.31
423.843	563.31
424.066	564.31
424.288	580.31
424.511	586.31
424.733	633.31
424.956	739.31
425.178	674.31
425.401	654.31
425.623	695.31
425.846	602.31
426.068	565.31
426.291	561.31
426.513	523.31
426.735	570.31
426.958	590.31
427.18	691.31
427.402	829.31
427.625	883.31
427.847	735.31
428.069	641.31
428.292	595.31
428.514	554.31
428.736	543.31
428.958	533.31
429.181	506.31
429.403	513.31
429.625	502.31
429.847	548.31
430.069	609.31
430.292	605.31
430.514	525.31
430.736	504.31
430.958	493.31
431.18	489.31
431.402	498.31
431.624	482.31
431.846	481.31
432.068	500.31
432.29	475.31
432.512	499.31
432.734	490.31
432.956	507.31
433.178	491.31
433.4	477.31
433.622	501.31
433.844	487.31
434.066	501.31
434.287	501.31
434.509	499.31
434.731	492.31
434.953	515.31
435.175	538.31
435.397	549.31
435.618	580.31
435.84	607.31
436.062	678.31
436.284	735.31
436.505	594.31
436.727	553.31
436.949	526.31
437.17	519.31
437.392	497.31
437.614	532.31
437.835	549.31
438.057	625.31
438.278	746.31
438.5	731.31
438.721	801.31
438.943	787.31
439.165	609.31
439.386	581.31
439.608	563.31
439.829	519.31
440.05	557.31
440.272	623.31
440.493	591.31
440.715	552.31
440.936	549.31
441.158	528.31
441.379	520.31
441.6	534.31
441.822	569.31
442.043	585.31
442.264	670.31
442.486	717.31
442.707	622.31
442.928	569.31
443.149	567.31
443.371	591.31
443.592	637.31
443.813	725.31
444.034	775.31
444.255	654.31
444.476	610.31
444.698	585.31
444.919	585.31
445.14	719.31
445.361	640.31
445.582	589.31
445.803	643.31
446.024	757.31
446.245	727.31
446.466	689.31
446.687	588.31
446.908	550.31
447.129	539.31
447.35	503.31
447.571	518.31
447.792	498.31
448.013	516.31
448.234	513.31
448.455	556.31
448.675	663.31
448.896	772.31
449.117	656.31
449.338	615.31
449.559	725.31
449.779	833.31
450	662.31
450.221	549.31
450.442	505.31
450.662	488.31
450.883	490.31
451.104	482.31
451.324	486.31
451.545	460.31
451.766	459.31
451.986	467.31
452.207	465.31
452.428	462.31
452.648	439.31
452.869	468.31
453.089	486.31
453.31	481.31
453.53	447.31
453.751	435.31
453.971	447.31
454.192	462.31
454.412	466.31
454.633	459.31
454.853	437.31
455.073	456.31
455.294	472.31
455.514	533.31
455.734	527.31
455.955	468.31
456.175	441.31
456.395	428.31
456.616	422.31
456.836	436.31
457.056	426.31
457.276	408.31
457.497	459.31
457.717	432.31
457.937	453.31
458.157	445.31
458.377	457.31
458.598	493.31
458.818	521.31
459.038	563.31
459.258	590.31
459.478	506.31
459.698	502.31
459.918	507.31
460.138	483.31
460.358	505.31
460.578	519.31
460.798	537.31
461.018	527.31
461.238	519.31
461.458	507.31
461.678	492.31
461.898	523.31
462.118	532.31
462.338	529.31
462.558	525.31
462.777	545.31
462.997	576.31
463.217	596.31
463.437	601.31
463.657	582.31
463.876	571.31
464.096	569.31
464.316	542.31
464.536	569.31
464.755	569.31
464.975	535.31
465.195	572.31
465.414	605.31
465.634	538.31
465.854	498.31
466.073	519.31
466.293	487.31
466.512	472.31
466.732	473.31
466.951	492.31
467.171	478.31
467.391	461.31
467.61	461.31
467.829	487.31
468.049	478.31
468.268	484.31
468.488	478.31
468.707	449.31
468.927	447.31
469.146	468.31
469.365	469.31
469.585	463.31
469.804	477.31
470.023	479.31
470.243	476.31
470.462	483.31
470.681	512.31
470.901	502.31
471.12	470.31
471.339	461.31
471.558	476.31
471.777	492.31
471.997	490.31
472.216	489.31
472.435	501.31
472.654	488.31
472.873	482.31
473.092	469.31
473.311	474.31
473.53	474.31
473.749	471.31
473.968	529.31
474.187	602.31
474.406	604.31
474.625	516.31
474.844	497.31
475.063	482.31
475.282	458.31
475.501	482.31
475.72	495.31
475.939	478.31
476.158	485.31
476.377	497.31
476.596	485.31
476.814	487.31
477.033	505.31
477.252	482.31
477.471	495.31
477.69	521.31
477.908	543.31
478.127	534.31
478.346	514.31
478.564	530.31
478.783	531.31
479.002	557.31
479.22	552.31
479.439	553.31
479.658	575.31
479.876	561.31
480.095	586.31
480.313	583.31
480.532	619.31
480.751	595.31
480.969	587.31
481.188	629.31
481.406	632.31
481.624	591.31
481.843	557.31
482.061	557.31
482.28	542.31
482.498	551.31
482.717	565.31
482.935	541.31
483.153	570.31
483.372	565.31
483.59	572.31
483.808	564.31
484.027	557.31
484.245	565.31
484.463	569.31
484.681	575.31
484.9	568.31
485.118	566.31
485.336	583.31
485.554	571.31
485.772	564.31
485.99	565.31
486.209	580.31
486.427	586.31
486.645	596.31
486.863	596.31
487.081	584.31
487.299	586.31
487.517	600.31
487.735	585.31
487.953	591.31
488.171	589.31
488.389	588.31
488.607	600.31
488.825	595.31
489.043	589.31
489.261	590.31
489.479	614.31
489.696	627.31
489.914	611.31
490.132	587.31
490.35	627.31
490.568	602.31
490.786	633.31
491.003	622.31
491.221	643.31
491.439	647.31
491.657	667.31
491.874	665.31
492.092	665.31
492.31	682.31
492.527	682.31
492.745	679.31
492.963	676.31
493.18	697.31
493.398	682.31
493.615	699.31
493.833	691.31
494.05	702.31
494.268	703.31
494.485	682.31
494.703	674.31
494.92	685.31
495.138	695.31
495.355	692.31
495.573	731.31
495.79	717.31
496.008	704.31
496.225	697.31
496.442	717.31
496.66	687.31
496.877	682.31
497.094	705.31
497.312	738.31
497.529	731.31
497.746	755.31
497.963	735.31
498.181	780.31
498.398	761.31
498.615	825.31
498.832	841.31
499.049	857.31
499.267	875.31
499.484	919.31
499.701	949.31
499.918	1009.31
500.135	1043.31
500.352	1144.31
500.569	1147.31
500.786	1127.31
501.003	1102.31
501.22	1083.31
501.437	1029.31
501.654	970.31
