Data from 1976.PennyLincolnUp.Lamp.En5.5.200Scan.071719.P1.Changed Mount._HRD10591_16-02-25-862.txt Node
Date: Thu Jul 18 16:02:25 EDT 2019
User: cochatt
Spectrometer: HR+D1059
Trigger mode: 1
Integration Time (sec): 1.000000E-1
Scans to average: 1
Electric dark correction enabled: true
Nonlinearity correction enabled: false
Boxcar width: 0
XAxis mode: Wavelengths
Number of Pixels in Spectrum: 2048
>>>>>Begin Spectral Data<<<<<
223.165	-9.62
223.4	-9.62
223.635	-9.62
223.869	0.38
224.104	-9.62
224.338	-16.62
224.573	-23.62
224.808	-31.62
225.042	-13.62
225.277	-0.62
225.511	4.38
225.746	2.38
225.98	4.38
226.215	18.38
226.449	6.38
226.683	17.38
226.918	26.38
227.152	25.38
227.387	28.38
227.621	39.38
227.856	53.38
228.09	47.38
228.324	42.38
228.559	73.38
228.793	81.38
229.027	95.38
229.262	106.38
229.496	102.38
229.73	100.38
229.964	143.38
230.199	134.38
230.433	119.38
230.667	106.38
230.901	103.38
231.136	111.38
231.37	114.38
231.604	103.38
231.838	101.38
232.072	110.38
232.306	114.38
232.541	110.38
232.775	107.38
233.009	122.38
233.243	122.38
233.477	96.38
233.711	117.38
233.945	105.38
234.179	127.38
234.413	124.38
234.647	108.38
234.881	114.38
235.115	132.38
235.349	124.38
235.583	116.38
235.817	125.38
236.051	128.38
236.285	117.38
236.519	121.38
236.753	139.38
236.987	147.38
237.221	179.38
237.455	221.38
237.689	185.38
237.922	132.38
238.156	136.38
238.39	132.38
238.624	109.38
238.858	127.38
239.091	121.38
239.325	117.38
239.559	128.38
239.793	131.38
240.027	125.38
240.26	158.38
240.494	148.38
240.728	144.38
240.961	137.38
241.195	145.38
241.429	153.38
241.662	130.38
241.896	134.38
242.13	155.38
242.363	149.38
242.597	119.38
242.83	132.38
243.064	136.38
243.298	128.38
243.531	131.38
243.765	137.38
243.998	136.38
244.232	138.38
244.465	138.38
244.699	149.38
244.932	164.38
245.166	137.38
245.399	159.38
245.633	154.38
245.866	152.38
246.099	143.38
246.333	147.38
246.566	156.38
246.8	140.38
247.033	160.38
247.266	166.38
247.5	165.38
247.733	152.38
247.966	178.38
248.2	174.38
248.433	155.38
248.666	163.38
248.899	188.38
249.133	194.38
249.366	198.38
249.599	181.38
249.832	183.38
250.066	182.38
250.299	186.38
250.532	200.38
250.765	210.38
250.998	228.38
251.231	222.38
251.465	222.38
251.698	207.38
251.931	199.38
252.164	184.38
252.397	198.38
252.63	201.38
252.863	198.38
253.096	199.38
253.329	248.38
253.562	226.38
253.795	223.38
254.028	226.38
254.261	219.38
254.494	224.38
254.727	243.38
254.96	262.38
255.193	262.38
255.426	247.38
255.659	223.38
255.892	243.38
256.124	224.38
256.357	230.38
256.59	233.38
256.823	213.38
257.056	224.38
257.289	209.38
257.521	212.38
257.754	224.38
257.987	215.38
258.22	215.38
258.452	215.38
258.685	215.38
258.918	212.38
259.151	226.38
259.383	214.38
259.616	196.38
259.849	208.38
260.081	234.38
260.314	256.38
260.547	251.38
260.779	243.38
261.012	261.38
261.244	256.38
261.477	228.38
261.71	226.38
261.942	218.38
262.175	224.38
262.407	228.38
262.64	235.38
262.872	239.38
263.105	226.38
263.337	219.38
263.57	232.38
263.802	206.38
264.035	216.38
264.267	218.38
264.499	227.38
264.732	220.38
264.964	227.38
265.197	223.38
265.429	217.38
265.661	213.38
265.894	213.38
266.126	232.38
266.358	226.38
266.591	220.38
266.823	230.38
267.055	240.38
267.287	231.38
267.52	251.38
267.752	250.38
267.984	237.38
268.216	236.38
268.448	254.38
268.681	240.38
268.913	265.38
269.145	279.38
269.377	289.38
269.609	286.38
269.841	270.38
270.073	290.38
270.306	290.38
270.538	319.38
270.77	335.38
271.002	311.38
271.234	297.38
271.466	303.38
271.698	319.38
271.93	327.38
272.162	329.38
272.394	323.38
272.626	305.38
272.858	283.38
273.09	302.38
273.322	293.38
273.553	293.38
273.785	269.38
274.017	275.38
274.249	307.38
274.481	288.38
274.713	288.38
274.945	284.38
275.176	270.38
275.408	284.38
275.64	276.38
275.872	289.38
276.104	263.38
276.335	279.38
276.567	292.38
276.799	308.38
277.031	319.38
277.262	326.38
277.494	332.38
277.726	323.38
277.957	306.38
278.189	286.38
278.421	293.38
278.652	282.38
278.884	284.38
279.115	275.38
279.347	284.38
279.579	280.38
279.81	291.38
280.042	279.38
280.273	286.38
280.505	278.38
280.736	289.38
280.968	286.38
281.199	287.38
281.431	287.38
281.662	272.38
281.894	297.38
282.125	307.38
282.356	291.38
282.588	318.38
282.819	304.38
283.051	325.38
283.282	298.38
283.513	301.38
283.745	283.38
283.976	308.38
284.207	295.38
284.439	287.38
284.67	307.38
284.901	317.38
285.132	299.38
285.364	315.38
285.595	296.38
285.826	292.38
286.057	298.38
286.288	285.38
286.52	305.38
286.751	293.38
286.982	300.38
287.213	289.38
287.444	305.38
287.675	291.38
287.906	315.38
288.138	328.38
288.369	337.38
288.6	314.38
288.831	312.38
289.062	304.38
289.293	304.38
289.524	324.38
289.755	307.38
289.986	308.38
290.217	308.38
290.448	302.38
290.679	313.38
290.91	319.38
291.141	328.38
291.371	296.38
291.602	302.38
291.833	297.38
292.064	311.38
292.295	314.38
292.526	324.38
292.757	321.38
292.987	333.38
293.218	322.38
293.449	320.38
293.68	324.38
293.91	308.38
294.141	318.38
294.372	314.38
294.603	330.38
294.833	324.38
295.064	302.38
295.295	302.38
295.525	351.38
295.756	332.38
295.987	336.38
296.217	350.38
296.448	339.38
296.679	326.38
296.909	323.38
297.14	310.38
297.37	325.38
297.601	329.38
297.831	326.38
298.062	337.38
298.292	337.38
298.523	314.38
298.753	346.38
298.984	336.38
299.214	317.38
299.445	344.38
299.675	335.38
299.905	339.38
300.136	326.38
300.366	326.38
300.597	341.38
300.827	353.38
301.057	341.38
301.288	349.38
301.518	347.38
301.748	336.38
301.979	347.38
302.209	336.38
302.439	354.38
302.669	362.38
302.9	353.38
303.13	365.38
303.36	343.38
303.59	368.38
303.82	372.38
304.051	364.38
304.281	353.38
304.511	349.38
304.741	353.38
304.971	332.38
305.201	348.38
305.431	356.38
305.661	355.38
305.891	347.38
306.121	335.38
306.352	356.38
306.582	350.38
306.812	335.38
307.042	358.38
307.272	346.38
307.502	334.38
307.731	362.38
307.961	357.38
308.191	358.38
308.421	359.38
308.651	349.38
308.881	356.38
309.111	356.38
309.341	377.38
309.571	368.38
309.8	364.38
310.03	386.38
310.26	376.38
310.49	395.38
310.72	386.38
310.949	401.38
311.179	404.38
311.409	417.38
311.639	384.38
311.868	393.38
312.098	389.38
312.328	392.38
312.557	407.38
312.787	409.38
313.017	424.38
313.246	404.38
313.476	387.38
313.706	390.38
313.935	400.38
314.165	416.38
314.394	424.38
314.624	432.38
314.853	406.38
315.083	399.38
315.312	422.38
315.542	394.38
315.771	407.38
316.001	402.38
316.23	397.38
316.46	391.38
316.689	389.38
316.919	387.38
317.148	393.38
317.377	408.38
317.607	386.38
317.836	386.38
318.065	383.38
318.295	416.38
318.524	388.38
318.753	393.38
318.983	416.38
319.212	398.38
319.441	382.38
319.67	397.38
319.9	401.38
320.129	409.38
320.358	419.38
320.587	394.38
320.816	425.38
321.046	401.38
321.275	408.38
321.504	408.38
321.733	419.38
321.962	410.38
322.191	422.38
322.42	445.38
322.649	444.38
322.878	463.38
323.108	479.38
323.337	451.38
323.566	487.38
323.795	505.38
324.024	539.38
324.253	620.38
324.482	880.38
324.71	1345.38
324.939	1978.38
325.168	1744.38
325.397	882.38
325.626	614.38
325.855	530.38
326.084	494.38
326.313	478.38
326.542	474.38
326.77	524.38
326.999	641.38
327.228	799.38
327.457	1198.38
327.686	1474.38
327.914	977.38
328.143	657.38
328.372	593.38
328.6	548.38
328.829	545.38
329.058	548.38
329.287	549.38
329.515	522.38
329.744	508.38
329.972	524.38
330.201	528.38
330.43	562.38
330.658	583.38
330.887	590.38
331.115	582.38
331.344	528.38
331.572	506.38
331.801	500.38
332.03	508.38
332.258	479.38
332.486	471.38
332.715	468.38
332.943	477.38
333.172	505.38
333.4	471.38
333.629	500.38
333.857	521.38
334.085	515.38
334.314	523.38
334.542	543.38
334.771	562.38
334.999	542.38
335.227	524.38
335.455	487.38
335.684	502.38
335.912	462.38
336.14	477.38
336.369	474.38
336.597	486.38
336.825	501.38
337.053	490.38
337.281	466.38
337.51	463.38
337.738	458.38
337.966	477.38
338.194	478.38
338.422	459.38
338.65	449.38
338.878	458.38
339.106	460.38
339.334	457.38
339.562	448.38
339.79	467.38
340.018	442.38
340.246	455.38
340.474	451.38
340.702	443.38
340.93	466.38
341.158	426.38
341.386	459.38
341.614	444.38
341.842	446.38
342.07	450.38
342.298	425.38
342.526	442.38
342.754	422.38
342.981	437.38
343.209	436.38
343.437	454.38
343.665	456.38
343.893	474.38
344.12	476.38
344.348	474.38
344.576	484.38
344.804	460.38
345.031	471.38
345.259	469.38
345.487	453.38
345.714	435.38
345.942	453.38
346.17	425.38
346.397	426.38
346.625	449.38
346.853	443.38
347.08	440.38
347.308	439.38
347.535	445.38
347.763	455.38
347.99	443.38
348.218	444.38
348.445	451.38
348.673	438.38
348.9	396.38
349.128	412.38
349.355	423.38
349.583	417.38
349.81	428.38
350.037	426.38
350.265	423.38
350.492	416.38
350.72	411.38
350.947	425.38
351.174	427.38
351.402	449.38
351.629	418.38
351.856	421.38
352.083	428.38
352.311	450.38
352.538	442.38
352.765	432.38
352.992	425.38
353.22	424.38
353.447	435.38
353.674	426.38
353.901	430.38
354.128	409.38
354.355	416.38
354.583	409.38
354.81	415.38
355.037	389.38
355.264	404.38
355.491	406.38
355.718	424.38
355.945	413.38
356.172	411.38
356.399	388.38
356.626	415.38
356.853	416.38
357.08	407.38
357.307	408.38
357.534	425.38
357.761	425.38
357.988	405.38
358.215	405.38
358.441	402.38
358.668	412.38
358.895	413.38
359.122	398.38
359.349	434.38
359.576	433.38
359.802	451.38
360.029	479.38
360.256	491.38
360.483	452.38
360.709	445.38
360.936	451.38
361.163	449.38
361.39	441.38
361.616	445.38
361.843	396.38
362.07	440.38
362.296	423.38
362.523	423.38
362.749	428.38
362.976	427.38
363.203	413.38
363.429	411.38
363.656	425.38
363.882	402.38
364.109	407.38
364.335	409.38
364.562	422.38
364.788	397.38
365.015	428.38
365.241	409.38
365.468	427.38
365.694	425.38
365.92	408.38
366.147	410.38
366.373	410.38
366.599	397.38
366.826	411.38
367.052	411.38
367.278	431.38
367.505	412.38
367.731	433.38
367.957	412.38
368.184	392.38
368.41	437.38
368.636	426.38
368.862	424.38
369.089	431.38
369.315	419.38
369.541	406.38
369.767	394.38
369.993	409.38
370.219	432.38
370.445	406.38
370.672	400.38
370.898	427.38
371.124	435.38
371.35	422.38
371.576	424.38
371.802	415.38
372.028	409.38
372.254	418.38
372.48	405.38
372.706	420.38
372.932	431.38
373.158	418.38
373.384	430.38
373.61	410.38
373.835	419.38
374.061	418.38
374.287	426.38
374.513	419.38
374.739	419.38
374.965	415.38
375.191	426.38
375.416	438.38
375.642	417.38
375.868	418.38
376.094	435.38
376.319	427.38
376.545	417.38
376.771	417.38
376.997	432.38
377.222	432.38
377.448	427.38
377.674	416.38
377.899	420.38
378.125	417.38
378.35	416.38
378.576	421.38
378.802	412.38
379.027	413.38
379.253	424.38
379.478	406.38
379.704	424.38
379.929	416.38
380.155	420.38
380.38	418.38
380.606	409.38
380.831	434.38
381.057	426.38
381.282	427.38
381.507	422.38
381.733	425.38
381.958	441.38
382.184	432.38
382.409	432.38
382.634	426.38
382.86	433.38
383.085	450.38
383.31	438.38
383.535	442.38
383.761	460.38
383.986	463.38
384.211	438.38
384.436	440.38
384.662	457.38
384.887	473.38
385.112	431.38
385.337	468.38
385.562	473.38
385.787	446.38
386.013	461.38
386.238	462.38
386.463	465.38
386.688	467.38
386.913	452.38
387.138	461.38
387.363	461.38
387.588	458.38
387.813	474.38
388.038	472.38
388.263	467.38
388.488	475.38
388.713	471.38
388.938	489.38
389.163	464.38
389.387	482.38
389.612	463.38
389.837	463.38
390.062	435.38
390.287	458.38
390.512	449.38
390.736	472.38
390.961	456.38
391.186	476.38
391.411	488.38
391.636	466.38
391.86	497.38
392.085	500.38
392.31	470.38
392.534	479.38
392.759	490.38
392.984	469.38
393.208	474.38
393.433	463.38
393.658	464.38
393.882	465.38
394.107	449.38
394.331	483.38
394.556	469.38
394.78	496.38
395.005	485.38
395.229	496.38
395.454	511.38
395.678	495.38
395.903	497.38
396.127	508.38
396.352	533.38
396.576	492.38
396.801	490.38
397.025	487.38
397.249	503.38
397.474	498.38
397.698	496.38
397.922	496.38
398.147	528.38
398.371	539.38
398.595	532.38
398.82	528.38
399.044	548.38
399.268	577.38
399.492	609.38
399.717	651.38
399.941	717.38
400.165	714.38
400.389	690.38
400.613	619.38
400.837	571.38
401.062	561.38
401.286	570.38
401.51	529.38
401.734	551.38
401.958	524.38
402.182	550.38
402.406	553.38
402.63	558.38
402.854	582.38
403.078	544.38
403.302	555.38
403.526	573.38
403.75	586.38
403.974	578.38
404.198	587.38
404.422	580.38
404.645	582.38
404.869	581.38
405.093	606.38
405.317	643.38
405.541	684.38
405.765	618.38
405.988	617.38
406.212	597.38
406.436	600.38
406.66	622.38
406.883	614.38
407.107	651.38
407.331	690.38
407.555	755.38
407.778	773.38
408.002	695.38
408.226	640.38
408.449	644.38
408.673	629.38
408.896	638.38
409.12	691.38
409.344	652.38
409.567	572.38
409.791	585.38
410.014	577.38
410.238	583.38
410.461	564.38
410.685	553.38
410.908	570.38
411.132	617.38
411.355	638.38
411.578	611.38
411.802	567.38
412.025	562.38
412.249	568.38
412.472	587.38
412.695	612.38
412.919	609.38
413.142	596.38
413.365	575.38
413.589	563.38
413.812	542.38
414.035	533.38
414.258	546.38
414.482	522.38
414.705	543.38
414.928	522.38
415.151	533.38
415.374	523.38
415.597	541.38
415.821	524.38
416.044	524.38
416.267	515.38
416.49	533.38
416.713	512.38
416.936	540.38
417.159	526.38
417.382	521.38
417.605	528.38
417.828	561.38
418.051	564.38
418.274	559.38
418.497	541.38
418.72	542.38
418.943	546.38
419.166	576.38
419.389	576.38
419.611	603.38
419.834	551.38
420.057	574.38
420.28	551.38
420.503	556.38
420.726	562.38
420.948	588.38
421.171	587.38
421.394	648.38
421.617	578.38
421.839	549.38
422.062	559.38
422.285	566.38
422.507	639.38
422.73	707.38
422.953	696.38
423.175	601.38
423.398	560.38
423.621	556.38
423.843	630.38
424.066	606.38
424.288	595.38
424.511	617.38
424.733	642.38
424.956	730.38
425.178	702.38
425.401	713.38
425.623	715.38
425.846	635.38
426.068	580.38
426.291	563.38
426.513	590.38
426.735	574.38
426.958	631.38
427.18	706.38
427.402	854.38
427.625	949.38
427.847	777.38
428.069	678.38
428.292	620.38
428.514	582.38
428.736	572.38
428.958	543.38
429.181	551.38
429.403	545.38
429.625	549.38
429.847	574.38
430.069	619.38
430.292	636.38
430.514	575.38
430.736	530.38
430.958	531.38
431.18	534.38
431.402	524.38
431.624	498.38
431.846	535.38
432.068	542.38
432.29	516.38
432.512	517.38
432.734	551.38
432.956	508.38
433.178	536.38
433.4	539.38
433.622	520.38
433.844	532.38
434.066	511.38
434.287	522.38
434.509	528.38
434.731	560.38
434.953	531.38
435.175	534.38
435.397	574.38
435.618	575.38
435.84	629.38
436.062	727.38
436.284	799.38
436.505	659.38
436.727	599.38
436.949	560.38
437.17	553.38
437.392	542.38
437.614	556.38
437.835	559.38
438.057	672.38
438.278	781.38
438.5	757.38
438.721	863.38
438.943	818.38
439.165	635.38
439.386	608.38
439.608	586.38
439.829	583.38
440.05	633.38
440.272	661.38
440.493	620.38
440.715	576.38
440.936	535.38
441.158	546.38
441.379	548.38
441.6	580.38
441.822	583.38
442.043	618.38
442.264	700.38
442.486	758.38
442.707	659.38
442.928	602.38
443.149	614.38
443.371	640.38
443.592	655.38
443.813	759.38
444.034	845.38
444.255	697.38
444.476	634.38
444.698	628.38
444.919	606.38
445.14	693.38
445.361	634.38
445.582	629.38
445.803	690.38
446.024	773.38
446.245	790.38
446.466	733.38
446.687	622.38
446.908	584.38
447.129	571.38
447.35	540.38
447.571	532.38
447.792	523.38
448.013	536.38
448.234	559.38
448.455	599.38
448.675	716.38
448.896	819.38
449.117	694.38
449.338	642.38
449.559	764.38
449.779	860.38
450	702.38
450.221	565.38
450.442	532.38
450.662	543.38
450.883	519.38
451.104	541.38
451.324	505.38
451.545	487.38
451.766	500.38
451.986	491.38
452.207	459.38
452.428	470.38
452.648	488.38
452.869	478.38
453.089	465.38
453.31	485.38
453.53	474.38
453.751	484.38
453.971	472.38
454.192	499.38
454.412	467.38
454.633	482.38
454.853	486.38
455.073	478.38
455.294	491.38
455.514	552.38
455.734	578.38
455.955	490.38
456.175	446.38
456.395	434.38
456.616	441.38
456.836	436.38
457.056	444.38
457.276	442.38
457.497	453.38
457.717	458.38
457.937	431.38
458.157	479.38
458.377	466.38
458.598	508.38
458.818	526.38
459.038	586.38
459.258	640.38
459.478	550.38
459.698	517.38
459.918	546.38
460.138	518.38
460.358	543.38
460.578	525.38
460.798	535.38
461.018	555.38
461.238	535.38
461.458	540.38
461.678	524.38
461.898	521.38
462.118	551.38
462.338	532.38
462.558	564.38
462.777	591.38
462.997	585.38
463.217	592.38
463.437	596.38
463.657	606.38
463.876	570.38
464.096	582.38
464.316	591.38
464.536	581.38
464.755	585.38
464.975	591.38
465.195	598.38
465.414	643.38
465.634	562.38
465.854	547.38
466.073	533.38
466.293	490.38
466.512	496.38
466.732	507.38
466.951	486.38
467.171	505.38
467.391	476.38
467.61	512.38
467.829	508.38
468.049	504.38
468.268	484.38
468.488	485.38
468.707	484.38
468.927	481.38
469.146	498.38
469.365	486.38
469.585	492.38
469.804	490.38
470.023	497.38
470.243	514.38
470.462	508.38
470.681	503.38
470.901	510.38
471.12	503.38
471.339	495.38
471.558	492.38
471.777	486.38
471.997	504.38
472.216	489.38
472.435	542.38
472.654	503.38
472.873	491.38
473.092	500.38
473.311	486.38
473.53	480.38
473.749	489.38
473.968	540.38
474.187	645.38
474.406	644.38
474.625	550.38
474.844	524.38
475.063	508.38
475.282	521.38
475.501	512.38
475.72	512.38
475.939	508.38
476.158	540.38
476.377	491.38
476.596	495.38
476.814	510.38
477.033	522.38
477.252	521.38
477.471	540.38
477.69	548.38
477.908	537.38
478.127	545.38
478.346	554.38
478.564	558.38
478.783	564.38
479.002	604.38
479.22	563.38
479.439	575.38
479.658	596.38
479.876	589.38
480.095	591.38
480.313	638.38
480.532	631.38
480.751	610.38
480.969	641.38
481.188	677.38
481.406	675.38
481.624	614.38
481.843	623.38
482.061	593.38
482.28	602.38
482.498	551.38
482.717	578.38
482.935	578.38
483.153	576.38
483.372	575.38
483.59	572.38
483.808	571.38
484.027	592.38
484.245	607.38
484.463	602.38
484.681	585.38
484.9	583.38
485.118	592.38
485.336	601.38
485.554	620.38
485.772	612.38
485.99	609.38
486.209	610.38
486.427	592.38
486.645	601.38
486.863	611.38
487.081	610.38
487.299	618.38
487.517	624.38
487.735	622.38
487.953	622.38
488.171	633.38
488.389	627.38
488.607	612.38
488.825	630.38
489.043	626.38
489.261	614.38
489.479	634.38
489.696	634.38
489.914	636.38
490.132	655.38
490.35	640.38
490.568	636.38
490.786	666.38
491.003	669.38
491.221	683.38
491.439	705.38
491.657	690.38
491.874	732.38
492.092	694.38
492.31	713.38
492.527	720.38
492.745	722.38
492.963	715.38
493.18	724.38
493.398	729.38
493.615	716.38
493.833	713.38
494.05	738.38
494.268	720.38
494.485	705.38
494.703	721.38
494.92	719.38
495.138	695.38
495.355	711.38
495.573	735.38
495.79	734.38
496.008	768.38
496.225	727.38
496.442	729.38
496.66	720.38
496.877	749.38
497.094	736.38
497.312	768.38
497.529	784.38
497.746	780.38
497.963	799.38
498.181	802.38
498.398	842.38
498.615	843.38
498.832	872.38
499.049	895.38
499.267	902.38
499.484	957.38
499.701	995.38
499.918	1019.38
500.135	1081.38
500.352	1150.38
500.569	1184.38
500.786	1191.38
501.003	1159.38
501.22	1107.38
501.437	1078.38
501.654	1009.38
