Data from 1976.PennyLincolnUp.Lamp.En5.5.200Scan.071719.P1.Changed Mount._HRD10591_15-59-30-861.txt Node
Date: Thu Jul 18 15:59:30 EDT 2019
User: cochatt
Spectrometer: HR+D1059
Trigger mode: 1
Integration Time (sec): 1.000000E-1
Scans to average: 1
Electric dark correction enabled: true
Nonlinearity correction enabled: false
Boxcar width: 0
XAxis mode: Wavelengths
Number of Pixels in Spectrum: 2048
>>>>>Begin Spectral Data<<<<<
223.165	-6.5
223.4	-6.5
223.635	-6.5
223.869	-5.5
224.104	-17.5
224.338	-22.5
224.573	-17.5
224.808	-10.5
225.042	-16.5
225.277	-6.5
225.511	9.5
225.746	16.5
225.98	7.5
226.215	-5.5
226.449	8.5
226.683	29.5
226.918	23.5
227.152	13.5
227.387	35.5
227.621	41.5
227.856	41.5
228.09	57.5
228.324	53.5
228.559	47.5
228.793	59.5
229.027	83.5
229.262	94.5
229.496	94.5
229.73	124.5
229.964	133.5
230.199	108.5
230.433	109.5
230.667	113.5
230.901	103.5
231.136	105.5
231.37	129.5
231.604	91.5
231.838	118.5
232.072	106.5
232.306	99.5
232.541	108.5
232.775	96.5
233.009	123.5
233.243	108.5
233.477	111.5
233.711	115.5
233.945	114.5
234.179	115.5
234.413	127.5
234.647	118.5
234.881	102.5
235.115	104.5
235.349	117.5
235.583	100.5
235.817	119.5
236.051	119.5
236.285	112.5
236.519	109.5
236.753	125.5
236.987	140.5
237.221	153.5
237.455	213.5
237.689	153.5
237.922	137.5
238.156	120.5
238.39	126.5
238.624	119.5
238.858	120.5
239.091	111.5
239.325	124.5
239.559	119.5
239.793	128.5
240.027	143.5
240.26	134.5
240.494	130.5
240.728	149.5
240.961	127.5
241.195	125.5
241.429	122.5
241.662	123.5
241.896	121.5
242.13	119.5
242.363	118.5
242.597	122.5
242.83	141.5
243.064	122.5
243.298	130.5
243.531	132.5
243.765	136.5
243.998	154.5
244.232	117.5
244.465	153.5
244.699	147.5
244.932	145.5
245.166	160.5
245.399	156.5
245.633	136.5
245.866	151.5
246.099	150.5
246.333	145.5
246.566	139.5
246.8	143.5
247.033	156.5
247.266	161.5
247.5	150.5
247.733	153.5
247.966	152.5
248.2	160.5
248.433	161.5
248.666	158.5
248.899	163.5
249.133	165.5
249.366	174.5
249.599	178.5
249.832	173.5
250.066	169.5
250.299	160.5
250.532	187.5
250.765	181.5
250.998	197.5
251.231	200.5
251.465	200.5
251.698	187.5
251.931	181.5
252.164	170.5
252.397	176.5
252.63	167.5
252.863	177.5
253.096	189.5
253.329	191.5
253.562	195.5
253.795	186.5
254.028	194.5
254.261	195.5
254.494	191.5
254.727	218.5
254.96	210.5
255.193	226.5
255.426	211.5
255.659	191.5
255.892	183.5
256.124	195.5
256.357	207.5
256.59	186.5
256.823	190.5
257.056	197.5
257.289	174.5
257.521	192.5
257.754	187.5
257.987	175.5
258.22	199.5
258.452	185.5
258.685	190.5
258.918	191.5
259.151	200.5
259.383	205.5
259.616	197.5
259.849	200.5
260.081	203.5
260.314	213.5
260.547	234.5
260.779	222.5
261.012	217.5
261.244	213.5
261.477	208.5
261.71	198.5
261.942	207.5
262.175	218.5
262.407	201.5
262.64	194.5
262.872	199.5
263.105	198.5
263.337	203.5
263.57	189.5
263.802	191.5
264.035	206.5
264.267	185.5
264.499	193.5
264.732	211.5
264.964	170.5
265.197	184.5
265.429	209.5
265.661	189.5
265.894	192.5
266.126	206.5
266.358	195.5
266.591	192.5
266.823	209.5
267.055	220.5
267.287	210.5
267.52	222.5
267.752	202.5
267.984	209.5
268.216	207.5
268.448	214.5
268.681	214.5
268.913	224.5
269.145	218.5
269.377	250.5
269.609	245.5
269.841	256.5
270.073	241.5
270.306	263.5
270.538	269.5
270.77	257.5
271.002	259.5
271.234	252.5
271.466	250.5
271.698	276.5
271.93	278.5
272.162	273.5
272.394	267.5
272.626	266.5
272.858	254.5
273.09	240.5
273.322	251.5
273.553	225.5
273.785	230.5
274.017	224.5
274.249	250.5
274.481	234.5
274.713	236.5
274.945	242.5
275.176	266.5
275.408	250.5
275.64	230.5
275.872	229.5
276.104	238.5
276.335	247.5
276.567	245.5
276.799	243.5
277.031	274.5
277.262	294.5
277.494	278.5
277.726	274.5
277.957	272.5
278.189	245.5
278.421	252.5
278.652	249.5
278.884	252.5
279.115	263.5
279.347	247.5
279.579	242.5
279.81	263.5
280.042	255.5
280.273	255.5
280.505	267.5
280.736	250.5
280.968	257.5
281.199	247.5
281.431	247.5
281.662	251.5
281.894	248.5
282.125	263.5
282.356	270.5
282.588	254.5
282.819	274.5
283.051	262.5
283.282	242.5
283.513	273.5
283.745	270.5
283.976	271.5
284.207	282.5
284.439	282.5
284.67	273.5
284.901	271.5
285.132	251.5
285.364	269.5
285.595	283.5
285.826	282.5
286.057	273.5
286.288	275.5
286.52	274.5
286.751	280.5
286.982	276.5
287.213	282.5
287.444	285.5
287.675	273.5
287.906	266.5
288.138	280.5
288.369	304.5
288.6	291.5
288.831	304.5
289.062	289.5
289.293	271.5
289.524	279.5
289.755	291.5
289.986	269.5
290.217	284.5
290.448	273.5
290.679	254.5
290.91	269.5
291.141	269.5
291.371	274.5
291.602	282.5
291.833	262.5
292.064	265.5
292.295	273.5
292.526	279.5
292.757	286.5
292.987	281.5
293.218	285.5
293.449	270.5
293.68	315.5
293.91	271.5
294.141	289.5
294.372	271.5
294.603	269.5
294.833	271.5
295.064	282.5
295.295	310.5
295.525	277.5
295.756	290.5
295.987	275.5
296.217	305.5
296.448	286.5
296.679	285.5
296.909	275.5
297.14	289.5
297.37	288.5
297.601	282.5
297.831	281.5
298.062	277.5
298.292	291.5
298.523	297.5
298.753	299.5
298.984	279.5
299.214	296.5
299.445	311.5
299.675	289.5
299.905	315.5
300.136	295.5
300.366	287.5
300.597	297.5
300.827	304.5
301.057	295.5
301.288	302.5
301.518	302.5
301.748	317.5
301.979	315.5
302.209	297.5
302.439	314.5
302.669	301.5
302.9	292.5
303.13	310.5
303.36	309.5
303.59	327.5
303.82	327.5
304.051	317.5
304.281	305.5
304.511	293.5
304.741	305.5
304.971	303.5
305.201	300.5
305.431	315.5
305.661	312.5
305.891	294.5
306.121	319.5
306.352	311.5
306.582	314.5
306.812	319.5
307.042	312.5
307.272	326.5
307.502	323.5
307.731	315.5
307.961	313.5
308.191	299.5
308.421	290.5
308.651	315.5
308.881	301.5
309.111	328.5
309.341	322.5
309.571	325.5
309.8	325.5
310.03	337.5
310.26	337.5
310.49	327.5
310.72	341.5
310.949	335.5
311.179	361.5
311.409	337.5
311.639	334.5
311.868	339.5
312.098	328.5
312.328	338.5
312.557	336.5
312.787	342.5
313.017	339.5
313.246	334.5
313.476	346.5
313.706	347.5
313.935	354.5
314.165	348.5
314.394	347.5
314.624	351.5
314.853	342.5
315.083	346.5
315.312	345.5
315.542	331.5
315.771	334.5
316.001	329.5
316.23	330.5
316.46	324.5
316.689	347.5
316.919	337.5
317.148	363.5
317.377	353.5
317.607	337.5
317.836	346.5
318.065	368.5
318.295	350.5
318.524	356.5
318.753	346.5
318.983	351.5
319.212	349.5
319.441	344.5
319.67	358.5
319.9	336.5
320.129	342.5
320.358	359.5
320.587	340.5
320.816	330.5
321.046	347.5
321.275	365.5
321.504	348.5
321.733	336.5
321.962	342.5
322.191	364.5
322.42	361.5
322.649	377.5
322.878	375.5
323.108	366.5
323.337	379.5
323.566	395.5
323.795	421.5
324.024	430.5
324.253	483.5
324.482	648.5
324.71	944.5
324.939	1417.5
325.168	1207.5
325.397	636.5
325.626	445.5
325.855	428.5
326.084	403.5
326.313	402.5
326.542	406.5
326.77	416.5
326.999	472.5
327.228	599.5
327.457	888.5
327.686	1079.5
327.914	711.5
328.143	489.5
328.372	426.5
328.6	418.5
328.829	433.5
329.058	439.5
329.287	424.5
329.515	415.5
329.744	425.5
329.972	407.5
330.201	406.5
330.43	431.5
330.658	456.5
330.887	437.5
331.115	457.5
331.344	423.5
331.572	389.5
331.801	418.5
332.03	414.5
332.258	414.5
332.486	407.5
332.715	405.5
332.943	416.5
333.172	397.5
333.4	424.5
333.629	437.5
333.857	422.5
334.085	447.5
334.314	448.5
334.542	456.5
334.771	465.5
334.999	415.5
335.227	421.5
335.455	436.5
335.684	418.5
335.912	415.5
336.14	394.5
336.369	410.5
336.597	425.5
336.825	421.5
337.053	410.5
337.281	400.5
337.51	397.5
337.738	396.5
337.966	391.5
338.194	413.5
338.422	411.5
338.65	413.5
338.878	397.5
339.106	357.5
339.334	375.5
339.562	407.5
339.79	402.5
340.018	379.5
340.246	421.5
340.474	389.5
340.702	422.5
340.93	402.5
341.158	383.5
341.386	366.5
341.614	377.5
341.842	377.5
342.07	378.5
342.298	392.5
342.526	388.5
342.754	381.5
342.981	379.5
343.209	382.5
343.437	383.5
343.665	400.5
343.893	401.5
344.12	414.5
344.348	410.5
344.576	411.5
344.804	401.5
345.031	410.5
345.259	384.5
345.487	411.5
345.714	395.5
345.942	388.5
346.17	383.5
346.397	367.5
346.625	366.5
346.853	382.5
347.08	378.5
347.308	386.5
347.535	382.5
347.763	379.5
347.99	373.5
348.218	394.5
348.445	395.5
348.673	388.5
348.9	395.5
349.128	368.5
349.355	354.5
349.583	370.5
349.81	358.5
350.037	367.5
350.265	374.5
350.492	369.5
350.72	373.5
350.947	359.5
351.174	368.5
351.402	383.5
351.629	387.5
351.856	387.5
352.083	385.5
352.311	386.5
352.538	380.5
352.765	379.5
352.992	387.5
353.22	377.5
353.447	395.5
353.674	374.5
353.901	373.5
354.128	361.5
354.355	359.5
354.583	362.5
354.81	368.5
355.037	371.5
355.264	363.5
355.491	368.5
355.718	370.5
355.945	373.5
356.172	371.5
356.399	353.5
356.626	349.5
356.853	334.5
357.08	361.5
357.307	374.5
357.534	375.5
357.761	352.5
357.988	393.5
358.215	375.5
358.441	378.5
358.668	338.5
358.895	367.5
359.122	365.5
359.349	363.5
359.576	360.5
359.802	370.5
360.029	406.5
360.256	409.5
360.483	383.5
360.709	399.5
360.936	383.5
361.163	377.5
361.39	378.5
361.616	362.5
361.843	371.5
362.07	369.5
362.296	384.5
362.523	397.5
362.749	391.5
362.976	393.5
363.203	361.5
363.429	357.5
363.656	362.5
363.882	368.5
364.109	354.5
364.335	360.5
364.562	369.5
364.788	356.5
365.015	362.5
365.241	371.5
365.468	381.5
365.694	368.5
365.92	382.5
366.147	368.5
366.373	357.5
366.599	353.5
366.826	369.5
367.052	350.5
367.278	378.5
367.505	371.5
367.731	362.5
367.957	356.5
368.184	368.5
368.41	361.5
368.636	369.5
368.862	382.5
369.089	376.5
369.315	361.5
369.541	378.5
369.767	365.5
369.993	365.5
370.219	368.5
370.445	368.5
370.672	369.5
370.898	382.5
371.124	357.5
371.35	381.5
371.576	360.5
371.802	371.5
372.028	380.5
372.254	373.5
372.48	355.5
372.706	366.5
372.932	391.5
373.158	392.5
373.384	380.5
373.61	395.5
373.835	371.5
374.061	398.5
374.287	385.5
374.513	375.5
374.739	388.5
374.965	398.5
375.191	393.5
375.416	375.5
375.642	371.5
375.868	391.5
376.094	381.5
376.319	371.5
376.545	373.5
376.771	384.5
376.997	381.5
377.222	352.5
377.448	384.5
377.674	381.5
377.899	383.5
378.125	374.5
378.35	383.5
378.576	386.5
378.802	362.5
379.027	382.5
379.253	372.5
379.478	359.5
379.704	377.5
379.929	365.5
380.155	392.5
380.38	393.5
380.606	378.5
380.831	367.5
381.057	382.5
381.282	397.5
381.507	377.5
381.733	370.5
381.958	383.5
382.184	367.5
382.409	388.5
382.634	387.5
382.86	395.5
383.085	395.5
383.31	412.5
383.535	395.5
383.761	400.5
383.986	405.5
384.211	410.5
384.436	409.5
384.662	411.5
384.887	417.5
385.112	415.5
385.337	415.5
385.562	443.5
385.787	433.5
386.013	421.5
386.238	426.5
386.463	419.5
386.688	432.5
386.913	422.5
387.138	420.5
387.363	449.5
387.588	417.5
387.813	414.5
388.038	432.5
388.263	436.5
388.488	404.5
388.713	430.5
388.938	446.5
389.163	431.5
389.387	435.5
389.612	423.5
389.837	401.5
390.062	401.5
390.287	406.5
390.512	418.5
390.736	410.5
390.961	404.5
391.186	424.5
391.411	430.5
391.636	415.5
391.86	416.5
392.085	428.5
392.31	431.5
392.534	445.5
392.759	427.5
392.984	426.5
393.208	437.5
393.433	430.5
393.658	441.5
393.882	431.5
394.107	443.5
394.331	427.5
394.556	430.5
394.78	441.5
395.005	432.5
395.229	423.5
395.454	439.5
395.678	424.5
395.903	439.5
396.127	455.5
396.352	456.5
396.576	444.5
396.801	443.5
397.025	440.5
397.249	441.5
397.474	447.5
397.698	441.5
397.922	480.5
398.147	463.5
398.371	495.5
398.595	458.5
398.82	505.5
399.044	475.5
399.268	527.5
399.492	521.5
399.717	572.5
399.941	615.5
400.165	603.5
400.389	591.5
400.613	573.5
400.837	514.5
401.062	510.5
401.286	477.5
401.51	459.5
401.734	477.5
401.958	481.5
402.182	481.5
402.406	496.5
402.63	498.5
402.854	492.5
403.078	501.5
403.302	501.5
403.526	511.5
403.75	516.5
403.974	494.5
404.198	525.5
404.422	506.5
404.645	503.5
404.869	512.5
405.093	526.5
405.317	557.5
405.541	591.5
405.765	536.5
405.988	519.5
406.212	512.5
406.436	536.5
406.66	526.5
406.883	549.5
407.107	568.5
407.331	583.5
407.555	648.5
407.778	661.5
408.002	605.5
408.226	555.5
408.449	558.5
408.673	545.5
408.896	559.5
409.12	592.5
409.344	575.5
409.567	520.5
409.791	535.5
410.014	507.5
410.238	523.5
410.461	505.5
410.685	486.5
410.908	525.5
411.132	533.5
411.355	553.5
411.578	518.5
411.802	487.5
412.025	472.5
412.249	503.5
412.472	520.5
412.695	538.5
412.919	531.5
413.142	496.5
413.365	492.5
413.589	478.5
413.812	495.5
414.035	484.5
414.258	465.5
414.482	467.5
414.705	498.5
414.928	469.5
415.151	457.5
415.374	486.5
415.597	475.5
415.821	471.5
416.044	471.5
416.267	477.5
416.49	480.5
416.713	486.5
416.936	460.5
417.159	481.5
417.382	469.5
417.605	488.5
417.828	493.5
418.051	481.5
418.274	489.5
418.497	475.5
418.72	480.5
418.943	472.5
419.166	514.5
419.389	517.5
419.611	521.5
419.834	511.5
420.057	492.5
420.28	509.5
420.503	490.5
420.726	489.5
420.948	506.5
421.171	521.5
421.394	536.5
421.617	509.5
421.839	512.5
422.062	501.5
422.285	511.5
422.507	542.5
422.73	608.5
422.953	585.5
423.175	501.5
423.398	509.5
423.621	525.5
423.843	525.5
424.066	538.5
424.288	515.5
424.511	526.5
424.733	573.5
424.956	640.5
425.178	603.5
425.401	595.5
425.623	627.5
425.846	526.5
426.068	537.5
426.291	495.5
426.513	519.5
426.735	506.5
426.958	546.5
427.18	621.5
427.402	730.5
427.625	779.5
427.847	649.5
428.069	558.5
428.292	504.5
428.514	488.5
428.736	503.5
428.958	463.5
429.181	479.5
429.403	456.5
429.625	470.5
429.847	498.5
430.069	547.5
430.292	573.5
430.514	481.5
430.736	477.5
430.958	448.5
431.18	451.5
431.402	448.5
431.624	449.5
431.846	459.5
432.068	466.5
432.29	464.5
432.512	464.5
432.734	458.5
432.956	448.5
433.178	461.5
433.4	452.5
433.622	470.5
433.844	474.5
434.066	457.5
434.287	459.5
434.509	476.5
434.731	495.5
434.953	471.5
435.175	503.5
435.397	509.5
435.618	498.5
435.84	559.5
436.062	605.5
436.284	687.5
436.505	558.5
436.727	522.5
436.949	488.5
437.17	479.5
437.392	450.5
437.614	462.5
437.835	502.5
438.057	559.5
438.278	669.5
438.5	657.5
438.721	715.5
438.943	718.5
439.165	544.5
439.386	514.5
439.608	498.5
439.829	506.5
440.05	522.5
440.272	542.5
440.493	531.5
440.715	510.5
440.936	482.5
441.158	458.5
441.379	487.5
441.6	490.5
441.822	511.5
442.043	546.5
442.264	611.5
442.486	626.5
442.707	540.5
442.928	514.5
443.149	515.5
443.371	534.5
443.592	600.5
443.813	639.5
444.034	666.5
444.255	589.5
444.476	535.5
444.698	539.5
444.919	532.5
445.14	649.5
445.361	580.5
445.582	560.5
445.803	587.5
446.024	655.5
446.245	677.5
446.466	609.5
446.687	539.5
446.908	502.5
447.129	443.5
447.35	463.5
447.571	476.5
447.792	447.5
448.013	477.5
448.234	476.5
448.455	506.5
448.675	598.5
448.896	687.5
449.117	592.5
449.338	550.5
449.559	670.5
449.779	744.5
450	594.5
450.221	517.5
450.442	479.5
450.662	453.5
450.883	442.5
451.104	462.5
451.324	446.5
451.545	441.5
451.766	443.5
451.986	421.5
452.207	407.5
452.428	410.5
452.648	409.5
452.869	438.5
453.089	415.5
453.31	425.5
453.53	435.5
453.751	420.5
453.971	421.5
454.192	417.5
454.412	411.5
454.633	422.5
454.853	404.5
455.073	398.5
455.294	448.5
455.514	461.5
455.734	489.5
455.955	411.5
456.175	395.5
456.395	388.5
456.616	402.5
456.836	408.5
457.056	389.5
457.276	397.5
457.497	418.5
457.717	403.5
457.937	428.5
458.157	408.5
458.377	420.5
458.598	439.5
458.818	469.5
459.038	513.5
459.258	549.5
459.478	472.5
459.698	437.5
459.918	451.5
460.138	467.5
460.358	473.5
460.578	465.5
460.798	487.5
461.018	482.5
461.238	479.5
461.458	472.5
461.678	491.5
461.898	492.5
462.118	471.5
462.338	494.5
462.558	502.5
462.777	531.5
462.997	518.5
463.217	549.5
463.437	534.5
463.657	543.5
463.876	519.5
464.096	528.5
464.316	501.5
464.536	535.5
464.755	521.5
464.975	529.5
465.195	521.5
465.414	530.5
465.634	499.5
465.854	485.5
466.073	476.5
466.293	454.5
466.512	467.5
466.732	438.5
466.951	435.5
467.171	441.5
467.391	427.5
467.61	455.5
467.829	450.5
468.049	437.5
468.268	425.5
468.488	431.5
468.707	419.5
468.927	435.5
469.146	428.5
469.365	411.5
469.585	429.5
469.804	425.5
470.023	462.5
470.243	451.5
470.462	452.5
470.681	455.5
470.901	441.5
471.12	444.5
471.339	453.5
471.558	458.5
471.777	445.5
471.997	438.5
472.216	457.5
472.435	454.5
472.654	449.5
472.873	439.5
473.092	436.5
473.311	426.5
473.53	444.5
473.749	434.5
473.968	466.5
474.187	537.5
474.406	558.5
474.625	473.5
474.844	441.5
475.063	459.5
475.282	428.5
475.501	463.5
475.72	444.5
475.939	456.5
476.158	455.5
476.377	456.5
476.596	447.5
476.814	469.5
477.033	447.5
477.252	468.5
477.471	468.5
477.69	477.5
477.908	486.5
478.127	486.5
478.346	490.5
478.564	504.5
478.783	503.5
479.002	497.5
479.22	537.5
479.439	534.5
479.658	510.5
479.876	533.5
480.095	537.5
480.313	544.5
480.532	556.5
480.751	539.5
480.969	545.5
481.188	561.5
481.406	573.5
481.624	531.5
481.843	526.5
482.061	516.5
482.28	508.5
482.498	505.5
482.717	496.5
482.935	512.5
483.153	521.5
483.372	511.5
483.59	506.5
483.808	493.5
484.027	524.5
484.245	518.5
484.463	520.5
484.681	518.5
484.9	524.5
485.118	506.5
485.336	527.5
485.554	524.5
485.772	547.5
485.99	541.5
486.209	522.5
486.427	519.5
486.645	542.5
486.863	561.5
487.081	550.5
487.299	530.5
487.517	552.5
487.735	525.5
487.953	564.5
488.171	547.5
488.389	531.5
488.607	546.5
488.825	558.5
489.043	575.5
489.261	549.5
489.479	546.5
489.696	553.5
489.914	559.5
490.132	583.5
490.35	564.5
490.568	559.5
490.786	585.5
491.003	561.5
491.221	588.5
491.439	585.5
491.657	604.5
491.874	590.5
492.092	608.5
492.31	605.5
492.527	604.5
492.745	623.5
492.963	626.5
493.18	623.5
493.398	629.5
493.615	645.5
493.833	611.5
494.05	628.5
494.268	638.5
494.485	620.5
494.703	641.5
494.92	649.5
495.138	613.5
495.355	643.5
495.573	653.5
495.79	616.5
496.008	640.5
496.225	653.5
496.442	637.5
496.66	647.5
496.877	635.5
497.094	650.5
497.312	672.5
497.529	667.5
497.746	672.5
497.963	679.5
498.181	691.5
498.398	697.5
498.615	725.5
498.832	717.5
499.049	788.5
499.267	798.5
499.484	831.5
499.701	892.5
499.918	927.5
500.135	975.5
500.352	1057.5
500.569	1065.5
500.786	1051.5
501.003	1040.5
501.22	1005.5
501.437	933.5
501.654	889.5
501.871	861.5
502.088	830.5
502.305	817.5
502.522	752.5
502.739	741.5
502.956	712.5
503.172	709.5
503.389	691.5
503.606	683.5
503.823	657.5
504.04	651.5
504.256	663.5
504.473	679.5
504.69	681.5
504.907	645.5
505.123	634.5
505.34	621.5
505.557	622.5
505.773	614.5
505.99	616.5
506.207	588.5
506.423	596.5
506.64	604.5
506.856	568.5
507.073	596.5
507.289	592.5
507.506	583.5
507.722	591.5
507.939	601.5
508.155	580.5
508.372	567.5
508.588	565.5
508.805	555.5
509.021	545.5
509.238	582.5
509.454	579.5
509.67	569.5
509.887	569.5
510.103	542.5
510.319	549.5
510.536	575.5
510.752	795.5
510.968	685.5
511.184	554.5
511.401	543.5
511.617	537.5
511.833	546.5
512.049	535.5
512.265	517.5
512.481	529.5
512.698	521.5
512.914	529.5
513.13	518.5
513.346	517.5
513.562	514.5
513.778	516.5
513.994	529.5
514.21	533.5
514.426	541.5
514.642	556.5
514.858	577.5
515.074	575.5
515.29	638.5
515.506	779.5
515.721	701.5
515.937	593.5
516.153	570.5
516.369	564.5
516.585	557.5
516.801	559.5
517.016	580.5
517.232	560.5
517.448	580.5
517.664	574.5
517.879	597.5
518.095	560.5
518.311	563.5
518.527	542.5
518.742	559.5
518.958	540.5
519.173	552.5
519.389	531.5
519.605	536.5
519.82	514.5
