Data from 1976.PennyLincolnUp.Lamp.En5.5.200Scan.071719.P1.Changed Mount._HRD10591_16-00-43-860.txt Node
Date: Thu Jul 18 16:00:43 EDT 2019
User: cochatt
Spectrometer: HR+D1059
Trigger mode: 1
Integration Time (sec): 1.000000E-1
Scans to average: 1
Electric dark correction enabled: true
Nonlinearity correction enabled: false
Boxcar width: 0
XAxis mode: Wavelengths
Number of Pixels in Spectrum: 2048
>>>>>Begin Spectral Data<<<<<
223.165	-8.88
223.4	-8.88
223.635	-8.88
223.869	-2.88
224.104	-16.88
224.338	-18.88
224.573	-11.88
224.808	-19.88
225.042	-2.88
225.277	-9.88
225.511	-13.88
225.746	8.12
225.98	15.12
226.215	8.12
226.449	14.12
226.683	19.12
226.918	5.12
227.152	36.12
227.387	27.12
227.621	33.12
227.856	42.12
228.09	50.12
228.324	57.12
228.559	53.12
228.793	66.12
229.027	87.12
229.262	84.12
229.496	111.12
229.73	117.12
229.964	137.12
230.199	133.12
230.433	116.12
230.667	114.12
230.901	105.12
231.136	96.12
231.37	110.12
231.604	93.12
231.838	105.12
232.072	102.12
232.306	117.12
232.541	117.12
232.775	135.12
233.009	110.12
233.243	112.12
233.477	104.12
233.711	113.12
233.945	114.12
234.179	110.12
234.413	125.12
234.647	115.12
234.881	98.12
235.115	126.12
235.349	103.12
235.583	106.12
235.817	115.12
236.051	135.12
236.285	133.12
236.519	120.12
236.753	112.12
236.987	139.12
237.221	169.12
237.455	214.12
237.689	177.12
237.922	142.12
238.156	131.12
238.39	125.12
238.624	127.12
238.858	138.12
239.091	103.12
239.325	133.12
239.559	115.12
239.793	129.12
240.027	143.12
240.26	145.12
240.494	147.12
240.728	147.12
240.961	142.12
241.195	143.12
241.429	138.12
241.662	131.12
241.896	131.12
242.13	121.12
242.363	135.12
242.597	147.12
242.83	147.12
243.064	119.12
243.298	137.12
243.531	134.12
243.765	141.12
243.998	147.12
244.232	145.12
244.465	143.12
244.699	149.12
244.932	142.12
245.166	146.12
245.399	141.12
245.633	153.12
245.866	139.12
246.099	147.12
246.333	167.12
246.566	138.12
246.8	151.12
247.033	157.12
247.266	166.12
247.5	158.12
247.733	167.12
247.966	185.12
248.2	171.12
248.433	171.12
248.666	187.12
248.899	181.12
249.133	206.12
249.366	195.12
249.599	199.12
249.832	169.12
250.066	180.12
250.299	200.12
250.532	185.12
250.765	197.12
250.998	214.12
251.231	227.12
251.465	207.12
251.698	199.12
251.931	203.12
252.164	198.12
252.397	203.12
252.63	185.12
252.863	194.12
253.096	210.12
253.329	221.12
253.562	227.12
253.795	224.12
254.028	216.12
254.261	218.12
254.494	235.12
254.727	257.12
254.96	256.12
255.193	274.12
255.426	233.12
255.659	231.12
255.892	226.12
256.124	220.12
256.357	235.12
256.59	204.12
256.823	209.12
257.056	217.12
257.289	215.12
257.521	200.12
257.754	220.12
257.987	216.12
258.22	215.12
258.452	212.12
258.685	218.12
258.918	215.12
259.151	217.12
259.383	223.12
259.616	224.12
259.849	210.12
260.081	246.12
260.314	268.12
260.547	252.12
260.779	257.12
261.012	228.12
261.244	227.12
261.477	229.12
261.71	231.12
261.942	230.12
262.175	242.12
262.407	213.12
262.64	223.12
262.872	202.12
263.105	223.12
263.337	213.12
263.57	222.12
263.802	211.12
264.035	234.12
264.267	218.12
264.499	220.12
264.732	222.12
264.964	205.12
265.197	223.12
265.429	200.12
265.661	215.12
265.894	227.12
266.126	217.12
266.358	227.12
266.591	235.12
266.823	251.12
267.055	234.12
267.287	240.12
267.52	232.12
267.752	226.12
267.984	230.12
268.216	250.12
268.448	261.12
268.681	231.12
268.913	253.12
269.145	267.12
269.377	297.12
269.609	285.12
269.841	287.12
270.073	282.12
270.306	297.12
270.538	317.12
270.77	302.12
271.002	318.12
271.234	289.12
271.466	325.12
271.698	322.12
271.93	337.12
272.162	303.12
272.394	307.12
272.626	322.12
272.858	309.12
273.09	289.12
273.322	284.12
273.553	288.12
273.785	278.12
274.017	262.12
274.249	278.12
274.481	273.12
274.713	276.12
274.945	289.12
275.176	283.12
275.408	294.12
275.64	270.12
275.872	285.12
276.104	280.12
276.335	265.12
276.567	293.12
276.799	294.12
277.031	293.12
277.262	318.12
277.494	337.12
277.726	316.12
277.957	298.12
278.189	305.12
278.421	278.12
278.652	285.12
278.884	280.12
279.115	293.12
279.347	283.12
279.579	303.12
279.81	277.12
280.042	277.12
280.273	278.12
280.505	306.12
280.736	277.12
280.968	293.12
281.199	286.12
281.431	298.12
281.662	272.12
281.894	275.12
282.125	270.12
282.356	297.12
282.588	305.12
282.819	330.12
283.051	309.12
283.282	290.12
283.513	286.12
283.745	289.12
283.976	307.12
284.207	298.12
284.439	289.12
284.67	293.12
284.901	315.12
285.132	297.12
285.364	298.12
285.595	310.12
285.826	323.12
286.057	301.12
286.288	317.12
286.52	313.12
286.751	303.12
286.982	291.12
287.213	289.12
287.444	312.12
287.675	311.12
287.906	316.12
288.138	309.12
288.369	327.12
288.6	332.12
288.831	312.12
289.062	305.12
289.293	315.12
289.524	304.12
289.755	317.12
289.986	317.12
290.217	293.12
290.448	294.12
290.679	282.12
290.91	306.12
291.141	303.12
291.371	301.12
291.602	299.12
291.833	294.12
292.064	304.12
292.295	305.12
292.526	305.12
292.757	314.12
292.987	305.12
293.218	304.12
293.449	313.12
293.68	327.12
293.91	322.12
294.141	309.12
294.372	319.12
294.603	307.12
294.833	317.12
295.064	314.12
295.295	322.12
295.525	311.12
295.756	312.12
295.987	328.12
296.217	349.12
296.448	344.12
296.679	335.12
296.909	325.12
297.14	329.12
297.37	330.12
297.601	324.12
297.831	323.12
298.062	333.12
298.292	313.12
298.523	334.12
298.753	331.12
298.984	329.12
299.214	331.12
299.445	330.12
299.675	337.12
299.905	350.12
300.136	334.12
300.366	341.12
300.597	327.12
300.827	326.12
301.057	328.12
301.288	353.12
301.518	342.12
301.748	355.12
301.979	341.12
302.209	330.12
302.439	373.12
302.669	358.12
302.9	345.12
303.13	358.12
303.36	337.12
303.59	329.12
303.82	362.12
304.051	358.12
304.281	357.12
304.511	352.12
304.741	343.12
304.971	334.12
305.201	343.12
305.431	354.12
305.661	362.12
305.891	339.12
306.121	353.12
306.352	362.12
306.582	358.12
306.812	343.12
307.042	344.12
307.272	358.12
307.502	330.12
307.731	343.12
307.961	328.12
308.191	361.12
308.421	352.12
308.651	362.12
308.881	353.12
309.111	364.12
309.341	353.12
309.571	361.12
309.8	370.12
310.03	371.12
310.26	387.12
310.49	392.12
310.72	390.12
310.949	389.12
311.179	393.12
311.409	387.12
311.639	385.12
311.868	377.12
312.098	393.12
312.328	392.12
312.557	421.12
312.787	419.12
313.017	409.12
313.246	425.12
313.476	398.12
313.706	375.12
313.935	389.12
314.165	405.12
314.394	416.12
314.624	403.12
314.853	397.12
315.083	406.12
315.312	381.12
315.542	401.12
315.771	368.12
316.001	400.12
316.23	395.12
316.46	391.12
316.689	411.12
316.919	397.12
317.148	389.12
317.377	394.12
317.607	406.12
317.836	374.12
318.065	401.12
318.295	393.12
318.524	393.12
318.753	398.12
318.983	383.12
319.212	391.12
319.441	399.12
319.67	415.12
319.9	407.12
320.129	403.12
320.358	410.12
320.587	416.12
320.816	399.12
321.046	406.12
321.275	403.12
321.504	408.12
321.733	401.12
321.962	416.12
322.191	442.12
322.42	434.12
322.649	442.12
322.878	437.12
323.108	458.12
323.337	462.12
323.566	473.12
323.795	507.12
324.024	535.12
324.253	631.12
324.482	877.12
324.71	1274.12
324.939	1892.12
325.168	1652.12
325.397	838.12
325.626	584.12
325.855	533.12
326.084	487.12
326.313	477.12
326.542	484.12
326.77	535.12
326.999	613.12
327.228	793.12
327.457	1164.12
327.686	1447.12
327.914	941.12
328.143	651.12
328.372	577.12
328.6	560.12
328.829	538.12
329.058	548.12
329.287	565.12
329.515	525.12
329.744	517.12
329.972	480.12
330.201	511.12
330.43	561.12
330.658	551.12
330.887	580.12
331.115	568.12
331.344	514.12
331.572	489.12
331.801	485.12
332.03	482.12
332.258	469.12
332.486	493.12
332.715	509.12
332.943	471.12
333.172	486.12
333.4	494.12
333.629	473.12
333.857	509.12
334.085	540.12
334.314	522.12
334.542	549.12
334.771	561.12
334.999	542.12
335.227	500.12
335.455	494.12
335.684	473.12
335.912	487.12
336.14	465.12
336.369	472.12
336.597	479.12
336.825	466.12
337.053	472.12
337.281	474.12
337.51	482.12
337.738	462.12
337.966	469.12
338.194	466.12
338.422	474.12
338.65	474.12
338.878	453.12
339.106	421.12
339.334	468.12
339.562	456.12
339.79	460.12
340.018	469.12
340.246	437.12
340.474	438.12
340.702	463.12
340.93	417.12
341.158	447.12
341.386	457.12
341.614	431.12
341.842	450.12
342.07	443.12
342.298	431.12
342.526	452.12
342.754	446.12
342.981	435.12
343.209	422.12
343.437	442.12
343.665	445.12
343.893	480.12
344.12	479.12
344.348	460.12
344.576	442.12
344.804	459.12
345.031	470.12
345.259	473.12
345.487	458.12
345.714	454.12
345.942	450.12
346.17	428.12
346.397	429.12
346.625	428.12
346.853	429.12
347.08	435.12
347.308	423.12
347.535	447.12
347.763	451.12
347.99	453.12
348.218	418.12
348.445	441.12
348.673	421.12
348.9	458.12
349.128	438.12
349.355	419.12
349.583	441.12
349.81	424.12
350.037	419.12
350.265	389.12
350.492	424.12
350.72	394.12
350.947	438.12
351.174	441.12
351.402	444.12
351.629	443.12
351.856	424.12
352.083	422.12
352.311	421.12
352.538	423.12
352.765	442.12
352.992	432.12
353.22	425.12
353.447	434.12
353.674	438.12
353.901	435.12
354.128	425.12
354.355	401.12
354.583	404.12
354.81	409.12
355.037	402.12
355.264	413.12
355.491	411.12
355.718	401.12
355.945	386.12
356.172	395.12
356.399	389.12
356.626	395.12
356.853	423.12
357.08	385.12
357.307	411.12
357.534	413.12
357.761	398.12
357.988	411.12
358.215	406.12
358.441	376.12
358.668	415.12
358.895	425.12
359.122	416.12
359.349	423.12
359.576	414.12
359.802	452.12
360.029	472.12
360.256	475.12
360.483	472.12
360.709	425.12
360.936	431.12
361.163	436.12
361.39	430.12
361.616	419.12
361.843	434.12
362.07	429.12
362.296	416.12
362.523	408.12
362.749	443.12
362.976	425.12
363.203	431.12
363.429	399.12
363.656	403.12
363.882	405.12
364.109	406.12
364.335	404.12
364.562	406.12
364.788	429.12
365.015	416.12
365.241	410.12
365.468	412.12
365.694	417.12
365.92	414.12
366.147	403.12
366.373	436.12
366.599	417.12
366.826	401.12
367.052	383.12
367.278	422.12
367.505	431.12
367.731	422.12
367.957	416.12
368.184	425.12
368.41	413.12
368.636	414.12
368.862	446.12
369.089	437.12
369.315	412.12
369.541	412.12
369.767	421.12
369.993	410.12
370.219	391.12
370.445	418.12
370.672	419.12
370.898	423.12
371.124	421.12
371.35	418.12
371.576	433.12
371.802	421.12
372.028	407.12
372.254	427.12
372.48	424.12
372.706	420.12
372.932	442.12
373.158	434.12
373.384	444.12
373.61	445.12
373.835	437.12
374.061	406.12
374.287	438.12
374.513	426.12
374.739	442.12
374.965	429.12
375.191	437.12
375.416	433.12
375.642	434.12
375.868	429.12
376.094	429.12
376.319	433.12
376.545	426.12
376.771	441.12
376.997	425.12
377.222	407.12
377.448	413.12
377.674	413.12
377.899	422.12
378.125	425.12
378.35	420.12
378.576	412.12
378.802	443.12
379.027	421.12
379.253	424.12
379.478	404.12
379.704	437.12
379.929	417.12
380.155	420.12
380.38	424.12
380.606	432.12
380.831	413.12
381.057	426.12
381.282	416.12
381.507	431.12
381.733	415.12
381.958	428.12
382.184	417.12
382.409	446.12
382.634	436.12
382.86	451.12
383.085	431.12
383.31	448.12
383.535	433.12
383.761	454.12
383.986	434.12
384.211	445.12
384.436	469.12
384.662	455.12
384.887	465.12
385.112	490.12
385.337	465.12
385.562	466.12
385.787	480.12
386.013	473.12
386.238	479.12
386.463	465.12
386.688	488.12
386.913	474.12
387.138	497.12
387.363	471.12
387.588	459.12
387.813	477.12
388.038	461.12
388.263	475.12
388.488	478.12
388.713	439.12
388.938	469.12
389.163	495.12
389.387	473.12
389.612	475.12
389.837	474.12
390.062	460.12
390.287	462.12
390.512	458.12
390.736	469.12
390.961	482.12
391.186	489.12
391.411	455.12
391.636	470.12
391.86	484.12
392.085	494.12
392.31	481.12
392.534	491.12
392.759	505.12
392.984	482.12
393.208	480.12
393.433	485.12
393.658	480.12
393.882	475.12
394.107	457.12
394.331	461.12
394.556	471.12
394.78	479.12
395.005	495.12
395.229	468.12
395.454	484.12
395.678	494.12
395.903	529.12
396.127	511.12
396.352	519.12
396.576	504.12
396.801	494.12
397.025	506.12
397.249	486.12
397.474	506.12
397.698	499.12
397.922	516.12
398.147	535.12
398.371	542.12
398.595	518.12
398.82	534.12
399.044	559.12
399.268	575.12
399.492	615.12
399.717	673.12
399.941	706.12
400.165	700.12
400.389	697.12
400.613	608.12
400.837	583.12
401.062	581.12
401.286	576.12
401.51	553.12
401.734	546.12
401.958	545.12
402.182	568.12
402.406	575.12
402.63	582.12
402.854	560.12
403.078	569.12
403.302	568.12
403.526	559.12
403.75	600.12
403.974	586.12
404.198	564.12
404.422	571.12
404.645	558.12
404.869	573.12
405.093	613.12
405.317	639.12
405.541	682.12
405.765	641.12
405.988	633.12
406.212	595.12
406.436	617.12
406.66	641.12
406.883	625.12
407.107	655.12
407.331	715.12
407.555	767.12
407.778	751.12
408.002	699.12
408.226	637.12
408.449	645.12
408.673	628.12
408.896	647.12
409.12	680.12
409.344	651.12
409.567	603.12
409.791	607.12
410.014	579.12
410.238	567.12
410.461	574.12
410.685	585.12
410.908	585.12
411.132	640.12
411.355	649.12
411.578	617.12
411.802	579.12
412.025	569.12
412.249	586.12
412.472	615.12
412.695	639.12
412.919	630.12
413.142	588.12
413.365	572.12
413.589	553.12
413.812	548.12
414.035	546.12
414.258	536.12
414.482	544.12
414.705	538.12
414.928	533.12
415.151	524.12
415.374	554.12
415.597	525.12
415.821	546.12
416.044	547.12
416.267	553.12
416.49	547.12
416.713	538.12
416.936	523.12
417.159	538.12
417.382	545.12
417.605	550.12
417.828	538.12
418.051	562.12
418.274	547.12
418.497	561.12
418.72	547.12
418.943	535.12
419.166	550.12
419.389	590.12
419.611	578.12
419.834	575.12
420.057	566.12
420.28	592.12
420.503	568.12
420.726	546.12
420.948	561.12
421.171	611.12
421.394	662.12
421.617	565.12
421.839	571.12
422.062	558.12
422.285	561.12
422.507	613.12
422.73	710.12
422.953	691.12
423.175	602.12
423.398	569.12
423.621	593.12
423.843	641.12
424.066	618.12
424.288	627.12
424.511	615.12
424.733	673.12
424.956	743.12
425.178	710.12
425.401	701.12
425.623	715.12
425.846	627.12
426.068	594.12
426.291	594.12
426.513	601.12
426.735	597.12
426.958	624.12
427.18	739.12
427.402	847.12
427.625	915.12
427.847	757.12
428.069	701.12
428.292	631.12
428.514	569.12
428.736	541.12
428.958	562.12
429.181	537.12
429.403	538.12
429.625	557.12
429.847	599.12
430.069	637.12
430.292	651.12
430.514	554.12
430.736	521.12
430.958	519.12
431.18	532.12
431.402	527.12
431.624	522.12
431.846	525.12
432.068	519.12
432.29	516.12
432.512	540.12
432.734	523.12
432.956	539.12
433.178	536.12
433.4	532.12
433.622	523.12
433.844	518.12
434.066	510.12
434.287	496.12
434.509	522.12
434.731	529.12
434.953	544.12
435.175	541.12
435.397	568.12
435.618	585.12
435.84	609.12
436.062	721.12
436.284	800.12
436.505	639.12
436.727	603.12
436.949	553.12
437.17	565.12
437.392	549.12
437.614	544.12
437.835	570.12
438.057	656.12
438.278	777.12
438.5	764.12
438.721	869.12
438.943	809.12
439.165	650.12
439.386	601.12
439.608	616.12
439.829	555.12
440.05	616.12
440.272	641.12
440.493	625.12
440.715	601.12
440.936	547.12
441.158	552.12
441.379	551.12
441.6	565.12
441.822	590.12
442.043	646.12
442.264	717.12
442.486	749.12
442.707	672.12
442.928	596.12
443.149	602.12
443.371	629.12
443.592	679.12
443.813	783.12
444.034	842.12
444.255	699.12
444.476	623.12
444.698	618.12
444.919	601.12
445.14	726.12
445.361	687.12
445.582	640.12
445.803	700.12
446.024	791.12
446.245	790.12
446.466	699.12
446.687	641.12
446.908	613.12
447.129	554.12
447.35	542.12
447.571	536.12
447.792	527.12
448.013	544.12
448.234	560.12
448.455	602.12
448.675	715.12
448.896	826.12
449.117	697.12
449.338	632.12
449.559	783.12
449.779	893.12
450	697.12
450.221	575.12
450.442	545.12
450.662	520.12
450.883	517.12
451.104	536.12
451.324	511.12
451.545	505.12
451.766	511.12
451.986	490.12
452.207	475.12
452.428	489.12
452.648	476.12
452.869	477.12
453.089	485.12
453.31	497.12
453.53	478.12
453.751	477.12
453.971	490.12
454.192	510.12
454.412	475.12
454.633	490.12
454.853	479.12
455.073	468.12
455.294	509.12
455.514	579.12
455.734	565.12
455.955	501.12
456.175	463.12
456.395	481.12
456.616	473.12
456.836	447.12
457.056	448.12
457.276	451.12
457.497	442.12
457.717	446.12
457.937	459.12
458.157	470.12
458.377	469.12
458.598	494.12
458.818	529.12
459.038	584.12
459.258	616.12
459.478	557.12
459.698	527.12
459.918	497.12
460.138	532.12
460.358	521.12
460.578	528.12
460.798	555.12
461.018	547.12
461.238	535.12
461.458	541.12
461.678	524.12
461.898	560.12
462.118	527.12
462.338	566.12
462.558	573.12
462.777	589.12
462.997	604.12
463.217	626.12
463.437	607.12
463.657	589.12
463.876	578.12
464.096	601.12
464.316	589.12
464.536	586.12
464.755	573.12
464.975	585.12
465.195	611.12
465.414	635.12
465.634	593.12
465.854	535.12
466.073	501.12
466.293	511.12
466.512	511.12
466.732	507.12
466.951	513.12
467.171	498.12
467.391	498.12
467.61	514.12
467.829	499.12
468.049	486.12
468.268	484.12
468.488	486.12
468.707	477.12
468.927	481.12
469.146	482.12
469.365	490.12
469.585	509.12
469.804	497.12
470.023	495.12
470.243	508.12
470.462	519.12
470.681	524.12
470.901	512.12
471.12	498.12
471.339	517.12
471.558	505.12
471.777	508.12
471.997	496.12
472.216	495.12
472.435	523.12
472.654	515.12
472.873	491.12
473.092	505.12
473.311	487.12
473.53	489.12
473.749	508.12
473.968	539.12
474.187	646.12
474.406	651.12
474.625	558.12
474.844	509.12
475.063	521.12
475.282	494.12
475.501	496.12
475.72	513.12
475.939	504.12
476.158	519.12
476.377	524.12
476.596	535.12
476.814	522.12
477.033	510.12
477.252	522.12
477.471	538.12
477.69	555.12
477.908	554.12
478.127	542.12
478.346	552.12
478.564	569.12
478.783	583.12
479.002	583.12
479.22	587.12
479.439	605.12
479.658	592.12
479.876	565.12
480.095	624.12
480.313	628.12
480.532	635.12
480.751	634.12
480.969	629.12
481.188	665.12
481.406	661.12
481.624	633.12
481.843	577.12
482.061	599.12
482.28	577.12
482.498	571.12
482.717	597.12
482.935	578.12
483.153	566.12
483.372	566.12
483.59	594.12
483.808	585.12
484.027	587.12
484.245	596.12
484.463	574.12
484.681	602.12
484.9	595.12
485.118	607.12
485.336	584.12
485.554	614.12
485.772	618.12
485.99	599.12
486.209	630.12
486.427	627.12
486.645	620.12
486.863	635.12
487.081	645.12
487.299	639.12
487.517	626.12
487.735	618.12
487.953	618.12
488.171	616.12
488.389	623.12
488.607	631.12
488.825	626.12
489.043	596.12
489.261	636.12
489.479	629.12
489.696	623.12
489.914	629.12
490.132	640.12
490.35	659.12
490.568	675.12
490.786	675.12
491.003	657.12
491.221	705.12
491.439	682.12
491.657	695.12
491.874	703.12
492.092	723.12
492.31	738.12
492.527	744.12
492.745	743.12
492.963	718.12
493.18	696.12
493.398	709.12
493.615	733.12
493.833	722.12
494.05	736.12
494.268	776.12
494.485	740.12
494.703	719.12
494.92	725.12
495.138	743.12
495.355	741.12
495.573	726.12
495.79	727.12
496.008	746.12
496.225	743.12
496.442	737.12
496.66	742.12
496.877	730.12
497.094	745.12
497.312	744.12
497.529	789.12
497.746	801.12
497.963	791.12
498.181	829.12
498.398	831.12
498.615	831.12
498.832	865.12
499.049	877.12
499.267	905.12
499.484	958.12
499.701	991.12
499.918	1042.12
500.135	1110.12
500.352	1183.12
500.569	1201.12
500.786	1206.12
501.003	1161.12
501.22	1152.12
501.437	1032.12
501.654	1027.12
