Data from 1976.PennyLincolnUp.Lamp.En5.5.200Scan.071719.P1.Changed Mount._HRD10591_16-00-16-861.txt Node
Date: Thu Jul 18 16:00:16 EDT 2019
User: cochatt
Spectrometer: HR+D1059
Trigger mode: 1
Integration Time (sec): 1.000000E-1
Scans to average: 1
Electric dark correction enabled: true
Nonlinearity correction enabled: false
Boxcar width: 0
XAxis mode: Wavelengths
Number of Pixels in Spectrum: 2048
>>>>>Begin Spectral Data<<<<<
223.165	-20.31
223.4	-20.31
223.635	-20.31
223.869	-12.31
224.104	-14.31
224.338	-19.31
224.573	-3.31
224.808	-20.31
225.042	-10.31
225.277	2.69
225.511	-2.31
225.746	-6.31
225.98	14.69
226.215	-0.31
226.449	18.69
226.683	17.69
226.918	25.69
227.152	29.69
227.387	42.69
227.621	42.69
227.856	41.69
228.09	22.69
228.324	46.69
228.559	64.69
228.793	59.69
229.027	89.69
229.262	105.69
229.496	114.69
229.73	117.69
229.964	141.69
230.199	129.69
230.433	93.69
230.667	98.69
230.901	113.69
231.136	120.69
231.37	117.69
231.604	121.69
231.838	101.69
232.072	116.69
232.306	109.69
232.541	117.69
232.775	113.69
233.009	126.69
233.243	117.69
233.477	122.69
233.711	125.69
233.945	113.69
234.179	117.69
234.413	115.69
234.647	117.69
234.881	115.69
235.115	123.69
235.349	123.69
235.583	114.69
235.817	129.69
236.051	121.69
236.285	146.69
236.519	114.69
236.753	139.69
236.987	153.69
237.221	172.69
237.455	197.69
237.689	167.69
237.922	129.69
238.156	131.69
238.39	122.69
238.624	120.69
238.858	122.69
239.091	117.69
239.325	125.69
239.559	134.69
239.793	132.69
240.027	134.69
240.26	144.69
240.494	158.69
240.728	140.69
240.961	149.69
241.195	132.69
241.429	141.69
241.662	136.69
241.896	138.69
242.13	133.69
242.363	121.69
242.597	118.69
242.83	148.69
243.064	136.69
243.298	149.69
243.531	147.69
243.765	146.69
243.998	148.69
244.232	156.69
244.465	147.69
244.699	133.69
244.932	147.69
245.166	148.69
245.399	123.69
245.633	155.69
245.866	151.69
246.099	147.69
246.333	145.69
246.566	177.69
246.8	158.69
247.033	157.69
247.266	161.69
247.5	155.69
247.733	172.69
247.966	168.69
248.2	168.69
248.433	165.69
248.666	171.69
248.899	187.69
249.133	188.69
249.366	206.69
249.599	201.69
249.832	179.69
250.066	173.69
250.299	170.69
250.532	179.69
250.765	188.69
250.998	216.69
251.231	224.69
251.465	205.69
251.698	215.69
251.931	195.69
252.164	199.69
252.397	192.69
252.63	189.69
252.863	215.69
253.096	206.69
253.329	230.69
253.562	214.69
253.795	220.69
254.028	228.69
254.261	206.69
254.494	236.69
254.727	249.69
254.96	272.69
255.193	266.69
255.426	251.69
255.659	243.69
255.892	226.69
256.124	233.69
256.357	243.69
256.59	213.69
256.823	222.69
257.056	196.69
257.289	202.69
257.521	218.69
257.754	206.69
257.987	204.69
258.22	214.69
258.452	202.69
258.685	219.69
258.918	213.69
259.151	231.69
259.383	220.69
259.616	216.69
259.849	223.69
260.081	242.69
260.314	237.69
260.547	246.69
260.779	253.69
261.012	233.69
261.244	225.69
261.477	226.69
261.71	213.69
261.942	225.69
262.175	228.69
262.407	219.69
262.64	227.69
262.872	206.69
263.105	216.69
263.337	193.69
263.57	220.69
263.802	204.69
264.035	208.69
264.267	226.69
264.499	199.69
264.732	217.69
264.964	229.69
265.197	218.69
265.429	234.69
265.661	216.69
265.894	220.69
266.126	215.69
266.358	235.69
266.591	226.69
266.823	227.69
267.055	229.69
267.287	231.69
267.52	238.69
267.752	233.69
267.984	225.69
268.216	222.69
268.448	231.69
268.681	246.69
268.913	268.69
269.145	247.69
269.377	267.69
269.609	289.69
269.841	281.69
270.073	270.69
270.306	293.69
270.538	303.69
270.77	309.69
271.002	308.69
271.234	290.69
271.466	301.69
271.698	305.69
271.93	325.69
272.162	313.69
272.394	300.69
272.626	284.69
272.858	299.69
273.09	275.69
273.322	279.69
273.553	284.69
273.785	276.69
274.017	265.69
274.249	276.69
274.481	277.69
274.713	269.69
274.945	278.69
275.176	266.69
275.408	257.69
275.64	280.69
275.872	275.69
276.104	257.69
276.335	269.69
276.567	268.69
276.799	270.69
277.031	302.69
277.262	320.69
277.494	312.69
277.726	311.69
277.957	277.69
278.189	300.69
278.421	278.69
278.652	275.69
278.884	267.69
279.115	286.69
279.347	262.69
279.579	286.69
279.81	290.69
280.042	277.69
280.273	277.69
280.505	290.69
280.736	284.69
280.968	285.69
281.199	284.69
281.431	285.69
281.662	266.69
281.894	276.69
282.125	281.69
282.356	293.69
282.588	283.69
282.819	304.69
283.051	301.69
283.282	277.69
283.513	281.69
283.745	291.69
283.976	295.69
284.207	309.69
284.439	287.69
284.67	287.69
284.901	282.69
285.132	296.69
285.364	282.69
285.595	286.69
285.826	299.69
286.057	286.69
286.288	285.69
286.52	296.69
286.751	291.69
286.982	277.69
287.213	282.69
287.444	284.69
287.675	295.69
287.906	315.69
288.138	323.69
288.369	325.69
288.6	328.69
288.831	313.69
289.062	298.69
289.293	301.69
289.524	294.69
289.755	306.69
289.986	313.69
290.217	290.69
290.448	297.69
290.679	305.69
290.91	293.69
291.141	287.69
291.371	285.69
291.602	308.69
291.833	293.69
292.064	279.69
292.295	272.69
292.526	285.69
292.757	308.69
292.987	299.69
293.218	306.69
293.449	287.69
293.68	296.69
293.91	309.69
294.141	309.69
294.372	296.69
294.603	295.69
294.833	316.69
295.064	309.69
295.295	293.69
295.525	310.69
295.756	298.69
295.987	313.69
296.217	329.69
296.448	338.69
296.679	339.69
296.909	320.69
297.14	320.69
297.37	317.69
297.601	321.69
297.831	300.69
298.062	314.69
298.292	318.69
298.523	301.69
298.753	315.69
298.984	321.69
299.214	333.69
299.445	315.69
299.675	325.69
299.905	321.69
300.136	310.69
300.366	340.69
300.597	328.69
300.827	335.69
301.057	331.69
301.288	340.69
301.518	341.69
301.748	319.69
301.979	331.69
302.209	352.69
302.439	323.69
302.669	346.69
302.9	336.69
303.13	346.69
303.36	352.69
303.59	330.69
303.82	354.69
304.051	340.69
304.281	330.69
304.511	340.69
304.741	350.69
304.971	334.69
305.201	346.69
305.431	338.69
305.661	327.69
305.891	341.69
306.121	331.69
306.352	342.69
306.582	343.69
306.812	339.69
307.042	333.69
307.272	345.69
307.502	338.69
307.731	339.69
307.961	347.69
308.191	349.69
308.421	338.69
308.651	337.69
308.881	325.69
309.111	350.69
309.341	332.69
309.571	346.69
309.8	355.69
310.03	359.69
310.26	367.69
310.49	379.69
310.72	369.69
310.949	391.69
311.179	404.69
311.409	392.69
311.639	381.69
311.868	373.69
312.098	382.69
312.328	377.69
312.557	380.69
312.787	407.69
313.017	396.69
313.246	409.69
313.476	383.69
313.706	378.69
313.935	411.69
314.165	407.69
314.394	377.69
314.624	371.69
314.853	390.69
315.083	396.69
315.312	388.69
315.542	387.69
315.771	388.69
316.001	392.69
316.23	379.69
316.46	366.69
316.689	369.69
316.919	371.69
317.148	392.69
317.377	381.69
317.607	391.69
317.836	391.69
318.065	375.69
318.295	375.69
318.524	357.69
318.753	369.69
318.983	370.69
319.212	387.69
319.441	395.69
319.67	402.69
319.9	381.69
320.129	379.69
320.358	390.69
320.587	405.69
320.816	395.69
321.046	383.69
321.275	404.69
321.504	401.69
321.733	413.69
321.962	412.69
322.191	399.69
322.42	420.69
322.649	410.69
322.878	437.69
323.108	426.69
323.337	456.69
323.566	462.69
323.795	476.69
324.024	514.69
324.253	600.69
324.482	817.69
324.71	1265.69
324.939	1805.69
325.168	1629.69
325.397	834.69
325.626	562.69
325.855	512.69
326.084	472.69
326.313	478.69
326.542	482.69
326.77	510.69
326.999	598.69
327.228	782.69
327.457	1118.69
327.686	1406.69
327.914	945.69
328.143	623.69
328.372	569.69
328.6	510.69
328.829	507.69
329.058	547.69
329.287	533.69
329.515	513.69
329.744	485.69
329.972	461.69
330.201	505.69
330.43	537.69
330.658	537.69
330.887	567.69
331.115	544.69
331.344	475.69
331.572	484.69
331.801	482.69
332.03	486.69
332.258	451.69
332.486	470.69
332.715	439.69
332.943	461.69
333.172	464.69
333.4	479.69
333.629	483.69
333.857	494.69
334.085	507.69
334.314	502.69
334.542	513.69
334.771	517.69
334.999	518.69
335.227	477.69
335.455	471.69
335.684	476.69
335.912	459.69
336.14	469.69
336.369	460.69
336.597	467.69
336.825	466.69
337.053	457.69
337.281	448.69
337.51	440.69
337.738	445.69
337.966	451.69
338.194	437.69
338.422	448.69
338.65	417.69
338.878	451.69
339.106	430.69
339.334	434.69
339.562	441.69
339.79	428.69
340.018	427.69
340.246	447.69
340.474	440.69
340.702	449.69
340.93	439.69
341.158	429.69
341.386	420.69
341.614	435.69
341.842	422.69
342.07	418.69
342.298	426.69
342.526	427.69
342.754	433.69
342.981	417.69
343.209	431.69
343.437	431.69
343.665	436.69
343.893	447.69
344.12	458.69
344.348	470.69
344.576	446.69
344.804	453.69
345.031	453.69
345.259	447.69
345.487	440.69
345.714	449.69
345.942	443.69
346.17	418.69
346.397	419.69
346.625	414.69
346.853	431.69
347.08	396.69
347.308	413.69
347.535	403.69
347.763	425.69
347.99	434.69
348.218	428.69
348.445	409.69
348.673	420.69
348.9	417.69
349.128	403.69
349.355	403.69
349.583	403.69
349.81	402.69
350.037	407.69
350.265	404.69
350.492	406.69
350.72	408.69
350.947	411.69
351.174	424.69
351.402	415.69
351.629	424.69
351.856	405.69
352.083	416.69
352.311	409.69
352.538	423.69
352.765	438.69
352.992	422.69
353.22	422.69
353.447	404.69
353.674	409.69
353.901	410.69
354.128	387.69
354.355	386.69
354.583	375.69
354.81	407.69
355.037	385.69
355.264	377.69
355.491	388.69
355.718	376.69
355.945	407.69
356.172	391.69
356.399	393.69
356.626	416.69
356.853	400.69
357.08	404.69
357.307	389.69
357.534	388.69
357.761	386.69
357.988	407.69
358.215	379.69
358.441	393.69
358.668	388.69
358.895	398.69
359.122	404.69
359.349	417.69
359.576	416.69
359.802	424.69
360.029	423.69
360.256	469.69
360.483	421.69
360.709	420.69
360.936	423.69
361.163	411.69
361.39	418.69
361.616	429.69
361.843	416.69
362.07	392.69
362.296	433.69
362.523	404.69
362.749	414.69
362.976	391.69
363.203	399.69
363.429	407.69
363.656	382.69
363.882	398.69
364.109	388.69
364.335	405.69
364.562	391.69
364.788	408.69
365.015	399.69
365.241	397.69
365.468	382.69
365.694	400.69
365.92	411.69
366.147	404.69
366.373	384.69
366.599	409.69
366.826	394.69
367.052	395.69
367.278	411.69
367.505	411.69
367.731	385.69
367.957	382.69
368.184	400.69
368.41	411.69
368.636	416.69
368.862	425.69
369.089	406.69
369.315	398.69
369.541	395.69
369.767	410.69
369.993	407.69
370.219	421.69
370.445	408.69
370.672	406.69
370.898	401.69
371.124	428.69
371.35	402.69
371.576	396.69
371.802	429.69
372.028	400.69
372.254	391.69
372.48	411.69
372.706	422.69
372.932	423.69
373.158	427.69
373.384	385.69
373.61	413.69
373.835	412.69
374.061	408.69
374.287	418.69
374.513	410.69
374.739	410.69
374.965	410.69
375.191	409.69
375.416	437.69
375.642	416.69
375.868	411.69
376.094	421.69
376.319	399.69
376.545	423.69
376.771	392.69
376.997	410.69
377.222	397.69
377.448	405.69
377.674	408.69
377.899	403.69
378.125	387.69
378.35	386.69
378.576	398.69
378.802	401.69
379.027	398.69
379.253	391.69
379.478	410.69
379.704	385.69
379.929	416.69
380.155	387.69
380.38	405.69
380.606	412.69
380.831	419.69
381.057	418.69
381.282	402.69
381.507	435.69
381.733	402.69
381.958	422.69
382.184	436.69
382.409	425.69
382.634	414.69
382.86	427.69
383.085	413.69
383.31	440.69
383.535	418.69
383.761	411.69
383.986	431.69
384.211	435.69
384.436	422.69
384.662	417.69
384.887	468.69
385.112	453.69
385.337	455.69
385.562	446.69
385.787	448.69
386.013	469.69
386.238	450.69
386.463	455.69
386.688	444.69
386.913	455.69
387.138	447.69
387.363	445.69
387.588	449.69
387.813	457.69
388.038	475.69
388.263	437.69
388.488	446.69
388.713	441.69
388.938	442.69
389.163	434.69
389.387	449.69
389.612	442.69
389.837	441.69
390.062	451.69
390.287	453.69
390.512	435.69
390.736	440.69
390.961	441.69
391.186	441.69
391.411	471.69
391.636	479.69
391.86	461.69
392.085	498.69
392.31	479.69
392.534	477.69
392.759	474.69
392.984	467.69
393.208	467.69
393.433	458.69
393.658	445.69
393.882	440.69
394.107	459.69
394.331	454.69
394.556	459.69
394.78	460.69
395.005	471.69
395.229	458.69
395.454	463.69
395.678	479.69
395.903	518.69
396.127	501.69
396.352	493.69
396.576	456.69
396.801	477.69
397.025	456.69
397.249	483.69
397.474	492.69
397.698	474.69
397.922	505.69
398.147	493.69
398.371	510.69
398.595	513.69
398.82	512.69
399.044	545.69
399.268	569.69
399.492	609.69
399.717	627.69
399.941	653.69
400.165	665.69
400.389	664.69
400.613	617.69
400.837	554.69
401.062	532.69
401.286	539.69
401.51	539.69
401.734	530.69
401.958	522.69
402.182	511.69
402.406	548.69
402.63	554.69
402.854	540.69
403.078	532.69
403.302	568.69
403.526	556.69
403.75	566.69
403.974	549.69
404.198	545.69
404.422	565.69
404.645	561.69
404.869	552.69
405.093	606.69
405.317	654.69
405.541	667.69
405.765	619.69
405.988	563.69
406.212	587.69
406.436	577.69
406.66	599.69
406.883	581.69
407.107	603.69
407.331	651.69
407.555	716.69
407.778	720.69
408.002	647.69
408.226	614.69
408.449	594.69
408.673	618.69
408.896	629.69
409.12	681.69
409.344	622.69
409.567	595.69
409.791	561.69
410.014	557.69
410.238	539.69
410.461	528.69
410.685	529.69
410.908	535.69
411.132	589.69
411.355	604.69
411.578	583.69
411.802	554.69
412.025	532.69
412.249	545.69
412.472	574.69
412.695	610.69
412.919	616.69
413.142	535.69
413.365	527.69
413.589	525.69
413.812	523.69
414.035	541.69
414.258	522.69
414.482	515.69
414.705	504.69
414.928	515.69
415.151	513.69
415.374	505.69
415.597	520.69
415.821	531.69
416.044	514.69
416.267	528.69
416.49	537.69
416.713	532.69
416.936	518.69
417.159	523.69
417.382	525.69
417.605	512.69
417.828	535.69
418.051	551.69
418.274	525.69
418.497	491.69
418.72	532.69
418.943	540.69
419.166	527.69
419.389	574.69
419.611	558.69
419.834	566.69
420.057	556.69
420.28	548.69
420.503	553.69
420.726	538.69
420.948	516.69
421.171	573.69
421.394	610.69
421.617	550.69
421.839	522.69
422.062	541.69
422.285	569.69
422.507	594.69
422.73	665.69
422.953	669.69
423.175	590.69
423.398	579.69
423.621	565.69
423.843	581.69
424.066	585.69
424.288	580.69
424.511	588.69
424.733	645.69
424.956	709.69
425.178	686.69
425.401	700.69
425.623	729.69
425.846	579.69
426.068	583.69
426.291	566.69
426.513	563.69
426.735	580.69
426.958	590.69
427.18	668.69
427.402	803.69
427.625	905.69
427.847	782.69
428.069	665.69
428.292	617.69
428.514	518.69
428.736	522.69
428.958	541.69
429.181	503.69
429.403	500.69
429.625	527.69
429.847	575.69
430.069	625.69
430.292	608.69
430.514	539.69
430.736	531.69
430.958	501.69
431.18	508.69
431.402	506.69
431.624	482.69
431.846	495.69
432.068	497.69
432.29	485.69
432.512	500.69
432.734	489.69
432.956	529.69
433.178	495.69
433.4	514.69
433.622	505.69
433.844	503.69
434.066	506.69
434.287	526.69
434.509	513.69
434.731	528.69
434.953	502.69
435.175	542.69
435.397	564.69
435.618	569.69
435.84	622.69
436.062	674.69
436.284	777.69
436.505	622.69
436.727	547.69
436.949	543.69
437.17	552.69
437.392	499.69
437.614	526.69
437.835	537.69
438.057	645.69
438.278	733.69
438.5	711.69
438.721	768.69
438.943	799.69
439.165	606.69
439.386	578.69
439.608	555.69
439.829	567.69
440.05	587.69
440.272	605.69
440.493	598.69
440.715	549.69
440.936	541.69
441.158	526.69
441.379	541.69
441.6	536.69
441.822	551.69
442.043	587.69
442.264	692.69
442.486	722.69
442.707	614.69
442.928	588.69
443.149	591.69
443.371	613.69
443.592	639.69
443.813	715.69
444.034	774.69
444.255	665.69
444.476	593.69
444.698	587.69
444.919	583.69
445.14	696.69
445.361	647.69
445.582	591.69
445.803	641.69
446.024	762.69
446.245	749.69
446.466	701.69
446.687	599.69
446.908	573.69
447.129	530.69
447.35	513.69
447.571	516.69
447.792	512.69
448.013	499.69
448.234	544.69
448.455	593.69
448.675	691.69
448.896	801.69
449.117	667.69
449.338	633.69
449.559	752.69
449.779	867.69
450	669.69
450.221	547.69
450.442	523.69
450.662	516.69
450.883	474.69
451.104	495.69
451.324	499.69
451.545	485.69
451.766	468.69
451.986	454.69
452.207	444.69
452.428	445.69
452.648	464.69
452.869	454.69
453.089	461.69
453.31	463.69
453.53	463.69
453.751	449.69
453.971	445.69
454.192	465.69
454.412	449.69
454.633	431.69
454.853	474.69
455.073	441.69
455.294	482.69
455.514	551.69
455.734	533.69
455.955	464.69
456.175	451.69
456.395	442.69
456.616	425.69
456.836	440.69
457.056	438.69
457.276	438.69
457.497	453.69
457.717	429.69
457.937	452.69
458.157	459.69
458.377	452.69
458.598	468.69
458.818	504.69
459.038	598.69
459.258	632.69
459.478	520.69
459.698	504.69
459.918	520.69
460.138	506.69
460.358	525.69
460.578	502.69
460.798	540.69
461.018	521.69
461.238	503.69
461.458	504.69
461.678	506.69
461.898	491.69
462.118	511.69
462.338	545.69
462.558	526.69
462.777	542.69
462.997	564.69
463.217	569.69
463.437	587.69
463.657	555.69
463.876	554.69
464.096	578.69
464.316	563.69
464.536	584.69
464.755	565.69
464.975	568.69
465.195	586.69
465.414	594.69
465.634	551.69
465.854	535.69
466.073	504.69
466.293	477.69
466.512	491.69
466.732	479.69
466.951	493.69
467.171	481.69
467.391	484.69
467.61	461.69
467.829	481.69
468.049	465.69
468.268	455.69
468.488	473.69
468.707	463.69
468.927	457.69
469.146	447.69
469.365	466.69
469.585	465.69
469.804	472.69
470.023	481.69
470.243	449.69
470.462	479.69
470.681	497.69
470.901	500.69
471.12	491.69
471.339	473.69
471.558	479.69
471.777	494.69
471.997	458.69
472.216	470.69
472.435	514.69
472.654	514.69
472.873	464.69
473.092	474.69
473.311	455.69
473.53	469.69
473.749	485.69
473.968	514.69
474.187	589.69
474.406	611.69
474.625	522.69
474.844	482.69
475.063	490.69
475.282	497.69
475.501	464.69
475.72	489.69
475.939	485.69
476.158	473.69
476.377	487.69
476.596	492.69
476.814	490.69
477.033	518.69
477.252	496.69
477.471	513.69
477.69	517.69
477.908	527.69
478.127	533.69
478.346	550.69
478.564	563.69
478.783	542.69
479.002	545.69
479.22	561.69
479.439	588.69
479.658	603.69
479.876	579.69
480.095	586.69
480.313	607.69
480.532	624.69
480.751	606.69
480.969	610.69
481.188	638.69
481.406	635.69
481.624	595.69
481.843	574.69
482.061	568.69
482.28	562.69
482.498	554.69
482.717	563.69
482.935	569.69
483.153	553.69
483.372	561.69
483.59	577.69
483.808	546.69
484.027	557.69
484.245	558.69
484.463	549.69
484.681	574.69
484.9	589.69
485.118	584.69
485.336	573.69
485.554	552.69
485.772	573.69
485.99	591.69
486.209	567.69
486.427	589.69
486.645	606.69
486.863	584.69
487.081	590.69
487.299	580.69
487.517	613.69
487.735	606.69
487.953	579.69
488.171	601.69
488.389	605.69
488.607	610.69
488.825	612.69
489.043	603.69
489.261	603.69
489.479	603.69
489.696	610.69
489.914	609.69
490.132	617.69
490.35	612.69
490.568	612.69
490.786	647.69
491.003	647.69
491.221	669.69
491.439	682.69
491.657	679.69
491.874	694.69
492.092	707.69
492.31	677.69
492.527	705.69
492.745	689.69
492.963	706.69
493.18	692.69
493.398	686.69
493.615	704.69
493.833	698.69
494.05	699.69
494.268	703.69
494.485	714.69
494.703	712.69
494.92	705.69
495.138	675.69
495.355	700.69
495.573	709.69
495.79	700.69
496.008	717.69
496.225	709.69
496.442	706.69
496.66	717.69
496.877	714.69
497.094	729.69
497.312	715.69
497.529	759.69
497.746	743.69
497.963	734.69
498.181	750.69
498.398	794.69
498.615	797.69
498.832	846.69
499.049	839.69
499.267	861.69
499.484	933.69
499.701	952.69
499.918	1013.69
500.135	1034.69
500.352	1112.69
500.569	1132.69
500.786	1143.69
501.003	1149.69
501.22	1063.69
501.437	991.69
501.654	969.69
