Data from 1976.PennyLincolnUp.Lamp.En5.5.200Scan.071719.P1.Changed Mount._HRD10591_16-00-23-861.txt Node
Date: Thu Jul 18 16:00:23 EDT 2019
User: cochatt
Spectrometer: HR+D1059
Trigger mode: 1
Integration Time (sec): 1.000000E-1
Scans to average: 1
Electric dark correction enabled: true
Nonlinearity correction enabled: false
Boxcar width: 0
XAxis mode: Wavelengths
Number of Pixels in Spectrum: 2048
>>>>>Begin Spectral Data<<<<<
223.165	-26.38
223.4	-26.38
223.635	-26.38
223.869	0.62
224.104	-32.38
224.338	-18.38
224.573	-16.38
224.808	-21.38
225.042	3.62
225.277	7.62
225.511	-11.38
225.746	13.62
225.98	2.62
226.215	8.62
226.449	21.62
226.683	19.62
226.918	18.62
227.152	29.62
227.387	45.62
227.621	38.62
227.856	39.62
228.09	47.62
228.324	39.62
228.559	57.62
228.793	68.62
229.027	80.62
229.262	101.62
229.496	102.62
229.73	122.62
229.964	155.62
230.199	140.62
230.433	114.62
230.667	106.62
230.901	99.62
231.136	99.62
231.37	111.62
231.604	108.62
231.838	105.62
232.072	112.62
232.306	118.62
232.541	107.62
232.775	103.62
233.009	112.62
233.243	111.62
233.477	105.62
233.711	107.62
233.945	107.62
234.179	124.62
234.413	121.62
234.647	127.62
234.881	116.62
235.115	114.62
235.349	115.62
235.583	126.62
235.817	125.62
236.051	125.62
236.285	146.62
236.519	135.62
236.753	123.62
236.987	140.62
237.221	190.62
237.455	220.62
237.689	165.62
237.922	121.62
238.156	117.62
238.39	133.62
238.624	128.62
238.858	127.62
239.091	126.62
239.325	123.62
239.559	114.62
239.793	124.62
240.027	128.62
240.26	136.62
240.494	155.62
240.728	145.62
240.961	137.62
241.195	157.62
241.429	127.62
241.662	129.62
241.896	131.62
242.13	135.62
242.363	137.62
242.597	126.62
242.83	154.62
243.064	127.62
243.298	136.62
243.531	148.62
243.765	147.62
243.998	126.62
244.232	125.62
244.465	131.62
244.699	145.62
244.932	139.62
245.166	141.62
245.399	148.62
245.633	148.62
245.866	150.62
246.099	137.62
246.333	147.62
246.566	157.62
246.8	140.62
247.033	142.62
247.266	153.62
247.5	157.62
247.733	171.62
247.966	162.62
248.2	171.62
248.433	160.62
248.666	179.62
248.899	179.62
249.133	209.62
249.366	201.62
249.599	199.62
249.832	171.62
250.066	175.62
250.299	174.62
250.532	193.62
250.765	201.62
250.998	210.62
251.231	214.62
251.465	200.62
251.698	209.62
251.931	208.62
252.164	191.62
252.397	209.62
252.63	197.62
252.863	197.62
253.096	214.62
253.329	219.62
253.562	230.62
253.795	222.62
254.028	212.62
254.261	220.62
254.494	218.62
254.727	256.62
254.96	255.62
255.193	242.62
255.426	236.62
255.659	221.62
255.892	224.62
256.124	225.62
256.357	235.62
256.59	225.62
256.823	221.62
257.056	202.62
257.289	206.62
257.521	206.62
257.754	211.62
257.987	212.62
258.22	218.62
258.452	196.62
258.685	203.62
258.918	217.62
259.151	200.62
259.383	226.62
259.616	219.62
259.849	233.62
260.081	234.62
260.314	241.62
260.547	262.62
260.779	259.62
261.012	236.62
261.244	219.62
261.477	219.62
261.71	232.62
261.942	216.62
262.175	209.62
262.407	233.62
262.64	216.62
262.872	213.62
263.105	213.62
263.337	218.62
263.57	224.62
263.802	205.62
264.035	231.62
264.267	221.62
264.499	221.62
264.732	223.62
264.964	214.62
265.197	226.62
265.429	231.62
265.661	228.62
265.894	211.62
266.126	218.62
266.358	217.62
266.591	200.62
266.823	232.62
267.055	225.62
267.287	207.62
267.52	239.62
267.752	233.62
267.984	234.62
268.216	224.62
268.448	244.62
268.681	242.62
268.913	234.62
269.145	273.62
269.377	269.62
269.609	267.62
269.841	271.62
270.073	255.62
270.306	287.62
270.538	311.62
270.77	316.62
271.002	303.62
271.234	291.62
271.466	290.62
271.698	303.62
271.93	316.62
272.162	312.62
272.394	310.62
272.626	307.62
272.858	288.62
273.09	263.62
273.322	282.62
273.553	280.62
273.785	258.62
274.017	272.62
274.249	275.62
274.481	276.62
274.713	267.62
274.945	263.62
275.176	262.62
275.408	270.62
275.64	262.62
275.872	247.62
276.104	286.62
276.335	274.62
276.567	256.62
276.799	286.62
277.031	309.62
277.262	315.62
277.494	309.62
277.726	290.62
277.957	281.62
278.189	273.62
278.421	282.62
278.652	282.62
278.884	266.62
279.115	267.62
279.347	267.62
279.579	267.62
279.81	276.62
280.042	284.62
280.273	263.62
280.505	276.62
280.736	270.62
280.968	289.62
281.199	298.62
281.431	283.62
281.662	270.62
281.894	282.62
282.125	273.62
282.356	284.62
282.588	293.62
282.819	307.62
283.051	288.62
283.282	277.62
283.513	308.62
283.745	288.62
283.976	291.62
284.207	305.62
284.439	301.62
284.67	285.62
284.901	294.62
285.132	303.62
285.364	298.62
285.595	285.62
285.826	290.62
286.057	297.62
286.288	303.62
286.52	292.62
286.751	283.62
286.982	293.62
287.213	309.62
287.444	319.62
287.675	303.62
287.906	308.62
288.138	326.62
288.369	317.62
288.6	300.62
288.831	301.62
289.062	299.62
289.293	293.62
289.524	313.62
289.755	300.62
289.986	288.62
290.217	288.62
290.448	297.62
290.679	308.62
290.91	289.62
291.141	306.62
291.371	305.62
291.602	308.62
291.833	311.62
292.064	313.62
292.295	312.62
292.526	305.62
292.757	285.62
292.987	300.62
293.218	309.62
293.449	327.62
293.68	312.62
293.91	294.62
294.141	308.62
294.372	300.62
294.603	305.62
294.833	312.62
295.064	322.62
295.295	323.62
295.525	308.62
295.756	305.62
295.987	311.62
296.217	316.62
296.448	338.62
296.679	298.62
296.909	303.62
297.14	292.62
297.37	296.62
297.601	326.62
297.831	331.62
298.062	324.62
298.292	315.62
298.523	314.62
298.753	315.62
298.984	320.62
299.214	319.62
299.445	344.62
299.675	338.62
299.905	327.62
300.136	322.62
300.366	291.62
300.597	321.62
300.827	339.62
301.057	350.62
301.288	336.62
301.518	339.62
301.748	345.62
301.979	345.62
302.209	335.62
302.439	340.62
302.669	343.62
302.9	348.62
303.13	332.62
303.36	347.62
303.59	336.62
303.82	360.62
304.051	348.62
304.281	322.62
304.511	340.62
304.741	344.62
304.971	362.62
305.201	331.62
305.431	337.62
305.661	345.62
305.891	328.62
306.121	348.62
306.352	345.62
306.582	360.62
306.812	332.62
307.042	335.62
307.272	332.62
307.502	322.62
307.731	342.62
307.961	345.62
308.191	340.62
308.421	335.62
308.651	342.62
308.881	354.62
309.111	357.62
309.341	329.62
309.571	352.62
309.8	351.62
310.03	347.62
310.26	373.62
310.49	376.62
310.72	382.62
310.949	391.62
311.179	407.62
311.409	381.62
311.639	372.62
311.868	392.62
312.098	374.62
312.328	380.62
312.557	393.62
312.787	403.62
313.017	407.62
313.246	383.62
313.476	399.62
313.706	374.62
313.935	375.62
314.165	384.62
314.394	403.62
314.624	385.62
314.853	383.62
315.083	392.62
315.312	381.62
315.542	370.62
315.771	374.62
316.001	363.62
316.23	383.62
316.46	377.62
316.689	390.62
316.919	384.62
317.148	416.62
317.377	389.62
317.607	395.62
317.836	377.62
318.065	367.62
318.295	391.62
318.524	383.62
318.753	380.62
318.983	380.62
319.212	383.62
319.441	393.62
319.67	395.62
319.9	379.62
320.129	385.62
320.358	381.62
320.587	407.62
320.816	381.62
321.046	404.62
321.275	386.62
321.504	384.62
321.733	399.62
321.962	409.62
322.191	424.62
322.42	410.62
322.649	409.62
322.878	443.62
323.108	444.62
323.337	455.62
323.566	473.62
323.795	473.62
324.024	512.62
324.253	590.62
324.482	794.62
324.71	1269.62
324.939	1798.62
325.168	1594.62
325.397	795.62
325.626	581.62
325.855	511.62
326.084	468.62
326.313	479.62
326.542	480.62
326.77	508.62
326.999	559.62
327.228	763.62
327.457	1094.62
327.686	1381.62
327.914	926.62
328.143	612.62
328.372	556.62
328.6	548.62
328.829	521.62
329.058	530.62
329.287	508.62
329.515	504.62
329.744	481.62
329.972	477.62
330.201	490.62
330.43	521.62
330.658	554.62
330.887	537.62
331.115	562.62
331.344	488.62
331.572	462.62
331.801	475.62
332.03	452.62
332.258	450.62
332.486	479.62
332.715	452.62
332.943	465.62
333.172	471.62
333.4	468.62
333.629	468.62
333.857	476.62
334.085	497.62
334.314	508.62
334.542	537.62
334.771	535.62
334.999	490.62
335.227	474.62
335.455	480.62
335.684	475.62
335.912	463.62
336.14	452.62
336.369	459.62
336.597	457.62
336.825	447.62
337.053	459.62
337.281	452.62
337.51	447.62
337.738	456.62
337.966	434.62
338.194	464.62
338.422	454.62
338.65	456.62
338.878	448.62
339.106	443.62
339.334	456.62
339.562	425.62
339.79	439.62
340.018	441.62
340.246	451.62
340.474	422.62
340.702	451.62
340.93	418.62
341.158	428.62
341.386	437.62
341.614	440.62
341.842	458.62
342.07	433.62
342.298	463.62
342.526	431.62
342.754	412.62
342.981	434.62
343.209	421.62
343.437	457.62
343.665	440.62
343.893	453.62
344.12	455.62
344.348	456.62
344.576	447.62
344.804	452.62
345.031	449.62
345.259	453.62
345.487	446.62
345.714	431.62
345.942	416.62
346.17	407.62
346.397	423.62
346.625	427.62
346.853	423.62
347.08	416.62
347.308	416.62
347.535	433.62
347.763	436.62
347.99	420.62
348.218	416.62
348.445	415.62
348.673	423.62
348.9	428.62
349.128	418.62
349.355	427.62
349.583	416.62
349.81	422.62
350.037	394.62
350.265	392.62
350.492	392.62
350.72	393.62
350.947	421.62
351.174	418.62
351.402	416.62
351.629	421.62
351.856	436.62
352.083	427.62
352.311	413.62
352.538	444.62
352.765	435.62
352.992	412.62
353.22	407.62
353.447	421.62
353.674	403.62
353.901	407.62
354.128	400.62
354.355	415.62
354.583	385.62
354.81	403.62
355.037	416.62
355.264	387.62
355.491	399.62
355.718	398.62
355.945	406.62
356.172	394.62
356.399	405.62
356.626	419.62
356.853	389.62
357.08	404.62
357.307	387.62
357.534	385.62
357.761	403.62
357.988	403.62
358.215	397.62
358.441	423.62
358.668	392.62
358.895	404.62
359.122	417.62
359.349	412.62
359.576	424.62
359.802	412.62
360.029	448.62
360.256	451.62
360.483	422.62
360.709	421.62
360.936	416.62
361.163	417.62
361.39	388.62
361.616	436.62
361.843	418.62
362.07	428.62
362.296	415.62
362.523	409.62
362.749	422.62
362.976	411.62
363.203	411.62
363.429	400.62
363.656	408.62
363.882	389.62
364.109	397.62
364.335	412.62
364.562	397.62
364.788	385.62
365.015	395.62
365.241	418.62
365.468	409.62
365.694	376.62
365.92	407.62
366.147	405.62
366.373	396.62
366.599	419.62
366.826	386.62
367.052	412.62
367.278	415.62
367.505	385.62
367.731	381.62
367.957	401.62
368.184	413.62
368.41	408.62
368.636	404.62
368.862	382.62
369.089	387.62
369.315	411.62
369.541	398.62
369.767	410.62
369.993	413.62
370.219	402.62
370.445	410.62
370.672	387.62
370.898	386.62
371.124	383.62
371.35	416.62
371.576	415.62
371.802	415.62
372.028	425.62
372.254	423.62
372.48	416.62
372.706	405.62
372.932	410.62
373.158	446.62
373.384	427.62
373.61	412.62
373.835	419.62
374.061	393.62
374.287	406.62
374.513	411.62
374.739	427.62
374.965	420.62
375.191	412.62
375.416	412.62
375.642	409.62
375.868	407.62
376.094	415.62
376.319	410.62
376.545	420.62
376.771	415.62
376.997	417.62
377.222	404.62
377.448	424.62
377.674	416.62
377.899	416.62
378.125	436.62
378.35	404.62
378.576	405.62
378.802	424.62
379.027	415.62
379.253	403.62
379.478	408.62
379.704	418.62
379.929	425.62
380.155	405.62
380.38	417.62
380.606	411.62
380.831	407.62
381.057	408.62
381.282	411.62
381.507	425.62
381.733	409.62
381.958	417.62
382.184	412.62
382.409	403.62
382.634	409.62
382.86	429.62
383.085	423.62
383.31	432.62
383.535	431.62
383.761	426.62
383.986	425.62
384.211	422.62
384.436	432.62
384.662	434.62
384.887	441.62
385.112	447.62
385.337	434.62
385.562	445.62
385.787	459.62
386.013	482.62
386.238	449.62
386.463	451.62
386.688	467.62
386.913	460.62
387.138	458.62
387.363	440.62
387.588	440.62
387.813	450.62
388.038	455.62
388.263	472.62
388.488	445.62
388.713	460.62
388.938	459.62
389.163	457.62
389.387	450.62
389.612	465.62
389.837	474.62
390.062	452.62
390.287	460.62
390.512	454.62
390.736	481.62
390.961	474.62
391.186	471.62
391.411	476.62
391.636	451.62
391.86	462.62
392.085	479.62
392.31	483.62
392.534	488.62
392.759	466.62
392.984	456.62
393.208	472.62
393.433	446.62
393.658	468.62
393.882	472.62
394.107	462.62
394.331	450.62
394.556	472.62
394.78	463.62
395.005	467.62
395.229	465.62
395.454	475.62
395.678	487.62
395.903	481.62
396.127	538.62
396.352	513.62
396.576	482.62
396.801	463.62
397.025	468.62
397.249	495.62
397.474	474.62
397.698	482.62
397.922	518.62
398.147	508.62
398.371	508.62
398.595	498.62
398.82	538.62
399.044	548.62
399.268	557.62
399.492	598.62
399.717	623.62
399.941	644.62
400.165	683.62
400.389	695.62
400.613	601.62
400.837	572.62
401.062	553.62
401.286	529.62
401.51	515.62
401.734	520.62
401.958	521.62
402.182	534.62
402.406	551.62
402.63	553.62
402.854	553.62
403.078	557.62
403.302	572.62
403.526	558.62
403.75	553.62
403.974	544.62
404.198	553.62
404.422	577.62
404.645	573.62
404.869	576.62
405.093	603.62
405.317	631.62
405.541	669.62
405.765	619.62
405.988	592.62
406.212	562.62
406.436	589.62
406.66	612.62
406.883	613.62
407.107	637.62
407.331	671.62
407.555	726.62
407.778	707.62
408.002	669.62
408.226	622.62
408.449	589.62
408.673	604.62
408.896	627.62
409.12	639.62
409.344	637.62
409.567	592.62
409.791	577.62
410.014	566.62
410.238	571.62
410.461	543.62
410.685	563.62
410.908	568.62
411.132	586.62
411.355	624.62
411.578	599.62
411.802	556.62
412.025	555.62
412.249	557.62
412.472	580.62
412.695	615.62
412.919	621.62
413.142	573.62
413.365	539.62
413.589	535.62
413.812	548.62
414.035	549.62
414.258	530.62
414.482	537.62
414.705	535.62
414.928	520.62
415.151	539.62
415.374	515.62
415.597	511.62
415.821	509.62
416.044	526.62
416.267	514.62
416.49	536.62
416.713	523.62
416.936	508.62
417.159	512.62
417.382	533.62
417.605	555.62
417.828	541.62
418.051	548.62
418.274	546.62
418.497	521.62
418.72	515.62
418.943	521.62
419.166	552.62
419.389	571.62
419.611	572.62
419.834	557.62
420.057	561.62
420.28	543.62
420.503	546.62
420.726	547.62
420.948	550.62
421.171	593.62
421.394	627.62
421.617	560.62
421.839	559.62
422.062	541.62
422.285	556.62
422.507	632.62
422.73	662.62
422.953	643.62
423.175	571.62
423.398	578.62
423.621	567.62
423.843	596.62
424.066	583.62
424.288	561.62
424.511	595.62
424.733	637.62
424.956	707.62
425.178	695.62
425.401	679.62
425.623	703.62
425.846	600.62
426.068	571.62
426.291	583.62
426.513	584.62
426.735	595.62
426.958	619.62
427.18	691.62
427.402	810.62
427.625	872.62
427.847	751.62
428.069	659.62
428.292	580.62
428.514	559.62
428.736	548.62
428.958	541.62
429.181	517.62
429.403	512.62
429.625	538.62
429.847	557.62
430.069	616.62
430.292	619.62
430.514	546.62
430.736	545.62
430.958	524.62
431.18	511.62
431.402	478.62
431.624	483.62
431.846	484.62
432.068	521.62
432.29	519.62
432.512	489.62
432.734	523.62
432.956	499.62
433.178	522.62
433.4	544.62
433.622	495.62
433.844	527.62
434.066	504.62
434.287	499.62
434.509	521.62
434.731	528.62
434.953	532.62
435.175	548.62
435.397	572.62
435.618	581.62
435.84	600.62
436.062	707.62
436.284	773.62
436.505	625.62
436.727	557.62
436.949	531.62
437.17	532.62
437.392	524.62
437.614	531.62
437.835	559.62
438.057	648.62
438.278	748.62
438.5	737.62
438.721	849.62
438.943	789.62
439.165	641.62
439.386	571.62
439.608	557.62
439.829	571.62
440.05	604.62
440.272	610.62
440.493	596.62
440.715	567.62
440.936	545.62
441.158	560.62
441.379	535.62
441.6	545.62
441.822	578.62
442.043	618.62
442.264	660.62
442.486	725.62
442.707	639.62
442.928	583.62
443.149	612.62
443.371	623.62
443.592	641.62
443.813	753.62
444.034	771.62
444.255	675.62
444.476	625.62
444.698	626.62
444.919	593.62
445.14	696.62
445.361	623.62
445.582	607.62
445.803	659.62
446.024	758.62
446.245	777.62
446.466	703.62
446.687	629.62
446.908	575.62
447.129	546.62
447.35	527.62
447.571	524.62
447.792	488.62
448.013	535.62
448.234	535.62
448.455	582.62
448.675	697.62
448.896	811.62
449.117	679.62
449.338	639.62
449.559	731.62
449.779	837.62
450	673.62
450.221	556.62
450.442	531.62
450.662	504.62
450.883	485.62
451.104	503.62
451.324	508.62
451.545	465.62
451.766	486.62
451.986	485.62
452.207	475.62
452.428	463.62
452.648	487.62
452.869	465.62
453.089	469.62
453.31	496.62
453.53	468.62
453.751	461.62
453.971	466.62
454.192	511.62
454.412	473.62
454.633	441.62
454.853	463.62
455.073	461.62
455.294	479.62
455.514	536.62
455.734	524.62
455.955	487.62
456.175	442.62
456.395	448.62
456.616	427.62
456.836	442.62
457.056	440.62
457.276	434.62
457.497	457.62
457.717	439.62
457.937	432.62
458.157	448.62
458.377	451.62
458.598	462.62
458.818	513.62
459.038	577.62
459.258	604.62
459.478	526.62
459.698	498.62
459.918	500.62
460.138	481.62
460.358	493.62
460.578	500.62
460.798	532.62
461.018	535.62
461.238	514.62
461.458	524.62
461.678	512.62
461.898	512.62
462.118	521.62
462.338	554.62
462.558	548.62
462.777	556.62
462.997	582.62
463.217	579.62
463.437	589.62
463.657	594.62
463.876	581.62
464.096	587.62
464.316	572.62
464.536	597.62
464.755	600.62
464.975	564.62
465.195	584.62
465.414	580.62
465.634	571.62
465.854	517.62
466.073	523.62
466.293	490.62
466.512	497.62
466.732	483.62
466.951	473.62
467.171	490.62
467.391	472.62
467.61	513.62
467.829	495.62
468.049	472.62
468.268	483.62
468.488	476.62
468.707	473.62
468.927	475.62
469.146	465.62
469.365	469.62
469.585	474.62
469.804	472.62
470.023	473.62
470.243	495.62
470.462	503.62
470.681	524.62
470.901	488.62
471.12	486.62
471.339	499.62
471.558	505.62
471.777	485.62
471.997	482.62
472.216	504.62
472.435	509.62
472.654	510.62
472.873	487.62
473.092	471.62
473.311	496.62
473.53	479.62
473.749	499.62
473.968	529.62
474.187	629.62
474.406	647.62
474.625	525.62
474.844	496.62
475.063	477.62
475.282	489.62
475.501	482.62
475.72	485.62
475.939	506.62
476.158	513.62
476.377	499.62
476.596	509.62
476.814	498.62
477.033	523.62
477.252	510.62
477.471	515.62
477.69	528.62
477.908	522.62
478.127	556.62
478.346	541.62
478.564	549.62
478.783	541.62
479.002	564.62
479.22	565.62
479.439	544.62
479.658	589.62
479.876	576.62
480.095	589.62
480.313	622.62
480.532	609.62
480.751	610.62
480.969	613.62
481.188	643.62
481.406	669.62
481.624	588.62
481.843	561.62
482.061	593.62
482.28	568.62
482.498	579.62
482.717	554.62
482.935	551.62
483.153	554.62
483.372	571.62
483.59	561.62
483.808	560.62
484.027	565.62
484.245	569.62
484.463	548.62
484.681	585.62
484.9	553.62
485.118	575.62
485.336	596.62
485.554	590.62
485.772	570.62
485.99	561.62
486.209	587.62
486.427	583.62
486.645	600.62
486.863	595.62
487.081	607.62
487.299	597.62
487.517	601.62
487.735	588.62
487.953	597.62
488.171	597.62
488.389	601.62
488.607	615.62
488.825	609.62
489.043	606.62
489.261	614.62
489.479	604.62
489.696	603.62
489.914	610.62
490.132	619.62
490.35	628.62
490.568	617.62
490.786	652.62
491.003	650.62
491.221	681.62
491.439	689.62
491.657	661.62
491.874	665.62
492.092	687.62
492.31	693.62
492.527	692.62
492.745	689.62
492.963	702.62
493.18	679.62
493.398	691.62
493.615	691.62
493.833	708.62
494.05	719.62
494.268	721.62
494.485	707.62
494.703	706.62
494.92	712.62
495.138	720.62
495.355	716.62
495.573	742.62
495.79	725.62
496.008	726.62
496.225	713.62
496.442	693.62
496.66	723.62
496.877	725.62
497.094	717.62
497.312	705.62
497.529	730.62
497.746	746.62
497.963	770.62
498.181	786.62
498.398	786.62
498.615	805.62
498.832	820.62
499.049	837.62
499.267	914.62
499.484	913.62
499.701	963.62
499.918	1001.62
500.135	1074.62
500.352	1116.62
500.569	1135.62
500.786	1157.62
501.003	1137.62
501.22	1087.62
501.437	1032.62
501.654	983.62
