Data from 1976.PennyLincolnUp.Lamp.En5.5.200Scan.071719.P1.Changed Mount._HRD10591_16-02-33-862.txt Node
Date: Thu Jul 18 16:02:33 EDT 2019
User: cochatt
Spectrometer: HR+D1059
Trigger mode: 1
Integration Time (sec): 1.000000E-1
Scans to average: 1
Electric dark correction enabled: true
Nonlinearity correction enabled: false
Boxcar width: 0
XAxis mode: Wavelengths
Number of Pixels in Spectrum: 2048
>>>>>Begin Spectral Data<<<<<
223.165	-14.31
223.4	-14.31
223.635	-14.31
223.869	-16.31
224.104	-27.31
224.338	-11.31
224.573	-15.31
224.808	-19.31
225.042	-16.31
225.277	3.69
225.511	-2.31
225.746	18.69
225.98	6.69
226.215	1.69
226.449	28.69
226.683	13.69
226.918	21.69
227.152	27.69
227.387	39.69
227.621	31.69
227.856	47.69
228.09	60.69
228.324	51.69
228.559	46.69
228.793	68.69
229.027	87.69
229.262	118.69
229.496	117.69
229.73	130.69
229.964	163.69
230.199	124.69
230.433	113.69
230.667	129.69
230.901	101.69
231.136	115.69
231.37	110.69
231.604	115.69
231.838	124.69
232.072	111.69
232.306	133.69
232.541	126.69
232.775	125.69
233.009	119.69
233.243	132.69
233.477	110.69
233.711	131.69
233.945	124.69
234.179	117.69
234.413	129.69
234.647	113.69
234.881	121.69
235.115	123.69
235.349	138.69
235.583	128.69
235.817	112.69
236.051	119.69
236.285	141.69
236.519	112.69
236.753	136.69
236.987	150.69
237.221	197.69
237.455	237.69
237.689	204.69
237.922	154.69
238.156	147.69
238.39	142.69
238.624	140.69
238.858	137.69
239.091	134.69
239.325	135.69
239.559	150.69
239.793	135.69
240.027	135.69
240.26	157.69
240.494	181.69
240.728	167.69
240.961	157.69
241.195	147.69
241.429	149.69
241.662	151.69
241.896	147.69
242.13	126.69
242.363	140.69
242.597	137.69
242.83	149.69
243.064	149.69
243.298	152.69
243.531	146.69
243.765	147.69
243.998	154.69
244.232	152.69
244.465	152.69
244.699	139.69
244.932	138.69
245.166	153.69
245.399	162.69
245.633	150.69
245.866	145.69
246.099	185.69
246.333	153.69
246.566	163.69
246.8	176.69
247.033	171.69
247.266	169.69
247.5	161.69
247.733	183.69
247.966	189.69
248.2	187.69
248.433	191.69
248.666	190.69
248.899	190.69
249.133	218.69
249.366	203.69
249.599	206.69
249.832	192.69
250.066	187.69
250.299	208.69
250.532	204.69
250.765	218.69
250.998	241.69
251.231	238.69
251.465	209.69
251.698	220.69
251.931	226.69
252.164	204.69
252.397	213.69
252.63	227.69
252.863	223.69
253.096	228.69
253.329	239.69
253.562	256.69
253.795	252.69
254.028	228.69
254.261	235.69
254.494	253.69
254.727	267.69
254.96	303.69
255.193	285.69
255.426	271.69
255.659	261.69
255.892	241.69
256.124	259.69
256.357	257.69
256.59	248.69
256.823	235.69
257.056	243.69
257.289	224.69
257.521	219.69
257.754	230.69
257.987	220.69
258.22	240.69
258.452	224.69
258.685	212.69
258.918	226.69
259.151	229.69
259.383	254.69
259.616	240.69
259.849	250.69
260.081	248.69
260.314	277.69
260.547	278.69
260.779	271.69
261.012	273.69
261.244	243.69
261.477	243.69
261.71	239.69
261.942	235.69
262.175	250.69
262.407	234.69
262.64	242.69
262.872	232.69
263.105	238.69
263.337	225.69
263.57	262.69
263.802	233.69
264.035	243.69
264.267	238.69
264.499	229.69
264.732	245.69
264.964	217.69
265.197	234.69
265.429	255.69
265.661	242.69
265.894	246.69
266.126	250.69
266.358	244.69
266.591	227.69
266.823	259.69
267.055	257.69
267.287	257.69
267.52	245.69
267.752	249.69
267.984	260.69
268.216	248.69
268.448	268.69
268.681	278.69
268.913	268.69
269.145	277.69
269.377	303.69
269.609	289.69
269.841	291.69
270.073	296.69
270.306	300.69
270.538	347.69
270.77	343.69
271.002	330.69
271.234	325.69
271.466	326.69
271.698	344.69
271.93	347.69
272.162	348.69
272.394	345.69
272.626	344.69
272.858	323.69
273.09	311.69
273.322	308.69
273.553	317.69
273.785	302.69
274.017	288.69
274.249	298.69
274.481	302.69
274.713	296.69
274.945	312.69
275.176	291.69
275.408	296.69
275.64	282.69
275.872	275.69
276.104	288.69
276.335	295.69
276.567	308.69
276.799	314.69
277.031	355.69
277.262	341.69
277.494	350.69
277.726	335.69
277.957	325.69
278.189	310.69
278.421	296.69
278.652	311.69
278.884	322.69
279.115	289.69
279.347	291.69
279.579	296.69
279.81	293.69
280.042	295.69
280.273	314.69
280.505	298.69
280.736	303.69
280.968	293.69
281.199	303.69
281.431	304.69
281.662	299.69
281.894	311.69
282.125	317.69
282.356	329.69
282.588	355.69
282.819	335.69
283.051	309.69
283.282	323.69
283.513	315.69
283.745	335.69
283.976	320.69
284.207	321.69
284.439	323.69
284.67	330.69
284.901	315.69
285.132	322.69
285.364	293.69
285.595	320.69
285.826	327.69
286.057	310.69
286.288	324.69
286.52	323.69
286.751	308.69
286.982	328.69
287.213	316.69
287.444	316.69
287.675	334.69
287.906	337.69
288.138	357.69
288.369	348.69
288.6	333.69
288.831	343.69
289.062	343.69
289.293	331.69
289.524	328.69
289.755	328.69
289.986	344.69
290.217	336.69
290.448	325.69
290.679	317.69
290.91	325.69
291.141	324.69
291.371	336.69
291.602	324.69
291.833	319.69
292.064	315.69
292.295	322.69
292.526	337.69
292.757	335.69
292.987	344.69
293.218	347.69
293.449	345.69
293.68	339.69
293.91	328.69
294.141	323.69
294.372	312.69
294.603	319.69
294.833	324.69
295.064	345.69
295.295	343.69
295.525	343.69
295.756	332.69
295.987	335.69
296.217	349.69
296.448	375.69
296.679	349.69
296.909	347.69
297.14	324.69
297.37	331.69
297.601	350.69
297.831	355.69
298.062	348.69
298.292	344.69
298.523	356.69
298.753	335.69
298.984	357.69
299.214	358.69
299.445	351.69
299.675	344.69
299.905	347.69
300.136	359.69
300.366	373.69
300.597	360.69
300.827	372.69
301.057	366.69
301.288	379.69
301.518	381.69
301.748	375.69
301.979	374.69
302.209	382.69
302.439	366.69
302.669	375.69
302.9	363.69
303.13	374.69
303.36	351.69
303.59	379.69
303.82	389.69
304.051	374.69
304.281	369.69
304.511	370.69
304.741	385.69
304.971	363.69
305.201	371.69
305.431	393.69
305.661	378.69
305.891	382.69
306.121	376.69
306.352	393.69
306.582	384.69
306.812	383.69
307.042	384.69
307.272	385.69
307.502	364.69
307.731	391.69
307.961	387.69
308.191	354.69
308.421	378.69
308.651	384.69
308.881	384.69
309.111	394.69
309.341	361.69
309.571	391.69
309.8	373.69
310.03	402.69
310.26	395.69
310.49	410.69
310.72	415.69
310.949	428.69
311.179	433.69
311.409	401.69
311.639	392.69
311.868	415.69
312.098	397.69
312.328	413.69
312.557	428.69
312.787	427.69
313.017	432.69
313.246	414.69
313.476	411.69
313.706	433.69
313.935	431.69
314.165	432.69
314.394	447.69
314.624	429.69
314.853	408.69
315.083	407.69
315.312	435.69
315.542	420.69
315.771	423.69
316.001	428.69
316.23	400.69
316.46	410.69
316.689	415.69
316.919	399.69
317.148	424.69
317.377	407.69
317.607	433.69
317.836	416.69
318.065	412.69
318.295	416.69
318.524	422.69
318.753	424.69
318.983	411.69
319.212	414.69
319.441	428.69
319.67	420.69
319.9	425.69
320.129	430.69
320.358	411.69
320.587	438.69
320.816	444.69
321.046	449.69
321.275	444.69
321.504	435.69
321.733	426.69
321.962	438.69
322.191	459.69
322.42	486.69
322.649	471.69
322.878	481.69
323.108	510.69
323.337	517.69
323.566	521.69
323.795	525.69
324.024	573.69
324.253	656.69
324.482	958.69
324.71	1477.69
324.939	2115.69
325.168	1898.69
325.397	941.69
325.626	651.69
325.855	551.69
326.084	525.69
326.313	528.69
326.542	537.69
326.77	586.69
326.999	661.69
327.228	867.69
327.457	1331.69
327.686	1602.69
327.914	1103.69
328.143	719.69
328.372	647.69
328.6	587.69
328.829	565.69
329.058	594.69
329.287	605.69
329.515	566.69
329.744	544.69
329.972	554.69
330.201	558.69
330.43	587.69
330.658	607.69
330.887	641.69
331.115	604.69
331.344	563.69
331.572	540.69
331.801	559.69
332.03	529.69
332.258	539.69
332.486	515.69
332.715	513.69
332.943	531.69
333.172	525.69
333.4	515.69
333.629	519.69
333.857	540.69
334.085	560.69
334.314	578.69
334.542	608.69
334.771	627.69
334.999	577.69
335.227	541.69
335.455	511.69
335.684	495.69
335.912	503.69
336.14	507.69
336.369	517.69
336.597	501.69
336.825	510.69
337.053	501.69
337.281	478.69
337.51	479.69
337.738	483.69
337.966	492.69
338.194	475.69
338.422	501.69
338.65	489.69
338.878	489.69
339.106	507.69
339.334	485.69
339.562	457.69
339.79	470.69
340.018	478.69
340.246	487.69
340.474	490.69
340.702	485.69
340.93	476.69
341.158	464.69
341.386	477.69
341.614	462.69
341.842	471.69
342.07	496.69
342.298	467.69
342.526	459.69
342.754	456.69
342.981	459.69
343.209	467.69
343.437	473.69
343.665	501.69
343.893	495.69
344.12	501.69
344.348	507.69
344.576	486.69
344.804	503.69
345.031	487.69
345.259	507.69
345.487	498.69
345.714	467.69
345.942	486.69
346.17	453.69
346.397	455.69
346.625	459.69
346.853	477.69
347.08	469.69
347.308	489.69
347.535	476.69
347.763	463.69
347.99	462.69
348.218	469.69
348.445	468.69
348.673	468.69
348.9	456.69
349.128	459.69
349.355	456.69
349.583	451.69
349.81	432.69
350.037	455.69
350.265	439.69
350.492	438.69
350.72	456.69
350.947	443.69
351.174	445.69
351.402	454.69
351.629	466.69
351.856	447.69
352.083	447.69
352.311	484.69
352.538	477.69
352.765	478.69
352.992	462.69
353.22	469.69
353.447	455.69
353.674	454.69
353.901	441.69
354.128	443.69
354.355	444.69
354.583	445.69
354.81	438.69
355.037	425.69
355.264	447.69
355.491	457.69
355.718	425.69
355.945	420.69
356.172	431.69
356.399	439.69
356.626	429.69
356.853	435.69
357.08	445.69
357.307	419.69
357.534	413.69
357.761	418.69
357.988	436.69
358.215	444.69
358.441	430.69
358.668	441.69
358.895	428.69
359.122	449.69
359.349	445.69
359.576	428.69
359.802	471.69
360.029	493.69
360.256	503.69
360.483	488.69
360.709	455.69
360.936	455.69
361.163	444.69
361.39	452.69
361.616	464.69
361.843	445.69
362.07	466.69
362.296	456.69
362.523	441.69
362.749	447.69
362.976	444.69
363.203	438.69
363.429	437.69
363.656	448.69
363.882	426.69
364.109	452.69
364.335	431.69
364.562	435.69
364.788	435.69
365.015	442.69
365.241	436.69
365.468	451.69
365.694	438.69
365.92	429.69
366.147	424.69
366.373	438.69
366.599	425.69
366.826	449.69
367.052	447.69
367.278	418.69
367.505	444.69
367.731	447.69
367.957	450.69
368.184	442.69
368.41	468.69
368.636	470.69
368.862	465.69
369.089	423.69
369.315	449.69
369.541	448.69
369.767	461.69
369.993	462.69
370.219	453.69
370.445	450.69
370.672	449.69
370.898	446.69
371.124	417.69
371.35	454.69
371.576	439.69
371.802	425.69
372.028	425.69
372.254	457.69
372.48	464.69
372.706	449.69
372.932	446.69
373.158	422.69
373.384	431.69
373.61	441.69
373.835	461.69
374.061	449.69
374.287	443.69
374.513	482.69
374.739	463.69
374.965	459.69
375.191	469.69
375.416	467.69
375.642	426.69
375.868	454.69
376.094	437.69
376.319	445.69
376.545	437.69
376.771	458.69
376.997	429.69
377.222	425.69
377.448	444.69
377.674	447.69
377.899	429.69
378.125	450.69
378.35	434.69
378.576	447.69
378.802	430.69
379.027	439.69
379.253	451.69
379.478	431.69
379.704	460.69
379.929	458.69
380.155	459.69
380.38	448.69
380.606	430.69
380.831	451.69
381.057	450.69
381.282	435.69
381.507	440.69
381.733	450.69
381.958	462.69
382.184	444.69
382.409	453.69
382.634	446.69
382.86	447.69
383.085	461.69
383.31	473.69
383.535	452.69
383.761	466.69
383.986	465.69
384.211	462.69
384.436	492.69
384.662	465.69
384.887	479.69
385.112	452.69
385.337	494.69
385.562	481.69
385.787	485.69
386.013	484.69
386.238	502.69
386.463	496.69
386.688	487.69
386.913	495.69
387.138	495.69
387.363	502.69
387.588	481.69
387.813	514.69
388.038	480.69
388.263	501.69
388.488	478.69
388.713	516.69
388.938	503.69
389.163	502.69
389.387	494.69
389.612	500.69
389.837	491.69
390.062	486.69
390.287	516.69
390.512	489.69
390.736	504.69
390.961	492.69
391.186	513.69
391.411	497.69
391.636	485.69
391.86	491.69
392.085	513.69
392.31	520.69
392.534	530.69
392.759	515.69
392.984	484.69
393.208	512.69
393.433	485.69
393.658	501.69
393.882	496.69
394.107	512.69
394.331	496.69
394.556	529.69
394.78	511.69
395.005	525.69
395.229	504.69
395.454	546.69
395.678	519.69
395.903	522.69
396.127	551.69
396.352	554.69
396.576	514.69
396.801	520.69
397.025	517.69
397.249	522.69
397.474	523.69
397.698	544.69
397.922	553.69
398.147	554.69
398.371	582.69
398.595	581.69
398.82	561.69
399.044	583.69
399.268	599.69
399.492	664.69
399.717	681.69
399.941	709.69
400.165	727.69
400.389	717.69
400.613	647.69
400.837	618.69
401.062	599.69
401.286	581.69
401.51	586.69
401.734	579.69
401.958	572.69
402.182	574.69
402.406	598.69
402.63	592.69
402.854	593.69
403.078	596.69
403.302	595.69
403.526	613.69
403.75	617.69
403.974	610.69
404.198	601.69
404.422	622.69
404.645	609.69
404.869	628.69
405.093	651.69
405.317	703.69
405.541	727.69
405.765	688.69
405.988	658.69
406.212	654.69
406.436	639.69
406.66	663.69
406.883	647.69
407.107	647.69
407.331	697.69
407.555	795.69
407.778	790.69
408.002	737.69
408.226	684.69
408.449	654.69
408.673	642.69
408.896	687.69
409.12	705.69
409.344	711.69
409.567	622.69
409.791	605.69
410.014	589.69
410.238	587.69
410.461	602.69
410.685	588.69
410.908	617.69
411.132	658.69
411.355	676.69
411.578	675.69
411.802	622.69
412.025	589.69
412.249	622.69
412.472	629.69
412.695	655.69
412.919	656.69
413.142	621.69
413.365	597.69
413.589	584.69
413.812	567.69
414.035	565.69
414.258	557.69
414.482	548.69
414.705	565.69
414.928	551.69
415.151	566.69
415.374	580.69
415.597	588.69
415.821	560.69
416.044	553.69
416.267	571.69
416.49	583.69
416.713	563.69
416.936	563.69
417.159	550.69
417.382	554.69
417.605	577.69
417.828	586.69
418.051	590.69
418.274	566.69
418.497	547.69
418.72	581.69
418.943	563.69
419.166	605.69
419.389	620.69
419.611	589.69
419.834	615.69
420.057	614.69
420.28	606.69
420.503	593.69
420.726	585.69
420.948	623.69
421.171	669.69
421.394	679.69
421.617	609.69
421.839	565.69
422.062	579.69
422.285	588.69
422.507	651.69
422.73	719.69
422.953	697.69
423.175	637.69
423.398	604.69
423.621	630.69
423.843	645.69
424.066	628.69
424.288	643.69
424.511	637.69
424.733	709.69
424.956	807.69
425.178	750.69
425.401	766.69
425.623	795.69
425.846	699.69
426.068	624.69
426.291	613.69
426.513	621.69
426.735	627.69
426.958	677.69
427.18	739.69
427.402	904.69
427.625	967.69
427.847	821.69
428.069	738.69
428.292	652.69
428.514	596.69
428.736	597.69
428.958	586.69
429.181	575.69
429.403	572.69
429.625	579.69
429.847	609.69
430.069	685.69
430.292	683.69
430.514	593.69
430.736	594.69
430.958	583.69
431.18	551.69
431.402	542.69
431.624	524.69
431.846	539.69
432.068	528.69
432.29	537.69
432.512	539.69
432.734	557.69
432.956	550.69
433.178	558.69
433.4	572.69
433.622	541.69
433.844	556.69
434.066	539.69
434.287	538.69
434.509	548.69
434.731	567.69
434.953	579.69
435.175	604.69
435.397	628.69
435.618	635.69
435.84	687.69
436.062	772.69
436.284	835.69
436.505	701.69
436.727	618.69
436.949	577.69
437.17	565.69
437.392	555.69
437.614	564.69
437.835	604.69
438.057	713.69
438.278	829.69
438.5	830.69
438.721	928.69
438.943	865.69
439.165	653.69
439.386	643.69
439.608	632.69
439.829	637.69
440.05	655.69
440.272	694.69
440.493	644.69
440.715	594.69
440.936	580.69
441.158	573.69
441.379	592.69
441.6	601.69
441.822	613.69
442.043	673.69
442.264	760.69
442.486	810.69
442.707	693.69
442.928	645.69
443.149	630.69
443.371	675.69
443.592	697.69
443.813	801.69
444.034	845.69
444.255	714.69
444.476	662.69
444.698	655.69
444.919	637.69
445.14	750.69
445.361	677.69
445.582	686.69
445.803	715.69
446.024	809.69
446.245	834.69
446.466	758.69
446.687	673.69
446.908	628.69
447.129	590.69
447.35	571.69
447.571	564.69
447.792	558.69
448.013	567.69
448.234	567.69
448.455	644.69
448.675	733.69
448.896	879.69
449.117	743.69
449.338	705.69
449.559	823.69
449.779	928.69
450	724.69
450.221	610.69
450.442	580.69
450.662	571.69
450.883	548.69
451.104	552.69
451.324	526.69
451.545	528.69
451.766	535.69
451.986	518.69
452.207	483.69
452.428	493.69
452.648	490.69
452.869	520.69
453.089	488.69
453.31	522.69
453.53	507.69
453.751	496.69
453.971	516.69
454.192	528.69
454.412	507.69
454.633	494.69
454.853	492.69
455.073	492.69
455.294	545.69
455.514	599.69
455.734	581.69
455.955	539.69
456.175	476.69
456.395	489.69
456.616	495.69
456.836	495.69
457.056	462.69
457.276	465.69
457.497	486.69
457.717	468.69
457.937	460.69
458.157	475.69
458.377	503.69
458.598	524.69
458.818	577.69
459.038	638.69
459.258	667.69
459.478	594.69
459.698	539.69
459.918	550.69
460.138	548.69
460.358	556.69
460.578	534.69
460.798	578.69
461.018	564.69
461.238	554.69
461.458	556.69
461.678	559.69
461.898	572.69
462.118	567.69
462.338	596.69
462.558	603.69
462.777	591.69
462.997	646.69
463.217	639.69
463.437	651.69
463.657	619.69
463.876	615.69
464.096	621.69
464.316	604.69
464.536	593.69
464.755	612.69
464.975	594.69
465.195	605.69
465.414	689.69
465.634	623.69
465.854	581.69
466.073	533.69
466.293	544.69
466.512	529.69
466.732	511.69
466.951	522.69
467.171	523.69
467.391	519.69
467.61	517.69
467.829	522.69
468.049	518.69
468.268	494.69
468.488	520.69
468.707	520.69
468.927	505.69
469.146	528.69
469.365	501.69
469.585	523.69
469.804	500.69
470.023	528.69
470.243	540.69
470.462	517.69
470.681	541.69
470.901	555.69
471.12	544.69
471.339	565.69
471.558	539.69
471.777	547.69
471.997	518.69
472.216	524.69
472.435	576.69
472.654	525.69
472.873	513.69
473.092	525.69
473.311	525.69
473.53	527.69
473.749	537.69
473.968	582.69
474.187	667.69
474.406	685.69
474.625	571.69
474.844	536.69
475.063	551.69
475.282	536.69
475.501	543.69
475.72	516.69
475.939	529.69
476.158	524.69
476.377	535.69
476.596	515.69
476.814	554.69
477.033	536.69
477.252	553.69
477.471	554.69
477.69	572.69
477.908	576.69
478.127	574.69
478.346	563.69
478.564	582.69
478.783	598.69
479.002	600.69
479.22	612.69
479.439	620.69
479.658	629.69
479.876	639.69
480.095	627.69
480.313	687.69
480.532	671.69
480.751	657.69
480.969	663.69
481.188	711.69
481.406	730.69
481.624	681.69
481.843	622.69
482.061	639.69
482.28	615.69
482.498	602.69
482.717	603.69
482.935	636.69
483.153	601.69
483.372	608.69
483.59	616.69
483.808	620.69
484.027	629.69
484.245	621.69
484.463	639.69
484.681	611.69
484.9	617.69
485.118	621.69
485.336	633.69
485.554	624.69
485.772	645.69
485.99	639.69
486.209	629.69
486.427	642.69
486.645	629.69
486.863	661.69
487.081	640.69
487.299	643.69
487.517	650.69
487.735	640.69
487.953	669.69
488.171	653.69
488.389	665.69
488.607	628.69
488.825	639.69
489.043	658.69
489.261	657.69
489.479	680.69
489.696	674.69
489.914	665.69
490.132	685.69
490.35	684.69
490.568	689.69
490.786	704.69
491.003	693.69
491.221	705.69
491.439	720.69
491.657	730.69
491.874	736.69
492.092	740.69
492.31	768.69
492.527	773.69
492.745	736.69
492.963	785.69
493.18	751.69
493.398	771.69
493.615	764.69
493.833	749.69
494.05	755.69
494.268	783.69
494.485	766.69
494.703	753.69
494.92	767.69
495.138	795.69
495.355	772.69
495.573	760.69
495.79	772.69
496.008	791.69
496.225	784.69
496.442	781.69
496.66	785.69
496.877	788.69
497.094	785.69
497.312	798.69
497.529	817.69
497.746	811.69
497.963	809.69
498.181	865.69
498.398	867.69
498.615	917.69
498.832	914.69
499.049	945.69
499.267	948.69
499.484	982.69
499.701	1065.69
499.918	1111.69
500.135	1176.69
500.352	1224.69
500.569	1256.69
500.786	1237.69
501.003	1219.69
501.22	1146.69
501.437	1147.69
501.654	1099.69
