Data from 1976.PennyLincolnUp.Lamp.En5.5.200Scan.071719.P1.Changed Mount._HRD10591_16-02-09-862.txt Node
Date: Thu Jul 18 16:02:09 EDT 2019
User: cochatt
Spectrometer: HR+D1059
Trigger mode: 1
Integration Time (sec): 1.000000E-1
Scans to average: 1
Electric dark correction enabled: true
Nonlinearity correction enabled: false
Boxcar width: 0
XAxis mode: Wavelengths
Number of Pixels in Spectrum: 2048
>>>>>Begin Spectral Data<<<<<
223.165	-9.12
223.4	-9.12
223.635	-9.12
223.869	-11.12
224.104	-17.12
224.338	-21.12
224.573	-17.12
224.808	-9.12
225.042	-10.12
225.277	-2.12
225.511	-6.12
225.746	10.88
225.98	-7.12
226.215	7.88
226.449	16.88
226.683	30.88
226.918	14.88
227.152	28.88
227.387	30.88
227.621	29.88
227.856	48.88
228.09	33.88
228.324	46.88
228.559	49.88
228.793	76.88
229.027	114.88
229.262	108.88
229.496	107.88
229.73	131.88
229.964	162.88
230.199	137.88
230.433	122.88
230.667	110.88
230.901	109.88
231.136	115.88
231.37	108.88
231.604	118.88
231.838	123.88
232.072	101.88
232.306	104.88
232.541	114.88
232.775	120.88
233.009	104.88
233.243	132.88
233.477	113.88
233.711	111.88
233.945	123.88
234.179	118.88
234.413	135.88
234.647	124.88
234.881	128.88
235.115	121.88
235.349	124.88
235.583	134.88
235.817	118.88
236.051	135.88
236.285	128.88
236.519	129.88
236.753	143.88
236.987	152.88
237.221	186.88
237.455	228.88
237.689	198.88
237.922	157.88
238.156	135.88
238.39	117.88
238.624	145.88
238.858	117.88
239.091	130.88
239.325	137.88
239.559	128.88
239.793	154.88
240.027	135.88
240.26	138.88
240.494	148.88
240.728	163.88
240.961	157.88
241.195	159.88
241.429	139.88
241.662	148.88
241.896	168.88
242.13	142.88
242.363	160.88
242.597	150.88
242.83	145.88
243.064	149.88
243.298	149.88
243.531	136.88
243.765	153.88
243.998	140.88
244.232	133.88
244.465	156.88
244.699	136.88
244.932	164.88
245.166	166.88
245.399	157.88
245.633	147.88
245.866	147.88
246.099	150.88
246.333	156.88
246.566	159.88
246.8	153.88
247.033	177.88
247.266	163.88
247.5	174.88
247.733	183.88
247.966	179.88
248.2	164.88
248.433	167.88
248.666	184.88
248.899	199.88
249.133	196.88
249.366	218.88
249.599	198.88
249.832	187.88
250.066	194.88
250.299	190.88
250.532	203.88
250.765	202.88
250.998	218.88
251.231	234.88
251.465	233.88
251.698	197.88
251.931	202.88
252.164	197.88
252.397	197.88
252.63	202.88
252.863	211.88
253.096	224.88
253.329	238.88
253.562	228.88
253.795	228.88
254.028	226.88
254.261	217.88
254.494	242.88
254.727	267.88
254.96	288.88
255.193	245.88
255.426	250.88
255.659	236.88
255.892	244.88
256.124	251.88
256.357	252.88
256.59	252.88
256.823	224.88
257.056	220.88
257.289	228.88
257.521	225.88
257.754	216.88
257.987	220.88
258.22	214.88
258.452	209.88
258.685	203.88
258.918	254.88
259.151	210.88
259.383	236.88
259.616	237.88
259.849	239.88
260.081	240.88
260.314	263.88
260.547	271.88
260.779	257.88
261.012	243.88
261.244	240.88
261.477	231.88
261.71	221.88
261.942	235.88
262.175	241.88
262.407	242.88
262.64	246.88
262.872	241.88
263.105	230.88
263.337	241.88
263.57	240.88
263.802	237.88
264.035	233.88
264.267	232.88
264.499	234.88
264.732	230.88
264.964	211.88
265.197	234.88
265.429	230.88
265.661	224.88
265.894	234.88
266.126	240.88
266.358	245.88
266.591	247.88
266.823	234.88
267.055	240.88
267.287	255.88
267.52	242.88
267.752	242.88
267.984	236.88
268.216	252.88
268.448	237.88
268.681	255.88
268.913	258.88
269.145	289.88
269.377	280.88
269.609	279.88
269.841	287.88
270.073	305.88
270.306	320.88
270.538	311.88
270.77	332.88
271.002	319.88
271.234	302.88
271.466	312.88
271.698	319.88
271.93	337.88
272.162	341.88
272.394	325.88
272.626	327.88
272.858	321.88
273.09	296.88
273.322	284.88
273.553	300.88
273.785	276.88
274.017	284.88
274.249	270.88
274.481	276.88
274.713	276.88
274.945	299.88
275.176	306.88
275.408	291.88
275.64	277.88
275.872	273.88
276.104	275.88
276.335	290.88
276.567	298.88
276.799	297.88
277.031	307.88
277.262	355.88
277.494	342.88
277.726	341.88
277.957	318.88
278.189	306.88
278.421	290.88
278.652	305.88
278.884	296.88
279.115	291.88
279.347	296.88
279.579	293.88
279.81	302.88
280.042	274.88
280.273	282.88
280.505	308.88
280.736	288.88
280.968	300.88
281.199	276.88
281.431	317.88
281.662	285.88
281.894	321.88
282.125	309.88
282.356	316.88
282.588	304.88
282.819	297.88
283.051	322.88
283.282	306.88
283.513	291.88
283.745	320.88
283.976	319.88
284.207	307.88
284.439	310.88
284.67	305.88
284.901	300.88
285.132	316.88
285.364	317.88
285.595	329.88
285.826	313.88
286.057	314.88
286.288	295.88
286.52	309.88
286.751	328.88
286.982	306.88
287.213	305.88
287.444	320.88
287.675	327.88
287.906	340.88
288.138	341.88
288.369	345.88
288.6	318.88
288.831	328.88
289.062	376.88
289.293	318.88
289.524	316.88
289.755	326.88
289.986	332.88
290.217	320.88
290.448	329.88
290.679	333.88
290.91	326.88
291.141	310.88
291.371	319.88
291.602	323.88
291.833	315.88
292.064	324.88
292.295	334.88
292.526	343.88
292.757	318.88
292.987	317.88
293.218	331.88
293.449	332.88
293.68	333.88
293.91	314.88
294.141	329.88
294.372	338.88
294.603	330.88
294.833	340.88
295.064	332.88
295.295	321.88
295.525	320.88
295.756	338.88
295.987	337.88
296.217	350.88
296.448	354.88
296.679	327.88
296.909	338.88
297.14	334.88
297.37	341.88
297.601	338.88
297.831	340.88
298.062	346.88
298.292	340.88
298.523	343.88
298.753	359.88
298.984	351.88
299.214	333.88
299.445	334.88
299.675	350.88
299.905	350.88
300.136	336.88
300.366	334.88
300.597	336.88
300.827	348.88
301.057	349.88
301.288	363.88
301.518	342.88
301.748	366.88
301.979	365.88
302.209	363.88
302.439	368.88
302.669	344.88
302.9	338.88
303.13	355.88
303.36	358.88
303.59	385.88
303.82	358.88
304.051	376.88
304.281	358.88
304.511	363.88
304.741	357.88
304.971	364.88
305.201	349.88
305.431	342.88
305.661	370.88
305.891	364.88
306.121	354.88
306.352	356.88
306.582	366.88
306.812	379.88
307.042	384.88
307.272	384.88
307.502	368.88
307.731	365.88
307.961	390.88
308.191	343.88
308.421	374.88
308.651	378.88
308.881	383.88
309.111	349.88
309.341	365.88
309.571	387.88
309.8	379.88
310.03	396.88
310.26	399.88
310.49	380.88
310.72	390.88
310.949	410.88
311.179	418.88
311.409	400.88
311.639	381.88
311.868	403.88
312.098	411.88
312.328	415.88
312.557	423.88
312.787	410.88
313.017	439.88
313.246	397.88
313.476	406.88
313.706	407.88
313.935	394.88
314.165	427.88
314.394	435.88
314.624	418.88
314.853	404.88
315.083	397.88
315.312	415.88
315.542	411.88
315.771	417.88
316.001	416.88
316.23	406.88
316.46	391.88
316.689	406.88
316.919	412.88
317.148	414.88
317.377	412.88
317.607	394.88
317.836	402.88
318.065	409.88
318.295	403.88
318.524	397.88
318.753	424.88
318.983	401.88
319.212	415.88
319.441	420.88
319.67	416.88
319.9	417.88
320.129	408.88
320.358	424.88
320.587	421.88
320.816	432.88
321.046	410.88
321.275	441.88
321.504	430.88
321.733	423.88
321.962	430.88
322.191	429.88
322.42	443.88
322.649	456.88
322.878	458.88
323.108	475.88
323.337	488.88
323.566	497.88
323.795	530.88
324.024	577.88
324.253	651.88
324.482	912.88
324.71	1397.88
324.939	2085.88
325.168	1839.88
325.397	920.88
325.626	661.88
325.855	570.88
326.084	536.88
326.313	525.88
326.542	519.88
326.77	560.88
326.999	638.88
327.228	841.88
327.457	1291.88
327.686	1551.88
327.914	1034.88
328.143	682.88
328.372	634.88
328.6	591.88
328.829	556.88
329.058	581.88
329.287	608.88
329.515	562.88
329.744	555.88
329.972	546.88
330.201	564.88
330.43	579.88
330.658	598.88
330.887	602.88
331.115	596.88
331.344	552.88
331.572	514.88
331.801	502.88
332.03	525.88
332.258	503.88
332.486	512.88
332.715	474.88
332.943	489.88
333.172	492.88
333.4	516.88
333.629	522.88
333.857	517.88
334.085	566.88
334.314	562.88
334.542	564.88
334.771	593.88
334.999	562.88
335.227	523.88
335.455	500.88
335.684	506.88
335.912	513.88
336.14	468.88
336.369	493.88
336.597	501.88
336.825	487.88
337.053	470.88
337.281	482.88
337.51	499.88
337.738	481.88
337.966	483.88
338.194	470.88
338.422	472.88
338.65	491.88
338.878	471.88
339.106	470.88
339.334	473.88
339.562	450.88
339.79	475.88
340.018	489.88
340.246	468.88
340.474	479.88
340.702	468.88
340.93	475.88
341.158	479.88
341.386	445.88
341.614	469.88
341.842	455.88
342.07	460.88
342.298	448.88
342.526	467.88
342.754	449.88
342.981	472.88
343.209	452.88
343.437	479.88
343.665	470.88
343.893	467.88
344.12	504.88
344.348	512.88
344.576	498.88
344.804	471.88
345.031	504.88
345.259	474.88
345.487	468.88
345.714	460.88
345.942	454.88
346.17	438.88
346.397	445.88
346.625	451.88
346.853	440.88
347.08	441.88
347.308	452.88
347.535	468.88
347.763	452.88
347.99	454.88
348.218	466.88
348.445	465.88
348.673	447.88
348.9	440.88
349.128	432.88
349.355	429.88
349.583	448.88
349.81	441.88
350.037	436.88
350.265	429.88
350.492	436.88
350.72	427.88
350.947	440.88
351.174	443.88
351.402	429.88
351.629	452.88
351.856	475.88
352.083	460.88
352.311	469.88
352.538	467.88
352.765	472.88
352.992	461.88
353.22	429.88
353.447	449.88
353.674	451.88
353.901	436.88
354.128	443.88
354.355	437.88
354.583	427.88
354.81	416.88
355.037	397.88
355.264	420.88
355.491	421.88
355.718	414.88
355.945	413.88
356.172	426.88
356.399	417.88
356.626	403.88
356.853	416.88
357.08	407.88
357.307	422.88
357.534	428.88
357.761	424.88
357.988	404.88
358.215	412.88
358.441	409.88
358.668	405.88
358.895	419.88
359.122	436.88
359.349	421.88
359.576	450.88
359.802	460.88
360.029	477.88
360.256	477.88
360.483	458.88
360.709	445.88
360.936	449.88
361.163	448.88
361.39	453.88
361.616	447.88
361.843	445.88
362.07	461.88
362.296	436.88
362.523	447.88
362.749	471.88
362.976	452.88
363.203	441.88
363.429	423.88
363.656	433.88
363.882	437.88
364.109	414.88
364.335	406.88
364.562	404.88
364.788	411.88
365.015	428.88
365.241	437.88
365.468	444.88
365.694	427.88
365.92	429.88
366.147	426.88
366.373	448.88
366.599	442.88
366.826	436.88
367.052	420.88
367.278	447.88
367.505	423.88
367.731	442.88
367.957	417.88
368.184	420.88
368.41	446.88
368.636	436.88
368.862	446.88
369.089	420.88
369.315	428.88
369.541	455.88
369.767	429.88
369.993	425.88
370.219	429.88
370.445	435.88
370.672	434.88
370.898	427.88
371.124	436.88
371.35	413.88
371.576	428.88
371.802	437.88
372.028	438.88
372.254	428.88
372.48	434.88
372.706	448.88
372.932	433.88
373.158	442.88
373.384	437.88
373.61	429.88
373.835	425.88
374.061	405.88
374.287	448.88
374.513	420.88
374.739	458.88
374.965	444.88
375.191	474.88
375.416	439.88
375.642	445.88
375.868	448.88
376.094	431.88
376.319	439.88
376.545	442.88
376.771	445.88
376.997	426.88
377.222	411.88
377.448	424.88
377.674	428.88
377.899	427.88
378.125	426.88
378.35	445.88
378.576	425.88
378.802	412.88
379.027	440.88
379.253	426.88
379.478	439.88
379.704	426.88
379.929	455.88
380.155	449.88
380.38	439.88
380.606	441.88
380.831	426.88
381.057	451.88
381.282	446.88
381.507	432.88
381.733	440.88
381.958	443.88
382.184	448.88
382.409	440.88
382.634	454.88
382.86	452.88
383.085	476.88
383.31	452.88
383.535	448.88
383.761	454.88
383.986	452.88
384.211	459.88
384.436	480.88
384.662	460.88
384.887	466.88
385.112	469.88
385.337	492.88
385.562	474.88
385.787	474.88
386.013	490.88
386.238	483.88
386.463	493.88
386.688	503.88
386.913	477.88
387.138	480.88
387.363	484.88
387.588	495.88
387.813	488.88
388.038	460.88
388.263	484.88
388.488	472.88
388.713	463.88
388.938	476.88
389.163	508.88
389.387	497.88
389.612	444.88
389.837	484.88
390.062	480.88
390.287	461.88
390.512	462.88
390.736	488.88
390.961	514.88
391.186	485.88
391.411	491.88
391.636	483.88
391.86	516.88
392.085	512.88
392.31	482.88
392.534	491.88
392.759	513.88
392.984	491.88
393.208	484.88
393.433	497.88
393.658	476.88
393.882	487.88
394.107	480.88
394.331	473.88
394.556	502.88
394.78	496.88
395.005	473.88
395.229	503.88
395.454	500.88
395.678	509.88
395.903	521.88
396.127	533.88
396.352	517.88
396.576	528.88
396.801	528.88
397.025	516.88
397.249	509.88
397.474	506.88
397.698	547.88
397.922	535.88
398.147	548.88
398.371	554.88
398.595	538.88
398.82	556.88
399.044	570.88
399.268	576.88
399.492	638.88
399.717	661.88
399.941	708.88
400.165	698.88
400.389	716.88
400.613	654.88
400.837	620.88
401.062	584.88
401.286	575.88
401.51	569.88
401.734	559.88
401.958	584.88
402.182	555.88
402.406	586.88
402.63	571.88
402.854	566.88
403.078	582.88
403.302	593.88
403.526	590.88
403.75	588.88
403.974	584.88
404.198	577.88
404.422	589.88
404.645	615.88
404.869	611.88
405.093	648.88
405.317	685.88
405.541	716.88
405.765	662.88
405.988	633.88
406.212	625.88
406.436	646.88
406.66	622.88
406.883	608.88
407.107	666.88
407.331	719.88
407.555	778.88
407.778	800.88
408.002	680.88
408.226	667.88
408.449	655.88
408.673	661.88
408.896	660.88
409.12	688.88
409.344	693.88
409.567	604.88
409.791	597.88
410.014	604.88
410.238	580.88
410.461	589.88
410.685	589.88
410.908	599.88
411.132	640.88
411.355	672.88
411.578	631.88
411.802	601.88
412.025	584.88
412.249	588.88
412.472	620.88
412.695	650.88
412.919	651.88
413.142	611.88
413.365	581.88
413.589	582.88
413.812	557.88
414.035	558.88
414.258	546.88
414.482	548.88
414.705	573.88
414.928	556.88
415.151	534.88
415.374	568.88
415.597	562.88
415.821	529.88
416.044	539.88
416.267	574.88
416.49	557.88
416.713	540.88
416.936	540.88
417.159	529.88
417.382	544.88
417.605	545.88
417.828	560.88
418.051	600.88
418.274	574.88
418.497	539.88
418.72	557.88
418.943	554.88
419.166	587.88
419.389	609.88
419.611	609.88
419.834	588.88
420.057	598.88
420.28	586.88
420.503	570.88
420.726	596.88
420.948	594.88
421.171	637.88
421.394	641.88
421.617	589.88
421.839	570.88
422.062	574.88
422.285	597.88
422.507	661.88
422.73	739.88
422.953	696.88
423.175	638.88
423.398	605.88
423.621	619.88
423.843	625.88
424.066	638.88
424.288	619.88
424.511	639.88
424.733	696.88
424.956	776.88
425.178	763.88
425.401	719.88
425.623	745.88
425.846	679.88
426.068	621.88
426.291	600.88
426.513	634.88
426.735	626.88
426.958	637.88
427.18	731.88
427.402	894.88
427.625	958.88
427.847	819.88
428.069	736.88
428.292	650.88
428.514	619.88
428.736	576.88
428.958	576.88
429.181	560.88
429.403	584.88
429.625	569.88
429.847	588.88
430.069	680.88
430.292	660.88
430.514	601.88
430.736	572.88
430.958	560.88
431.18	542.88
431.402	539.88
431.624	537.88
431.846	532.88
432.068	510.88
432.29	546.88
432.512	561.88
432.734	550.88
432.956	552.88
433.178	560.88
433.4	558.88
433.622	527.88
433.844	531.88
434.066	532.88
434.287	524.88
434.509	539.88
434.731	557.88
434.953	571.88
435.175	573.88
435.397	598.88
435.618	594.88
435.84	648.88
436.062	734.88
436.284	830.88
436.505	689.88
436.727	619.88
436.949	572.88
437.17	561.88
437.392	560.88
437.614	577.88
437.835	602.88
438.057	701.88
438.278	827.88
438.5	806.88
438.721	893.88
438.943	864.88
439.165	647.88
439.386	612.88
439.608	607.88
439.829	607.88
440.05	619.88
440.272	669.88
440.493	641.88
440.715	615.88
440.936	592.88
441.158	588.88
441.379	572.88
441.6	581.88
441.822	614.88
442.043	649.88
442.264	723.88
442.486	778.88
442.707	656.88
442.928	638.88
443.149	655.88
443.371	662.88
443.592	698.88
443.813	820.88
444.034	875.88
444.255	694.88
444.476	637.88
444.698	635.88
444.919	612.88
445.14	739.88
445.361	681.88
445.582	650.88
445.803	742.88
446.024	819.88
446.245	825.88
446.466	737.88
446.687	641.88
446.908	600.88
447.129	574.88
447.35	561.88
447.571	570.88
447.792	561.88
448.013	555.88
448.234	568.88
448.455	624.88
448.675	747.88
448.896	881.88
449.117	721.88
449.338	693.88
449.559	803.88
449.779	919.88
450	734.88
450.221	626.88
450.442	539.88
450.662	557.88
450.883	538.88
451.104	535.88
451.324	540.88
451.545	519.88
451.766	528.88
451.986	497.88
452.207	504.88
452.428	486.88
452.648	490.88
452.869	502.88
453.089	502.88
453.31	534.88
453.53	501.88
453.751	500.88
453.971	516.88
454.192	504.88
454.412	506.88
454.633	486.88
454.853	496.88
455.073	497.88
455.294	512.88
455.514	592.88
455.734	571.88
455.955	491.88
456.175	478.88
456.395	465.88
456.616	460.88
456.836	460.88
457.056	473.88
457.276	468.88
457.497	446.88
457.717	461.88
457.937	492.88
458.157	445.88
458.377	471.88
458.598	527.88
458.818	547.88
459.038	635.88
459.258	662.88
459.478	587.88
459.698	545.88
459.918	536.88
460.138	549.88
460.358	530.88
460.578	554.88
460.798	551.88
461.018	570.88
461.238	554.88
461.458	555.88
461.678	553.88
461.898	581.88
462.118	564.88
462.338	572.88
462.558	573.88
462.777	589.88
462.997	627.88
463.217	630.88
463.437	625.88
463.657	584.88
463.876	607.88
464.096	628.88
464.316	599.88
464.536	603.88
464.755	591.88
464.975	602.88
465.195	614.88
465.414	642.88
465.634	611.88
465.854	578.88
466.073	556.88
466.293	542.88
466.512	509.88
466.732	501.88
466.951	517.88
467.171	490.88
467.391	503.88
467.61	519.88
467.829	540.88
468.049	519.88
468.268	521.88
468.488	504.88
468.707	478.88
468.927	500.88
469.146	475.88
469.365	490.88
469.585	489.88
469.804	513.88
470.023	522.88
470.243	517.88
470.462	517.88
470.681	539.88
470.901	551.88
471.12	516.88
471.339	499.88
471.558	523.88
471.777	529.88
471.997	511.88
472.216	516.88
472.435	538.88
472.654	531.88
472.873	497.88
473.092	507.88
473.311	519.88
473.53	505.88
473.749	526.88
473.968	558.88
474.187	649.88
474.406	685.88
474.625	566.88
474.844	528.88
475.063	527.88
475.282	523.88
475.501	491.88
475.72	534.88
475.939	538.88
476.158	513.88
476.377	536.88
476.596	504.88
476.814	536.88
477.033	545.88
477.252	546.88
477.471	561.88
477.69	535.88
477.908	559.88
478.127	571.88
478.346	574.88
478.564	590.88
478.783	588.88
479.002	587.88
479.22	596.88
479.439	618.88
479.658	620.88
479.876	630.88
480.095	624.88
480.313	676.88
480.532	664.88
480.751	666.88
480.969	627.88
481.188	668.88
481.406	695.88
481.624	670.88
481.843	610.88
482.061	625.88
482.28	603.88
482.498	596.88
482.717	586.88
482.935	606.88
483.153	624.88
483.372	598.88
483.59	612.88
483.808	587.88
484.027	605.88
484.245	609.88
484.463	589.88
484.681	610.88
484.9	629.88
485.118	615.88
485.336	597.88
485.554	626.88
485.772	639.88
485.99	627.88
486.209	636.88
486.427	635.88
486.645	622.88
486.863	646.88
487.081	634.88
487.299	628.88
487.517	643.88
487.735	636.88
487.953	645.88
488.171	650.88
488.389	636.88
488.607	643.88
488.825	642.88
489.043	672.88
489.261	670.88
489.479	649.88
489.696	646.88
489.914	693.88
490.132	686.88
490.35	670.88
490.568	668.88
490.786	664.88
491.003	692.88
491.221	684.88
491.439	714.88
491.657	718.88
491.874	722.88
492.092	739.88
492.31	731.88
492.527	698.88
492.745	741.88
492.963	754.88
493.18	750.88
493.398	743.88
493.615	771.88
493.833	773.88
494.05	762.88
494.268	757.88
494.485	735.88
494.703	718.88
494.92	748.88
495.138	753.88
495.355	772.88
495.573	762.88
495.79	768.88
496.008	757.88
496.225	740.88
496.442	766.88
496.66	761.88
496.877	772.88
497.094	786.88
497.312	788.88
497.529	807.88
497.746	811.88
497.963	786.88
498.181	836.88
498.398	845.88
498.615	895.88
498.832	900.88
499.049	926.88
499.267	946.88
499.484	1016.88
499.701	1027.88
499.918	1077.88
500.135	1146.88
500.352	1197.88
500.569	1218.88
500.786	1241.88
501.003	1188.88
501.22	1149.88
501.437	1075.88
501.654	1043.88
