Data from 1976.PennyLincolnUp.Lamp.En5.5.200Scan.071719.P1.Changed Mount._HRD10591_16-01-13-861.txt Node
Date: Thu Jul 18 16:01:13 EDT 2019
User: cochatt
Spectrometer: HR+D1059
Trigger mode: 1
Integration Time (sec): 1.000000E-1
Scans to average: 1
Electric dark correction enabled: true
Nonlinearity correction enabled: false
Boxcar width: 0
XAxis mode: Wavelengths
Number of Pixels in Spectrum: 2048
>>>>>Begin Spectral Data<<<<<
223.165	-6.12
223.4	-6.12
223.635	-6.12
223.869	-11.12
224.104	-15.12
224.338	-23.12
224.573	-17.12
224.808	-13.12
225.042	-20.12
225.277	-7.12
225.511	-1.12
225.746	23.88
225.98	8.88
226.215	-9.12
226.449	11.88
226.683	9.88
226.918	34.88
227.152	33.88
227.387	30.88
227.621	23.88
227.856	44.88
228.09	23.88
228.324	56.88
228.559	56.88
228.793	56.88
229.027	91.88
229.262	96.88
229.496	105.88
229.73	122.88
229.964	154.88
230.199	127.88
230.433	124.88
230.667	116.88
230.901	114.88
231.136	119.88
231.37	105.88
231.604	108.88
231.838	114.88
232.072	109.88
232.306	111.88
232.541	115.88
232.775	111.88
233.009	118.88
233.243	96.88
233.477	122.88
233.711	110.88
233.945	126.88
234.179	115.88
234.413	117.88
234.647	120.88
234.881	120.88
235.115	116.88
235.349	126.88
235.583	106.88
235.817	128.88
236.051	138.88
236.285	119.88
236.519	115.88
236.753	137.88
236.987	129.88
237.221	169.88
237.455	222.88
237.689	185.88
237.922	132.88
238.156	139.88
238.39	127.88
238.624	131.88
238.858	118.88
239.091	115.88
239.325	115.88
239.559	128.88
239.793	114.88
240.027	127.88
240.26	130.88
240.494	154.88
240.728	168.88
240.961	145.88
241.195	148.88
241.429	143.88
241.662	135.88
241.896	131.88
242.13	139.88
242.363	138.88
242.597	137.88
242.83	150.88
243.064	145.88
243.298	138.88
243.531	137.88
243.765	133.88
243.998	127.88
244.232	157.88
244.465	157.88
244.699	150.88
244.932	154.88
245.166	148.88
245.399	150.88
245.633	152.88
245.866	155.88
246.099	159.88
246.333	155.88
246.566	146.88
246.8	160.88
247.033	155.88
247.266	158.88
247.5	166.88
247.733	186.88
247.966	172.88
248.2	158.88
248.433	159.88
248.666	169.88
248.899	182.88
249.133	197.88
249.366	210.88
249.599	191.88
249.832	183.88
250.066	157.88
250.299	203.88
250.532	180.88
250.765	210.88
250.998	222.88
251.231	222.88
251.465	216.88
251.698	212.88
251.931	201.88
252.164	202.88
252.397	192.88
252.63	191.88
252.863	200.88
253.096	220.88
253.329	242.88
253.562	231.88
253.795	223.88
254.028	230.88
254.261	202.88
254.494	205.88
254.727	252.88
254.96	286.88
255.193	276.88
255.426	248.88
255.659	243.88
255.892	230.88
256.124	247.88
256.357	240.88
256.59	223.88
256.823	205.88
257.056	203.88
257.289	203.88
257.521	209.88
257.754	220.88
257.987	210.88
258.22	202.88
258.452	204.88
258.685	210.88
258.918	213.88
259.151	200.88
259.383	230.88
259.616	209.88
259.849	234.88
260.081	245.88
260.314	254.88
260.547	265.88
260.779	266.88
261.012	220.88
261.244	220.88
261.477	242.88
261.71	221.88
261.942	220.88
262.175	242.88
262.407	224.88
262.64	220.88
262.872	225.88
263.105	216.88
263.337	225.88
263.57	204.88
263.802	223.88
264.035	227.88
264.267	226.88
264.499	227.88
264.732	211.88
264.964	221.88
265.197	218.88
265.429	220.88
265.661	226.88
265.894	210.88
266.126	223.88
266.358	219.88
266.591	227.88
266.823	245.88
267.055	231.88
267.287	236.88
267.52	223.88
267.752	255.88
267.984	256.88
268.216	239.88
268.448	250.88
268.681	250.88
268.913	255.88
269.145	287.88
269.377	287.88
269.609	273.88
269.841	272.88
270.073	274.88
270.306	306.88
270.538	315.88
270.77	336.88
271.002	283.88
271.234	311.88
271.466	305.88
271.698	300.88
271.93	314.88
272.162	333.88
272.394	316.88
272.626	313.88
272.858	295.88
273.09	291.88
273.322	264.88
273.553	273.88
273.785	284.88
274.017	279.88
274.249	273.88
274.481	267.88
274.713	280.88
274.945	280.88
275.176	287.88
275.408	291.88
275.64	273.88
275.872	281.88
276.104	267.88
276.335	281.88
276.567	285.88
276.799	299.88
277.031	306.88
277.262	324.88
277.494	342.88
277.726	307.88
277.957	289.88
278.189	283.88
278.421	297.88
278.652	287.88
278.884	278.88
279.115	287.88
279.347	273.88
279.579	272.88
279.81	282.88
280.042	281.88
280.273	289.88
280.505	294.88
280.736	292.88
280.968	270.88
281.199	290.88
281.431	297.88
281.662	279.88
281.894	286.88
282.125	300.88
282.356	302.88
282.588	310.88
282.819	303.88
283.051	309.88
283.282	290.88
283.513	287.88
283.745	305.88
283.976	288.88
284.207	283.88
284.439	309.88
284.67	304.88
284.901	297.88
285.132	272.88
285.364	277.88
285.595	298.88
285.826	298.88
286.057	308.88
286.288	292.88
286.52	299.88
286.751	279.88
286.982	313.88
287.213	306.88
287.444	302.88
287.675	311.88
287.906	322.88
288.138	342.88
288.369	305.88
288.6	317.88
288.831	317.88
289.062	329.88
289.293	303.88
289.524	313.88
289.755	304.88
289.986	306.88
290.217	287.88
290.448	304.88
290.679	308.88
290.91	310.88
291.141	307.88
291.371	313.88
291.602	300.88
291.833	295.88
292.064	292.88
292.295	318.88
292.526	321.88
292.757	323.88
292.987	300.88
293.218	298.88
293.449	314.88
293.68	326.88
293.91	303.88
294.141	315.88
294.372	327.88
294.603	309.88
294.833	313.88
295.064	321.88
295.295	306.88
295.525	326.88
295.756	326.88
295.987	322.88
296.217	317.88
296.448	356.88
296.679	338.88
296.909	338.88
297.14	306.88
297.37	341.88
297.601	327.88
297.831	322.88
298.062	319.88
298.292	318.88
298.523	335.88
298.753	320.88
298.984	316.88
299.214	323.88
299.445	320.88
299.675	321.88
299.905	346.88
300.136	336.88
300.366	339.88
300.597	352.88
300.827	335.88
301.057	350.88
301.288	356.88
301.518	358.88
301.748	357.88
301.979	344.88
302.209	359.88
302.439	340.88
302.669	351.88
302.9	345.88
303.13	325.88
303.36	329.88
303.59	355.88
303.82	360.88
304.051	359.88
304.281	360.88
304.511	358.88
304.741	352.88
304.971	354.88
305.201	353.88
305.431	330.88
305.661	334.88
305.891	348.88
306.121	353.88
306.352	364.88
306.582	359.88
306.812	357.88
307.042	352.88
307.272	364.88
307.502	343.88
307.731	344.88
307.961	347.88
308.191	340.88
308.421	359.88
308.651	352.88
308.881	349.88
309.111	352.88
309.341	355.88
309.571	368.88
309.8	379.88
310.03	383.88
310.26	379.88
310.49	366.88
310.72	394.88
310.949	431.88
311.179	420.88
311.409	399.88
311.639	390.88
311.868	402.88
312.098	356.88
312.328	380.88
312.557	398.88
312.787	412.88
313.017	420.88
313.246	413.88
313.476	379.88
313.706	396.88
313.935	407.88
314.165	428.88
314.394	413.88
314.624	416.88
314.853	421.88
315.083	390.88
315.312	387.88
315.542	390.88
315.771	405.88
316.001	380.88
316.23	395.88
316.46	392.88
316.689	379.88
316.919	392.88
317.148	406.88
317.377	402.88
317.607	396.88
317.836	402.88
318.065	380.88
318.295	378.88
318.524	387.88
318.753	397.88
318.983	396.88
319.212	386.88
319.441	376.88
319.67	394.88
319.9	386.88
320.129	411.88
320.358	408.88
320.587	378.88
320.816	389.88
321.046	411.88
321.275	428.88
321.504	406.88
321.733	404.88
321.962	395.88
322.191	408.88
322.42	442.88
322.649	446.88
322.878	450.88
323.108	449.88
323.337	472.88
323.566	473.88
323.795	513.88
324.024	545.88
324.253	645.88
324.482	871.88
324.71	1322.88
324.939	1955.88
325.168	1704.88
325.397	884.88
325.626	610.88
325.855	518.88
326.084	524.88
326.313	471.88
326.542	489.88
326.77	528.88
326.999	596.88
327.228	795.88
327.457	1188.88
327.686	1498.88
327.914	996.88
328.143	673.88
328.372	591.88
328.6	545.88
328.829	530.88
329.058	536.88
329.287	547.88
329.515	540.88
329.744	487.88
329.972	503.88
330.201	514.88
330.43	551.88
330.658	569.88
330.887	608.88
331.115	562.88
331.344	516.88
331.572	474.88
331.801	518.88
332.03	489.88
332.258	481.88
332.486	475.88
332.715	498.88
332.943	481.88
333.172	472.88
333.4	490.88
333.629	483.88
333.857	523.88
334.085	519.88
334.314	522.88
334.542	531.88
334.771	558.88
334.999	514.88
335.227	483.88
335.455	479.88
335.684	490.88
335.912	487.88
336.14	430.88
336.369	456.88
336.597	466.88
336.825	470.88
337.053	467.88
337.281	466.88
337.51	475.88
337.738	488.88
337.966	488.88
338.194	458.88
338.422	450.88
338.65	465.88
338.878	440.88
339.106	449.88
339.334	454.88
339.562	477.88
339.79	436.88
340.018	460.88
340.246	457.88
340.474	438.88
340.702	464.88
340.93	426.88
341.158	456.88
341.386	462.88
341.614	465.88
341.842	444.88
342.07	439.88
342.298	427.88
342.526	434.88
342.754	431.88
342.981	434.88
343.209	430.88
343.437	433.88
343.665	447.88
343.893	465.88
344.12	468.88
344.348	479.88
344.576	468.88
344.804	472.88
345.031	465.88
345.259	470.88
345.487	451.88
345.714	448.88
345.942	432.88
346.17	431.88
346.397	435.88
346.625	440.88
346.853	425.88
347.08	446.88
347.308	436.88
347.535	439.88
347.763	438.88
347.99	444.88
348.218	434.88
348.445	439.88
348.673	445.88
348.9	436.88
349.128	443.88
349.355	434.88
349.583	417.88
349.81	420.88
350.037	421.88
350.265	405.88
350.492	413.88
350.72	396.88
350.947	404.88
351.174	426.88
351.402	437.88
351.629	450.88
351.856	447.88
352.083	439.88
352.311	448.88
352.538	435.88
352.765	440.88
352.992	432.88
353.22	412.88
353.447	433.88
353.674	420.88
353.901	413.88
354.128	406.88
354.355	394.88
354.583	422.88
354.81	418.88
355.037	384.88
355.264	400.88
355.491	417.88
355.718	405.88
355.945	405.88
356.172	401.88
356.399	402.88
356.626	409.88
356.853	409.88
357.08	402.88
357.307	399.88
357.534	405.88
357.761	419.88
357.988	406.88
358.215	401.88
358.441	416.88
358.668	416.88
358.895	416.88
359.122	408.88
359.349	412.88
359.576	425.88
359.802	432.88
360.029	460.88
360.256	469.88
360.483	458.88
360.709	447.88
360.936	434.88
361.163	421.88
361.39	422.88
361.616	428.88
361.843	441.88
362.07	422.88
362.296	438.88
362.523	419.88
362.749	407.88
362.976	423.88
363.203	399.88
363.429	428.88
363.656	422.88
363.882	423.88
364.109	408.88
364.335	406.88
364.562	402.88
364.788	402.88
365.015	400.88
365.241	411.88
365.468	415.88
365.694	411.88
365.92	423.88
366.147	421.88
366.373	404.88
366.599	393.88
366.826	394.88
367.052	392.88
367.278	432.88
367.505	411.88
367.731	428.88
367.957	417.88
368.184	422.88
368.41	397.88
368.636	421.88
368.862	441.88
369.089	410.88
369.315	402.88
369.541	438.88
369.767	414.88
369.993	423.88
370.219	411.88
370.445	422.88
370.672	407.88
370.898	412.88
371.124	431.88
371.35	404.88
371.576	397.88
371.802	442.88
372.028	418.88
372.254	418.88
372.48	422.88
372.706	438.88
372.932	435.88
373.158	435.88
373.384	438.88
373.61	428.88
373.835	428.88
374.061	411.88
374.287	422.88
374.513	445.88
374.739	437.88
374.965	427.88
375.191	443.88
375.416	409.88
375.642	420.88
375.868	438.88
376.094	403.88
376.319	424.88
376.545	411.88
376.771	431.88
376.997	414.88
377.222	418.88
377.448	431.88
377.674	416.88
377.899	415.88
378.125	404.88
378.35	413.88
378.576	434.88
378.802	408.88
379.027	414.88
379.253	424.88
379.478	428.88
379.704	424.88
379.929	407.88
380.155	419.88
380.38	405.88
380.606	414.88
380.831	411.88
381.057	430.88
381.282	402.88
381.507	407.88
381.733	414.88
381.958	410.88
382.184	414.88
382.409	440.88
382.634	434.88
382.86	444.88
383.085	439.88
383.31	436.88
383.535	430.88
383.761	439.88
383.986	444.88
384.211	443.88
384.436	440.88
384.662	450.88
384.887	444.88
385.112	463.88
385.337	466.88
385.562	468.88
385.787	463.88
386.013	467.88
386.238	463.88
386.463	492.88
386.688	471.88
386.913	455.88
387.138	461.88
387.363	472.88
387.588	458.88
387.813	485.88
388.038	462.88
388.263	462.88
388.488	468.88
388.713	470.88
388.938	474.88
389.163	475.88
389.387	464.88
389.612	466.88
389.837	467.88
390.062	442.88
390.287	457.88
390.512	471.88
390.736	479.88
390.961	478.88
391.186	477.88
391.411	452.88
391.636	486.88
391.86	465.88
392.085	479.88
392.31	478.88
392.534	483.88
392.759	476.88
392.984	446.88
393.208	487.88
393.433	454.88
393.658	455.88
393.882	470.88
394.107	460.88
394.331	475.88
394.556	460.88
394.78	469.88
395.005	491.88
395.229	487.88
395.454	483.88
395.678	507.88
395.903	512.88
396.127	507.88
396.352	520.88
396.576	516.88
396.801	483.88
397.025	491.88
397.249	500.88
397.474	499.88
397.698	498.88
397.922	530.88
398.147	518.88
398.371	539.88
398.595	539.88
398.82	543.88
399.044	572.88
399.268	586.88
399.492	645.88
399.717	655.88
399.941	669.88
400.165	684.88
400.389	702.88
400.613	625.88
400.837	594.88
401.062	583.88
401.286	564.88
401.51	548.88
401.734	539.88
401.958	546.88
402.182	558.88
402.406	566.88
402.63	553.88
402.854	568.88
403.078	570.88
403.302	564.88
403.526	588.88
403.75	581.88
403.974	581.88
404.198	559.88
404.422	587.88
404.645	597.88
404.869	596.88
405.093	600.88
405.317	634.88
405.541	682.88
405.765	631.88
405.988	589.88
406.212	583.88
406.436	606.88
406.66	632.88
406.883	609.88
407.107	637.88
407.331	708.88
407.555	747.88
407.778	752.88
408.002	676.88
408.226	628.88
408.449	614.88
408.673	622.88
408.896	646.88
409.12	683.88
409.344	651.88
409.567	633.88
409.791	591.88
410.014	560.88
410.238	574.88
410.461	573.88
410.685	572.88
410.908	571.88
411.132	601.88
411.355	646.88
411.578	628.88
411.802	590.88
412.025	569.88
412.249	565.88
412.472	601.88
412.695	636.88
412.919	633.88
413.142	571.88
413.365	573.88
413.589	554.88
413.812	546.88
414.035	538.88
414.258	546.88
414.482	542.88
414.705	536.88
414.928	538.88
415.151	532.88
415.374	538.88
415.597	535.88
415.821	523.88
416.044	529.88
416.267	535.88
416.49	534.88
416.713	519.88
416.936	542.88
417.159	535.88
417.382	529.88
417.605	534.88
417.828	543.88
418.051	559.88
418.274	525.88
418.497	518.88
418.72	534.88
418.943	518.88
419.166	549.88
419.389	586.88
419.611	601.88
419.834	568.88
420.057	591.88
420.28	579.88
420.503	562.88
420.726	575.88
420.948	577.88
421.171	619.88
421.394	628.88
421.617	583.88
421.839	577.88
422.062	562.88
422.285	582.88
422.507	603.88
422.73	708.88
422.953	676.88
423.175	612.88
423.398	585.88
423.621	586.88
423.843	593.88
424.066	599.88
424.288	590.88
424.511	619.88
424.733	678.88
424.956	736.88
425.178	675.88
425.401	721.88
425.623	729.88
425.846	622.88
426.068	580.88
426.291	576.88
426.513	581.88
426.735	570.88
426.958	617.88
427.18	722.88
427.402	857.88
427.625	920.88
427.847	780.88
428.069	695.88
428.292	619.88
428.514	573.88
428.736	574.88
428.958	562.88
429.181	538.88
429.403	539.88
429.625	545.88
429.847	578.88
430.069	659.88
430.292	640.88
430.514	576.88
430.736	545.88
430.958	544.88
431.18	510.88
431.402	511.88
431.624	510.88
431.846	504.88
432.068	496.88
432.29	515.88
432.512	487.88
432.734	507.88
432.956	517.88
433.178	502.88
433.4	536.88
433.622	519.88
433.844	502.88
434.066	522.88
434.287	521.88
434.509	537.88
434.731	540.88
434.953	549.88
435.175	570.88
435.397	580.88
435.618	582.88
435.84	649.88
436.062	706.88
436.284	791.88
436.505	666.88
436.727	595.88
436.949	551.88
437.17	547.88
437.392	530.88
437.614	538.88
437.835	587.88
438.057	674.88
438.278	773.88
438.5	784.88
438.721	845.88
438.943	792.88
439.165	664.88
439.386	608.88
439.608	580.88
439.829	581.88
440.05	605.88
440.272	655.88
440.493	622.88
440.715	558.88
440.936	571.88
441.158	543.88
441.379	558.88
441.6	564.88
441.822	580.88
442.043	618.88
442.264	695.88
442.486	741.88
442.707	635.88
442.928	608.88
443.149	585.88
443.371	625.88
443.592	686.88
443.813	756.88
444.034	810.88
444.255	679.88
444.476	643.88
444.698	603.88
444.919	615.88
445.14	691.88
445.361	642.88
445.582	646.88
445.803	694.88
446.024	789.88
446.245	790.88
446.466	704.88
446.687	622.88
446.908	590.88
447.129	523.88
447.35	549.88
447.571	528.88
447.792	517.88
448.013	517.88
448.234	544.88
448.455	586.88
448.675	695.88
448.896	820.88
449.117	713.88
449.338	659.88
449.559	756.88
449.779	882.88
450	724.88
450.221	573.88
450.442	542.88
450.662	521.88
450.883	494.88
451.104	530.88
451.324	504.88
451.545	501.88
451.766	476.88
451.986	479.88
452.207	458.88
452.428	479.88
452.648	450.88
452.869	468.88
453.089	478.88
453.31	496.88
453.53	477.88
453.751	478.88
453.971	498.88
454.192	492.88
454.412	483.88
454.633	474.88
454.853	474.88
455.073	461.88
455.294	486.88
455.514	575.88
455.734	521.88
455.955	475.88
456.175	453.88
456.395	450.88
456.616	443.88
456.836	450.88
457.056	456.88
457.276	426.88
457.497	450.88
457.717	464.88
457.937	464.88
458.157	450.88
458.377	467.88
458.598	507.88
458.818	558.88
459.038	638.88
459.258	612.88
459.478	530.88
459.698	514.88
459.918	492.88
460.138	531.88
460.358	522.88
460.578	542.88
460.798	516.88
461.018	532.88
461.238	552.88
461.458	535.88
461.678	535.88
461.898	541.88
462.118	540.88
462.338	565.88
462.558	572.88
462.777	574.88
462.997	593.88
463.217	626.88
463.437	593.88
463.657	586.88
463.876	577.88
464.096	576.88
464.316	578.88
464.536	593.88
464.755	562.88
464.975	545.88
465.195	615.88
465.414	622.88
465.634	584.88
465.854	551.88
466.073	527.88
466.293	515.88
466.512	498.88
466.732	481.88
466.951	483.88
467.171	495.88
467.391	482.88
467.61	488.88
467.829	505.88
468.049	490.88
468.268	492.88
468.488	467.88
468.707	478.88
468.927	467.88
469.146	470.88
469.365	475.88
469.585	481.88
469.804	468.88
470.023	503.88
470.243	499.88
470.462	482.88
470.681	516.88
470.901	504.88
471.12	520.88
471.339	471.88
471.558	485.88
471.777	516.88
471.997	495.88
472.216	501.88
472.435	529.88
472.654	507.88
472.873	506.88
473.092	469.88
473.311	486.88
473.53	488.88
473.749	499.88
473.968	532.88
474.187	629.88
474.406	649.88
474.625	541.88
474.844	507.88
475.063	488.88
475.282	496.88
475.501	498.88
475.72	516.88
475.939	523.88
476.158	497.88
476.377	517.88
476.596	505.88
476.814	539.88
477.033	510.88
477.252	542.88
477.471	559.88
477.69	528.88
477.908	546.88
478.127	539.88
478.346	554.88
478.564	546.88
478.783	574.88
479.002	562.88
479.22	551.88
479.439	606.88
479.658	592.88
479.876	594.88
480.095	584.88
480.313	643.88
480.532	632.88
480.751	611.88
480.969	638.88
481.188	646.88
481.406	674.88
481.624	606.88
481.843	592.88
482.061	592.88
482.28	608.88
482.498	583.88
482.717	574.88
482.935	565.88
483.153	569.88
483.372	580.88
483.59	562.88
483.808	567.88
484.027	587.88
484.245	562.88
484.463	578.88
484.681	588.88
484.9	598.88
485.118	573.88
485.336	582.88
485.554	611.88
485.772	599.88
485.99	564.88
486.209	604.88
486.427	617.88
486.645	595.88
486.863	614.88
487.081	625.88
487.299	622.88
487.517	616.88
487.735	616.88
487.953	605.88
488.171	634.88
488.389	628.88
488.607	616.88
488.825	592.88
489.043	620.88
489.261	620.88
489.479	643.88
489.696	622.88
489.914	612.88
490.132	624.88
490.35	622.88
490.568	671.88
490.786	672.88
491.003	687.88
491.221	671.88
491.439	687.88
491.657	698.88
491.874	700.88
492.092	705.88
492.31	719.88
492.527	743.88
492.745	704.88
492.963	718.88
493.18	722.88
493.398	723.88
493.615	742.88
493.833	716.88
494.05	737.88
494.268	726.88
494.485	712.88
494.703	751.88
494.92	746.88
495.138	722.88
495.355	732.88
495.573	747.88
495.79	724.88
496.008	726.88
496.225	724.88
496.442	746.88
496.66	742.88
496.877	745.88
497.094	742.88
497.312	752.88
497.529	769.88
497.746	790.88
497.963	789.88
498.181	803.88
498.398	834.88
498.615	787.88
498.832	852.88
499.049	875.88
499.267	905.88
499.484	937.88
499.701	976.88
499.918	1049.88
500.135	1108.88
500.352	1152.88
500.569	1176.88
500.786	1181.88
501.003	1164.88
501.22	1090.88
501.437	1062.88
501.654	1008.88
