Data from 1976.PennyLincolnUp.Lamp.En5.5.200Scan.071719.P1.Changed Mount._HRD10591_16-01-54-862.txt Node
Date: Thu Jul 18 16:01:54 EDT 2019
User: cochatt
Spectrometer: HR+D1059
Trigger mode: 1
Integration Time (sec): 1.000000E-1
Scans to average: 1
Electric dark correction enabled: true
Nonlinearity correction enabled: false
Boxcar width: 0
XAxis mode: Wavelengths
Number of Pixels in Spectrum: 2048
>>>>>Begin Spectral Data<<<<<
223.165	-26.94
223.4	-26.94
223.635	-26.94
223.869	-18.94
224.104	-14.94
224.338	-8.94
224.573	2.06
224.808	-13.94
225.042	-5.94
225.277	-16.94
225.511	-16.94
225.746	-8.94
225.98	10.06
226.215	8.06
226.449	14.06
226.683	34.06
226.918	25.06
227.152	39.06
227.387	42.06
227.621	44.06
227.856	45.06
228.09	38.06
228.324	49.06
228.559	66.06
228.793	66.06
229.027	85.06
229.262	105.06
229.496	113.06
229.73	131.06
229.964	155.06
230.199	134.06
230.433	93.06
230.667	121.06
230.901	124.06
231.136	99.06
231.37	111.06
231.604	121.06
231.838	117.06
232.072	115.06
232.306	121.06
232.541	116.06
232.775	117.06
233.009	122.06
233.243	122.06
233.477	118.06
233.711	116.06
233.945	120.06
234.179	121.06
234.413	127.06
234.647	129.06
234.881	115.06
235.115	134.06
235.349	113.06
235.583	130.06
235.817	129.06
236.051	125.06
236.285	136.06
236.519	144.06
236.753	129.06
236.987	140.06
237.221	179.06
237.455	231.06
237.689	183.06
237.922	143.06
238.156	139.06
238.39	131.06
238.624	126.06
238.858	122.06
239.091	129.06
239.325	137.06
239.559	138.06
239.793	133.06
240.027	143.06
240.26	155.06
240.494	155.06
240.728	152.06
240.961	163.06
241.195	153.06
241.429	147.06
241.662	130.06
241.896	136.06
242.13	134.06
242.363	147.06
242.597	144.06
242.83	137.06
243.064	147.06
243.298	147.06
243.531	141.06
243.765	142.06
243.998	136.06
244.232	150.06
244.465	158.06
244.699	150.06
244.932	153.06
245.166	154.06
245.399	146.06
245.633	143.06
245.866	156.06
246.099	155.06
246.333	163.06
246.566	157.06
246.8	151.06
247.033	153.06
247.266	160.06
247.5	155.06
247.733	167.06
247.966	173.06
248.2	181.06
248.433	169.06
248.666	163.06
248.899	187.06
249.133	194.06
249.366	201.06
249.599	209.06
249.832	194.06
250.066	182.06
250.299	177.06
250.532	190.06
250.765	210.06
250.998	220.06
251.231	235.06
251.465	239.06
251.698	195.06
251.931	226.06
252.164	203.06
252.397	198.06
252.63	214.06
252.863	219.06
253.096	226.06
253.329	233.06
253.562	210.06
253.795	218.06
254.028	204.06
254.261	215.06
254.494	238.06
254.727	261.06
254.96	303.06
255.193	267.06
255.426	263.06
255.659	247.06
255.892	229.06
256.124	247.06
256.357	243.06
256.59	238.06
256.823	232.06
257.056	242.06
257.289	216.06
257.521	200.06
257.754	212.06
257.987	208.06
258.22	217.06
258.452	213.06
258.685	196.06
258.918	212.06
259.151	205.06
259.383	238.06
259.616	229.06
259.849	231.06
260.081	237.06
260.314	258.06
260.547	259.06
260.779	248.06
261.012	254.06
261.244	229.06
261.477	230.06
261.71	223.06
261.942	238.06
262.175	241.06
262.407	225.06
262.64	246.06
262.872	223.06
263.105	217.06
263.337	227.06
263.57	228.06
263.802	221.06
264.035	216.06
264.267	232.06
264.499	215.06
264.732	219.06
264.964	246.06
265.197	244.06
265.429	228.06
265.661	217.06
265.894	235.06
266.126	245.06
266.358	228.06
266.591	230.06
266.823	236.06
267.055	230.06
267.287	217.06
267.52	234.06
267.752	244.06
267.984	259.06
268.216	239.06
268.448	260.06
268.681	257.06
268.913	273.06
269.145	291.06
269.377	299.06
269.609	295.06
269.841	301.06
270.073	300.06
270.306	295.06
270.538	341.06
270.77	342.06
271.002	323.06
271.234	308.06
271.466	311.06
271.698	333.06
271.93	342.06
272.162	323.06
272.394	340.06
272.626	326.06
272.858	313.06
273.09	298.06
273.322	285.06
273.553	275.06
273.785	287.06
274.017	275.06
274.249	279.06
274.481	278.06
274.713	275.06
274.945	280.06
275.176	290.06
275.408	279.06
275.64	306.06
275.872	277.06
276.104	281.06
276.335	290.06
276.567	270.06
276.799	312.06
277.031	326.06
277.262	353.06
277.494	343.06
277.726	343.06
277.957	310.06
278.189	310.06
278.421	302.06
278.652	289.06
278.884	279.06
279.115	289.06
279.347	296.06
279.579	278.06
279.81	285.06
280.042	280.06
280.273	275.06
280.505	296.06
280.736	280.06
280.968	290.06
281.199	301.06
281.431	301.06
281.662	289.06
281.894	294.06
282.125	304.06
282.356	316.06
282.588	310.06
282.819	293.06
283.051	289.06
283.282	298.06
283.513	300.06
283.745	285.06
283.976	327.06
284.207	300.06
284.439	308.06
284.67	313.06
284.901	306.06
285.132	312.06
285.364	315.06
285.595	310.06
285.826	297.06
286.057	312.06
286.288	318.06
286.52	298.06
286.751	312.06
286.982	311.06
287.213	300.06
287.444	318.06
287.675	329.06
287.906	333.06
288.138	321.06
288.369	347.06
288.6	334.06
288.831	346.06
289.062	316.06
289.293	328.06
289.524	330.06
289.755	329.06
289.986	305.06
290.217	309.06
290.448	333.06
290.679	316.06
290.91	327.06
291.141	325.06
291.371	322.06
291.602	315.06
291.833	313.06
292.064	310.06
292.295	310.06
292.526	304.06
292.757	310.06
292.987	323.06
293.218	313.06
293.449	323.06
293.68	324.06
293.91	313.06
294.141	317.06
294.372	327.06
294.603	332.06
294.833	324.06
295.064	313.06
295.295	315.06
295.525	314.06
295.756	318.06
295.987	344.06
296.217	340.06
296.448	357.06
296.679	342.06
296.909	335.06
297.14	326.06
297.37	333.06
297.601	318.06
297.831	355.06
298.062	318.06
298.292	330.06
298.523	333.06
298.753	309.06
298.984	335.06
299.214	342.06
299.445	333.06
299.675	356.06
299.905	326.06
300.136	318.06
300.366	348.06
300.597	339.06
300.827	345.06
301.057	357.06
301.288	338.06
301.518	342.06
301.748	376.06
301.979	365.06
302.209	373.06
302.439	369.06
302.669	345.06
302.9	367.06
303.13	365.06
303.36	355.06
303.59	371.06
303.82	359.06
304.051	377.06
304.281	346.06
304.511	343.06
304.741	362.06
304.971	362.06
305.201	353.06
305.431	344.06
305.661	361.06
305.891	346.06
306.121	358.06
306.352	358.06
306.582	343.06
306.812	359.06
307.042	352.06
307.272	347.06
307.502	342.06
307.731	379.06
307.961	375.06
308.191	347.06
308.421	364.06
308.651	367.06
308.881	369.06
309.111	379.06
309.341	370.06
309.571	400.06
309.8	381.06
310.03	398.06
310.26	400.06
310.49	386.06
310.72	385.06
310.949	433.06
311.179	430.06
311.409	407.06
311.639	397.06
311.868	399.06
312.098	392.06
312.328	428.06
312.557	414.06
312.787	428.06
313.017	436.06
313.246	403.06
313.476	406.06
313.706	407.06
313.935	405.06
314.165	423.06
314.394	429.06
314.624	396.06
314.853	415.06
315.083	418.06
315.312	402.06
315.542	402.06
315.771	431.06
316.001	403.06
316.23	403.06
316.46	396.06
316.689	418.06
316.919	418.06
317.148	415.06
317.377	413.06
317.607	395.06
317.836	407.06
318.065	412.06
318.295	418.06
318.524	398.06
318.753	395.06
318.983	400.06
319.212	405.06
319.441	389.06
319.67	420.06
319.9	413.06
320.129	442.06
320.358	410.06
320.587	409.06
320.816	396.06
321.046	415.06
321.275	431.06
321.504	415.06
321.733	436.06
321.962	400.06
322.191	418.06
322.42	453.06
322.649	439.06
322.878	458.06
323.108	455.06
323.337	493.06
323.566	497.06
323.795	506.06
324.024	555.06
324.253	649.06
324.482	920.06
324.71	1381.06
324.939	2109.06
325.168	1803.06
325.397	889.06
325.626	639.06
325.855	517.06
326.084	513.06
326.313	500.06
326.542	487.06
326.77	541.06
326.999	624.06
327.228	828.06
327.457	1236.06
327.686	1591.06
327.914	1045.06
328.143	697.06
328.372	616.06
328.6	572.06
328.829	551.06
329.058	582.06
329.287	573.06
329.515	550.06
329.744	537.06
329.972	519.06
330.201	553.06
330.43	561.06
330.658	559.06
330.887	601.06
331.115	593.06
331.344	545.06
331.572	497.06
331.801	533.06
332.03	506.06
332.258	494.06
332.486	471.06
332.715	506.06
332.943	499.06
333.172	489.06
333.4	493.06
333.629	511.06
333.857	534.06
334.085	551.06
334.314	576.06
334.542	587.06
334.771	588.06
334.999	552.06
335.227	517.06
335.455	515.06
335.684	495.06
335.912	495.06
336.14	483.06
336.369	484.06
336.597	504.06
336.825	479.06
337.053	454.06
337.281	476.06
337.51	465.06
337.738	464.06
337.966	484.06
338.194	482.06
338.422	475.06
338.65	463.06
338.878	460.06
339.106	468.06
339.334	460.06
339.562	463.06
339.79	464.06
340.018	449.06
340.246	474.06
340.474	477.06
340.702	461.06
340.93	455.06
341.158	476.06
341.386	451.06
341.614	458.06
341.842	466.06
342.07	462.06
342.298	457.06
342.526	457.06
342.754	442.06
342.981	451.06
343.209	432.06
343.437	450.06
343.665	469.06
343.893	493.06
344.12	501.06
344.348	487.06
344.576	492.06
344.804	501.06
345.031	481.06
345.259	504.06
345.487	468.06
345.714	468.06
345.942	461.06
346.17	437.06
346.397	444.06
346.625	441.06
346.853	441.06
347.08	434.06
347.308	444.06
347.535	427.06
347.763	442.06
347.99	441.06
348.218	461.06
348.445	454.06
348.673	449.06
348.9	436.06
349.128	441.06
349.355	426.06
349.583	430.06
349.81	421.06
350.037	438.06
350.265	429.06
350.492	417.06
350.72	437.06
350.947	435.06
351.174	449.06
351.402	463.06
351.629	438.06
351.856	454.06
352.083	472.06
352.311	458.06
352.538	451.06
352.765	443.06
352.992	429.06
353.22	439.06
353.447	459.06
353.674	442.06
353.901	413.06
354.128	428.06
354.355	410.06
354.583	424.06
354.81	437.06
355.037	427.06
355.264	418.06
355.491	402.06
355.718	410.06
355.945	412.06
356.172	419.06
356.399	421.06
356.626	428.06
356.853	398.06
357.08	413.06
357.307	405.06
357.534	427.06
357.761	400.06
357.988	396.06
358.215	407.06
358.441	407.06
358.668	418.06
358.895	426.06
359.122	421.06
359.349	440.06
359.576	445.06
359.802	461.06
360.029	461.06
360.256	471.06
360.483	445.06
360.709	459.06
360.936	433.06
361.163	435.06
361.39	443.06
361.616	446.06
361.843	421.06
362.07	446.06
362.296	433.06
362.523	450.06
362.749	417.06
362.976	423.06
363.203	429.06
363.429	405.06
363.656	431.06
363.882	434.06
364.109	403.06
364.335	419.06
364.562	404.06
364.788	404.06
365.015	437.06
365.241	398.06
365.468	436.06
365.694	425.06
365.92	418.06
366.147	433.06
366.373	427.06
366.599	403.06
366.826	412.06
367.052	428.06
367.278	425.06
367.505	425.06
367.731	430.06
367.957	417.06
368.184	425.06
368.41	424.06
368.636	433.06
368.862	456.06
369.089	422.06
369.315	429.06
369.541	424.06
369.767	435.06
369.993	420.06
370.219	428.06
370.445	434.06
370.672	429.06
370.898	445.06
371.124	420.06
371.35	431.06
371.576	417.06
371.802	427.06
372.028	419.06
372.254	430.06
372.48	431.06
372.706	433.06
372.932	439.06
373.158	434.06
373.384	468.06
373.61	433.06
373.835	421.06
374.061	424.06
374.287	418.06
374.513	445.06
374.739	437.06
374.965	445.06
375.191	457.06
375.416	451.06
375.642	429.06
375.868	442.06
376.094	430.06
376.319	430.06
376.545	415.06
376.771	425.06
376.997	433.06
377.222	419.06
377.448	428.06
377.674	428.06
377.899	427.06
378.125	420.06
378.35	424.06
378.576	416.06
378.802	431.06
379.027	427.06
379.253	458.06
379.478	434.06
379.704	425.06
379.929	410.06
380.155	434.06
380.38	442.06
380.606	438.06
380.831	440.06
381.057	437.06
381.282	422.06
381.507	428.06
381.733	430.06
381.958	432.06
382.184	425.06
382.409	425.06
382.634	466.06
382.86	439.06
383.085	442.06
383.31	445.06
383.535	442.06
383.761	422.06
383.986	444.06
384.211	437.06
384.436	445.06
384.662	452.06
384.887	462.06
385.112	474.06
385.337	480.06
385.562	464.06
385.787	475.06
386.013	484.06
386.238	464.06
386.463	500.06
386.688	490.06
386.913	470.06
387.138	473.06
387.363	484.06
387.588	469.06
387.813	478.06
388.038	494.06
388.263	508.06
388.488	466.06
388.713	473.06
388.938	492.06
389.163	486.06
389.387	488.06
389.612	489.06
389.837	469.06
390.062	464.06
390.287	481.06
390.512	484.06
390.736	456.06
390.961	459.06
391.186	495.06
391.411	482.06
391.636	488.06
391.86	526.06
392.085	516.06
392.31	503.06
392.534	519.06
392.759	472.06
392.984	482.06
393.208	487.06
393.433	490.06
393.658	501.06
393.882	475.06
394.107	489.06
394.331	476.06
394.556	485.06
394.78	483.06
395.005	487.06
395.229	485.06
395.454	506.06
395.678	503.06
395.903	537.06
396.127	542.06
396.352	554.06
396.576	519.06
396.801	521.06
397.025	497.06
397.249	509.06
397.474	536.06
397.698	541.06
397.922	530.06
398.147	531.06
398.371	565.06
398.595	555.06
398.82	563.06
399.044	563.06
399.268	592.06
399.492	635.06
399.717	673.06
399.941	687.06
400.165	710.06
400.389	713.06
400.613	647.06
400.837	607.06
401.062	601.06
401.286	579.06
401.51	566.06
401.734	556.06
401.958	576.06
402.182	552.06
402.406	550.06
402.63	568.06
402.854	559.06
403.078	574.06
403.302	606.06
403.526	591.06
403.75	593.06
403.974	589.06
404.198	573.06
404.422	603.06
404.645	593.06
404.869	605.06
405.093	607.06
405.317	690.06
405.541	701.06
405.765	668.06
405.988	604.06
406.212	625.06
406.436	634.06
406.66	624.06
406.883	640.06
407.107	653.06
407.331	709.06
407.555	790.06
407.778	785.06
408.002	728.06
408.226	651.06
408.449	630.06
408.673	634.06
408.896	638.06
409.12	689.06
409.344	680.06
409.567	604.06
409.791	599.06
410.014	577.06
410.238	591.06
410.461	581.06
410.685	599.06
410.908	596.06
411.132	649.06
411.355	675.06
411.578	623.06
411.802	593.06
412.025	587.06
412.249	591.06
412.472	621.06
412.695	661.06
412.919	633.06
413.142	617.06
413.365	575.06
413.589	551.06
413.812	570.06
414.035	549.06
414.258	558.06
414.482	571.06
414.705	535.06
414.928	561.06
415.151	538.06
415.374	554.06
415.597	556.06
415.821	550.06
416.044	541.06
416.267	555.06
416.49	545.06
416.713	554.06
416.936	552.06
417.159	532.06
417.382	558.06
417.605	537.06
417.828	550.06
418.051	592.06
418.274	593.06
418.497	543.06
418.72	584.06
418.943	536.06
419.166	565.06
419.389	604.06
419.611	599.06
419.834	593.06
420.057	581.06
420.28	575.06
420.503	572.06
420.726	542.06
420.948	598.06
421.171	604.06
421.394	657.06
421.617	613.06
421.839	558.06
422.062	567.06
422.285	589.06
422.507	625.06
422.73	729.06
422.953	699.06
423.175	625.06
423.398	605.06
423.621	604.06
423.843	630.06
424.066	623.06
424.288	610.06
424.511	651.06
424.733	670.06
424.956	773.06
425.178	725.06
425.401	732.06
425.623	739.06
425.846	663.06
426.068	606.06
426.291	588.06
426.513	582.06
426.735	620.06
426.958	648.06
427.18	739.06
427.402	883.06
427.625	991.06
427.847	809.06
428.069	720.06
428.292	646.06
428.514	587.06
428.736	563.06
428.958	572.06
429.181	539.06
429.403	548.06
429.625	541.06
429.847	586.06
430.069	686.06
430.292	670.06
430.514	571.06
430.736	575.06
430.958	550.06
431.18	547.06
431.402	552.06
431.624	517.06
431.846	538.06
432.068	526.06
432.29	546.06
432.512	562.06
432.734	539.06
432.956	530.06
433.178	545.06
433.4	557.06
433.622	542.06
433.844	515.06
434.066	551.06
434.287	536.06
434.509	546.06
434.731	552.06
434.953	568.06
435.175	564.06
435.397	611.06
435.618	599.06
435.84	628.06
436.062	717.06
436.284	822.06
436.505	677.06
436.727	616.06
436.949	574.06
437.17	558.06
437.392	523.06
437.614	573.06
437.835	590.06
438.057	698.06
438.278	800.06
438.5	785.06
438.721	853.06
438.943	857.06
439.165	669.06
439.386	614.06
439.608	591.06
439.829	609.06
440.05	622.06
440.272	665.06
440.493	635.06
440.715	574.06
440.936	565.06
441.158	576.06
441.379	563.06
441.6	592.06
441.822	599.06
442.043	643.06
442.264	747.06
442.486	770.06
442.707	693.06
442.928	659.06
443.149	629.06
443.371	652.06
443.592	675.06
443.813	803.06
444.034	834.06
444.255	712.06
444.476	641.06
444.698	626.06
444.919	630.06
445.14	769.06
445.361	680.06
445.582	649.06
445.803	722.06
446.024	839.06
446.245	853.06
446.466	755.06
446.687	664.06
446.908	585.06
447.129	584.06
447.35	576.06
447.571	545.06
447.792	551.06
448.013	544.06
448.234	581.06
448.455	616.06
448.675	735.06
448.896	874.06
449.117	726.06
449.338	660.06
449.559	791.06
449.779	899.06
450	725.06
450.221	579.06
450.442	540.06
450.662	537.06
450.883	542.06
451.104	545.06
451.324	523.06
451.545	490.06
451.766	513.06
451.986	490.06
452.207	486.06
452.428	478.06
452.648	515.06
452.869	501.06
453.089	494.06
453.31	510.06
453.53	497.06
453.751	485.06
453.971	508.06
454.192	492.06
454.412	490.06
454.633	484.06
454.853	474.06
455.073	487.06
455.294	516.06
455.514	569.06
455.734	561.06
455.955	481.06
456.175	473.06
456.395	466.06
456.616	463.06
456.836	495.06
457.056	465.06
457.276	443.06
457.497	457.06
457.717	466.06
457.937	478.06
458.157	481.06
458.377	481.06
458.598	487.06
458.818	552.06
459.038	617.06
459.258	653.06
459.478	578.06
459.698	508.06
459.918	516.06
460.138	548.06
460.358	534.06
460.578	514.06
460.798	541.06
461.018	589.06
461.238	547.06
461.458	534.06
461.678	515.06
461.898	553.06
462.118	545.06
462.338	567.06
462.558	582.06
462.777	590.06
462.997	618.06
463.217	613.06
463.437	647.06
463.657	599.06
463.876	583.06
464.096	610.06
464.316	591.06
464.536	592.06
464.755	588.06
464.975	569.06
465.195	606.06
465.414	645.06
465.634	608.06
465.854	547.06
466.073	564.06
466.293	530.06
466.512	495.06
466.732	490.06
466.951	515.06
467.171	509.06
467.391	501.06
467.61	520.06
467.829	515.06
468.049	527.06
468.268	525.06
468.488	479.06
468.707	494.06
468.927	492.06
469.146	466.06
469.365	513.06
469.585	477.06
469.804	488.06
470.023	514.06
470.243	513.06
470.462	501.06
470.681	536.06
470.901	513.06
471.12	525.06
471.339	511.06
471.558	506.06
471.777	523.06
471.997	502.06
472.216	514.06
472.435	537.06
472.654	520.06
472.873	492.06
473.092	494.06
473.311	490.06
473.53	525.06
473.749	507.06
473.968	562.06
474.187	634.06
474.406	666.06
474.625	552.06
474.844	544.06
475.063	531.06
475.282	517.06
475.501	530.06
475.72	511.06
475.939	526.06
476.158	521.06
476.377	542.06
476.596	510.06
476.814	515.06
477.033	555.06
477.252	547.06
477.471	546.06
477.69	555.06
477.908	546.06
478.127	558.06
478.346	550.06
478.564	561.06
478.783	567.06
479.002	598.06
479.22	607.06
479.439	629.06
479.658	618.06
479.876	626.06
480.095	624.06
480.313	648.06
480.532	634.06
480.751	649.06
480.969	642.06
481.188	683.06
481.406	700.06
481.624	645.06
481.843	599.06
482.061	603.06
482.28	605.06
482.498	604.06
482.717	603.06
482.935	588.06
483.153	585.06
483.372	599.06
483.59	606.06
483.808	598.06
484.027	598.06
484.245	590.06
484.463	595.06
484.681	587.06
484.9	602.06
485.118	592.06
485.336	614.06
485.554	620.06
485.772	621.06
485.99	613.06
486.209	621.06
486.427	635.06
486.645	594.06
486.863	639.06
487.081	643.06
487.299	631.06
487.517	634.06
487.735	626.06
487.953	634.06
488.171	638.06
488.389	615.06
488.607	650.06
488.825	649.06
489.043	629.06
489.261	634.06
489.479	654.06
489.696	649.06
489.914	653.06
490.132	660.06
490.35	668.06
490.568	673.06
490.786	684.06
491.003	692.06
491.221	685.06
491.439	707.06
491.657	734.06
491.874	730.06
492.092	718.06
492.31	747.06
492.527	737.06
492.745	724.06
492.963	764.06
493.18	750.06
493.398	750.06
493.615	773.06
493.833	742.06
494.05	742.06
494.268	741.06
494.485	749.06
494.703	724.06
494.92	731.06
495.138	758.06
495.355	733.06
495.573	733.06
495.79	777.06
496.008	762.06
496.225	758.06
496.442	750.06
496.66	758.06
496.877	765.06
497.094	785.06
497.312	788.06
497.529	766.06
497.746	804.06
497.963	810.06
498.181	829.06
498.398	853.06
498.615	862.06
498.832	908.06
499.049	917.06
499.267	894.06
499.484	958.06
499.701	1043.06
499.918	1061.06
500.135	1121.06
500.352	1161.06
500.569	1191.06
500.786	1207.06
501.003	1213.06
501.22	1146.06
501.437	1083.06
501.654	1069.06
