Data from 1976.PennyLincolnUp.Lamp.En5.5.200Scan.071719.P1.Changed Mount._HRD10591_16-02-12-861.txt Node
Date: Thu Jul 18 16:02:12 EDT 2019
User: cochatt
Spectrometer: HR+D1059
Trigger mode: 1
Integration Time (sec): 1.000000E-1
Scans to average: 1
Electric dark correction enabled: true
Nonlinearity correction enabled: false
Boxcar width: 0
XAxis mode: Wavelengths
Number of Pixels in Spectrum: 2048
>>>>>Begin Spectral Data<<<<<
223.165	-15.5
223.4	-15.5
223.635	-15.5
223.869	-28.5
224.104	-15.5
224.338	-3.5
224.573	-19.5
224.808	-20.5
225.042	1.5
225.277	-0.5
225.511	7.5
225.746	-0.5
225.98	-2.5
226.215	3.5
226.449	29.5
226.683	14.5
226.918	25.5
227.152	24.5
227.387	33.5
227.621	47.5
227.856	40.5
228.09	56.5
228.324	61.5
228.559	54.5
228.793	79.5
229.027	91.5
229.262	118.5
229.496	117.5
229.73	131.5
229.964	158.5
230.199	121.5
230.433	119.5
230.667	116.5
230.901	107.5
231.136	111.5
231.37	131.5
231.604	114.5
231.838	112.5
232.072	123.5
232.306	115.5
232.541	117.5
232.775	116.5
233.009	128.5
233.243	117.5
233.477	117.5
233.711	128.5
233.945	123.5
234.179	128.5
234.413	123.5
234.647	119.5
234.881	135.5
235.115	128.5
235.349	116.5
235.583	138.5
235.817	119.5
236.051	125.5
236.285	138.5
236.519	116.5
236.753	123.5
236.987	148.5
237.221	175.5
237.455	228.5
237.689	192.5
237.922	153.5
238.156	137.5
238.39	141.5
238.624	119.5
238.858	125.5
239.091	130.5
239.325	151.5
239.559	146.5
239.793	140.5
240.027	155.5
240.26	155.5
240.494	165.5
240.728	148.5
240.961	153.5
241.195	152.5
241.429	153.5
241.662	128.5
241.896	143.5
242.13	131.5
242.363	127.5
242.597	155.5
242.83	149.5
243.064	150.5
243.298	153.5
243.531	156.5
243.765	146.5
243.998	146.5
244.232	155.5
244.465	165.5
244.699	155.5
244.932	152.5
245.166	163.5
245.399	159.5
245.633	158.5
245.866	145.5
246.099	165.5
246.333	158.5
246.566	175.5
246.8	159.5
247.033	172.5
247.266	159.5
247.5	168.5
247.733	173.5
247.966	179.5
248.2	191.5
248.433	172.5
248.666	194.5
248.899	199.5
249.133	214.5
249.366	206.5
249.599	199.5
249.832	188.5
250.066	200.5
250.299	197.5
250.532	209.5
250.765	209.5
250.998	230.5
251.231	231.5
251.465	232.5
251.698	220.5
251.931	208.5
252.164	208.5
252.397	219.5
252.63	190.5
252.863	214.5
253.096	225.5
253.329	234.5
253.562	225.5
253.795	226.5
254.028	235.5
254.261	229.5
254.494	245.5
254.727	272.5
254.96	296.5
255.193	301.5
255.426	260.5
255.659	253.5
255.892	251.5
256.124	235.5
256.357	261.5
256.59	239.5
256.823	241.5
257.056	228.5
257.289	248.5
257.521	216.5
257.754	234.5
257.987	209.5
258.22	206.5
258.452	224.5
258.685	215.5
258.918	223.5
259.151	217.5
259.383	248.5
259.616	243.5
259.849	233.5
260.081	257.5
260.314	275.5
260.547	255.5
260.779	260.5
261.012	252.5
261.244	244.5
261.477	259.5
261.71	231.5
261.942	229.5
262.175	261.5
262.407	244.5
262.64	234.5
262.872	215.5
263.105	229.5
263.337	234.5
263.57	232.5
263.802	221.5
264.035	230.5
264.267	225.5
264.499	244.5
264.732	223.5
264.964	236.5
265.197	215.5
265.429	231.5
265.661	236.5
265.894	220.5
266.126	230.5
266.358	235.5
266.591	229.5
266.823	246.5
267.055	245.5
267.287	252.5
267.52	246.5
267.752	239.5
267.984	246.5
268.216	251.5
268.448	253.5
268.681	278.5
268.913	278.5
269.145	285.5
269.377	286.5
269.609	303.5
269.841	292.5
270.073	278.5
270.306	318.5
270.538	343.5
270.77	351.5
271.002	325.5
271.234	331.5
271.466	326.5
271.698	342.5
271.93	334.5
272.162	331.5
272.394	350.5
272.626	352.5
272.858	325.5
273.09	335.5
273.322	307.5
273.553	276.5
273.785	313.5
274.017	296.5
274.249	294.5
274.481	301.5
274.713	284.5
274.945	302.5
275.176	285.5
275.408	302.5
275.64	292.5
275.872	301.5
276.104	301.5
276.335	310.5
276.567	311.5
276.799	317.5
277.031	347.5
277.262	360.5
277.494	357.5
277.726	348.5
277.957	326.5
278.189	320.5
278.421	300.5
278.652	312.5
278.884	297.5
279.115	285.5
279.347	311.5
279.579	278.5
279.81	295.5
280.042	284.5
280.273	304.5
280.505	299.5
280.736	319.5
280.968	309.5
281.199	285.5
281.431	313.5
281.662	327.5
281.894	331.5
282.125	335.5
282.356	335.5
282.588	337.5
282.819	325.5
283.051	314.5
283.282	283.5
283.513	305.5
283.745	317.5
283.976	295.5
284.207	317.5
284.439	318.5
284.67	308.5
284.901	311.5
285.132	310.5
285.364	322.5
285.595	317.5
285.826	307.5
286.057	304.5
286.288	328.5
286.52	312.5
286.751	305.5
286.982	329.5
287.213	338.5
287.444	317.5
287.675	331.5
287.906	330.5
288.138	335.5
288.369	335.5
288.6	337.5
288.831	326.5
289.062	352.5
289.293	344.5
289.524	335.5
289.755	317.5
289.986	338.5
290.217	336.5
290.448	330.5
290.679	334.5
290.91	320.5
291.141	336.5
291.371	335.5
291.602	323.5
291.833	333.5
292.064	325.5
292.295	323.5
292.526	320.5
292.757	320.5
292.987	324.5
293.218	327.5
293.449	317.5
293.68	319.5
293.91	329.5
294.141	337.5
294.372	343.5
294.603	336.5
294.833	324.5
295.064	338.5
295.295	325.5
295.525	328.5
295.756	340.5
295.987	327.5
296.217	371.5
296.448	372.5
296.679	348.5
296.909	357.5
297.14	341.5
297.37	344.5
297.601	347.5
297.831	356.5
298.062	337.5
298.292	344.5
298.523	332.5
298.753	364.5
298.984	362.5
299.214	340.5
299.445	349.5
299.675	352.5
299.905	347.5
300.136	345.5
300.366	365.5
300.597	353.5
300.827	372.5
301.057	347.5
301.288	357.5
301.518	380.5
301.748	384.5
301.979	342.5
302.209	377.5
302.439	372.5
302.669	365.5
302.9	377.5
303.13	372.5
303.36	364.5
303.59	368.5
303.82	404.5
304.051	373.5
304.281	378.5
304.511	367.5
304.741	396.5
304.971	353.5
305.201	376.5
305.431	389.5
305.661	368.5
305.891	355.5
306.121	353.5
306.352	370.5
306.582	378.5
306.812	379.5
307.042	369.5
307.272	379.5
307.502	383.5
307.731	357.5
307.961	381.5
308.191	369.5
308.421	364.5
308.651	364.5
308.881	376.5
309.111	392.5
309.341	383.5
309.571	418.5
309.8	368.5
310.03	401.5
310.26	389.5
310.49	421.5
310.72	414.5
310.949	432.5
311.179	414.5
311.409	422.5
311.639	409.5
311.868	393.5
312.098	413.5
312.328	424.5
312.557	427.5
312.787	453.5
313.017	448.5
313.246	420.5
313.476	416.5
313.706	423.5
313.935	416.5
314.165	427.5
314.394	437.5
314.624	448.5
314.853	410.5
315.083	413.5
315.312	429.5
315.542	419.5
315.771	407.5
316.001	421.5
316.23	394.5
316.46	398.5
316.689	418.5
316.919	405.5
317.148	429.5
317.377	428.5
317.607	426.5
317.836	423.5
318.065	396.5
318.295	384.5
318.524	428.5
318.753	423.5
318.983	399.5
319.212	429.5
319.441	423.5
319.67	432.5
319.9	427.5
320.129	420.5
320.358	408.5
320.587	428.5
320.816	429.5
321.046	453.5
321.275	439.5
321.504	444.5
321.733	411.5
321.962	437.5
322.191	460.5
322.42	485.5
322.649	463.5
322.878	466.5
323.108	478.5
323.337	496.5
323.566	521.5
323.795	550.5
324.024	575.5
324.253	694.5
324.482	925.5
324.71	1408.5
324.939	2105.5
325.168	1834.5
325.397	919.5
325.626	641.5
325.855	555.5
326.084	521.5
326.313	520.5
326.542	529.5
326.77	548.5
326.999	641.5
327.228	870.5
327.457	1329.5
327.686	1616.5
327.914	1061.5
328.143	706.5
328.372	637.5
328.6	601.5
328.829	563.5
329.058	605.5
329.287	591.5
329.515	557.5
329.744	529.5
329.972	543.5
330.201	554.5
330.43	588.5
330.658	616.5
330.887	609.5
331.115	608.5
331.344	551.5
331.572	511.5
331.801	533.5
332.03	536.5
332.258	504.5
332.486	488.5
332.715	483.5
332.943	507.5
333.172	527.5
333.4	520.5
333.629	520.5
333.857	534.5
334.085	565.5
334.314	577.5
334.542	605.5
334.771	605.5
334.999	579.5
335.227	529.5
335.455	545.5
335.684	517.5
335.912	509.5
336.14	500.5
336.369	503.5
336.597	490.5
336.825	501.5
337.053	499.5
337.281	516.5
337.51	470.5
337.738	501.5
337.966	483.5
338.194	491.5
338.422	499.5
338.65	489.5
338.878	497.5
339.106	483.5
339.334	476.5
339.562	481.5
339.79	483.5
340.018	463.5
340.246	474.5
340.474	463.5
340.702	463.5
340.93	472.5
341.158	476.5
341.386	485.5
341.614	478.5
341.842	492.5
342.07	500.5
342.298	473.5
342.526	448.5
342.754	462.5
342.981	478.5
343.209	467.5
343.437	477.5
343.665	491.5
343.893	479.5
344.12	517.5
344.348	503.5
344.576	503.5
344.804	506.5
345.031	486.5
345.259	467.5
345.487	491.5
345.714	476.5
345.942	457.5
346.17	469.5
346.397	457.5
346.625	445.5
346.853	468.5
347.08	448.5
347.308	464.5
347.535	462.5
347.763	464.5
347.99	463.5
348.218	466.5
348.445	459.5
348.673	459.5
348.9	475.5
349.128	470.5
349.355	444.5
349.583	438.5
349.81	447.5
350.037	443.5
350.265	441.5
350.492	439.5
350.72	452.5
350.947	448.5
351.174	440.5
351.402	458.5
351.629	450.5
351.856	449.5
352.083	471.5
352.311	443.5
352.538	458.5
352.765	459.5
352.992	459.5
353.22	432.5
353.447	443.5
353.674	445.5
353.901	455.5
354.128	439.5
354.355	432.5
354.583	435.5
354.81	435.5
355.037	429.5
355.264	439.5
355.491	425.5
355.718	423.5
355.945	442.5
356.172	427.5
356.399	439.5
356.626	437.5
356.853	424.5
357.08	440.5
357.307	430.5
357.534	418.5
357.761	419.5
357.988	435.5
358.215	428.5
358.441	420.5
358.668	425.5
358.895	434.5
359.122	430.5
359.349	426.5
359.576	471.5
359.802	442.5
360.029	483.5
360.256	517.5
360.483	476.5
360.709	471.5
360.936	453.5
361.163	447.5
361.39	447.5
361.616	464.5
361.843	472.5
362.07	445.5
362.296	432.5
362.523	467.5
362.749	423.5
362.976	455.5
363.203	435.5
363.429	440.5
363.656	429.5
363.882	447.5
364.109	419.5
364.335	437.5
364.562	435.5
364.788	440.5
365.015	462.5
365.241	432.5
365.468	420.5
365.694	459.5
365.92	441.5
366.147	432.5
366.373	445.5
366.599	433.5
366.826	445.5
367.052	439.5
367.278	429.5
367.505	431.5
367.731	448.5
367.957	420.5
368.184	440.5
368.41	425.5
368.636	451.5
368.862	437.5
369.089	428.5
369.315	412.5
369.541	442.5
369.767	428.5
369.993	437.5
370.219	437.5
370.445	445.5
370.672	420.5
370.898	433.5
371.124	441.5
371.35	439.5
371.576	441.5
371.802	451.5
372.028	449.5
372.254	453.5
372.48	452.5
372.706	421.5
372.932	431.5
373.158	453.5
373.384	455.5
373.61	455.5
373.835	452.5
374.061	470.5
374.287	447.5
374.513	438.5
374.739	435.5
374.965	455.5
375.191	437.5
375.416	429.5
375.642	440.5
375.868	451.5
376.094	429.5
376.319	446.5
376.545	451.5
376.771	442.5
376.997	454.5
377.222	430.5
377.448	431.5
377.674	443.5
377.899	431.5
378.125	419.5
378.35	439.5
378.576	430.5
378.802	439.5
379.027	439.5
379.253	436.5
379.478	419.5
379.704	435.5
379.929	432.5
380.155	453.5
380.38	459.5
380.606	439.5
380.831	441.5
381.057	452.5
381.282	426.5
381.507	440.5
381.733	452.5
381.958	440.5
382.184	449.5
382.409	440.5
382.634	458.5
382.86	436.5
383.085	465.5
383.31	455.5
383.535	432.5
383.761	453.5
383.986	465.5
384.211	456.5
384.436	476.5
384.662	474.5
384.887	487.5
385.112	457.5
385.337	485.5
385.562	497.5
385.787	487.5
386.013	484.5
386.238	494.5
386.463	499.5
386.688	482.5
386.913	483.5
387.138	474.5
387.363	486.5
387.588	490.5
387.813	478.5
388.038	478.5
388.263	492.5
388.488	483.5
388.713	486.5
388.938	496.5
389.163	507.5
389.387	478.5
389.612	467.5
389.837	490.5
390.062	484.5
390.287	488.5
390.512	497.5
390.736	503.5
390.961	501.5
391.186	481.5
391.411	493.5
391.636	524.5
391.86	493.5
392.085	509.5
392.31	512.5
392.534	503.5
392.759	515.5
392.984	495.5
393.208	494.5
393.433	494.5
393.658	511.5
393.882	486.5
394.107	510.5
394.331	503.5
394.556	484.5
394.78	488.5
395.005	504.5
395.229	505.5
395.454	521.5
395.678	519.5
395.903	546.5
396.127	536.5
396.352	541.5
396.576	532.5
396.801	517.5
397.025	515.5
397.249	528.5
397.474	501.5
397.698	525.5
397.922	540.5
398.147	559.5
398.371	556.5
398.595	556.5
398.82	586.5
399.044	576.5
399.268	597.5
399.492	653.5
399.717	691.5
399.941	711.5
400.165	755.5
400.389	737.5
400.613	670.5
400.837	616.5
401.062	591.5
401.286	575.5
401.51	593.5
401.734	598.5
401.958	559.5
402.182	573.5
402.406	589.5
402.63	580.5
402.854	598.5
403.078	604.5
403.302	593.5
403.526	606.5
403.75	591.5
403.974	599.5
404.198	602.5
404.422	621.5
404.645	586.5
404.869	607.5
405.093	638.5
405.317	679.5
405.541	744.5
405.765	664.5
405.988	657.5
406.212	637.5
406.436	635.5
406.66	650.5
406.883	646.5
407.107	640.5
407.331	703.5
407.555	795.5
407.778	801.5
408.002	738.5
408.226	673.5
408.449	645.5
408.673	651.5
408.896	682.5
409.12	731.5
409.344	679.5
409.567	621.5
409.791	626.5
410.014	603.5
410.238	585.5
410.461	599.5
410.685	625.5
410.908	622.5
411.132	647.5
411.355	675.5
411.578	641.5
411.802	605.5
412.025	583.5
412.249	605.5
412.472	637.5
412.695	673.5
412.919	657.5
413.142	608.5
413.365	600.5
413.589	591.5
413.812	592.5
414.035	565.5
414.258	567.5
414.482	555.5
414.705	554.5
414.928	560.5
415.151	542.5
415.374	556.5
415.597	535.5
415.821	553.5
416.044	568.5
416.267	569.5
416.49	571.5
416.713	555.5
416.936	579.5
417.159	569.5
417.382	565.5
417.605	589.5
417.828	575.5
418.051	575.5
418.274	575.5
418.497	565.5
418.72	551.5
418.943	565.5
419.166	578.5
419.389	616.5
419.611	611.5
419.834	615.5
420.057	601.5
420.28	576.5
420.503	585.5
420.726	590.5
420.948	590.5
421.171	656.5
421.394	663.5
421.617	609.5
421.839	587.5
422.062	583.5
422.285	600.5
422.507	674.5
422.73	747.5
422.953	707.5
423.175	654.5
423.398	603.5
423.621	595.5
423.843	653.5
424.066	624.5
424.288	620.5
424.511	639.5
424.733	702.5
424.956	798.5
425.178	760.5
425.401	722.5
425.623	763.5
425.846	661.5
426.068	638.5
426.291	597.5
426.513	611.5
426.735	613.5
426.958	667.5
427.18	740.5
427.402	871.5
427.625	962.5
427.847	864.5
428.069	721.5
428.292	653.5
428.514	633.5
428.736	584.5
428.958	592.5
429.181	570.5
429.403	569.5
429.625	583.5
429.847	617.5
430.069	673.5
430.292	680.5
430.514	579.5
430.736	577.5
430.958	547.5
431.18	537.5
431.402	567.5
431.624	543.5
431.846	565.5
432.068	544.5
432.29	541.5
432.512	555.5
432.734	548.5
432.956	551.5
433.178	568.5
433.4	585.5
433.622	545.5
433.844	558.5
434.066	544.5
434.287	530.5
434.509	557.5
434.731	552.5
434.953	575.5
435.175	592.5
435.397	616.5
435.618	615.5
435.84	657.5
436.062	762.5
436.284	840.5
436.505	698.5
436.727	637.5
436.949	575.5
437.17	587.5
437.392	567.5
437.614	589.5
437.835	628.5
438.057	694.5
438.278	798.5
438.5	823.5
438.721	897.5
438.943	850.5
439.165	655.5
439.386	627.5
439.608	621.5
439.829	632.5
440.05	656.5
440.272	664.5
440.493	648.5
440.715	612.5
440.936	556.5
441.158	558.5
441.379	572.5
441.6	607.5
441.822	625.5
442.043	675.5
442.264	739.5
442.486	812.5
442.707	669.5
442.928	639.5
443.149	624.5
443.371	667.5
443.592	684.5
443.813	792.5
444.034	859.5
444.255	715.5
444.476	654.5
444.698	649.5
444.919	634.5
445.14	728.5
445.361	682.5
445.582	679.5
445.803	742.5
446.024	810.5
446.245	849.5
446.466	763.5
446.687	656.5
446.908	582.5
447.129	581.5
447.35	567.5
447.571	565.5
447.792	567.5
448.013	561.5
448.234	602.5
448.455	641.5
448.675	761.5
448.896	903.5
449.117	744.5
449.338	697.5
449.559	792.5
449.779	921.5
450	727.5
450.221	625.5
450.442	560.5
450.662	518.5
450.883	532.5
451.104	552.5
451.324	551.5
451.545	549.5
451.766	542.5
451.986	490.5
452.207	499.5
452.428	513.5
452.648	492.5
452.869	502.5
453.089	508.5
453.31	515.5
453.53	500.5
453.751	491.5
453.971	492.5
454.192	494.5
454.412	503.5
454.633	507.5
454.853	503.5
455.073	494.5
455.294	532.5
455.514	578.5
455.734	592.5
455.955	508.5
456.175	479.5
456.395	474.5
456.616	464.5
456.836	443.5
457.056	466.5
457.276	472.5
457.497	502.5
457.717	468.5
457.937	483.5
458.157	481.5
458.377	477.5
458.598	509.5
458.818	547.5
459.038	636.5
459.258	672.5
459.478	585.5
459.698	558.5
459.918	533.5
460.138	561.5
460.358	541.5
460.578	542.5
460.798	584.5
461.018	560.5
461.238	574.5
461.458	567.5
461.678	573.5
461.898	575.5
462.118	574.5
462.338	578.5
462.558	590.5
462.777	586.5
462.997	616.5
463.217	634.5
463.437	641.5
463.657	615.5
463.876	611.5
464.096	592.5
464.316	620.5
464.536	613.5
464.755	600.5
464.975	576.5
465.195	612.5
465.414	665.5
465.634	620.5
465.854	576.5
466.073	541.5
466.293	533.5
466.512	520.5
466.732	531.5
466.951	506.5
467.171	519.5
467.391	533.5
467.61	528.5
467.829	527.5
468.049	538.5
468.268	517.5
468.488	506.5
468.707	515.5
468.927	500.5
469.146	511.5
469.365	525.5
469.585	509.5
469.804	486.5
470.023	533.5
470.243	521.5
470.462	518.5
470.681	538.5
470.901	533.5
471.12	520.5
471.339	534.5
471.558	513.5
471.777	534.5
471.997	526.5
472.216	538.5
472.435	552.5
472.654	548.5
472.873	541.5
473.092	519.5
473.311	515.5
473.53	504.5
473.749	535.5
473.968	561.5
474.187	663.5
474.406	713.5
474.625	578.5
474.844	527.5
475.063	521.5
475.282	536.5
475.501	536.5
475.72	532.5
475.939	514.5
476.158	521.5
476.377	533.5
476.596	527.5
476.814	518.5
477.033	544.5
477.252	566.5
477.471	565.5
477.69	545.5
477.908	564.5
478.127	577.5
478.346	583.5
478.564	585.5
478.783	605.5
479.002	619.5
479.22	627.5
479.439	610.5
479.658	605.5
479.876	633.5
480.095	619.5
480.313	651.5
480.532	683.5
480.751	664.5
480.969	647.5
481.188	678.5
481.406	731.5
481.624	648.5
481.843	624.5
482.061	612.5
482.28	600.5
482.498	609.5
482.717	601.5
482.935	596.5
483.153	612.5
483.372	604.5
483.59	609.5
483.808	615.5
484.027	602.5
484.245	621.5
484.463	616.5
484.681	622.5
484.9	623.5
485.118	624.5
485.336	623.5
485.554	617.5
485.772	655.5
485.99	640.5
486.209	597.5
486.427	619.5
486.645	611.5
486.863	656.5
487.081	639.5
487.299	650.5
487.517	661.5
487.735	654.5
487.953	654.5
488.171	669.5
488.389	666.5
488.607	655.5
488.825	628.5
489.043	663.5
489.261	663.5
489.479	677.5
489.696	676.5
489.914	670.5
490.132	675.5
490.35	691.5
490.568	690.5
490.786	698.5
491.003	734.5
491.221	695.5
491.439	701.5
491.657	729.5
491.874	731.5
492.092	749.5
492.31	735.5
492.527	769.5
492.745	735.5
492.963	739.5
493.18	768.5
493.398	746.5
493.615	762.5
493.833	743.5
494.05	743.5
494.268	756.5
494.485	760.5
494.703	783.5
494.92	763.5
495.138	772.5
495.355	776.5
495.573	783.5
495.79	756.5
496.008	779.5
496.225	753.5
496.442	760.5
496.66	790.5
496.877	793.5
497.094	772.5
497.312	787.5
497.529	808.5
497.746	797.5
497.963	837.5
498.181	863.5
498.398	871.5
498.615	888.5
498.832	908.5
499.049	897.5
499.267	945.5
499.484	986.5
499.701	1028.5
499.918	1108.5
500.135	1169.5
500.352	1232.5
500.569	1238.5
500.786	1241.5
501.003	1223.5
501.22	1191.5
501.437	1167.5
501.654	1059.5
501.871	1053.5
502.088	974.5
502.305	938.5
502.522	888.5
502.739	882.5
502.956	858.5
503.172	843.5
503.389	812.5
503.606	798.5
503.823	811.5
504.04	813.5
504.256	799.5
504.473	793.5
504.69	784.5
504.907	771.5
505.123	749.5
505.34	760.5
505.557	742.5
505.773	741.5
505.99	746.5
506.207	704.5
506.423	707.5
506.64	710.5
506.856	689.5
507.073	724.5
507.289	724.5
507.506	730.5
507.722	731.5
507.939	720.5
508.155	666.5
508.372	691.5
508.588	664.5
508.805	677.5
509.021	688.5
509.238	715.5
509.454	703.5
509.67	692.5
509.887	681.5
510.103	678.5
510.319	672.5
510.536	747.5
510.752	1127.5
510.968	906.5
511.184	686.5
511.401	643.5
511.617	657.5
511.833	637.5
512.049	639.5
512.265	638.5
512.481	627.5
512.698	609.5
512.914	627.5
513.13	636.5
513.346	633.5
513.562	629.5
513.778	629.5
513.994	632.5
514.21	649.5
514.426	675.5
514.642	710.5
514.858	705.5
515.074	724.5
515.29	828.5
515.506	1113.5
515.721	952.5
515.937	740.5
516.153	682.5
516.369	681.5
516.585	668.5
516.801	661.5
517.016	684.5
517.232	709.5
517.448	701.5
517.664	680.5
517.879	695.5
518.095	701.5
518.311	683.5
518.527	670.5
518.742	683.5
518.958	668.5
519.173	672.5
519.389	659.5
