Data from 1976.PennyLincolnUp.Lamp.En5.5.200Scan.071719.P1.Changed Mount._HRD10591_16-00-52-860.txt Node
Date: Thu Jul 18 16:00:52 EDT 2019
User: cochatt
Spectrometer: HR+D1059
Trigger mode: 1
Integration Time (sec): 1.000000E-1
Scans to average: 1
Electric dark correction enabled: true
Nonlinearity correction enabled: false
Boxcar width: 0
XAxis mode: Wavelengths
Number of Pixels in Spectrum: 2048
>>>>>Begin Spectral Data<<<<<
223.165	-15.5
223.4	-15.5
223.635	-15.5
223.869	-17.5
224.104	0.5
224.338	-23.5
224.573	-12.5
224.808	-5.5
225.042	-1.5
225.277	-17.5
225.511	-3.5
225.746	8.5
225.98	-3.5
226.215	-6.5
226.449	18.5
226.683	14.5
226.918	20.5
227.152	44.5
227.387	44.5
227.621	39.5
227.856	37.5
228.09	37.5
228.324	49.5
228.559	48.5
228.793	66.5
229.027	89.5
229.262	106.5
229.496	125.5
229.73	121.5
229.964	143.5
230.199	141.5
230.433	114.5
230.667	117.5
230.901	114.5
231.136	118.5
231.37	110.5
231.604	118.5
231.838	124.5
232.072	117.5
232.306	126.5
232.541	130.5
232.775	128.5
233.009	111.5
233.243	102.5
233.477	121.5
233.711	118.5
233.945	119.5
234.179	131.5
234.413	110.5
234.647	113.5
234.881	111.5
235.115	121.5
235.349	102.5
235.583	106.5
235.817	133.5
236.051	137.5
236.285	143.5
236.519	125.5
236.753	130.5
236.987	144.5
237.221	181.5
237.455	242.5
237.689	185.5
237.922	141.5
238.156	123.5
238.39	133.5
238.624	137.5
238.858	131.5
239.091	131.5
239.325	113.5
239.559	136.5
239.793	134.5
240.027	133.5
240.26	153.5
240.494	147.5
240.728	138.5
240.961	147.5
241.195	151.5
241.429	149.5
241.662	146.5
241.896	131.5
242.13	128.5
242.363	136.5
242.597	151.5
242.83	142.5
243.064	132.5
243.298	156.5
243.531	161.5
243.765	144.5
243.998	137.5
244.232	155.5
244.465	148.5
244.699	141.5
244.932	134.5
245.166	152.5
245.399	151.5
245.633	157.5
245.866	162.5
246.099	156.5
246.333	151.5
246.566	168.5
246.8	151.5
247.033	160.5
247.266	157.5
247.5	156.5
247.733	165.5
247.966	186.5
248.2	190.5
248.433	177.5
248.666	178.5
248.899	177.5
249.133	198.5
249.366	202.5
249.599	222.5
249.832	200.5
250.066	180.5
250.299	181.5
250.532	205.5
250.765	195.5
250.998	217.5
251.231	231.5
251.465	221.5
251.698	222.5
251.931	202.5
252.164	201.5
252.397	214.5
252.63	200.5
252.863	217.5
253.096	216.5
253.329	227.5
253.562	231.5
253.795	205.5
254.028	212.5
254.261	216.5
254.494	230.5
254.727	266.5
254.96	290.5
255.193	282.5
255.426	240.5
255.659	249.5
255.892	241.5
256.124	246.5
256.357	235.5
256.59	233.5
256.823	224.5
257.056	214.5
257.289	204.5
257.521	226.5
257.754	206.5
257.987	217.5
258.22	223.5
258.452	217.5
258.685	239.5
258.918	207.5
259.151	201.5
259.383	222.5
259.616	229.5
259.849	231.5
260.081	238.5
260.314	266.5
260.547	275.5
260.779	262.5
261.012	263.5
261.244	232.5
261.477	240.5
261.71	226.5
261.942	239.5
262.175	235.5
262.407	254.5
262.64	220.5
262.872	229.5
263.105	219.5
263.337	216.5
263.57	223.5
263.802	205.5
264.035	218.5
264.267	223.5
264.499	222.5
264.732	225.5
264.964	233.5
265.197	228.5
265.429	224.5
265.661	231.5
265.894	239.5
266.126	221.5
266.358	222.5
266.591	240.5
266.823	229.5
267.055	239.5
267.287	229.5
267.52	241.5
267.752	240.5
267.984	231.5
268.216	244.5
268.448	244.5
268.681	242.5
268.913	249.5
269.145	284.5
269.377	278.5
269.609	287.5
269.841	294.5
270.073	286.5
270.306	313.5
270.538	309.5
270.77	319.5
271.002	299.5
271.234	292.5
271.466	320.5
271.698	329.5
271.93	330.5
272.162	335.5
272.394	339.5
272.626	310.5
272.858	297.5
273.09	289.5
273.322	291.5
273.553	278.5
273.785	288.5
274.017	288.5
274.249	285.5
274.481	285.5
274.713	263.5
274.945	294.5
275.176	282.5
275.408	280.5
275.64	287.5
275.872	287.5
276.104	257.5
276.335	295.5
276.567	282.5
276.799	293.5
277.031	303.5
277.262	319.5
277.494	346.5
277.726	317.5
277.957	308.5
278.189	319.5
278.421	308.5
278.652	292.5
278.884	281.5
279.115	282.5
279.347	302.5
279.579	281.5
279.81	270.5
280.042	271.5
280.273	275.5
280.505	292.5
280.736	273.5
280.968	298.5
281.199	295.5
281.431	279.5
281.662	294.5
281.894	300.5
282.125	295.5
282.356	305.5
282.588	314.5
282.819	322.5
283.051	290.5
283.282	283.5
283.513	301.5
283.745	297.5
283.976	301.5
284.207	317.5
284.439	308.5
284.67	317.5
284.901	300.5
285.132	308.5
285.364	294.5
285.595	304.5
285.826	295.5
286.057	304.5
286.288	306.5
286.52	324.5
286.751	313.5
286.982	293.5
287.213	313.5
287.444	305.5
287.675	283.5
287.906	332.5
288.138	327.5
288.369	310.5
288.6	330.5
288.831	337.5
289.062	312.5
289.293	338.5
289.524	319.5
289.755	318.5
289.986	298.5
290.217	325.5
290.448	330.5
290.679	327.5
290.91	306.5
291.141	313.5
291.371	308.5
291.602	309.5
291.833	321.5
292.064	318.5
292.295	328.5
292.526	331.5
292.757	325.5
292.987	314.5
293.218	319.5
293.449	319.5
293.68	333.5
293.91	305.5
294.141	310.5
294.372	306.5
294.603	328.5
294.833	329.5
295.064	309.5
295.295	325.5
295.525	324.5
295.756	323.5
295.987	342.5
296.217	329.5
296.448	356.5
296.679	339.5
296.909	340.5
297.14	328.5
297.37	328.5
297.601	336.5
297.831	303.5
298.062	344.5
298.292	323.5
298.523	319.5
298.753	324.5
298.984	329.5
299.214	336.5
299.445	338.5
299.675	346.5
299.905	343.5
300.136	325.5
300.366	322.5
300.597	346.5
300.827	339.5
301.057	332.5
301.288	334.5
301.518	352.5
301.748	353.5
301.979	353.5
302.209	353.5
302.439	364.5
302.669	360.5
302.9	342.5
303.13	344.5
303.36	366.5
303.59	345.5
303.82	361.5
304.051	357.5
304.281	353.5
304.511	377.5
304.741	347.5
304.971	338.5
305.201	356.5
305.431	348.5
305.661	341.5
305.891	347.5
306.121	357.5
306.352	363.5
306.582	365.5
306.812	351.5
307.042	372.5
307.272	355.5
307.502	349.5
307.731	366.5
307.961	338.5
308.191	372.5
308.421	381.5
308.651	367.5
308.881	340.5
309.111	374.5
309.341	353.5
309.571	382.5
309.8	378.5
310.03	382.5
310.26	396.5
310.49	389.5
310.72	385.5
310.949	384.5
311.179	407.5
311.409	400.5
311.639	370.5
311.868	394.5
312.098	394.5
312.328	384.5
312.557	430.5
312.787	438.5
313.017	403.5
313.246	412.5
313.476	385.5
313.706	382.5
313.935	374.5
314.165	425.5
314.394	394.5
314.624	438.5
314.853	409.5
315.083	388.5
315.312	410.5
315.542	388.5
315.771	396.5
316.001	396.5
316.23	407.5
316.46	400.5
316.689	388.5
316.919	405.5
317.148	397.5
317.377	421.5
317.607	402.5
317.836	406.5
318.065	401.5
318.295	392.5
318.524	387.5
318.753	410.5
318.983	392.5
319.212	400.5
319.441	398.5
319.67	427.5
319.9	412.5
320.129	414.5
320.358	406.5
320.587	402.5
320.816	405.5
321.046	406.5
321.275	424.5
321.504	430.5
321.733	426.5
321.962	421.5
322.191	444.5
322.42	442.5
322.649	452.5
322.878	425.5
323.108	441.5
323.337	452.5
323.566	480.5
323.795	511.5
324.024	534.5
324.253	630.5
324.482	899.5
324.71	1277.5
324.939	1915.5
325.168	1645.5
325.397	844.5
325.626	602.5
325.855	526.5
326.084	499.5
326.313	484.5
326.542	486.5
326.77	542.5
326.999	602.5
327.228	794.5
327.457	1160.5
327.686	1420.5
327.914	957.5
328.143	634.5
328.372	589.5
328.6	557.5
328.829	553.5
329.058	544.5
329.287	536.5
329.515	520.5
329.744	521.5
329.972	522.5
330.201	538.5
330.43	541.5
330.658	572.5
330.887	566.5
331.115	594.5
331.344	525.5
331.572	488.5
331.801	502.5
332.03	498.5
332.258	503.5
332.486	490.5
332.715	482.5
332.943	489.5
333.172	497.5
333.4	520.5
333.629	495.5
333.857	504.5
334.085	521.5
334.314	530.5
334.542	558.5
334.771	554.5
334.999	523.5
335.227	525.5
335.455	465.5
335.684	478.5
335.912	457.5
336.14	469.5
336.369	472.5
336.597	484.5
336.825	465.5
337.053	461.5
337.281	464.5
337.51	440.5
337.738	461.5
337.966	457.5
338.194	488.5
338.422	479.5
338.65	450.5
338.878	456.5
339.106	445.5
339.334	471.5
339.562	465.5
339.79	428.5
340.018	477.5
340.246	448.5
340.474	428.5
340.702	446.5
340.93	448.5
341.158	456.5
341.386	472.5
341.614	464.5
341.842	454.5
342.07	467.5
342.298	443.5
342.526	448.5
342.754	451.5
342.981	424.5
343.209	452.5
343.437	465.5
343.665	456.5
343.893	473.5
344.12	479.5
344.348	474.5
344.576	490.5
344.804	457.5
345.031	452.5
345.259	454.5
345.487	453.5
345.714	457.5
345.942	435.5
346.17	450.5
346.397	442.5
346.625	425.5
346.853	436.5
347.08	429.5
347.308	438.5
347.535	439.5
347.763	422.5
347.99	449.5
348.218	432.5
348.445	461.5
348.673	415.5
348.9	429.5
349.128	426.5
349.355	431.5
349.583	420.5
349.81	408.5
350.037	438.5
350.265	418.5
350.492	406.5
350.72	414.5
350.947	424.5
351.174	426.5
351.402	447.5
351.629	440.5
351.856	448.5
352.083	422.5
352.311	431.5
352.538	426.5
352.765	431.5
352.992	413.5
353.22	423.5
353.447	438.5
353.674	454.5
353.901	426.5
354.128	434.5
354.355	408.5
354.583	423.5
354.81	410.5
355.037	425.5
355.264	383.5
355.491	420.5
355.718	433.5
355.945	419.5
356.172	406.5
356.399	398.5
356.626	393.5
356.853	422.5
357.08	414.5
357.307	421.5
357.534	415.5
357.761	427.5
357.988	422.5
358.215	413.5
358.441	442.5
358.668	406.5
358.895	420.5
359.122	436.5
359.349	400.5
359.576	423.5
359.802	421.5
360.029	456.5
360.256	480.5
360.483	464.5
360.709	427.5
360.936	436.5
361.163	438.5
361.39	461.5
361.616	448.5
361.843	415.5
362.07	428.5
362.296	437.5
362.523	420.5
362.749	448.5
362.976	417.5
363.203	418.5
363.429	410.5
363.656	413.5
363.882	411.5
364.109	424.5
364.335	421.5
364.562	419.5
364.788	407.5
365.015	427.5
365.241	420.5
365.468	407.5
365.694	432.5
365.92	416.5
366.147	410.5
366.373	416.5
366.599	404.5
366.826	410.5
367.052	412.5
367.278	405.5
367.505	442.5
367.731	404.5
367.957	419.5
368.184	444.5
368.41	434.5
368.636	438.5
368.862	446.5
369.089	445.5
369.315	418.5
369.541	440.5
369.767	415.5
369.993	397.5
370.219	395.5
370.445	417.5
370.672	409.5
370.898	441.5
371.124	426.5
371.35	420.5
371.576	431.5
371.802	405.5
372.028	433.5
372.254	429.5
372.48	406.5
372.706	422.5
372.932	421.5
373.158	421.5
373.384	439.5
373.61	419.5
373.835	422.5
374.061	424.5
374.287	424.5
374.513	420.5
374.739	426.5
374.965	423.5
375.191	454.5
375.416	431.5
375.642	430.5
375.868	432.5
376.094	421.5
376.319	431.5
376.545	434.5
376.771	435.5
376.997	432.5
377.222	414.5
377.448	402.5
377.674	437.5
377.899	422.5
378.125	438.5
378.35	417.5
378.576	408.5
378.802	416.5
379.027	448.5
379.253	410.5
379.478	425.5
379.704	433.5
379.929	420.5
380.155	421.5
380.38	426.5
380.606	414.5
380.831	420.5
381.057	437.5
381.282	421.5
381.507	417.5
381.733	439.5
381.958	429.5
382.184	417.5
382.409	416.5
382.634	435.5
382.86	425.5
383.085	440.5
383.31	450.5
383.535	461.5
383.761	433.5
383.986	446.5
384.211	454.5
384.436	439.5
384.662	469.5
384.887	461.5
385.112	451.5
385.337	475.5
385.562	474.5
385.787	472.5
386.013	472.5
386.238	480.5
386.463	481.5
386.688	473.5
386.913	460.5
387.138	462.5
387.363	481.5
387.588	468.5
387.813	476.5
388.038	458.5
388.263	468.5
388.488	448.5
388.713	487.5
388.938	469.5
389.163	448.5
389.387	452.5
389.612	494.5
389.837	465.5
390.062	470.5
390.287	460.5
390.512	473.5
390.736	468.5
390.961	477.5
391.186	496.5
391.411	475.5
391.636	486.5
391.86	479.5
392.085	494.5
392.31	503.5
392.534	479.5
392.759	486.5
392.984	473.5
393.208	475.5
393.433	492.5
393.658	476.5
393.882	473.5
394.107	467.5
394.331	483.5
394.556	468.5
394.78	461.5
395.005	498.5
395.229	482.5
395.454	502.5
395.678	505.5
395.903	513.5
396.127	492.5
396.352	539.5
396.576	489.5
396.801	487.5
397.025	500.5
397.249	494.5
397.474	496.5
397.698	497.5
397.922	506.5
398.147	530.5
398.371	556.5
398.595	530.5
398.82	533.5
399.044	573.5
399.268	578.5
399.492	613.5
399.717	637.5
399.941	674.5
400.165	688.5
400.389	688.5
400.613	641.5
400.837	589.5
401.062	567.5
401.286	569.5
401.51	560.5
401.734	534.5
401.958	565.5
402.182	548.5
402.406	556.5
402.63	568.5
402.854	574.5
403.078	585.5
403.302	579.5
403.526	560.5
403.75	568.5
403.974	559.5
404.198	584.5
404.422	585.5
404.645	569.5
404.869	590.5
405.093	626.5
405.317	658.5
405.541	709.5
405.765	664.5
405.988	619.5
406.212	598.5
406.436	629.5
406.66	614.5
406.883	614.5
407.107	644.5
407.331	674.5
407.555	739.5
407.778	759.5
408.002	672.5
408.226	616.5
408.449	620.5
408.673	623.5
408.896	640.5
409.12	668.5
409.344	637.5
409.567	598.5
409.791	592.5
410.014	574.5
410.238	556.5
410.461	562.5
410.685	579.5
410.908	582.5
411.132	610.5
411.355	647.5
411.578	641.5
411.802	566.5
412.025	563.5
412.249	573.5
412.472	580.5
412.695	646.5
412.919	642.5
413.142	594.5
413.365	571.5
413.589	573.5
413.812	521.5
414.035	550.5
414.258	524.5
414.482	545.5
414.705	550.5
414.928	545.5
415.151	531.5
415.374	536.5
415.597	534.5
415.821	530.5
416.044	553.5
416.267	552.5
416.49	550.5
416.713	531.5
416.936	526.5
417.159	541.5
417.382	518.5
417.605	544.5
417.828	551.5
418.051	567.5
418.274	562.5
418.497	564.5
418.72	550.5
418.943	524.5
419.166	559.5
419.389	588.5
419.611	584.5
419.834	577.5
420.057	574.5
420.28	572.5
420.503	558.5
420.726	557.5
420.948	599.5
421.171	604.5
421.394	657.5
421.617	580.5
421.839	559.5
422.062	552.5
422.285	564.5
422.507	651.5
422.73	674.5
422.953	665.5
423.175	612.5
423.398	588.5
423.621	588.5
423.843	600.5
424.066	614.5
424.288	586.5
424.511	622.5
424.733	677.5
424.956	722.5
425.178	708.5
425.401	720.5
425.623	727.5
425.846	622.5
426.068	607.5
426.291	575.5
426.513	597.5
426.735	602.5
426.958	628.5
427.18	729.5
427.402	814.5
427.625	914.5
427.847	781.5
428.069	690.5
428.292	609.5
428.514	586.5
428.736	539.5
428.958	572.5
429.181	564.5
429.403	548.5
429.625	552.5
429.847	581.5
430.069	630.5
430.292	622.5
430.514	558.5
430.736	544.5
430.958	514.5
431.18	498.5
431.402	519.5
431.624	497.5
431.846	518.5
432.068	529.5
432.29	521.5
432.512	542.5
432.734	535.5
432.956	530.5
433.178	540.5
433.4	552.5
433.622	543.5
433.844	521.5
434.066	522.5
434.287	496.5
434.509	524.5
434.731	509.5
434.953	528.5
435.175	561.5
435.397	583.5
435.618	590.5
435.84	607.5
436.062	714.5
436.284	776.5
436.505	649.5
436.727	610.5
436.949	559.5
437.17	541.5
437.392	558.5
437.614	537.5
437.835	576.5
438.057	680.5
438.278	774.5
438.5	780.5
438.721	868.5
438.943	793.5
439.165	638.5
439.386	600.5
439.608	598.5
439.829	599.5
440.05	615.5
440.272	663.5
440.493	625.5
440.715	583.5
440.936	553.5
441.158	556.5
441.379	557.5
441.6	588.5
441.822	584.5
442.043	633.5
442.264	683.5
442.486	736.5
442.707	646.5
442.928	588.5
443.149	607.5
443.371	642.5
443.592	651.5
443.813	761.5
444.034	828.5
444.255	696.5
444.476	644.5
444.698	609.5
444.919	601.5
445.14	741.5
445.361	654.5
445.582	624.5
445.803	719.5
446.024	789.5
446.245	780.5
446.466	719.5
446.687	628.5
446.908	576.5
447.129	553.5
447.35	549.5
447.571	527.5
447.792	544.5
448.013	531.5
448.234	552.5
448.455	593.5
448.675	721.5
448.896	835.5
449.117	726.5
449.338	646.5
449.559	777.5
449.779	873.5
450	689.5
450.221	588.5
450.442	551.5
450.662	529.5
450.883	534.5
451.104	531.5
451.324	526.5
451.545	508.5
451.766	504.5
451.986	488.5
452.207	479.5
452.428	484.5
452.648	510.5
452.869	475.5
453.089	497.5
453.31	493.5
453.53	501.5
453.751	483.5
453.971	482.5
454.192	480.5
454.412	476.5
454.633	480.5
454.853	466.5
455.073	449.5
455.294	495.5
455.514	567.5
455.734	560.5
455.955	494.5
456.175	463.5
456.395	455.5
456.616	443.5
456.836	434.5
457.056	453.5
457.276	425.5
457.497	463.5
457.717	450.5
457.937	473.5
458.157	468.5
458.377	482.5
458.598	479.5
458.818	533.5
459.038	622.5
459.258	638.5
459.478	566.5
459.698	537.5
459.918	498.5
460.138	530.5
460.358	538.5
460.578	520.5
460.798	542.5
461.018	536.5
461.238	534.5
461.458	530.5
461.678	522.5
461.898	554.5
462.118	539.5
462.338	552.5
462.558	575.5
462.777	573.5
462.997	574.5
463.217	614.5
463.437	615.5
463.657	612.5
463.876	580.5
464.096	589.5
464.316	585.5
464.536	588.5
464.755	584.5
464.975	586.5
465.195	594.5
465.414	639.5
465.634	574.5
465.854	536.5
466.073	525.5
466.293	496.5
466.512	495.5
466.732	492.5
466.951	485.5
467.171	518.5
467.391	505.5
467.61	516.5
467.829	514.5
468.049	510.5
468.268	519.5
468.488	488.5
468.707	502.5
468.927	481.5
469.146	478.5
469.365	502.5
469.585	480.5
469.804	502.5
470.023	502.5
470.243	477.5
470.462	528.5
470.681	506.5
470.901	503.5
471.12	514.5
471.339	485.5
471.558	509.5
471.777	514.5
471.997	502.5
472.216	485.5
472.435	517.5
472.654	504.5
472.873	495.5
473.092	494.5
473.311	470.5
473.53	482.5
473.749	522.5
473.968	516.5
474.187	639.5
474.406	639.5
474.625	568.5
474.844	518.5
475.063	509.5
475.282	507.5
475.501	488.5
475.72	512.5
475.939	534.5
476.158	498.5
476.377	516.5
476.596	528.5
476.814	515.5
477.033	491.5
477.252	545.5
477.471	529.5
477.69	527.5
477.908	550.5
478.127	549.5
478.346	565.5
478.564	560.5
478.783	538.5
479.002	583.5
479.22	592.5
479.439	603.5
479.658	586.5
479.876	579.5
480.095	595.5
480.313	638.5
480.532	623.5
480.751	618.5
480.969	615.5
481.188	652.5
481.406	664.5
481.624	618.5
481.843	613.5
482.061	599.5
482.28	572.5
482.498	574.5
482.717	575.5
482.935	565.5
483.153	566.5
483.372	564.5
483.59	584.5
483.808	578.5
484.027	580.5
484.245	571.5
484.463	588.5
484.681	580.5
484.9	585.5
485.118	599.5
485.336	566.5
485.554	585.5
485.772	610.5
485.99	601.5
486.209	609.5
486.427	602.5
486.645	621.5
486.863	661.5
487.081	624.5
487.299	622.5
487.517	602.5
487.735	632.5
487.953	628.5
488.171	639.5
488.389	651.5
488.607	614.5
488.825	610.5
489.043	592.5
489.261	633.5
489.479	638.5
489.696	625.5
489.914	639.5
490.132	637.5
490.35	654.5
490.568	654.5
490.786	659.5
491.003	679.5
491.221	684.5
491.439	664.5
491.657	678.5
491.874	685.5
492.092	717.5
492.31	714.5
492.527	708.5
492.745	732.5
492.963	711.5
493.18	724.5
493.398	722.5
493.615	721.5
493.833	714.5
494.05	736.5
494.268	717.5
494.485	730.5
494.703	749.5
494.92	734.5
495.138	719.5
495.355	744.5
495.573	740.5
495.79	710.5
496.008	746.5
496.225	742.5
496.442	729.5
496.66	749.5
496.877	768.5
497.094	783.5
497.312	776.5
497.529	776.5
497.746	791.5
497.963	789.5
498.181	807.5
498.398	842.5
498.615	854.5
498.832	857.5
499.049	887.5
499.267	921.5
499.484	964.5
499.701	1001.5
499.918	1030.5
500.135	1099.5
500.352	1182.5
500.569	1174.5
500.786	1175.5
501.003	1162.5
501.22	1094.5
501.437	1074.5
501.654	1045.5
501.871	956.5
502.088	940.5
502.305	908.5
502.522	868.5
502.739	862.5
502.956	814.5
503.172	810.5
503.389	780.5
503.606	789.5
503.823	763.5
504.04	769.5
504.256	743.5
504.473	746.5
504.69	742.5
504.907	742.5
505.123	737.5
505.34	736.5
505.557	722.5
505.773	728.5
505.99	704.5
506.207	674.5
506.423	717.5
506.64	694.5
506.856	679.5
507.073	680.5
507.289	668.5
507.506	635.5
507.722	664.5
507.939	681.5
508.155	680.5
508.372	662.5
508.588	650.5
508.805	653.5
509.021	657.5
509.238	657.5
509.454	665.5
509.67	641.5
509.887	640.5
510.103	672.5
510.319	656.5
510.536	689.5
510.752	1062.5
510.968	897.5
511.184	642.5
511.401	623.5
511.617	634.5
511.833	620.5
512.049	602.5
512.265	609.5
512.481	629.5
512.698	606.5
512.914	618.5
513.13	622.5
513.346	612.5
513.562	609.5
513.778	600.5
513.994	603.5
514.21	610.5
514.426	633.5
514.642	650.5
514.858	645.5
515.074	714.5
515.29	785.5
515.506	1070.5
515.721	910.5
515.937	684.5
516.153	671.5
516.369	644.5
516.585	625.5
516.801	649.5
517.016	658.5
517.232	649.5
517.448	673.5
517.664	690.5
517.879	673.5
518.095	662.5
518.311	681.5
518.527	648.5
518.742	660.5
518.958	621.5
519.173	628.5
519.389	587.5
