Data from 1976.PennyLincolnUp.Lamp.En5.5.200Scan.071719.P1.Changed Mount._HRD10591_16-01-47-861.txt Node
Date: Thu Jul 18 16:01:47 EDT 2019
User: cochatt
Spectrometer: HR+D1059
Trigger mode: 1
Integration Time (sec): 1.000000E-1
Scans to average: 1
Electric dark correction enabled: true
Nonlinearity correction enabled: false
Boxcar width: 0
XAxis mode: Wavelengths
Number of Pixels in Spectrum: 2048
>>>>>Begin Spectral Data<<<<<
223.165	-2.12
223.4	-2.12
223.635	-2.12
223.869	-20.12
224.104	-9.12
224.338	-7.12
224.573	-14.12
224.808	-12.12
225.042	-21.12
225.277	-8.12
225.511	-17.12
225.746	0.88
225.98	-1.12
226.215	17.88
226.449	16.88
226.683	19.88
226.918	34.88
227.152	21.88
227.387	15.88
227.621	35.88
227.856	33.88
228.09	36.88
228.324	47.88
228.559	51.88
228.793	61.88
229.027	108.88
229.262	98.88
229.496	136.88
229.73	137.88
229.964	158.88
230.199	135.88
230.433	113.88
230.667	113.88
230.901	116.88
231.136	91.88
231.37	112.88
231.604	106.88
231.838	105.88
232.072	106.88
232.306	128.88
232.541	119.88
232.775	123.88
233.009	125.88
233.243	118.88
233.477	121.88
233.711	141.88
233.945	108.88
234.179	125.88
234.413	110.88
234.647	123.88
234.881	129.88
235.115	119.88
235.349	117.88
235.583	105.88
235.817	135.88
236.051	133.88
236.285	129.88
236.519	142.88
236.753	141.88
236.987	140.88
237.221	172.88
237.455	232.88
237.689	187.88
237.922	139.88
238.156	148.88
238.39	143.88
238.624	125.88
238.858	124.88
239.091	122.88
239.325	123.88
239.559	135.88
239.793	137.88
240.027	142.88
240.26	145.88
240.494	166.88
240.728	166.88
240.961	159.88
241.195	149.88
241.429	131.88
241.662	137.88
241.896	126.88
242.13	127.88
242.363	138.88
242.597	139.88
242.83	152.88
243.064	151.88
243.298	127.88
243.531	150.88
243.765	149.88
243.998	137.88
244.232	142.88
244.465	134.88
244.699	143.88
244.932	148.88
245.166	154.88
245.399	142.88
245.633	145.88
245.866	142.88
246.099	151.88
246.333	155.88
246.566	144.88
246.8	165.88
247.033	167.88
247.266	163.88
247.5	173.88
247.733	166.88
247.966	177.88
248.2	165.88
248.433	171.88
248.666	185.88
248.899	189.88
249.133	198.88
249.366	225.88
249.599	209.88
249.832	189.88
250.066	189.88
250.299	199.88
250.532	208.88
250.765	237.88
250.998	236.88
251.231	237.88
251.465	227.88
251.698	225.88
251.931	204.88
252.164	219.88
252.397	199.88
252.63	204.88
252.863	205.88
253.096	212.88
253.329	218.88
253.562	212.88
253.795	219.88
254.028	230.88
254.261	233.88
254.494	250.88
254.727	245.88
254.96	281.88
255.193	259.88
255.426	252.88
255.659	239.88
255.892	240.88
256.124	238.88
256.357	247.88
256.59	235.88
256.823	233.88
257.056	226.88
257.289	221.88
257.521	205.88
257.754	222.88
257.987	218.88
258.22	217.88
258.452	219.88
258.685	208.88
258.918	206.88
259.151	197.88
259.383	233.88
259.616	241.88
259.849	234.88
260.081	243.88
260.314	283.88
260.547	267.88
260.779	259.88
261.012	255.88
261.244	247.88
261.477	245.88
261.71	244.88
261.942	214.88
262.175	251.88
262.407	221.88
262.64	236.88
262.872	209.88
263.105	216.88
263.337	217.88
263.57	209.88
263.802	220.88
264.035	209.88
264.267	223.88
264.499	222.88
264.732	228.88
264.964	241.88
265.197	222.88
265.429	234.88
265.661	225.88
265.894	228.88
266.126	231.88
266.358	223.88
266.591	237.88
266.823	243.88
267.055	247.88
267.287	226.88
267.52	235.88
267.752	246.88
267.984	236.88
268.216	232.88
268.448	222.88
268.681	237.88
268.913	278.88
269.145	265.88
269.377	293.88
269.609	285.88
269.841	250.88
270.073	276.88
270.306	304.88
270.538	336.88
270.77	336.88
271.002	297.88
271.234	287.88
271.466	301.88
271.698	328.88
271.93	328.88
272.162	327.88
272.394	325.88
272.626	319.88
272.858	304.88
273.09	297.88
273.322	272.88
273.553	275.88
273.785	293.88
274.017	298.88
274.249	279.88
274.481	273.88
274.713	287.88
274.945	285.88
275.176	311.88
275.408	299.88
275.64	265.88
275.872	277.88
276.104	274.88
276.335	276.88
276.567	280.88
276.799	300.88
277.031	315.88
277.262	322.88
277.494	342.88
277.726	325.88
277.957	286.88
278.189	303.88
278.421	304.88
278.652	285.88
278.884	281.88
279.115	276.88
279.347	288.88
279.579	271.88
279.81	287.88
280.042	280.88
280.273	281.88
280.505	282.88
280.736	272.88
280.968	270.88
281.199	284.88
281.431	301.88
281.662	279.88
281.894	289.88
282.125	307.88
282.356	305.88
282.588	315.88
282.819	328.88
283.051	299.88
283.282	285.88
283.513	310.88
283.745	293.88
283.976	294.88
284.207	320.88
284.439	305.88
284.67	297.88
284.901	300.88
285.132	313.88
285.364	319.88
285.595	314.88
285.826	311.88
286.057	299.88
286.288	311.88
286.52	294.88
286.751	295.88
286.982	302.88
287.213	324.88
287.444	311.88
287.675	308.88
287.906	323.88
288.138	338.88
288.369	305.88
288.6	333.88
288.831	298.88
289.062	323.88
289.293	289.88
289.524	328.88
289.755	310.88
289.986	317.88
290.217	321.88
290.448	324.88
290.679	317.88
290.91	329.88
291.141	308.88
291.371	315.88
291.602	329.88
291.833	309.88
292.064	311.88
292.295	317.88
292.526	321.88
292.757	317.88
292.987	312.88
293.218	335.88
293.449	324.88
293.68	334.88
293.91	327.88
294.141	327.88
294.372	332.88
294.603	339.88
294.833	325.88
295.064	310.88
295.295	314.88
295.525	308.88
295.756	317.88
295.987	336.88
296.217	349.88
296.448	352.88
296.679	330.88
296.909	321.88
297.14	342.88
297.37	335.88
297.601	316.88
297.831	301.88
298.062	329.88
298.292	335.88
298.523	322.88
298.753	337.88
298.984	335.88
299.214	365.88
299.445	343.88
299.675	327.88
299.905	343.88
300.136	348.88
300.366	339.88
300.597	335.88
300.827	336.88
301.057	352.88
301.288	365.88
301.518	364.88
301.748	349.88
301.979	363.88
302.209	349.88
302.439	354.88
302.669	368.88
302.9	358.88
303.13	345.88
303.36	367.88
303.59	380.88
303.82	365.88
304.051	357.88
304.281	349.88
304.511	349.88
304.741	361.88
304.971	350.88
305.201	359.88
305.431	353.88
305.661	381.88
305.891	371.88
306.121	358.88
306.352	351.88
306.582	351.88
306.812	348.88
307.042	354.88
307.272	373.88
307.502	339.88
307.731	357.88
307.961	344.88
308.191	370.88
308.421	371.88
308.651	371.88
308.881	355.88
309.111	354.88
309.341	372.88
309.571	387.88
309.8	383.88
310.03	407.88
310.26	399.88
310.49	371.88
310.72	384.88
310.949	409.88
311.179	415.88
311.409	398.88
311.639	397.88
311.868	410.88
312.098	399.88
312.328	398.88
312.557	410.88
312.787	441.88
313.017	419.88
313.246	418.88
313.476	387.88
313.706	402.88
313.935	409.88
314.165	409.88
314.394	410.88
314.624	419.88
314.853	413.88
315.083	407.88
315.312	399.88
315.542	391.88
315.771	394.88
316.001	391.88
316.23	409.88
316.46	409.88
316.689	407.88
316.919	400.88
317.148	418.88
317.377	413.88
317.607	410.88
317.836	409.88
318.065	421.88
318.295	394.88
318.524	405.88
318.753	397.88
318.983	417.88
319.212	406.88
319.441	388.88
319.67	430.88
319.9	414.88
320.129	389.88
320.358	402.88
320.587	405.88
320.816	429.88
321.046	436.88
321.275	413.88
321.504	438.88
321.733	424.88
321.962	437.88
322.191	448.88
322.42	445.88
322.649	459.88
322.878	449.88
323.108	448.88
323.337	482.88
323.566	501.88
323.795	515.88
324.024	557.88
324.253	664.88
324.482	904.88
324.71	1352.88
324.939	1951.88
325.168	1757.88
325.397	886.88
325.626	603.88
325.855	539.88
326.084	498.88
326.313	484.88
326.542	492.88
326.77	543.88
326.999	629.88
327.228	822.88
327.457	1215.88
327.686	1551.88
327.914	1020.88
328.143	668.88
328.372	589.88
328.6	588.88
328.829	569.88
329.058	566.88
329.287	567.88
329.515	530.88
329.744	521.88
329.972	519.88
330.201	518.88
330.43	560.88
330.658	559.88
330.887	578.88
331.115	593.88
331.344	540.88
331.572	499.88
331.801	502.88
332.03	510.88
332.258	495.88
332.486	499.88
332.715	494.88
332.943	469.88
333.172	504.88
333.4	503.88
333.629	509.88
333.857	518.88
334.085	517.88
334.314	539.88
334.542	568.88
334.771	570.88
334.999	538.88
335.227	504.88
335.455	507.88
335.684	491.88
335.912	482.88
336.14	483.88
336.369	471.88
336.597	481.88
336.825	487.88
337.053	476.88
337.281	455.88
337.51	478.88
337.738	465.88
337.966	472.88
338.194	468.88
338.422	441.88
338.65	477.88
338.878	460.88
339.106	428.88
339.334	467.88
339.562	455.88
339.79	448.88
340.018	463.88
340.246	450.88
340.474	452.88
340.702	471.88
340.93	472.88
341.158	453.88
341.386	444.88
341.614	468.88
341.842	473.88
342.07	468.88
342.298	452.88
342.526	430.88
342.754	430.88
342.981	430.88
343.209	448.88
343.437	454.88
343.665	456.88
343.893	470.88
344.12	480.88
344.348	468.88
344.576	477.88
344.804	461.88
345.031	445.88
345.259	499.88
345.487	471.88
345.714	438.88
345.942	443.88
346.17	447.88
346.397	450.88
346.625	440.88
346.853	438.88
347.08	420.88
347.308	435.88
347.535	431.88
347.763	448.88
347.99	431.88
348.218	435.88
348.445	445.88
348.673	447.88
348.9	430.88
349.128	437.88
349.355	444.88
349.583	428.88
349.81	424.88
350.037	443.88
350.265	429.88
350.492	419.88
350.72	428.88
350.947	431.88
351.174	448.88
351.402	436.88
351.629	425.88
351.856	443.88
352.083	435.88
352.311	443.88
352.538	455.88
352.765	455.88
352.992	426.88
353.22	430.88
353.447	417.88
353.674	427.88
353.901	448.88
354.128	413.88
354.355	399.88
354.583	435.88
354.81	407.88
355.037	429.88
355.264	409.88
355.491	408.88
355.718	414.88
355.945	391.88
356.172	407.88
356.399	412.88
356.626	410.88
356.853	427.88
357.08	419.88
357.307	416.88
357.534	408.88
357.761	410.88
357.988	398.88
358.215	412.88
358.441	410.88
358.668	438.88
358.895	398.88
359.122	422.88
359.349	429.88
359.576	418.88
359.802	446.88
360.029	476.88
360.256	469.88
360.483	458.88
360.709	445.88
360.936	458.88
361.163	428.88
361.39	438.88
361.616	450.88
361.843	437.88
362.07	440.88
362.296	447.88
362.523	430.88
362.749	429.88
362.976	433.88
363.203	413.88
363.429	407.88
363.656	424.88
363.882	417.88
364.109	434.88
364.335	423.88
364.562	442.88
364.788	448.88
365.015	435.88
365.241	421.88
365.468	413.88
365.694	427.88
365.92	427.88
366.147	428.88
366.373	414.88
366.599	436.88
366.826	432.88
367.052	398.88
367.278	410.88
367.505	408.88
367.731	423.88
367.957	432.88
368.184	419.88
368.41	423.88
368.636	427.88
368.862	423.88
369.089	415.88
369.315	430.88
369.541	455.88
369.767	434.88
369.993	416.88
370.219	425.88
370.445	442.88
370.672	441.88
370.898	428.88
371.124	431.88
371.35	452.88
371.576	439.88
371.802	400.88
372.028	419.88
372.254	418.88
372.48	425.88
372.706	418.88
372.932	435.88
373.158	417.88
373.384	431.88
373.61	416.88
373.835	427.88
374.061	436.88
374.287	416.88
374.513	431.88
374.739	440.88
374.965	445.88
375.191	419.88
375.416	435.88
375.642	438.88
375.868	431.88
376.094	428.88
376.319	416.88
376.545	419.88
376.771	420.88
376.997	414.88
377.222	438.88
377.448	410.88
377.674	409.88
377.899	407.88
378.125	418.88
378.35	408.88
378.576	427.88
378.802	435.88
379.027	408.88
379.253	416.88
379.478	411.88
379.704	421.88
379.929	431.88
380.155	404.88
380.38	423.88
380.606	425.88
380.831	431.88
381.057	447.88
381.282	415.88
381.507	416.88
381.733	421.88
381.958	421.88
382.184	438.88
382.409	434.88
382.634	419.88
382.86	431.88
383.085	447.88
383.31	461.88
383.535	431.88
383.761	459.88
383.986	466.88
384.211	462.88
384.436	452.88
384.662	445.88
384.887	474.88
385.112	476.88
385.337	479.88
385.562	481.88
385.787	461.88
386.013	488.88
386.238	478.88
386.463	463.88
386.688	471.88
386.913	457.88
387.138	488.88
387.363	477.88
387.588	494.88
387.813	446.88
388.038	469.88
388.263	456.88
388.488	471.88
388.713	465.88
388.938	474.88
389.163	477.88
389.387	485.88
389.612	456.88
389.837	481.88
390.062	461.88
390.287	462.88
390.512	458.88
390.736	469.88
390.961	470.88
391.186	480.88
391.411	495.88
391.636	485.88
391.86	475.88
392.085	470.88
392.31	485.88
392.534	497.88
392.759	480.88
392.984	475.88
393.208	470.88
393.433	483.88
393.658	488.88
393.882	490.88
394.107	489.88
394.331	504.88
394.556	481.88
394.78	475.88
395.005	485.88
395.229	477.88
395.454	494.88
395.678	484.88
395.903	530.88
396.127	544.88
396.352	554.88
396.576	491.88
396.801	492.88
397.025	490.88
397.249	507.88
397.474	502.88
397.698	526.88
397.922	523.88
398.147	523.88
398.371	510.88
398.595	511.88
398.82	527.88
399.044	562.88
399.268	569.88
399.492	624.88
399.717	668.88
399.941	661.88
400.165	693.88
400.389	699.88
400.613	609.88
400.837	575.88
401.062	577.88
401.286	577.88
401.51	569.88
401.734	559.88
401.958	548.88
402.182	579.88
402.406	579.88
402.63	582.88
402.854	591.88
403.078	572.88
403.302	579.88
403.526	568.88
403.75	581.88
403.974	572.88
404.198	559.88
404.422	573.88
404.645	574.88
404.869	584.88
405.093	612.88
405.317	687.88
405.541	691.88
405.765	645.88
405.988	602.88
406.212	623.88
406.436	624.88
406.66	636.88
406.883	636.88
407.107	627.88
407.331	673.88
407.555	744.88
407.778	745.88
408.002	690.88
408.226	670.88
408.449	610.88
408.673	610.88
408.896	660.88
409.12	705.88
409.344	658.88
409.567	597.88
409.791	611.88
410.014	576.88
410.238	587.88
410.461	576.88
410.685	585.88
410.908	587.88
411.132	619.88
411.355	649.88
411.578	608.88
411.802	596.88
412.025	579.88
412.249	558.88
412.472	592.88
412.695	610.88
412.919	631.88
413.142	565.88
413.365	539.88
413.589	546.88
413.812	537.88
414.035	538.88
414.258	539.88
414.482	542.88
414.705	529.88
414.928	544.88
415.151	547.88
415.374	543.88
415.597	548.88
415.821	549.88
416.044	535.88
416.267	548.88
416.49	541.88
416.713	527.88
416.936	543.88
417.159	539.88
417.382	522.88
417.605	547.88
417.828	569.88
418.051	579.88
418.274	578.88
418.497	573.88
418.72	565.88
418.943	548.88
419.166	582.88
419.389	613.88
419.611	580.88
419.834	578.88
420.057	575.88
420.28	591.88
420.503	569.88
420.726	576.88
420.948	590.88
421.171	613.88
421.394	641.88
421.617	619.88
421.839	566.88
422.062	563.88
422.285	560.88
422.507	628.88
422.73	711.88
422.953	665.88
423.175	611.88
423.398	586.88
423.621	592.88
423.843	588.88
424.066	607.88
424.288	611.88
424.511	614.88
424.733	679.88
424.956	710.88
425.178	726.88
425.401	696.88
425.623	725.88
425.846	643.88
426.068	608.88
426.291	596.88
426.513	611.88
426.735	613.88
426.958	638.88
427.18	711.88
427.402	853.88
427.625	945.88
427.847	799.88
428.069	694.88
428.292	633.88
428.514	591.88
428.736	541.88
428.958	540.88
429.181	551.88
429.403	540.88
429.625	544.88
429.847	589.88
430.069	641.88
430.292	639.88
430.514	574.88
430.736	526.88
430.958	530.88
431.18	512.88
431.402	534.88
431.624	515.88
431.846	523.88
432.068	500.88
432.29	524.88
432.512	511.88
432.734	533.88
432.956	543.88
433.178	539.88
433.4	558.88
433.622	518.88
433.844	493.88
434.066	514.88
434.287	535.88
434.509	538.88
434.731	529.88
434.953	568.88
435.175	550.88
435.397	588.88
435.618	605.88
435.84	637.88
436.062	736.88
436.284	808.88
436.505	667.88
436.727	599.88
436.949	571.88
437.17	552.88
437.392	543.88
437.614	562.88
437.835	587.88
438.057	667.88
438.278	764.88
438.5	758.88
438.721	847.88
438.943	796.88
439.165	669.88
439.386	604.88
439.608	606.88
439.829	565.88
440.05	611.88
440.272	659.88
440.493	630.88
440.715	569.88
440.936	571.88
441.158	544.88
441.379	577.88
441.6	561.88
441.822	565.88
442.043	629.88
442.264	714.88
442.486	760.88
442.707	640.88
442.928	617.88
443.149	592.88
443.371	635.88
443.592	669.88
443.813	775.88
444.034	830.88
444.255	719.88
444.476	623.88
444.698	620.88
444.919	617.88
445.14	749.88
445.361	668.88
445.582	631.88
445.803	711.88
446.024	808.88
446.245	807.88
446.466	721.88
446.687	641.88
446.908	594.88
447.129	553.88
447.35	565.88
447.571	559.88
447.792	533.88
448.013	521.88
448.234	563.88
448.455	602.88
448.675	720.88
448.896	812.88
449.117	728.88
449.338	685.88
449.559	768.88
449.779	872.88
450	697.88
450.221	598.88
450.442	565.88
450.662	526.88
450.883	525.88
451.104	540.88
451.324	511.88
451.545	520.88
451.766	493.88
451.986	494.88
452.207	476.88
452.428	474.88
452.648	479.88
452.869	486.88
453.089	490.88
453.31	499.88
453.53	480.88
453.751	460.88
453.971	471.88
454.192	478.88
454.412	487.88
454.633	489.88
454.853	458.88
455.073	465.88
455.294	494.88
455.514	575.88
455.734	561.88
455.955	487.88
456.175	461.88
456.395	465.88
456.616	428.88
456.836	440.88
457.056	460.88
457.276	456.88
457.497	461.88
457.717	455.88
457.937	450.88
458.157	443.88
458.377	449.88
458.598	492.88
458.818	521.88
459.038	606.88
459.258	649.88
459.478	558.88
459.698	539.88
459.918	505.88
460.138	513.88
460.358	525.88
460.578	528.88
460.798	521.88
461.018	554.88
461.238	551.88
461.458	524.88
461.678	530.88
461.898	528.88
462.118	539.88
462.338	574.88
462.558	564.88
462.777	582.88
462.997	611.88
463.217	620.88
463.437	599.88
463.657	603.88
463.876	586.88
464.096	592.88
464.316	580.88
464.536	604.88
464.755	576.88
464.975	593.88
465.195	599.88
465.414	628.88
465.634	591.88
465.854	557.88
466.073	528.88
466.293	527.88
466.512	491.88
466.732	507.88
466.951	504.88
467.171	493.88
467.391	501.88
467.61	497.88
467.829	517.88
468.049	489.88
468.268	516.88
468.488	499.88
468.707	494.88
468.927	494.88
469.146	478.88
469.365	464.88
469.585	487.88
469.804	511.88
470.023	516.88
470.243	494.88
470.462	504.88
470.681	535.88
470.901	524.88
471.12	527.88
471.339	502.88
471.558	499.88
471.777	509.88
471.997	488.88
472.216	493.88
472.435	538.88
472.654	508.88
472.873	499.88
473.092	511.88
473.311	497.88
473.53	504.88
473.749	517.88
473.968	541.88
474.187	648.88
474.406	681.88
474.625	566.88
474.844	517.88
475.063	515.88
475.282	508.88
475.501	501.88
475.72	497.88
475.939	531.88
476.158	523.88
476.377	527.88
476.596	525.88
476.814	537.88
477.033	519.88
477.252	521.88
477.471	547.88
477.69	552.88
477.908	552.88
478.127	554.88
478.346	555.88
478.564	570.88
478.783	589.88
479.002	573.88
479.22	570.88
479.439	582.88
479.658	611.88
479.876	597.88
480.095	603.88
480.313	649.88
480.532	635.88
480.751	611.88
480.969	617.88
481.188	657.88
481.406	671.88
481.624	631.88
481.843	616.88
482.061	607.88
482.28	582.88
482.498	590.88
482.717	580.88
482.935	592.88
483.153	574.88
483.372	572.88
483.59	595.88
483.808	590.88
484.027	589.88
484.245	606.88
484.463	605.88
484.681	607.88
484.9	589.88
485.118	628.88
485.336	599.88
485.554	602.88
485.772	591.88
485.99	628.88
486.209	615.88
486.427	613.88
486.645	600.88
486.863	637.88
487.081	645.88
487.299	599.88
487.517	615.88
487.735	633.88
487.953	637.88
488.171	619.88
488.389	642.88
488.607	595.88
488.825	647.88
489.043	636.88
489.261	639.88
489.479	664.88
489.696	632.88
489.914	637.88
490.132	651.88
490.35	637.88
490.568	639.88
490.786	662.88
491.003	672.88
491.221	692.88
491.439	709.88
491.657	693.88
491.874	708.88
492.092	704.88
492.31	724.88
492.527	726.88
492.745	716.88
492.963	725.88
493.18	714.88
493.398	735.88
493.615	742.88
493.833	744.88
494.05	743.88
494.268	727.88
494.485	731.88
494.703	728.88
494.92	736.88
495.138	719.88
495.355	749.88
495.573	736.88
495.79	745.88
496.008	744.88
496.225	772.88
496.442	733.88
496.66	743.88
496.877	740.88
497.094	763.88
497.312	773.88
497.529	774.88
497.746	807.88
497.963	812.88
498.181	807.88
498.398	828.88
498.615	835.88
498.832	843.88
499.049	893.88
499.267	913.88
499.484	986.88
499.701	1016.88
499.918	1000.88
500.135	1096.88
500.352	1184.88
500.569	1199.88
500.786	1214.88
501.003	1171.88
501.22	1101.88
501.437	1069.88
501.654	1030.88
