Data from 1976.PennyLincolnUp.Lamp.En5.5.200Scan.071719.P1.Changed Mount._HRD10591_16-01-10-861.txt Node
Date: Thu Jul 18 16:01:10 EDT 2019
User: cochatt
Spectrometer: HR+D1059
Trigger mode: 1
Integration Time (sec): 1.000000E-1
Scans to average: 1
Electric dark correction enabled: true
Nonlinearity correction enabled: false
Boxcar width: 0
XAxis mode: Wavelengths
Number of Pixels in Spectrum: 2048
>>>>>Begin Spectral Data<<<<<
223.165	-18.06
223.4	-18.06
223.635	-18.06
223.869	-20.06
224.104	-29.06
224.338	-2.06
224.573	-7.06
224.808	-13.06
225.042	-9.06
225.277	-20.06
225.511	-2.06
225.746	4.94
225.98	-0.06
226.215	12.94
226.449	17.94
226.683	15.94
226.918	37.94
227.152	30.94
227.387	35.94
227.621	35.94
227.856	41.94
228.09	46.94
228.324	42.94
228.559	54.94
228.793	64.94
229.027	83.94
229.262	103.94
229.496	135.94
229.73	149.94
229.964	158.94
230.199	123.94
230.433	108.94
230.667	115.94
230.901	112.94
231.136	107.94
231.37	100.94
231.604	110.94
231.838	109.94
232.072	108.94
232.306	121.94
232.541	111.94
232.775	124.94
233.009	121.94
233.243	110.94
233.477	108.94
233.711	133.94
233.945	117.94
234.179	110.94
234.413	131.94
234.647	108.94
234.881	118.94
235.115	127.94
235.349	119.94
235.583	123.94
235.817	114.94
236.051	137.94
236.285	125.94
236.519	118.94
236.753	132.94
236.987	142.94
237.221	178.94
237.455	223.94
237.689	195.94
237.922	128.94
238.156	141.94
238.39	138.94
238.624	130.94
238.858	144.94
239.091	125.94
239.325	131.94
239.559	134.94
239.793	127.94
240.027	137.94
240.26	164.94
240.494	156.94
240.728	168.94
240.961	164.94
241.195	142.94
241.429	143.94
241.662	144.94
241.896	149.94
242.13	147.94
242.363	142.94
242.597	136.94
242.83	134.94
243.064	138.94
243.298	150.94
243.531	149.94
243.765	149.94
243.998	137.94
244.232	143.94
244.465	165.94
244.699	148.94
244.932	137.94
245.166	157.94
245.399	146.94
245.633	153.94
245.866	155.94
246.099	160.94
246.333	156.94
246.566	153.94
246.8	140.94
247.033	162.94
247.266	164.94
247.5	157.94
247.733	169.94
247.966	175.94
248.2	183.94
248.433	169.94
248.666	173.94
248.899	182.94
249.133	189.94
249.366	225.94
249.599	213.94
249.832	200.94
250.066	183.94
250.299	194.94
250.532	184.94
250.765	215.94
250.998	213.94
251.231	230.94
251.465	220.94
251.698	225.94
251.931	213.94
252.164	198.94
252.397	200.94
252.63	198.94
252.863	209.94
253.096	225.94
253.329	231.94
253.562	225.94
253.795	227.94
254.028	228.94
254.261	219.94
254.494	230.94
254.727	261.94
254.96	272.94
255.193	276.94
255.426	252.94
255.659	250.94
255.892	226.94
256.124	261.94
256.357	238.94
256.59	233.94
256.823	210.94
257.056	217.94
257.289	228.94
257.521	218.94
257.754	225.94
257.987	226.94
258.22	222.94
258.452	214.94
258.685	224.94
258.918	228.94
259.151	227.94
259.383	227.94
259.616	235.94
259.849	229.94
260.081	253.94
260.314	253.94
260.547	266.94
260.779	257.94
261.012	263.94
261.244	243.94
261.477	254.94
261.71	231.94
261.942	241.94
262.175	249.94
262.407	251.94
262.64	229.94
262.872	223.94
263.105	248.94
263.337	222.94
263.57	203.94
263.802	232.94
264.035	214.94
264.267	222.94
264.499	229.94
264.732	238.94
264.964	243.94
265.197	213.94
265.429	217.94
265.661	226.94
265.894	227.94
266.126	228.94
266.358	236.94
266.591	262.94
266.823	244.94
267.055	262.94
267.287	261.94
267.52	229.94
267.752	242.94
267.984	233.94
268.216	237.94
268.448	239.94
268.681	226.94
268.913	237.94
269.145	284.94
269.377	288.94
269.609	288.94
269.841	281.94
270.073	270.94
270.306	291.94
270.538	321.94
270.77	340.94
271.002	298.94
271.234	318.94
271.466	334.94
271.698	348.94
271.93	327.94
272.162	330.94
272.394	330.94
272.626	313.94
272.858	312.94
273.09	300.94
273.322	287.94
273.553	293.94
273.785	282.94
274.017	265.94
274.249	277.94
274.481	269.94
274.713	281.94
274.945	306.94
275.176	275.94
275.408	270.94
275.64	275.94
275.872	290.94
276.104	266.94
276.335	264.94
276.567	301.94
276.799	307.94
277.031	313.94
277.262	339.94
277.494	325.94
277.726	334.94
277.957	284.94
278.189	307.94
278.421	295.94
278.652	283.94
278.884	298.94
279.115	293.94
279.347	298.94
279.579	291.94
279.81	290.94
280.042	294.94
280.273	280.94
280.505	283.94
280.736	289.94
280.968	289.94
281.199	274.94
281.431	309.94
281.662	284.94
281.894	297.94
282.125	301.94
282.356	295.94
282.588	334.94
282.819	312.94
283.051	309.94
283.282	303.94
283.513	291.94
283.745	280.94
283.976	298.94
284.207	323.94
284.439	305.94
284.67	294.94
284.901	295.94
285.132	301.94
285.364	306.94
285.595	305.94
285.826	302.94
286.057	297.94
286.288	306.94
286.52	316.94
286.751	318.94
286.982	322.94
287.213	293.94
287.444	307.94
287.675	315.94
287.906	315.94
288.138	339.94
288.369	316.94
288.6	316.94
288.831	311.94
289.062	318.94
289.293	315.94
289.524	316.94
289.755	325.94
289.986	312.94
290.217	314.94
290.448	327.94
290.679	335.94
290.91	321.94
291.141	314.94
291.371	313.94
291.602	315.94
291.833	301.94
292.064	329.94
292.295	312.94
292.526	323.94
292.757	323.94
292.987	323.94
293.218	321.94
293.449	326.94
293.68	337.94
293.91	309.94
294.141	299.94
294.372	294.94
294.603	317.94
294.833	325.94
295.064	322.94
295.295	309.94
295.525	331.94
295.756	337.94
295.987	348.94
296.217	366.94
296.448	366.94
296.679	359.94
296.909	323.94
297.14	300.94
297.37	339.94
297.601	340.94
297.831	329.94
298.062	327.94
298.292	339.94
298.523	309.94
298.753	317.94
298.984	333.94
299.214	311.94
299.445	342.94
299.675	341.94
299.905	351.94
300.136	329.94
300.366	349.94
300.597	348.94
300.827	342.94
301.057	354.94
301.288	366.94
301.518	370.94
301.748	351.94
301.979	367.94
302.209	387.94
302.439	359.94
302.669	367.94
302.9	353.94
303.13	343.94
303.36	357.94
303.59	355.94
303.82	373.94
304.051	368.94
304.281	375.94
304.511	357.94
304.741	349.94
304.971	364.94
305.201	361.94
305.431	360.94
305.661	374.94
305.891	339.94
306.121	355.94
306.352	366.94
306.582	382.94
306.812	362.94
307.042	343.94
307.272	358.94
307.502	384.94
307.731	373.94
307.961	357.94
308.191	353.94
308.421	356.94
308.651	341.94
308.881	361.94
309.111	362.94
309.341	366.94
309.571	370.94
309.8	356.94
310.03	383.94
310.26	388.94
310.49	383.94
310.72	382.94
310.949	419.94
311.179	400.94
311.409	409.94
311.639	396.94
311.868	414.94
312.098	374.94
312.328	386.94
312.557	392.94
312.787	437.94
313.017	429.94
313.246	416.94
313.476	385.94
313.706	405.94
313.935	422.94
314.165	421.94
314.394	402.94
314.624	410.94
314.853	432.94
315.083	407.94
315.312	414.94
315.542	406.94
315.771	381.94
316.001	407.94
316.23	402.94
316.46	401.94
316.689	413.94
316.919	408.94
317.148	406.94
317.377	406.94
317.607	425.94
317.836	427.94
318.065	399.94
318.295	392.94
318.524	396.94
318.753	383.94
318.983	408.94
319.212	380.94
319.441	430.94
319.67	417.94
319.9	415.94
320.129	406.94
320.358	409.94
320.587	424.94
320.816	395.94
321.046	409.94
321.275	429.94
321.504	419.94
321.733	433.94
321.962	426.94
322.191	412.94
322.42	447.94
322.649	447.94
322.878	450.94
323.108	477.94
323.337	476.94
323.566	500.94
323.795	536.94
324.024	573.94
324.253	645.94
324.482	883.94
324.71	1380.94
324.939	2029.94
325.168	1762.94
325.397	897.94
325.626	604.94
325.855	542.94
326.084	494.94
326.313	511.94
326.542	500.94
326.77	544.94
326.999	638.94
327.228	846.94
327.457	1260.94
327.686	1494.94
327.914	1013.94
328.143	681.94
328.372	579.94
328.6	572.94
328.829	528.94
329.058	580.94
329.287	578.94
329.515	545.94
329.744	525.94
329.972	497.94
330.201	550.94
330.43	567.94
330.658	580.94
330.887	572.94
331.115	569.94
331.344	519.94
331.572	517.94
331.801	521.94
332.03	503.94
332.258	500.94
332.486	492.94
332.715	490.94
332.943	507.94
333.172	498.94
333.4	532.94
333.629	504.94
333.857	491.94
334.085	526.94
334.314	512.94
334.542	557.94
334.771	571.94
334.999	547.94
335.227	524.94
335.455	515.94
335.684	483.94
335.912	494.94
336.14	475.94
336.369	504.94
336.597	499.94
336.825	502.94
337.053	486.94
337.281	487.94
337.51	470.94
337.738	480.94
337.966	469.94
338.194	486.94
338.422	479.94
338.65	475.94
338.878	462.94
339.106	440.94
339.334	482.94
339.562	489.94
339.79	444.94
340.018	461.94
340.246	455.94
340.474	484.94
340.702	467.94
340.93	458.94
341.158	477.94
341.386	466.94
341.614	457.94
341.842	441.94
342.07	467.94
342.298	455.94
342.526	449.94
342.754	453.94
342.981	437.94
343.209	434.94
343.437	446.94
343.665	465.94
343.893	474.94
344.12	466.94
344.348	482.94
344.576	471.94
344.804	483.94
345.031	475.94
345.259	461.94
345.487	470.94
345.714	475.94
345.942	462.94
346.17	439.94
346.397	446.94
346.625	438.94
346.853	452.94
347.08	455.94
347.308	451.94
347.535	441.94
347.763	451.94
347.99	449.94
348.218	447.94
348.445	473.94
348.673	447.94
348.9	425.94
349.128	424.94
349.355	435.94
349.583	419.94
349.81	424.94
350.037	414.94
350.265	404.94
350.492	417.94
350.72	437.94
350.947	437.94
351.174	444.94
351.402	456.94
351.629	434.94
351.856	433.94
352.083	438.94
352.311	435.94
352.538	457.94
352.765	455.94
352.992	438.94
353.22	429.94
353.447	421.94
353.674	429.94
353.901	412.94
354.128	438.94
354.355	435.94
354.583	435.94
354.81	432.94
355.037	436.94
355.264	411.94
355.491	423.94
355.718	397.94
355.945	429.94
356.172	404.94
356.399	420.94
356.626	405.94
356.853	428.94
357.08	383.94
357.307	413.94
357.534	409.94
357.761	393.94
357.988	422.94
358.215	421.94
358.441	421.94
358.668	406.94
358.895	435.94
359.122	425.94
359.349	425.94
359.576	426.94
359.802	464.94
360.029	474.94
360.256	490.94
360.483	470.94
360.709	448.94
360.936	442.94
361.163	441.94
361.39	439.94
361.616	461.94
361.843	431.94
362.07	436.94
362.296	431.94
362.523	435.94
362.749	421.94
362.976	428.94
363.203	424.94
363.429	412.94
363.656	421.94
363.882	412.94
364.109	414.94
364.335	423.94
364.562	408.94
364.788	433.94
365.015	421.94
365.241	420.94
365.468	418.94
365.694	441.94
365.92	414.94
366.147	414.94
366.373	405.94
366.599	441.94
366.826	405.94
367.052	415.94
367.278	421.94
367.505	416.94
367.731	427.94
367.957	428.94
368.184	425.94
368.41	430.94
368.636	436.94
368.862	435.94
369.089	429.94
369.315	438.94
369.541	423.94
369.767	436.94
369.993	413.94
370.219	423.94
370.445	429.94
370.672	438.94
370.898	423.94
371.124	420.94
371.35	409.94
371.576	421.94
371.802	438.94
372.028	428.94
372.254	426.94
372.48	413.94
372.706	438.94
372.932	430.94
373.158	447.94
373.384	437.94
373.61	417.94
373.835	407.94
374.061	429.94
374.287	421.94
374.513	433.94
374.739	448.94
374.965	443.94
375.191	454.94
375.416	465.94
375.642	434.94
375.868	457.94
376.094	430.94
376.319	425.94
376.545	444.94
376.771	421.94
376.997	439.94
377.222	423.94
377.448	414.94
377.674	419.94
377.899	421.94
378.125	437.94
378.35	418.94
378.576	416.94
378.802	420.94
379.027	427.94
379.253	441.94
379.478	423.94
379.704	408.94
379.929	416.94
380.155	426.94
380.38	430.94
380.606	425.94
380.831	418.94
381.057	414.94
381.282	427.94
381.507	415.94
381.733	415.94
381.958	427.94
382.184	440.94
382.409	434.94
382.634	436.94
382.86	424.94
383.085	436.94
383.31	439.94
383.535	458.94
383.761	457.94
383.986	443.94
384.211	430.94
384.436	473.94
384.662	479.94
384.887	466.94
385.112	455.94
385.337	481.94
385.562	469.94
385.787	469.94
386.013	491.94
386.238	478.94
386.463	472.94
386.688	454.94
386.913	473.94
387.138	474.94
387.363	458.94
387.588	468.94
387.813	487.94
388.038	492.94
388.263	473.94
388.488	480.94
388.713	470.94
388.938	469.94
389.163	467.94
389.387	468.94
389.612	487.94
389.837	460.94
390.062	466.94
390.287	470.94
390.512	471.94
390.736	481.94
390.961	462.94
391.186	480.94
391.411	481.94
391.636	495.94
391.86	485.94
392.085	506.94
392.31	499.94
392.534	501.94
392.759	502.94
392.984	478.94
393.208	475.94
393.433	483.94
393.658	465.94
393.882	481.94
394.107	475.94
394.331	491.94
394.556	501.94
394.78	491.94
395.005	479.94
395.229	484.94
395.454	517.94
395.678	527.94
395.903	501.94
396.127	526.94
396.352	528.94
396.576	510.94
396.801	491.94
397.025	490.94
397.249	494.94
397.474	522.94
397.698	515.94
397.922	528.94
398.147	536.94
398.371	541.94
398.595	524.94
398.82	538.94
399.044	598.94
399.268	612.94
399.492	613.94
399.717	677.94
399.941	673.94
400.165	686.94
400.389	707.94
400.613	651.94
400.837	602.94
401.062	570.94
401.286	578.94
401.51	583.94
401.734	539.94
401.958	562.94
402.182	555.94
402.406	556.94
402.63	567.94
402.854	579.94
403.078	568.94
403.302	561.94
403.526	570.94
403.75	582.94
403.974	606.94
404.198	573.94
404.422	587.94
404.645	600.94
404.869	590.94
405.093	621.94
405.317	646.94
405.541	693.94
405.765	629.94
405.988	627.94
406.212	624.94
406.436	623.94
406.66	647.94
406.883	644.94
407.107	648.94
407.331	693.94
407.555	775.94
407.778	762.94
408.002	695.94
408.226	651.94
408.449	666.94
408.673	641.94
408.896	657.94
409.12	694.94
409.344	651.94
409.567	609.94
409.791	599.94
410.014	583.94
410.238	566.94
410.461	567.94
410.685	593.94
410.908	585.94
411.132	629.94
411.355	667.94
411.578	636.94
411.802	579.94
412.025	573.94
412.249	587.94
412.472	605.94
412.695	629.94
412.919	625.94
413.142	601.94
413.365	575.94
413.589	557.94
413.812	547.94
414.035	568.94
414.258	547.94
414.482	569.94
414.705	564.94
414.928	543.94
415.151	521.94
415.374	537.94
415.597	562.94
415.821	532.94
416.044	561.94
416.267	543.94
416.49	532.94
416.713	545.94
416.936	539.94
417.159	536.94
417.382	542.94
417.605	559.94
417.828	542.94
418.051	562.94
418.274	564.94
418.497	537.94
418.72	545.94
418.943	543.94
419.166	572.94
419.389	605.94
419.611	605.94
419.834	586.94
420.057	590.94
420.28	572.94
420.503	564.94
420.726	570.94
420.948	585.94
421.171	605.94
421.394	643.94
421.617	585.94
421.839	566.94
422.062	577.94
422.285	580.94
422.507	613.94
422.73	693.94
422.953	687.94
423.175	615.94
423.398	570.94
423.621	606.94
423.843	622.94
424.066	620.94
424.288	601.94
424.511	646.94
424.733	650.94
424.956	759.94
425.178	706.94
425.401	702.94
425.623	773.94
425.846	642.94
426.068	603.94
426.291	590.94
426.513	579.94
426.735	586.94
426.958	629.94
427.18	731.94
427.402	879.94
427.625	934.94
427.847	798.94
428.069	719.94
428.292	628.94
428.514	578.94
428.736	565.94
428.958	576.94
429.181	540.94
429.403	545.94
429.625	574.94
429.847	609.94
430.069	665.94
430.292	640.94
430.514	541.94
430.736	551.94
430.958	524.94
431.18	522.94
431.402	508.94
431.624	498.94
431.846	528.94
432.068	513.94
432.29	554.94
432.512	506.94
432.734	559.94
432.956	552.94
433.178	544.94
433.4	557.94
433.622	533.94
433.844	514.94
434.066	492.94
434.287	514.94
434.509	531.94
434.731	575.94
434.953	541.94
435.175	587.94
435.397	592.94
435.618	604.94
435.84	632.94
436.062	721.94
436.284	817.94
436.505	668.94
436.727	598.94
436.949	554.94
437.17	557.94
437.392	561.94
437.614	559.94
437.835	599.94
438.057	683.94
438.278	792.94
438.5	797.94
438.721	884.94
438.943	822.94
439.165	668.94
439.386	606.94
439.608	604.94
439.829	614.94
440.05	624.94
440.272	653.94
440.493	623.94
440.715	620.94
440.936	562.94
441.158	564.94
441.379	561.94
441.6	586.94
441.822	589.94
442.043	656.94
442.264	703.94
442.486	762.94
442.707	648.94
442.928	601.94
443.149	617.94
443.371	633.94
443.592	671.94
443.813	779.94
444.034	828.94
444.255	715.94
444.476	633.94
444.698	613.94
444.919	615.94
445.14	747.94
445.361	677.94
445.582	658.94
445.803	674.94
446.024	776.94
446.245	795.94
446.466	741.94
446.687	621.94
446.908	609.94
447.129	577.94
447.35	548.94
447.571	537.94
447.792	519.94
448.013	561.94
448.234	556.94
448.455	584.94
448.675	741.94
448.896	845.94
449.117	707.94
449.338	661.94
449.559	784.94
449.779	911.94
450	718.94
450.221	601.94
450.442	541.94
450.662	513.94
450.883	535.94
451.104	529.94
451.324	523.94
451.545	508.94
451.766	505.94
451.986	467.94
452.207	485.94
452.428	476.94
452.648	505.94
452.869	500.94
453.089	478.94
453.31	511.94
453.53	505.94
453.751	498.94
453.971	485.94
454.192	494.94
454.412	475.94
454.633	489.94
454.853	475.94
455.073	484.94
455.294	521.94
455.514	580.94
455.734	552.94
455.955	497.94
456.175	457.94
456.395	455.94
456.616	466.94
456.836	448.94
457.056	465.94
457.276	428.94
457.497	475.94
457.717	471.94
457.937	470.94
458.157	468.94
458.377	471.94
458.598	474.94
458.818	554.94
459.038	609.94
459.258	646.94
459.478	593.94
459.698	550.94
459.918	542.94
460.138	518.94
460.358	561.94
460.578	538.94
460.798	541.94
461.018	571.94
461.238	579.94
461.458	548.94
461.678	535.94
461.898	539.94
462.118	537.94
462.338	561.94
462.558	588.94
462.777	581.94
462.997	594.94
463.217	631.94
463.437	641.94
463.657	593.94
463.876	596.94
464.096	570.94
464.316	592.94
464.536	578.94
464.755	595.94
464.975	579.94
465.195	614.94
465.414	647.94
465.634	574.94
465.854	556.94
466.073	522.94
466.293	510.94
466.512	500.94
466.732	497.94
466.951	491.94
467.171	512.94
467.391	502.94
467.61	511.94
467.829	488.94
468.049	521.94
468.268	491.94
468.488	498.94
468.707	489.94
468.927	487.94
469.146	483.94
469.365	487.94
469.585	490.94
469.804	499.94
470.023	492.94
470.243	507.94
470.462	502.94
470.681	519.94
470.901	515.94
471.12	527.94
471.339	477.94
471.558	500.94
471.777	521.94
471.997	498.94
472.216	494.94
472.435	528.94
472.654	530.94
472.873	481.94
473.092	507.94
473.311	495.94
473.53	522.94
473.749	527.94
473.968	546.94
474.187	647.94
474.406	665.94
474.625	573.94
474.844	513.94
475.063	488.94
475.282	525.94
475.501	490.94
475.72	516.94
475.939	506.94
476.158	533.94
476.377	505.94
476.596	531.94
476.814	529.94
477.033	514.94
477.252	526.94
477.471	535.94
477.69	546.94
477.908	564.94
478.127	557.94
478.346	558.94
478.564	551.94
478.783	581.94
479.002	576.94
479.22	593.94
479.439	591.94
479.658	602.94
479.876	621.94
480.095	627.94
480.313	645.94
480.532	644.94
480.751	620.94
480.969	637.94
481.188	693.94
481.406	704.94
481.624	647.94
481.843	619.94
482.061	595.94
482.28	601.94
482.498	580.94
482.717	566.94
482.935	585.94
483.153	584.94
483.372	575.94
483.59	579.94
483.808	602.94
484.027	590.94
484.245	588.94
484.463	599.94
484.681	605.94
484.9	597.94
485.118	599.94
485.336	608.94
485.554	610.94
485.772	600.94
485.99	626.94
486.209	607.94
486.427	616.94
486.645	627.94
486.863	630.94
487.081	630.94
487.299	627.94
487.517	625.94
487.735	640.94
487.953	638.94
488.171	649.94
488.389	633.94
488.607	636.94
488.825	634.94
489.043	616.94
489.261	644.94
489.479	652.94
489.696	639.94
489.914	642.94
490.132	659.94
490.35	654.94
490.568	670.94
490.786	681.94
491.003	687.94
491.221	723.94
491.439	712.94
491.657	729.94
491.874	717.94
492.092	693.94
492.31	718.94
492.527	753.94
492.745	746.94
492.963	714.94
493.18	713.94
493.398	773.94
493.615	747.94
493.833	732.94
494.05	732.94
494.268	740.94
494.485	734.94
494.703	737.94
494.92	771.94
495.138	726.94
495.355	760.94
495.573	731.94
495.79	736.94
496.008	741.94
496.225	753.94
496.442	773.94
496.66	769.94
496.877	747.94
497.094	794.94
497.312	768.94
497.529	763.94
497.746	806.94
497.963	805.94
498.181	806.94
498.398	842.94
498.615	845.94
498.832	892.94
499.049	895.94
499.267	931.94
499.484	974.94
499.701	1004.94
499.918	1053.94
500.135	1123.94
500.352	1157.94
500.569	1171.94
500.786	1184.94
501.003	1162.94
501.22	1119.94
501.437	1094.94
501.654	1017.94
