Data from 1976.PennyLincolnUp.Lamp.En5.5.200Scan.071719.P1.Changed Mount._HRD10591_15-59-40-860.txt Node
Date: Thu Jul 18 15:59:40 EDT 2019
User: cochatt
Spectrometer: HR+D1059
Trigger mode: 1
Integration Time (sec): 1.000000E-1
Scans to average: 1
Electric dark correction enabled: true
Nonlinearity correction enabled: false
Boxcar width: 0
XAxis mode: Wavelengths
Number of Pixels in Spectrum: 2048
>>>>>Begin Spectral Data<<<<<
223.165	-13.81
223.4	-13.81
223.635	-13.81
223.869	-16.81
224.104	-18.81
224.338	-15.81
224.573	-6.81
224.808	-7.81
225.042	-15.81
225.277	-7.81
225.511	-13.81
225.746	-5.81
225.98	14.19
226.215	15.19
226.449	15.19
226.683	22.19
226.918	31.19
227.152	25.19
227.387	50.19
227.621	35.19
227.856	40.19
228.09	48.19
228.324	49.19
228.559	60.19
228.793	77.19
229.027	85.19
229.262	106.19
229.496	114.19
229.73	115.19
229.964	151.19
230.199	113.19
230.433	112.19
230.667	116.19
230.901	106.19
231.136	94.19
231.37	106.19
231.604	102.19
231.838	112.19
232.072	111.19
232.306	113.19
232.541	104.19
232.775	111.19
233.009	117.19
233.243	107.19
233.477	104.19
233.711	117.19
233.945	111.19
234.179	115.19
234.413	123.19
234.647	122.19
234.881	120.19
235.115	109.19
235.349	109.19
235.583	111.19
235.817	106.19
236.051	127.19
236.285	112.19
236.519	126.19
236.753	126.19
236.987	146.19
237.221	162.19
237.455	181.19
237.689	160.19
237.922	135.19
238.156	117.19
238.39	121.19
238.624	118.19
238.858	142.19
239.091	116.19
239.325	120.19
239.559	123.19
239.793	128.19
240.027	127.19
240.26	142.19
240.494	143.19
240.728	140.19
240.961	126.19
241.195	125.19
241.429	136.19
241.662	131.19
241.896	130.19
242.13	122.19
242.363	124.19
242.597	121.19
242.83	140.19
243.064	137.19
243.298	129.19
243.531	128.19
243.765	129.19
243.998	145.19
244.232	128.19
244.465	133.19
244.699	134.19
244.932	155.19
245.166	147.19
245.399	134.19
245.633	129.19
245.866	135.19
246.099	143.19
246.333	139.19
246.566	158.19
246.8	151.19
247.033	147.19
247.266	163.19
247.5	157.19
247.733	154.19
247.966	147.19
248.2	155.19
248.433	169.19
248.666	153.19
248.899	171.19
249.133	187.19
249.366	181.19
249.599	184.19
249.832	165.19
250.066	185.19
250.299	189.19
250.532	178.19
250.765	171.19
250.998	210.19
251.231	208.19
251.465	193.19
251.698	174.19
251.931	190.19
252.164	183.19
252.397	188.19
252.63	190.19
252.863	199.19
253.096	202.19
253.329	200.19
253.562	210.19
253.795	195.19
254.028	203.19
254.261	206.19
254.494	202.19
254.727	207.19
254.96	265.19
255.193	223.19
255.426	215.19
255.659	211.19
255.892	218.19
256.124	209.19
256.357	215.19
256.59	213.19
256.823	226.19
257.056	209.19
257.289	200.19
257.521	201.19
257.754	196.19
257.987	192.19
258.22	205.19
258.452	198.19
258.685	200.19
258.918	198.19
259.151	203.19
259.383	200.19
259.616	217.19
259.849	211.19
260.081	229.19
260.314	245.19
260.547	246.19
260.779	226.19
261.012	216.19
261.244	230.19
261.477	210.19
261.71	203.19
261.942	216.19
262.175	208.19
262.407	217.19
262.64	210.19
262.872	205.19
263.105	203.19
263.337	214.19
263.57	193.19
263.802	193.19
264.035	201.19
264.267	216.19
264.499	203.19
264.732	214.19
264.964	211.19
265.197	214.19
265.429	202.19
265.661	205.19
265.894	201.19
266.126	203.19
266.358	209.19
266.591	214.19
266.823	204.19
267.055	226.19
267.287	219.19
267.52	229.19
267.752	222.19
267.984	209.19
268.216	225.19
268.448	217.19
268.681	237.19
268.913	232.19
269.145	258.19
269.377	265.19
269.609	260.19
269.841	267.19
270.073	260.19
270.306	258.19
270.538	275.19
270.77	286.19
271.002	279.19
271.234	264.19
271.466	289.19
271.698	285.19
271.93	276.19
272.162	274.19
272.394	292.19
272.626	288.19
272.858	273.19
273.09	278.19
273.322	281.19
273.553	250.19
273.785	257.19
274.017	242.19
274.249	263.19
274.481	246.19
274.713	256.19
274.945	258.19
275.176	255.19
275.408	257.19
275.64	242.19
275.872	239.19
276.104	255.19
276.335	231.19
276.567	258.19
276.799	259.19
277.031	291.19
277.262	288.19
277.494	302.19
277.726	291.19
277.957	282.19
278.189	281.19
278.421	256.19
278.652	250.19
278.884	266.19
279.115	274.19
279.347	272.19
279.579	277.19
279.81	265.19
280.042	258.19
280.273	251.19
280.505	263.19
280.736	266.19
280.968	271.19
281.199	272.19
281.431	271.19
281.662	264.19
281.894	261.19
282.125	261.19
282.356	280.19
282.588	286.19
282.819	287.19
283.051	271.19
283.282	271.19
283.513	281.19
283.745	264.19
283.976	254.19
284.207	278.19
284.439	281.19
284.67	283.19
284.901	260.19
285.132	277.19
285.364	278.19
285.595	273.19
285.826	270.19
286.057	291.19
286.288	268.19
286.52	281.19
286.751	272.19
286.982	268.19
287.213	269.19
287.444	276.19
287.675	299.19
287.906	295.19
288.138	290.19
288.369	301.19
288.6	302.19
288.831	285.19
289.062	287.19
289.293	286.19
289.524	294.19
289.755	294.19
289.986	271.19
290.217	282.19
290.448	281.19
290.679	286.19
290.91	287.19
291.141	270.19
291.371	291.19
291.602	289.19
291.833	287.19
292.064	291.19
292.295	288.19
292.526	280.19
292.757	304.19
292.987	287.19
293.218	275.19
293.449	306.19
293.68	309.19
293.91	298.19
294.141	298.19
294.372	303.19
294.603	288.19
294.833	293.19
295.064	288.19
295.295	292.19
295.525	309.19
295.756	287.19
295.987	281.19
296.217	319.19
296.448	315.19
296.679	302.19
296.909	307.19
297.14	285.19
297.37	303.19
297.601	306.19
297.831	279.19
298.062	296.19
298.292	300.19
298.523	314.19
298.753	313.19
298.984	303.19
299.214	301.19
299.445	305.19
299.675	298.19
299.905	312.19
300.136	302.19
300.366	298.19
300.597	310.19
300.827	297.19
301.057	291.19
301.288	315.19
301.518	323.19
301.748	308.19
301.979	327.19
302.209	318.19
302.439	326.19
302.669	321.19
302.9	306.19
303.13	304.19
303.36	309.19
303.59	311.19
303.82	322.19
304.051	323.19
304.281	338.19
304.511	318.19
304.741	323.19
304.971	301.19
305.201	311.19
305.431	309.19
305.661	327.19
305.891	321.19
306.121	310.19
306.352	319.19
306.582	332.19
306.812	316.19
307.042	318.19
307.272	329.19
307.502	321.19
307.731	336.19
307.961	318.19
308.191	333.19
308.421	328.19
308.651	329.19
308.881	315.19
309.111	331.19
309.341	316.19
309.571	342.19
309.8	333.19
310.03	337.19
310.26	339.19
310.49	340.19
310.72	343.19
310.949	368.19
311.179	365.19
311.409	340.19
311.639	345.19
311.868	362.19
312.098	345.19
312.328	345.19
312.557	367.19
312.787	354.19
313.017	373.19
313.246	391.19
313.476	339.19
313.706	358.19
313.935	349.19
314.165	361.19
314.394	383.19
314.624	365.19
314.853	355.19
315.083	349.19
315.312	358.19
315.542	358.19
315.771	352.19
316.001	336.19
316.23	358.19
316.46	364.19
316.689	360.19
316.919	362.19
317.148	362.19
317.377	391.19
317.607	375.19
317.836	357.19
318.065	364.19
318.295	358.19
318.524	350.19
318.753	359.19
318.983	362.19
319.212	358.19
319.441	376.19
319.67	375.19
319.9	346.19
320.129	356.19
320.358	375.19
320.587	337.19
320.816	367.19
321.046	366.19
321.275	378.19
321.504	360.19
321.733	377.19
321.962	369.19
322.191	383.19
322.42	393.19
322.649	415.19
322.878	402.19
323.108	409.19
323.337	399.19
323.566	407.19
323.795	448.19
324.024	466.19
324.253	525.19
324.482	704.19
324.71	1072.19
324.939	1577.19
325.168	1367.19
325.397	694.19
325.626	521.19
325.855	450.19
326.084	426.19
326.313	440.19
326.542	440.19
326.77	439.19
326.999	505.19
327.228	653.19
327.457	942.19
327.686	1231.19
327.914	795.19
328.143	569.19
328.372	511.19
328.6	457.19
328.829	450.19
329.058	450.19
329.287	462.19
329.515	450.19
329.744	403.19
329.972	415.19
330.201	440.19
330.43	473.19
330.658	469.19
330.887	494.19
331.115	492.19
331.344	464.19
331.572	432.19
331.801	425.19
332.03	451.19
332.258	435.19
332.486	409.19
332.715	424.19
332.943	415.19
333.172	432.19
333.4	429.19
333.629	452.19
333.857	453.19
334.085	461.19
334.314	472.19
334.542	485.19
334.771	497.19
334.999	446.19
335.227	450.19
335.455	438.19
335.684	448.19
335.912	438.19
336.14	442.19
336.369	424.19
336.597	437.19
336.825	455.19
337.053	427.19
337.281	441.19
337.51	414.19
337.738	427.19
337.966	411.19
338.194	424.19
338.422	425.19
338.65	427.19
338.878	422.19
339.106	411.19
339.334	385.19
339.562	406.19
339.79	421.19
340.018	433.19
340.246	382.19
340.474	397.19
340.702	404.19
340.93	401.19
341.158	401.19
341.386	410.19
341.614	408.19
341.842	400.19
342.07	392.19
342.298	406.19
342.526	411.19
342.754	412.19
342.981	398.19
343.209	401.19
343.437	406.19
343.665	427.19
343.893	415.19
344.12	440.19
344.348	436.19
344.576	423.19
344.804	414.19
345.031	419.19
345.259	419.19
345.487	411.19
345.714	413.19
345.942	397.19
346.17	397.19
346.397	406.19
346.625	386.19
346.853	404.19
347.08	384.19
347.308	391.19
347.535	389.19
347.763	394.19
347.99	395.19
348.218	400.19
348.445	379.19
348.673	401.19
348.9	385.19
349.128	403.19
349.355	373.19
349.583	365.19
349.81	375.19
350.037	385.19
350.265	377.19
350.492	376.19
350.72	384.19
350.947	387.19
351.174	399.19
351.402	388.19
351.629	395.19
351.856	385.19
352.083	406.19
352.311	385.19
352.538	386.19
352.765	391.19
352.992	381.19
353.22	397.19
353.447	368.19
353.674	379.19
353.901	399.19
354.128	391.19
354.355	374.19
354.583	370.19
354.81	393.19
355.037	373.19
355.264	382.19
355.491	381.19
355.718	365.19
355.945	379.19
356.172	371.19
356.399	357.19
356.626	376.19
356.853	370.19
357.08	379.19
357.307	362.19
357.534	377.19
357.761	377.19
357.988	371.19
358.215	350.19
358.441	393.19
358.668	377.19
358.895	376.19
359.122	387.19
359.349	400.19
359.576	375.19
359.802	399.19
360.029	412.19
360.256	416.19
360.483	403.19
360.709	392.19
360.936	395.19
361.163	392.19
361.39	374.19
361.616	405.19
361.843	386.19
362.07	391.19
362.296	400.19
362.523	385.19
362.749	402.19
362.976	399.19
363.203	381.19
363.429	390.19
363.656	387.19
363.882	381.19
364.109	398.19
364.335	388.19
364.562	375.19
364.788	383.19
365.015	377.19
365.241	358.19
365.468	379.19
365.694	387.19
365.92	392.19
366.147	378.19
366.373	382.19
366.599	375.19
366.826	402.19
367.052	381.19
367.278	382.19
367.505	379.19
367.731	379.19
367.957	367.19
368.184	391.19
368.41	398.19
368.636	397.19
368.862	405.19
369.089	383.19
369.315	377.19
369.541	382.19
369.767	409.19
369.993	379.19
370.219	369.19
370.445	371.19
370.672	377.19
370.898	377.19
371.124	379.19
371.35	386.19
371.576	380.19
371.802	375.19
372.028	397.19
372.254	401.19
372.48	392.19
372.706	405.19
372.932	412.19
373.158	391.19
373.384	382.19
373.61	364.19
373.835	395.19
374.061	413.19
374.287	410.19
374.513	403.19
374.739	393.19
374.965	401.19
375.191	418.19
375.416	415.19
375.642	402.19
375.868	397.19
376.094	382.19
376.319	399.19
376.545	394.19
376.771	377.19
376.997	370.19
377.222	383.19
377.448	368.19
377.674	385.19
377.899	381.19
378.125	387.19
378.35	393.19
378.576	385.19
378.802	410.19
379.027	387.19
379.253	371.19
379.478	364.19
379.704	386.19
379.929	391.19
380.155	397.19
380.38	385.19
380.606	393.19
380.831	391.19
381.057	401.19
381.282	378.19
381.507	386.19
381.733	371.19
381.958	379.19
382.184	413.19
382.409	413.19
382.634	391.19
382.86	402.19
383.085	404.19
383.31	390.19
383.535	427.19
383.761	418.19
383.986	430.19
384.211	448.19
384.436	415.19
384.662	428.19
384.887	451.19
385.112	434.19
385.337	429.19
385.562	424.19
385.787	412.19
386.013	430.19
386.238	440.19
386.463	442.19
386.688	428.19
386.913	429.19
387.138	418.19
387.363	425.19
387.588	438.19
387.813	434.19
388.038	405.19
388.263	439.19
388.488	438.19
388.713	429.19
388.938	445.19
389.163	431.19
389.387	448.19
389.612	447.19
389.837	439.19
390.062	435.19
390.287	432.19
390.512	426.19
390.736	432.19
390.961	450.19
391.186	435.19
391.411	437.19
391.636	441.19
391.86	441.19
392.085	449.19
392.31	474.19
392.534	474.19
392.759	448.19
392.984	412.19
393.208	436.19
393.433	443.19
393.658	457.19
393.882	423.19
394.107	455.19
394.331	439.19
394.556	450.19
394.78	441.19
395.005	450.19
395.229	426.19
395.454	439.19
395.678	439.19
395.903	464.19
396.127	475.19
396.352	475.19
396.576	470.19
396.801	461.19
397.025	462.19
397.249	476.19
397.474	480.19
397.698	459.19
397.922	497.19
398.147	489.19
398.371	490.19
398.595	480.19
398.82	490.19
399.044	498.19
399.268	543.19
399.492	565.19
399.717	618.19
399.941	639.19
400.165	624.19
400.389	643.19
400.613	573.19
400.837	550.19
401.062	536.19
401.286	517.19
401.51	519.19
401.734	515.19
401.958	490.19
402.182	501.19
402.406	513.19
402.63	534.19
402.854	519.19
403.078	519.19
403.302	510.19
403.526	533.19
403.75	542.19
403.974	535.19
404.198	526.19
404.422	521.19
404.645	526.19
404.869	555.19
405.093	554.19
405.317	574.19
405.541	621.19
405.765	562.19
405.988	542.19
406.212	577.19
406.436	566.19
406.66	558.19
406.883	556.19
407.107	596.19
407.331	617.19
407.555	669.19
407.778	651.19
408.002	619.19
408.226	589.19
408.449	577.19
408.673	569.19
408.896	593.19
409.12	640.19
409.344	581.19
409.567	560.19
409.791	544.19
410.014	525.19
410.238	528.19
410.461	532.19
410.685	513.19
410.908	537.19
411.132	553.19
411.355	590.19
411.578	551.19
411.802	529.19
412.025	530.19
412.249	540.19
412.472	537.19
412.695	573.19
412.919	556.19
413.142	533.19
413.365	494.19
413.589	512.19
413.812	485.19
414.035	506.19
414.258	502.19
414.482	495.19
414.705	505.19
414.928	491.19
415.151	475.19
415.374	488.19
415.597	481.19
415.821	481.19
416.044	498.19
416.267	481.19
416.49	480.19
416.713	482.19
416.936	476.19
417.159	485.19
417.382	497.19
417.605	489.19
417.828	498.19
418.051	510.19
418.274	521.19
418.497	498.19
418.72	513.19
418.943	483.19
419.166	518.19
419.389	555.19
419.611	549.19
419.834	535.19
420.057	527.19
420.28	517.19
420.503	522.19
420.726	530.19
420.948	510.19
421.171	577.19
421.394	581.19
421.617	510.19
421.839	511.19
422.062	519.19
422.285	531.19
422.507	573.19
422.73	620.19
422.953	598.19
423.175	535.19
423.398	526.19
423.621	534.19
423.843	521.19
424.066	560.19
424.288	554.19
424.511	570.19
424.733	598.19
424.956	662.19
425.178	641.19
425.401	620.19
425.623	688.19
425.846	572.19
426.068	522.19
426.291	506.19
426.513	517.19
426.735	553.19
426.958	562.19
427.18	628.19
427.402	773.19
427.625	845.19
427.847	695.19
428.069	623.19
428.292	546.19
428.514	504.19
428.736	512.19
428.958	502.19
429.181	492.19
429.403	477.19
429.625	488.19
429.847	526.19
430.069	571.19
430.292	570.19
430.514	504.19
430.736	492.19
430.958	503.19
431.18	478.19
431.402	456.19
431.624	462.19
431.846	450.19
432.068	474.19
432.29	463.19
432.512	465.19
432.734	469.19
432.956	481.19
433.178	504.19
433.4	477.19
433.622	480.19
433.844	463.19
434.066	480.19
434.287	484.19
434.509	487.19
434.731	478.19
434.953	521.19
435.175	517.19
435.397	521.19
435.618	523.19
435.84	558.19
436.062	653.19
436.284	702.19
436.505	622.19
436.727	515.19
436.949	487.19
437.17	517.19
437.392	468.19
437.614	501.19
437.835	520.19
438.057	598.19
438.278	657.19
438.5	685.19
438.721	751.19
438.943	732.19
439.165	606.19
439.386	526.19
439.608	546.19
439.829	529.19
440.05	554.19
440.272	589.19
440.493	544.19
440.715	499.19
440.936	493.19
441.158	506.19
441.379	496.19
441.6	521.19
441.822	539.19
442.043	546.19
442.264	634.19
442.486	663.19
442.707	565.19
442.928	573.19
443.149	549.19
443.371	565.19
443.592	583.19
443.813	699.19
444.034	734.19
444.255	627.19
444.476	583.19
444.698	583.19
444.919	571.19
445.14	668.19
445.361	601.19
445.582	575.19
445.803	621.19
446.024	729.19
446.245	709.19
446.466	658.19
446.687	571.19
446.908	529.19
447.129	514.19
447.35	489.19
447.571	497.19
447.792	472.19
448.013	474.19
448.234	478.19
448.455	548.19
448.675	614.19
448.896	741.19
449.117	628.19
449.338	614.19
449.559	709.19
449.779	802.19
450	611.19
450.221	530.19
450.442	480.19
450.662	474.19
450.883	483.19
451.104	476.19
451.324	471.19
451.545	459.19
451.766	441.19
451.986	419.19
452.207	423.19
452.428	422.19
452.648	433.19
452.869	432.19
453.089	438.19
453.31	455.19
453.53	443.19
453.751	441.19
453.971	457.19
454.192	463.19
454.412	431.19
454.633	424.19
454.853	417.19
455.073	423.19
455.294	452.19
455.514	510.19
455.734	489.19
455.955	448.19
456.175	433.19
456.395	386.19
456.616	409.19
456.836	405.19
457.056	421.19
457.276	427.19
457.497	420.19
457.717	423.19
457.937	415.19
458.157	420.19
458.377	422.19
458.598	429.19
458.818	473.19
459.038	539.19
459.258	561.19
459.478	495.19
459.698	478.19
459.918	462.19
460.138	473.19
460.358	480.19
460.578	501.19
460.798	470.19
461.018	481.19
461.238	496.19
461.458	479.19
461.678	486.19
461.898	505.19
462.118	497.19
462.338	531.19
462.558	538.19
462.777	541.19
462.997	536.19
463.217	563.19
463.437	561.19
463.657	545.19
463.876	554.19
464.096	537.19
464.316	532.19
464.536	552.19
464.755	528.19
464.975	537.19
465.195	541.19
465.414	570.19
465.634	526.19
465.854	516.19
466.073	504.19
466.293	474.19
466.512	473.19
466.732	449.19
466.951	465.19
467.171	462.19
467.391	458.19
467.61	449.19
467.829	458.19
468.049	450.19
468.268	435.19
468.488	457.19
468.707	445.19
468.927	443.19
469.146	441.19
469.365	437.19
469.585	451.19
469.804	445.19
470.023	465.19
470.243	445.19
470.462	446.19
470.681	480.19
470.901	493.19
471.12	472.19
471.339	438.19
471.558	460.19
471.777	454.19
471.997	452.19
472.216	487.19
472.435	459.19
472.654	469.19
472.873	449.19
473.092	467.19
473.311	459.19
473.53	461.19
473.749	468.19
473.968	493.19
474.187	568.19
474.406	588.19
474.625	501.19
474.844	461.19
475.063	449.19
475.282	459.19
475.501	446.19
475.72	472.19
475.939	451.19
476.158	471.19
476.377	467.19
476.596	459.19
476.814	486.19
477.033	484.19
477.252	483.19
477.471	491.19
477.69	505.19
477.908	491.19
478.127	507.19
478.346	499.19
478.564	530.19
478.783	533.19
479.002	528.19
479.22	535.19
479.439	535.19
479.658	529.19
479.876	534.19
480.095	543.19
480.313	583.19
480.532	586.19
480.751	577.19
480.969	562.19
481.188	593.19
481.406	604.19
481.624	557.19
481.843	541.19
482.061	542.19
482.28	529.19
482.498	533.19
482.717	511.19
482.935	525.19
483.153	531.19
483.372	520.19
483.59	536.19
483.808	535.19
484.027	521.19
484.245	528.19
484.463	544.19
484.681	538.19
484.9	546.19
485.118	541.19
485.336	540.19
485.554	547.19
485.772	557.19
485.99	576.19
486.209	553.19
486.427	532.19
486.645	570.19
486.863	562.19
487.081	585.19
487.299	555.19
487.517	570.19
487.735	565.19
487.953	573.19
488.171	585.19
488.389	573.19
488.607	569.19
488.825	559.19
489.043	576.19
489.261	582.19
489.479	577.19
489.696	575.19
489.914	589.19
490.132	579.19
490.35	599.19
490.568	605.19
490.786	602.19
491.003	628.19
491.221	615.19
491.439	624.19
491.657	652.19
491.874	625.19
492.092	631.19
492.31	633.19
492.527	641.19
492.745	666.19
492.963	649.19
493.18	637.19
493.398	660.19
493.615	633.19
493.833	666.19
494.05	664.19
494.268	665.19
494.485	657.19
494.703	656.19
494.92	659.19
495.138	657.19
495.355	663.19
495.573	639.19
495.79	669.19
496.008	665.19
496.225	659.19
496.442	683.19
496.66	656.19
496.877	703.19
497.094	684.19
497.312	689.19
497.529	706.19
497.746	725.19
497.963	689.19
498.181	731.19
498.398	737.19
498.615	757.19
498.832	780.19
499.049	789.19
499.267	817.19
499.484	861.19
499.701	911.19
499.918	949.19
500.135	1009.19
500.352	1073.19
500.569	1065.19
500.786	1089.19
501.003	1049.19
501.22	1001.19
501.437	958.19
501.654	942.19
