Data from 1976.PennyLincolnUp.Lamp.En5.5.200Scan.071719.P1.Changed Mount._HRD10591_16-01-37-861.txt Node
Date: Thu Jul 18 16:01:37 EDT 2019
User: cochatt
Spectrometer: HR+D1059
Trigger mode: 1
Integration Time (sec): 1.000000E-1
Scans to average: 1
Electric dark correction enabled: true
Nonlinearity correction enabled: false
Boxcar width: 0
XAxis mode: Wavelengths
Number of Pixels in Spectrum: 2048
>>>>>Begin Spectral Data<<<<<
223.165	-12.88
223.4	-12.88
223.635	-12.88
223.869	-18.88
224.104	-23.88
224.338	-14.88
224.573	-12.88
224.808	-13.88
225.042	2.12
225.277	-7.88
225.511	-4.88
225.746	8.12
225.98	3.12
226.215	23.12
226.449	13.12
226.683	18.12
226.918	23.12
227.152	19.12
227.387	29.12
227.621	46.12
227.856	29.12
228.09	50.12
228.324	47.12
228.559	49.12
228.793	62.12
229.027	96.12
229.262	110.12
229.496	116.12
229.73	118.12
229.964	159.12
230.199	115.12
230.433	121.12
230.667	112.12
230.901	113.12
231.136	117.12
231.37	116.12
231.604	102.12
231.838	117.12
232.072	119.12
232.306	118.12
232.541	118.12
232.775	105.12
233.009	101.12
233.243	110.12
233.477	107.12
233.711	113.12
233.945	115.12
234.179	125.12
234.413	111.12
234.647	111.12
234.881	132.12
235.115	115.12
235.349	129.12
235.583	117.12
235.817	124.12
236.051	135.12
236.285	135.12
236.519	134.12
236.753	129.12
236.987	140.12
237.221	172.12
237.455	243.12
237.689	187.12
237.922	145.12
238.156	151.12
238.39	135.12
238.624	127.12
238.858	131.12
239.091	131.12
239.325	136.12
239.559	136.12
239.793	129.12
240.027	140.12
240.26	142.12
240.494	158.12
240.728	154.12
240.961	152.12
241.195	151.12
241.429	149.12
241.662	127.12
241.896	140.12
242.13	142.12
242.363	129.12
242.597	150.12
242.83	131.12
243.064	143.12
243.298	131.12
243.531	154.12
243.765	153.12
243.998	157.12
244.232	155.12
244.465	153.12
244.699	161.12
244.932	140.12
245.166	145.12
245.399	159.12
245.633	153.12
245.866	180.12
246.099	176.12
246.333	147.12
246.566	150.12
246.8	139.12
247.033	166.12
247.266	165.12
247.5	168.12
247.733	175.12
247.966	165.12
248.2	187.12
248.433	170.12
248.666	176.12
248.899	196.12
249.133	199.12
249.366	205.12
249.599	209.12
249.832	200.12
250.066	191.12
250.299	189.12
250.532	197.12
250.765	224.12
250.998	229.12
251.231	232.12
251.465	239.12
251.698	215.12
251.931	216.12
252.164	207.12
252.397	195.12
252.63	220.12
252.863	223.12
253.096	232.12
253.329	229.12
253.562	220.12
253.795	232.12
254.028	214.12
254.261	215.12
254.494	219.12
254.727	259.12
254.96	281.12
255.193	271.12
255.426	249.12
255.659	246.12
255.892	249.12
256.124	228.12
256.357	248.12
256.59	231.12
256.823	231.12
257.056	223.12
257.289	211.12
257.521	219.12
257.754	199.12
257.987	211.12
258.22	221.12
258.452	211.12
258.685	217.12
258.918	203.12
259.151	235.12
259.383	240.12
259.616	220.12
259.849	215.12
260.081	254.12
260.314	277.12
260.547	279.12
260.779	269.12
261.012	259.12
261.244	256.12
261.477	221.12
261.71	243.12
261.942	232.12
262.175	233.12
262.407	216.12
262.64	241.12
262.872	230.12
263.105	224.12
263.337	224.12
263.57	232.12
263.802	225.12
264.035	224.12
264.267	245.12
264.499	225.12
264.732	226.12
264.964	208.12
265.197	238.12
265.429	227.12
265.661	230.12
265.894	227.12
266.126	245.12
266.358	237.12
266.591	234.12
266.823	239.12
267.055	236.12
267.287	244.12
267.52	257.12
267.752	238.12
267.984	253.12
268.216	239.12
268.448	247.12
268.681	243.12
268.913	251.12
269.145	262.12
269.377	296.12
269.609	291.12
269.841	269.12
270.073	291.12
270.306	304.12
270.538	330.12
270.77	317.12
271.002	340.12
271.234	294.12
271.466	310.12
271.698	339.12
271.93	339.12
272.162	362.12
272.394	325.12
272.626	330.12
272.858	314.12
273.09	299.12
273.322	291.12
273.553	280.12
273.785	293.12
274.017	280.12
274.249	278.12
274.481	289.12
274.713	289.12
274.945	281.12
275.176	283.12
275.408	268.12
275.64	283.12
275.872	297.12
276.104	294.12
276.335	289.12
276.567	287.12
276.799	320.12
277.031	310.12
277.262	315.12
277.494	331.12
277.726	323.12
277.957	304.12
278.189	297.12
278.421	284.12
278.652	291.12
278.884	292.12
279.115	294.12
279.347	282.12
279.579	300.12
279.81	295.12
280.042	293.12
280.273	310.12
280.505	283.12
280.736	297.12
280.968	289.12
281.199	302.12
281.431	285.12
281.662	292.12
281.894	307.12
282.125	280.12
282.356	304.12
282.588	329.12
282.819	317.12
283.051	292.12
283.282	283.12
283.513	317.12
283.745	295.12
283.976	342.12
284.207	300.12
284.439	310.12
284.67	318.12
284.901	315.12
285.132	300.12
285.364	311.12
285.595	314.12
285.826	309.12
286.057	317.12
286.288	312.12
286.52	321.12
286.751	307.12
286.982	309.12
287.213	307.12
287.444	330.12
287.675	323.12
287.906	306.12
288.138	326.12
288.369	326.12
288.6	336.12
288.831	329.12
289.062	348.12
289.293	298.12
289.524	332.12
289.755	313.12
289.986	321.12
290.217	329.12
290.448	337.12
290.679	339.12
290.91	334.12
291.141	319.12
291.371	333.12
291.602	329.12
291.833	316.12
292.064	323.12
292.295	327.12
292.526	319.12
292.757	338.12
292.987	336.12
293.218	312.12
293.449	329.12
293.68	334.12
293.91	328.12
294.141	330.12
294.372	332.12
294.603	327.12
294.833	332.12
295.064	314.12
295.295	327.12
295.525	322.12
295.756	315.12
295.987	334.12
296.217	338.12
296.448	352.12
296.679	338.12
296.909	336.12
297.14	327.12
297.37	337.12
297.601	340.12
297.831	338.12
298.062	331.12
298.292	332.12
298.523	341.12
298.753	355.12
298.984	325.12
299.214	342.12
299.445	339.12
299.675	338.12
299.905	337.12
300.136	343.12
300.366	345.12
300.597	359.12
300.827	355.12
301.057	354.12
301.288	363.12
301.518	342.12
301.748	353.12
301.979	355.12
302.209	373.12
302.439	353.12
302.669	345.12
302.9	357.12
303.13	351.12
303.36	363.12
303.59	377.12
303.82	370.12
304.051	363.12
304.281	352.12
304.511	368.12
304.741	378.12
304.971	367.12
305.201	366.12
305.431	373.12
305.661	366.12
305.891	369.12
306.121	352.12
306.352	366.12
306.582	369.12
306.812	355.12
307.042	358.12
307.272	364.12
307.502	356.12
307.731	359.12
307.961	377.12
308.191	367.12
308.421	356.12
308.651	368.12
308.881	367.12
309.111	363.12
309.341	360.12
309.571	383.12
309.8	369.12
310.03	398.12
310.26	385.12
310.49	398.12
310.72	393.12
310.949	383.12
311.179	438.12
311.409	399.12
311.639	392.12
311.868	405.12
312.098	383.12
312.328	423.12
312.557	427.12
312.787	430.12
313.017	432.12
313.246	417.12
313.476	412.12
313.706	407.12
313.935	425.12
314.165	414.12
314.394	421.12
314.624	431.12
314.853	407.12
315.083	416.12
315.312	402.12
315.542	400.12
315.771	386.12
316.001	389.12
316.23	407.12
316.46	383.12
316.689	409.12
316.919	400.12
317.148	404.12
317.377	403.12
317.607	416.12
317.836	406.12
318.065	405.12
318.295	413.12
318.524	408.12
318.753	420.12
318.983	414.12
319.212	409.12
319.441	407.12
319.67	423.12
319.9	429.12
320.129	391.12
320.358	411.12
320.587	415.12
320.816	411.12
321.046	415.12
321.275	449.12
321.504	424.12
321.733	403.12
321.962	450.12
322.191	445.12
322.42	448.12
322.649	459.12
322.878	451.12
323.108	476.12
323.337	494.12
323.566	491.12
323.795	531.12
324.024	559.12
324.253	640.12
324.482	910.12
324.71	1369.12
324.939	2044.12
325.168	1727.12
325.397	899.12
325.626	657.12
325.855	548.12
326.084	510.12
326.313	524.12
326.542	514.12
326.77	550.12
326.999	648.12
327.228	843.12
327.457	1284.12
327.686	1514.12
327.914	1014.12
328.143	677.12
328.372	601.12
328.6	579.12
328.829	563.12
329.058	581.12
329.287	588.12
329.515	570.12
329.744	522.12
329.972	539.12
330.201	515.12
330.43	524.12
330.658	576.12
330.887	589.12
331.115	601.12
331.344	519.12
331.572	513.12
331.801	529.12
332.03	525.12
332.258	507.12
332.486	476.12
332.715	478.12
332.943	502.12
333.172	520.12
333.4	525.12
333.629	510.12
333.857	536.12
334.085	543.12
334.314	555.12
334.542	549.12
334.771	593.12
334.999	534.12
335.227	534.12
335.455	500.12
335.684	505.12
335.912	493.12
336.14	503.12
336.369	482.12
336.597	513.12
336.825	483.12
337.053	494.12
337.281	469.12
337.51	493.12
337.738	480.12
337.966	476.12
338.194	492.12
338.422	475.12
338.65	488.12
338.878	491.12
339.106	461.12
339.334	462.12
339.562	470.12
339.79	469.12
340.018	456.12
340.246	480.12
340.474	468.12
340.702	470.12
340.93	462.12
341.158	458.12
341.386	468.12
341.614	455.12
341.842	453.12
342.07	438.12
342.298	467.12
342.526	465.12
342.754	446.12
342.981	456.12
343.209	454.12
343.437	458.12
343.665	462.12
343.893	484.12
344.12	510.12
344.348	491.12
344.576	485.12
344.804	490.12
345.031	476.12
345.259	483.12
345.487	480.12
345.714	459.12
345.942	441.12
346.17	449.12
346.397	441.12
346.625	439.12
346.853	441.12
347.08	432.12
347.308	454.12
347.535	455.12
347.763	471.12
347.99	461.12
348.218	456.12
348.445	445.12
348.673	446.12
348.9	455.12
349.128	447.12
349.355	414.12
349.583	442.12
349.81	429.12
350.037	441.12
350.265	441.12
350.492	414.12
350.72	438.12
350.947	447.12
351.174	426.12
351.402	452.12
351.629	439.12
351.856	443.12
352.083	453.12
352.311	428.12
352.538	459.12
352.765	458.12
352.992	437.12
353.22	460.12
353.447	437.12
353.674	422.12
353.901	442.12
354.128	401.12
354.355	437.12
354.583	412.12
354.81	413.12
355.037	427.12
355.264	419.12
355.491	409.12
355.718	426.12
355.945	419.12
356.172	398.12
356.399	416.12
356.626	427.12
356.853	426.12
357.08	409.12
357.307	424.12
357.534	422.12
357.761	426.12
357.988	425.12
358.215	416.12
358.441	413.12
358.668	433.12
358.895	433.12
359.122	446.12
359.349	411.12
359.576	446.12
359.802	476.12
360.029	489.12
360.256	480.12
360.483	467.12
360.709	451.12
360.936	445.12
361.163	445.12
361.39	468.12
361.616	440.12
361.843	446.12
362.07	436.12
362.296	432.12
362.523	435.12
362.749	436.12
362.976	415.12
363.203	424.12
363.429	410.12
363.656	431.12
363.882	423.12
364.109	416.12
364.335	416.12
364.562	423.12
364.788	411.12
365.015	427.12
365.241	419.12
365.468	417.12
365.694	435.12
365.92	431.12
366.147	421.12
366.373	431.12
366.599	415.12
366.826	414.12
367.052	439.12
367.278	418.12
367.505	437.12
367.731	432.12
367.957	431.12
368.184	416.12
368.41	445.12
368.636	441.12
368.862	429.12
369.089	427.12
369.315	441.12
369.541	435.12
369.767	435.12
369.993	444.12
370.219	431.12
370.445	465.12
370.672	431.12
370.898	410.12
371.124	428.12
371.35	445.12
371.576	424.12
371.802	438.12
372.028	439.12
372.254	424.12
372.48	427.12
372.706	456.12
372.932	423.12
373.158	428.12
373.384	426.12
373.61	433.12
373.835	449.12
374.061	425.12
374.287	449.12
374.513	424.12
374.739	453.12
374.965	455.12
375.191	456.12
375.416	444.12
375.642	411.12
375.868	446.12
376.094	443.12
376.319	438.12
376.545	429.12
376.771	435.12
376.997	405.12
377.222	429.12
377.448	447.12
377.674	429.12
377.899	423.12
378.125	440.12
378.35	435.12
378.576	399.12
378.802	432.12
379.027	440.12
379.253	423.12
379.478	432.12
379.704	436.12
379.929	435.12
380.155	453.12
380.38	432.12
380.606	436.12
380.831	422.12
381.057	427.12
381.282	422.12
381.507	444.12
381.733	424.12
381.958	436.12
382.184	442.12
382.409	447.12
382.634	465.12
382.86	468.12
383.085	460.12
383.31	460.12
383.535	447.12
383.761	462.12
383.986	488.12
384.211	455.12
384.436	472.12
384.662	477.12
384.887	480.12
385.112	448.12
385.337	486.12
385.562	471.12
385.787	486.12
386.013	487.12
386.238	497.12
386.463	477.12
386.688	473.12
386.913	489.12
387.138	462.12
387.363	493.12
387.588	486.12
387.813	499.12
388.038	488.12
388.263	488.12
388.488	456.12
388.713	460.12
388.938	485.12
389.163	496.12
389.387	502.12
389.612	487.12
389.837	487.12
390.062	484.12
390.287	500.12
390.512	473.12
390.736	481.12
390.961	477.12
391.186	482.12
391.411	508.12
391.636	497.12
391.86	511.12
392.085	504.12
392.31	518.12
392.534	493.12
392.759	494.12
392.984	503.12
393.208	489.12
393.433	478.12
393.658	507.12
393.882	467.12
394.107	490.12
394.331	497.12
394.556	494.12
394.78	490.12
395.005	500.12
395.229	502.12
395.454	511.12
395.678	526.12
395.903	523.12
396.127	538.12
396.352	563.12
396.576	517.12
396.801	523.12
397.025	498.12
397.249	516.12
397.474	501.12
397.698	528.12
397.922	526.12
398.147	555.12
398.371	542.12
398.595	543.12
398.82	553.12
399.044	544.12
399.268	602.12
399.492	638.12
399.717	672.12
399.941	718.12
400.165	696.12
400.389	703.12
400.613	644.12
400.837	603.12
401.062	607.12
401.286	564.12
401.51	549.12
401.734	548.12
401.958	571.12
402.182	548.12
402.406	600.12
402.63	592.12
402.854	595.12
403.078	572.12
403.302	601.12
403.526	603.12
403.75	597.12
403.974	609.12
404.198	575.12
404.422	590.12
404.645	592.12
404.869	588.12
405.093	627.12
405.317	663.12
405.541	710.12
405.765	647.12
405.988	616.12
406.212	637.12
406.436	635.12
406.66	635.12
406.883	636.12
407.107	657.12
407.331	716.12
407.555	796.12
407.778	783.12
408.002	709.12
408.226	668.12
408.449	647.12
408.673	637.12
408.896	679.12
409.12	707.12
409.344	651.12
409.567	600.12
409.791	613.12
410.014	604.12
410.238	598.12
410.461	605.12
410.685	580.12
410.908	599.12
411.132	644.12
411.355	672.12
411.578	657.12
411.802	602.12
412.025	583.12
412.249	599.12
412.472	619.12
412.695	661.12
412.919	649.12
413.142	573.12
413.365	597.12
413.589	566.12
413.812	552.12
414.035	568.12
414.258	522.12
414.482	565.12
414.705	545.12
414.928	549.12
415.151	571.12
415.374	550.12
415.597	536.12
415.821	545.12
416.044	559.12
416.267	572.12
416.49	555.12
416.713	545.12
416.936	559.12
417.159	536.12
417.382	555.12
417.605	541.12
417.828	561.12
418.051	592.12
418.274	564.12
418.497	553.12
418.72	559.12
418.943	549.12
419.166	588.12
419.389	591.12
419.611	618.12
419.834	610.12
420.057	593.12
420.28	593.12
420.503	575.12
420.726	561.12
420.948	576.12
421.171	613.12
421.394	680.12
421.617	627.12
421.839	567.12
422.062	563.12
422.285	622.12
422.507	647.12
422.73	725.12
422.953	683.12
423.175	619.12
423.398	591.12
423.621	616.12
423.843	626.12
424.066	615.12
424.288	614.12
424.511	635.12
424.733	685.12
424.956	763.12
425.178	742.12
425.401	716.12
425.623	739.12
425.846	659.12
426.068	615.12
426.291	619.12
426.513	592.12
426.735	634.12
426.958	623.12
427.18	717.12
427.402	878.12
427.625	969.12
427.847	816.12
428.069	701.12
428.292	640.12
428.514	583.12
428.736	587.12
428.958	577.12
429.181	554.12
429.403	556.12
429.625	543.12
429.847	590.12
430.069	657.12
430.292	661.12
430.514	583.12
430.736	544.12
430.958	545.12
431.18	527.12
431.402	520.12
431.624	516.12
431.846	519.12
432.068	518.12
432.29	549.12
432.512	518.12
432.734	548.12
432.956	540.12
433.178	564.12
433.4	539.12
433.622	533.12
433.844	562.12
434.066	549.12
434.287	542.12
434.509	535.12
434.731	544.12
434.953	567.12
435.175	580.12
435.397	598.12
435.618	629.12
435.84	624.12
436.062	724.12
436.284	791.12
436.505	658.12
436.727	597.12
436.949	582.12
437.17	545.12
437.392	551.12
437.614	578.12
437.835	597.12
438.057	710.12
438.278	795.12
438.5	797.12
438.721	886.12
438.943	869.12
439.165	641.12
439.386	637.12
439.608	618.12
439.829	609.12
440.05	625.12
440.272	687.12
440.493	661.12
440.715	591.12
440.936	606.12
441.158	567.12
441.379	569.12
441.6	586.12
441.822	605.12
442.043	641.12
442.264	708.12
442.486	771.12
442.707	649.12
442.928	621.12
443.149	636.12
443.371	628.12
443.592	674.12
443.813	761.12
444.034	869.12
444.255	707.12
444.476	664.12
444.698	637.12
444.919	621.12
445.14	749.12
445.361	701.12
445.582	666.12
445.803	707.12
446.024	814.12
446.245	828.12
446.466	763.12
446.687	637.12
446.908	592.12
447.129	587.12
447.35	571.12
447.571	545.12
447.792	560.12
448.013	546.12
448.234	571.12
448.455	609.12
448.675	704.12
448.896	863.12
449.117	732.12
449.338	682.12
449.559	781.12
449.779	892.12
450	707.12
450.221	598.12
450.442	571.12
450.662	533.12
450.883	533.12
451.104	544.12
451.324	548.12
451.545	517.12
451.766	485.12
451.986	484.12
452.207	500.12
452.428	485.12
452.648	492.12
452.869	464.12
453.089	521.12
453.31	496.12
453.53	492.12
453.751	482.12
453.971	484.12
454.192	520.12
454.412	486.12
454.633	460.12
454.853	484.12
455.073	475.12
455.294	515.12
455.514	592.12
455.734	560.12
455.955	495.12
456.175	480.12
456.395	485.12
456.616	471.12
456.836	469.12
457.056	458.12
457.276	449.12
457.497	470.12
457.717	469.12
457.937	479.12
458.157	484.12
458.377	506.12
458.598	505.12
458.818	538.12
459.038	625.12
459.258	644.12
459.478	565.12
459.698	558.12
459.918	525.12
460.138	509.12
460.358	545.12
460.578	544.12
460.798	560.12
461.018	572.12
461.238	563.12
461.458	549.12
461.678	557.12
461.898	564.12
462.118	558.12
462.338	594.12
462.558	576.12
462.777	592.12
462.997	616.12
463.217	613.12
463.437	645.12
463.657	612.12
463.876	614.12
464.096	609.12
464.316	616.12
464.536	611.12
464.755	606.12
464.975	593.12
465.195	612.12
465.414	663.12
465.634	580.12
465.854	567.12
466.073	560.12
466.293	534.12
466.512	521.12
466.732	497.12
466.951	516.12
467.171	534.12
467.391	519.12
467.61	528.12
467.829	520.12
468.049	516.12
468.268	530.12
468.488	508.12
468.707	489.12
468.927	511.12
469.146	493.12
469.365	487.12
469.585	500.12
469.804	494.12
470.023	519.12
470.243	528.12
470.462	532.12
470.681	527.12
470.901	522.12
471.12	517.12
471.339	514.12
471.558	529.12
471.777	544.12
471.997	521.12
472.216	518.12
472.435	546.12
472.654	515.12
472.873	525.12
473.092	505.12
473.311	507.12
473.53	505.12
473.749	507.12
473.968	568.12
474.187	639.12
474.406	680.12
474.625	539.12
474.844	521.12
475.063	497.12
475.282	494.12
475.501	495.12
475.72	550.12
475.939	519.12
476.158	515.12
476.377	510.12
476.596	541.12
476.814	532.12
477.033	557.12
477.252	543.12
477.471	530.12
477.69	536.12
477.908	557.12
478.127	572.12
478.346	588.12
478.564	558.12
478.783	607.12
479.002	583.12
479.22	604.12
479.439	599.12
479.658	604.12
479.876	616.12
480.095	616.12
480.313	676.12
480.532	619.12
480.751	646.12
480.969	644.12
481.188	691.12
481.406	688.12
481.624	636.12
481.843	604.12
482.061	605.12
482.28	592.12
482.498	587.12
482.717	594.12
482.935	573.12
483.153	586.12
483.372	581.12
483.59	603.12
483.808	604.12
484.027	592.12
484.245	618.12
484.463	612.12
484.681	631.12
484.9	628.12
485.118	602.12
485.336	630.12
485.554	617.12
485.772	621.12
485.99	602.12
486.209	604.12
486.427	623.12
486.645	622.12
486.863	628.12
487.081	644.12
487.299	639.12
487.517	634.12
487.735	612.12
487.953	643.12
488.171	631.12
488.389	639.12
488.607	649.12
488.825	636.12
489.043	649.12
489.261	645.12
489.479	637.12
489.696	636.12
489.914	650.12
490.132	665.12
490.35	657.12
490.568	654.12
490.786	678.12
491.003	693.12
491.221	707.12
491.439	696.12
491.657	703.12
491.874	729.12
492.092	731.12
492.31	739.12
492.527	711.12
492.745	726.12
492.963	736.12
493.18	739.12
493.398	745.12
493.615	749.12
493.833	725.12
494.05	757.12
494.268	762.12
494.485	741.12
494.703	746.12
494.92	764.12
495.138	741.12
495.355	752.12
495.573	769.12
495.79	752.12
496.008	755.12
496.225	749.12
496.442	771.12
496.66	769.12
496.877	757.12
497.094	780.12
497.312	784.12
497.529	763.12
497.746	793.12
497.963	810.12
498.181	835.12
498.398	878.12
498.615	852.12
498.832	877.12
499.049	896.12
499.267	924.12
499.484	994.12
499.701	1027.12
499.918	1056.12
500.135	1137.12
500.352	1223.12
500.569	1203.12
500.786	1223.12
501.003	1230.12
501.22	1161.12
501.437	1100.12
501.654	1047.12
