Data from 1976.PennyLincolnUp.Lamp.En5.5.200Scan.071719.P1.Changed Mount._HRD10591_15-59-50-861.txt Node
Date: Thu Jul 18 15:59:50 EDT 2019
User: cochatt
Spectrometer: HR+D1059
Trigger mode: 1
Integration Time (sec): 1.000000E-1
Scans to average: 1
Electric dark correction enabled: true
Nonlinearity correction enabled: false
Boxcar width: 0
XAxis mode: Wavelengths
Number of Pixels in Spectrum: 2048
>>>>>Begin Spectral Data<<<<<
223.165	-11.31
223.4	-11.31
223.635	-11.31
223.869	-16.31
224.104	-9.31
224.338	-25.31
224.573	0.69
224.808	-14.31
225.042	-4.31
225.277	-11.31
225.511	-0.31
225.746	-9.31
225.98	6.69
226.215	8.69
226.449	11.69
226.683	16.69
226.918	22.69
227.152	34.69
227.387	38.69
227.621	35.69
227.856	45.69
228.09	58.69
228.324	56.69
228.559	50.69
228.793	46.69
229.027	93.69
229.262	85.69
229.496	100.69
229.73	129.69
229.964	153.69
230.199	119.69
230.433	112.69
230.667	120.69
230.901	97.69
231.136	101.69
231.37	104.69
231.604	115.69
231.838	102.69
232.072	116.69
232.306	117.69
232.541	111.69
232.775	105.69
233.009	104.69
233.243	118.69
233.477	108.69
233.711	116.69
233.945	118.69
234.179	116.69
234.413	125.69
234.647	115.69
234.881	123.69
235.115	123.69
235.349	120.69
235.583	106.69
235.817	111.69
236.051	130.69
236.285	118.69
236.519	124.69
236.753	118.69
236.987	125.69
237.221	144.69
237.455	206.69
237.689	168.69
237.922	132.69
238.156	135.69
238.39	123.69
238.624	124.69
238.858	123.69
239.091	116.69
239.325	132.69
239.559	117.69
239.793	120.69
240.027	126.69
240.26	139.69
240.494	139.69
240.728	148.69
240.961	150.69
241.195	135.69
241.429	144.69
241.662	134.69
241.896	134.69
242.13	131.69
242.363	126.69
242.597	125.69
242.83	151.69
243.064	137.69
243.298	136.69
243.531	132.69
243.765	136.69
243.998	151.69
244.232	150.69
244.465	138.69
244.699	133.69
244.932	137.69
245.166	134.69
245.399	136.69
245.633	145.69
245.866	143.69
246.099	141.69
246.333	143.69
246.566	170.69
246.8	156.69
247.033	156.69
247.266	140.69
247.5	159.69
247.733	154.69
247.966	176.69
248.2	172.69
248.433	171.69
248.666	151.69
248.899	188.69
249.133	184.69
249.366	189.69
249.599	180.69
249.832	188.69
250.066	168.69
250.299	175.69
250.532	199.69
250.765	191.69
250.998	210.69
251.231	215.69
251.465	206.69
251.698	206.69
251.931	181.69
252.164	192.69
252.397	182.69
252.63	198.69
252.863	200.69
253.096	217.69
253.329	213.69
253.562	216.69
253.795	192.69
254.028	204.69
254.261	206.69
254.494	205.69
254.727	234.69
254.96	261.69
255.193	259.69
255.426	242.69
255.659	215.69
255.892	207.69
256.124	220.69
256.357	229.69
256.59	210.69
256.823	207.69
257.056	200.69
257.289	187.69
257.521	222.69
257.754	202.69
257.987	186.69
258.22	205.69
258.452	193.69
258.685	212.69
258.918	210.69
259.151	213.69
259.383	218.69
259.616	222.69
259.849	229.69
260.081	229.69
260.314	243.69
260.547	242.69
260.779	249.69
261.012	225.69
261.244	222.69
261.477	203.69
261.71	217.69
261.942	216.69
262.175	216.69
262.407	208.69
262.64	196.69
262.872	210.69
263.105	229.69
263.337	195.69
263.57	202.69
263.802	211.69
264.035	199.69
264.267	204.69
264.499	199.69
264.732	214.69
264.964	220.69
265.197	227.69
265.429	210.69
265.661	223.69
265.894	216.69
266.126	217.69
266.358	232.69
266.591	236.69
266.823	249.69
267.055	226.69
267.287	234.69
267.52	202.69
267.752	238.69
267.984	250.69
268.216	217.69
268.448	212.69
268.681	226.69
268.913	258.69
269.145	251.69
269.377	283.69
269.609	259.69
269.841	275.69
270.073	266.69
270.306	286.69
270.538	322.69
270.77	302.69
271.002	288.69
271.234	291.69
271.466	284.69
271.698	291.69
271.93	296.69
272.162	301.69
272.394	296.69
272.626	296.69
272.858	283.69
273.09	264.69
273.322	262.69
273.553	246.69
273.785	271.69
274.017	262.69
274.249	276.69
274.481	250.69
274.713	259.69
274.945	258.69
275.176	269.69
275.408	261.69
275.64	262.69
275.872	259.69
276.104	254.69
276.335	254.69
276.567	261.69
276.799	279.69
277.031	296.69
277.262	316.69
277.494	317.69
277.726	307.69
277.957	255.69
278.189	280.69
278.421	294.69
278.652	275.69
278.884	267.69
279.115	276.69
279.347	263.69
279.579	271.69
279.81	258.69
280.042	251.69
280.273	276.69
280.505	277.69
280.736	275.69
280.968	265.69
281.199	270.69
281.431	283.69
281.662	277.69
281.894	268.69
282.125	287.69
282.356	293.69
282.588	296.69
282.819	306.69
283.051	275.69
283.282	284.69
283.513	293.69
283.745	293.69
283.976	280.69
284.207	260.69
284.439	297.69
284.67	287.69
284.901	294.69
285.132	287.69
285.364	286.69
285.595	296.69
285.826	292.69
286.057	289.69
286.288	285.69
286.52	286.69
286.751	289.69
286.982	299.69
287.213	288.69
287.444	289.69
287.675	292.69
287.906	307.69
288.138	289.69
288.369	316.69
288.6	295.69
288.831	321.69
289.062	299.69
289.293	321.69
289.524	306.69
289.755	295.69
289.986	288.69
290.217	291.69
290.448	298.69
290.679	301.69
290.91	292.69
291.141	303.69
291.371	308.69
291.602	291.69
291.833	279.69
292.064	317.69
292.295	299.69
292.526	299.69
292.757	300.69
292.987	292.69
293.218	270.69
293.449	303.69
293.68	304.69
293.91	307.69
294.141	300.69
294.372	291.69
294.603	292.69
294.833	322.69
295.064	300.69
295.295	302.69
295.525	298.69
295.756	289.69
295.987	305.69
296.217	317.69
296.448	326.69
296.679	322.69
296.909	308.69
297.14	292.69
297.37	316.69
297.601	303.69
297.831	303.69
298.062	301.69
298.292	309.69
298.523	312.69
298.753	317.69
298.984	319.69
299.214	320.69
299.445	316.69
299.675	298.69
299.905	317.69
300.136	318.69
300.366	342.69
300.597	316.69
300.827	331.69
301.057	316.69
301.288	347.69
301.518	329.69
301.748	321.69
301.979	325.69
302.209	328.69
302.439	329.69
302.669	340.69
302.9	323.69
303.13	338.69
303.36	339.69
303.59	349.69
303.82	344.69
304.051	345.69
304.281	319.69
304.511	349.69
304.741	322.69
304.971	326.69
305.201	350.69
305.431	342.69
305.661	351.69
305.891	323.69
306.121	343.69
306.352	344.69
306.582	333.69
306.812	326.69
307.042	344.69
307.272	348.69
307.502	347.69
307.731	344.69
307.961	353.69
308.191	336.69
308.421	333.69
308.651	327.69
308.881	334.69
309.111	336.69
309.341	330.69
309.571	344.69
309.8	347.69
310.03	354.69
310.26	383.69
310.49	356.69
310.72	372.69
310.949	372.69
311.179	378.69
311.409	373.69
311.639	362.69
311.868	360.69
312.098	362.69
312.328	362.69
312.557	390.69
312.787	402.69
313.017	391.69
313.246	405.69
313.476	383.69
313.706	364.69
313.935	392.69
314.165	390.69
314.394	377.69
314.624	380.69
314.853	388.69
315.083	375.69
315.312	376.69
315.542	378.69
315.771	374.69
316.001	372.69
316.23	372.69
316.46	387.69
316.689	370.69
316.919	361.69
317.148	390.69
317.377	392.69
317.607	379.69
317.836	401.69
318.065	395.69
318.295	379.69
318.524	381.69
318.753	360.69
318.983	379.69
319.212	374.69
319.441	386.69
319.67	375.69
319.9	392.69
320.129	376.69
320.358	391.69
320.587	385.69
320.816	360.69
321.046	410.69
321.275	384.69
321.504	394.69
321.733	400.69
321.962	376.69
322.191	396.69
322.42	409.69
322.649	404.69
322.878	409.69
323.108	436.69
323.337	432.69
323.566	459.69
323.795	468.69
324.024	486.69
324.253	572.69
324.482	796.69
324.71	1158.69
324.939	1724.69
325.168	1511.69
325.397	767.69
325.626	544.69
325.855	485.69
326.084	464.69
326.313	450.69
326.542	444.69
326.77	480.69
326.999	566.69
327.228	720.69
327.457	1074.69
327.686	1338.69
327.914	876.69
328.143	598.69
328.372	531.69
328.6	522.69
328.829	496.69
329.058	498.69
329.287	507.69
329.515	470.69
329.744	461.69
329.972	468.69
330.201	493.69
330.43	483.69
330.658	507.69
330.887	565.69
331.115	522.69
331.344	486.69
331.572	459.69
331.801	456.69
332.03	449.69
332.258	439.69
332.486	456.69
332.715	452.69
332.943	436.69
333.172	456.69
333.4	458.69
333.629	468.69
333.857	458.69
334.085	474.69
334.314	509.69
334.542	500.69
334.771	500.69
334.999	520.69
335.227	471.69
335.455	476.69
335.684	455.69
335.912	462.69
336.14	435.69
336.369	455.69
336.597	442.69
336.825	438.69
337.053	429.69
337.281	450.69
337.51	422.69
337.738	468.69
337.966	451.69
338.194	437.69
338.422	440.69
338.65	441.69
338.878	445.69
339.106	449.69
339.334	418.69
339.562	438.69
339.79	431.69
340.018	428.69
340.246	420.69
340.474	403.69
340.702	405.69
340.93	439.69
341.158	435.69
341.386	438.69
341.614	436.69
341.842	438.69
342.07	420.69
342.298	422.69
342.526	435.69
342.754	445.69
342.981	426.69
343.209	399.69
343.437	421.69
343.665	438.69
343.893	455.69
344.12	470.69
344.348	459.69
344.576	425.69
344.804	423.69
345.031	440.69
345.259	453.69
345.487	446.69
345.714	426.69
345.942	435.69
346.17	419.69
346.397	405.69
346.625	407.69
346.853	432.69
347.08	410.69
347.308	420.69
347.535	427.69
347.763	418.69
347.99	399.69
348.218	433.69
348.445	435.69
348.673	415.69
348.9	404.69
349.128	400.69
349.355	419.69
349.583	394.69
349.81	386.69
350.037	414.69
350.265	402.69
350.492	407.69
350.72	397.69
350.947	399.69
351.174	422.69
351.402	430.69
351.629	408.69
351.856	407.69
352.083	387.69
352.311	416.69
352.538	405.69
352.765	422.69
352.992	412.69
353.22	402.69
353.447	398.69
353.674	407.69
353.901	414.69
354.128	384.69
354.355	388.69
354.583	403.69
354.81	394.69
355.037	398.69
355.264	387.69
355.491	399.69
355.718	396.69
355.945	406.69
356.172	380.69
356.399	383.69
356.626	399.69
356.853	396.69
357.08	390.69
357.307	381.69
357.534	384.69
357.761	388.69
357.988	394.69
358.215	412.69
358.441	408.69
358.668	398.69
358.895	398.69
359.122	394.69
359.349	396.69
359.576	414.69
359.802	416.69
360.029	427.69
360.256	449.69
360.483	422.69
360.709	409.69
360.936	410.69
361.163	414.69
361.39	401.69
361.616	415.69
361.843	384.69
362.07	414.69
362.296	417.69
362.523	426.69
362.749	399.69
362.976	414.69
363.203	403.69
363.429	414.69
363.656	389.69
363.882	398.69
364.109	402.69
364.335	379.69
364.562	398.69
364.788	395.69
365.015	406.69
365.241	376.69
365.468	410.69
365.694	421.69
365.92	400.69
366.147	392.69
366.373	412.69
366.599	394.69
366.826	405.69
367.052	414.69
367.278	400.69
367.505	400.69
367.731	388.69
367.957	404.69
368.184	391.69
368.41	407.69
368.636	421.69
368.862	416.69
369.089	420.69
369.315	394.69
369.541	396.69
369.767	409.69
369.993	383.69
370.219	408.69
370.445	388.69
370.672	408.69
370.898	408.69
371.124	412.69
371.35	410.69
371.576	409.69
371.802	410.69
372.028	396.69
372.254	403.69
372.48	408.69
372.706	416.69
372.932	405.69
373.158	420.69
373.384	450.69
373.61	418.69
373.835	393.69
374.061	402.69
374.287	423.69
374.513	406.69
374.739	407.69
374.965	413.69
375.191	436.69
375.416	425.69
375.642	418.69
375.868	409.69
376.094	421.69
376.319	394.69
376.545	414.69
376.771	404.69
376.997	368.69
377.222	385.69
377.448	398.69
377.674	394.69
377.899	382.69
378.125	410.69
378.35	399.69
378.576	409.69
378.802	383.69
379.027	423.69
379.253	405.69
379.478	392.69
379.704	405.69
379.929	384.69
380.155	407.69
380.38	400.69
380.606	405.69
380.831	382.69
381.057	413.69
381.282	380.69
381.507	399.69
381.733	418.69
381.958	414.69
382.184	399.69
382.409	408.69
382.634	418.69
382.86	423.69
383.085	420.69
383.31	407.69
383.535	427.69
383.761	454.69
383.986	407.69
384.211	402.69
384.436	439.69
384.662	432.69
384.887	446.69
385.112	468.69
385.337	448.69
385.562	474.69
385.787	442.69
386.013	443.69
386.238	462.69
386.463	461.69
386.688	456.69
386.913	448.69
387.138	441.69
387.363	457.69
387.588	447.69
387.813	446.69
388.038	461.69
388.263	459.69
388.488	451.69
388.713	451.69
388.938	444.69
389.163	464.69
389.387	456.69
389.612	450.69
389.837	427.69
390.062	442.69
390.287	455.69
390.512	438.69
390.736	454.69
390.961	454.69
391.186	460.69
391.411	475.69
391.636	475.69
391.86	487.69
392.085	461.69
392.31	469.69
392.534	455.69
392.759	471.69
392.984	473.69
393.208	448.69
393.433	487.69
393.658	467.69
393.882	453.69
394.107	456.69
394.331	455.69
394.556	464.69
394.78	468.69
395.005	472.69
395.229	459.69
395.454	466.69
395.678	464.69
395.903	494.69
396.127	494.69
396.352	511.69
396.576	480.69
396.801	463.69
397.025	467.69
397.249	480.69
397.474	490.69
397.698	498.69
397.922	507.69
398.147	500.69
398.371	539.69
398.595	520.69
398.82	499.69
399.044	554.69
399.268	564.69
399.492	605.69
399.717	620.69
399.941	642.69
400.165	660.69
400.389	651.69
400.613	585.69
400.837	541.69
401.062	520.69
401.286	528.69
401.51	545.69
401.734	520.69
401.958	545.69
402.182	533.69
402.406	541.69
402.63	548.69
402.854	541.69
403.078	567.69
403.302	540.69
403.526	556.69
403.75	539.69
403.974	554.69
404.198	541.69
404.422	544.69
404.645	536.69
404.869	543.69
405.093	567.69
405.317	615.69
405.541	640.69
405.765	622.69
405.988	566.69
406.212	554.69
406.436	562.69
406.66	599.69
406.883	569.69
407.107	606.69
407.331	663.69
407.555	715.69
407.778	729.69
408.002	656.69
408.226	602.69
408.449	580.69
408.673	590.69
408.896	614.69
409.12	657.69
409.344	642.69
409.567	585.69
409.791	562.69
410.014	540.69
410.238	569.69
410.461	520.69
410.685	554.69
410.908	566.69
411.132	588.69
411.355	617.69
411.578	608.69
411.802	554.69
412.025	537.69
412.249	556.69
412.472	569.69
412.695	602.69
412.919	588.69
413.142	582.69
413.365	537.69
413.589	532.69
413.812	522.69
414.035	518.69
414.258	506.69
414.482	524.69
414.705	523.69
414.928	536.69
415.151	532.69
415.374	538.69
415.597	520.69
415.821	536.69
416.044	493.69
416.267	542.69
416.49	516.69
416.713	526.69
416.936	505.69
417.159	502.69
417.382	514.69
417.605	504.69
417.828	521.69
418.051	542.69
418.274	540.69
418.497	515.69
418.72	512.69
418.943	516.69
419.166	540.69
419.389	557.69
419.611	555.69
419.834	555.69
420.057	559.69
420.28	557.69
420.503	526.69
420.726	545.69
420.948	545.69
421.171	600.69
421.394	596.69
421.617	573.69
421.839	538.69
422.062	542.69
422.285	559.69
422.507	611.69
422.73	673.69
422.953	647.69
423.175	589.69
423.398	557.69
423.621	545.69
423.843	567.69
424.066	597.69
424.288	563.69
424.511	576.69
424.733	631.69
424.956	711.69
425.178	668.69
425.401	674.69
425.623	678.69
425.846	591.69
426.068	584.69
426.291	548.69
426.513	557.69
426.735	598.69
426.958	598.69
427.18	675.69
427.402	809.69
427.625	873.69
427.847	746.69
428.069	655.69
428.292	604.69
428.514	531.69
428.736	527.69
428.958	533.69
429.181	501.69
429.403	524.69
429.625	526.69
429.847	552.69
430.069	615.69
430.292	620.69
430.514	544.69
430.736	516.69
430.958	524.69
431.18	488.69
431.402	494.69
431.624	492.69
431.846	479.69
432.068	486.69
432.29	504.69
432.512	490.69
432.734	510.69
432.956	520.69
433.178	514.69
433.4	508.69
433.622	485.69
433.844	500.69
434.066	493.69
434.287	483.69
434.509	515.69
434.731	515.69
434.953	518.69
435.175	544.69
435.397	564.69
435.618	544.69
435.84	568.69
436.062	661.69
436.284	772.69
436.505	629.69
436.727	583.69
436.949	540.69
437.17	532.69
437.392	507.69
437.614	526.69
437.835	568.69
438.057	632.69
438.278	702.69
438.5	727.69
438.721	807.69
438.943	784.69
439.165	628.69
439.386	566.69
439.608	558.69
439.829	564.69
440.05	576.69
440.272	610.69
440.493	577.69
440.715	550.69
440.936	527.69
441.158	525.69
441.379	521.69
441.6	541.69
441.822	549.69
442.043	605.69
442.264	645.69
442.486	692.69
442.707	606.69
442.928	559.69
443.149	566.69
443.371	582.69
443.592	604.69
443.813	733.69
444.034	794.69
444.255	652.69
444.476	613.69
444.698	594.69
444.919	581.69
445.14	712.69
445.361	619.69
445.582	616.69
445.803	653.69
446.024	751.69
446.245	743.69
446.466	663.69
446.687	568.69
446.908	543.69
447.129	511.69
447.35	528.69
447.571	523.69
447.792	503.69
448.013	525.69
448.234	516.69
448.455	575.69
448.675	660.69
448.896	806.69
449.117	653.69
449.338	602.69
449.559	742.69
449.779	856.69
450	647.69
450.221	546.69
450.442	503.69
450.662	477.69
450.883	496.69
451.104	489.69
451.324	506.69
451.545	479.69
451.766	464.69
451.986	466.69
452.207	466.69
452.428	450.69
452.648	431.69
452.869	440.69
453.089	463.69
453.31	471.69
453.53	479.69
453.751	485.69
453.971	435.69
454.192	480.69
454.412	431.69
454.633	454.69
454.853	442.69
455.073	446.69
455.294	469.69
455.514	534.69
455.734	536.69
455.955	458.69
456.175	466.69
456.395	457.69
456.616	442.69
456.836	421.69
457.056	434.69
457.276	438.69
457.497	454.69
457.717	446.69
457.937	440.69
458.157	460.69
458.377	428.69
458.598	456.69
458.818	473.69
459.038	568.69
459.258	612.69
459.478	539.69
459.698	488.69
459.918	503.69
460.138	508.69
460.358	512.69
460.578	496.69
460.798	544.69
461.018	514.69
461.238	503.69
461.458	500.69
461.678	517.69
461.898	527.69
462.118	521.69
462.338	538.69
462.558	542.69
462.777	556.69
462.997	553.69
463.217	581.69
463.437	583.69
463.657	583.69
463.876	541.69
464.096	562.69
464.316	532.69
464.536	567.69
464.755	524.69
464.975	547.69
465.195	575.69
465.414	582.69
465.634	536.69
465.854	511.69
466.073	492.69
466.293	498.69
466.512	466.69
466.732	490.69
466.951	492.69
467.171	469.69
467.391	475.69
467.61	472.69
467.829	493.69
468.049	481.69
468.268	476.69
468.488	466.69
468.707	459.69
468.927	479.69
469.146	473.69
469.365	448.69
469.585	462.69
469.804	481.69
470.023	466.69
470.243	486.69
470.462	460.69
470.681	507.69
470.901	512.69
471.12	487.69
471.339	484.69
471.558	469.69
471.777	475.69
471.997	460.69
472.216	469.69
472.435	482.69
472.654	468.69
472.873	464.69
473.092	467.69
473.311	458.69
473.53	477.69
473.749	466.69
473.968	515.69
474.187	592.69
474.406	616.69
474.625	542.69
474.844	484.69
475.063	493.69
475.282	463.69
475.501	473.69
475.72	474.69
475.939	490.69
476.158	486.69
476.377	475.69
476.596	487.69
476.814	523.69
477.033	515.69
477.252	504.69
477.471	503.69
477.69	519.69
477.908	534.69
478.127	534.69
478.346	509.69
478.564	533.69
478.783	540.69
479.002	561.69
479.22	554.69
479.439	549.69
479.658	580.69
479.876	579.69
480.095	595.69
480.313	619.69
480.532	585.69
480.751	588.69
480.969	592.69
481.188	604.69
481.406	637.69
481.624	602.69
481.843	579.69
482.061	581.69
482.28	552.69
482.498	542.69
482.717	540.69
482.935	565.69
483.153	548.69
483.372	544.69
483.59	560.69
483.808	546.69
484.027	562.69
484.245	564.69
484.463	558.69
484.681	573.69
484.9	574.69
485.118	562.69
485.336	562.69
485.554	578.69
485.772	583.69
485.99	552.69
486.209	579.69
486.427	580.69
486.645	585.69
486.863	586.69
487.081	606.69
487.299	591.69
487.517	603.69
487.735	599.69
487.953	592.69
488.171	596.69
488.389	614.69
488.607	574.69
488.825	581.69
489.043	591.69
489.261	589.69
489.479	610.69
489.696	589.69
489.914	615.69
490.132	605.69
490.35	608.69
490.568	629.69
490.786	634.69
491.003	644.69
491.221	649.69
491.439	642.69
491.657	675.69
491.874	656.69
492.092	661.69
492.31	678.69
492.527	667.69
492.745	668.69
492.963	681.69
493.18	683.69
493.398	682.69
493.615	702.69
493.833	712.69
494.05	677.69
494.268	688.69
494.485	672.69
494.703	687.69
494.92	698.69
495.138	685.69
495.355	702.69
495.573	695.69
495.79	701.69
496.008	704.69
496.225	704.69
496.442	667.69
496.66	703.69
496.877	695.69
497.094	672.69
497.312	692.69
497.529	704.69
497.746	734.69
497.963	755.69
498.181	760.69
498.398	782.69
498.615	809.69
498.832	813.69
499.049	859.69
499.267	860.69
499.484	934.69
499.701	966.69
499.918	970.69
500.135	1056.69
500.352	1118.69
500.569	1120.69
500.786	1128.69
501.003	1115.69
501.22	1075.69
501.437	1048.69
501.654	975.69
