Data from 1976.PennyLincolnUp.Lamp.En5.5.200Scan.071719.P1.Changed Mount._HRD10591_16-00-30-862.txt Node
Date: Thu Jul 18 16:00:30 EDT 2019
User: cochatt
Spectrometer: HR+D1059
Trigger mode: 1
Integration Time (sec): 1.000000E-1
Scans to average: 1
Electric dark correction enabled: true
Nonlinearity correction enabled: false
Boxcar width: 0
XAxis mode: Wavelengths
Number of Pixels in Spectrum: 2048
>>>>>Begin Spectral Data<<<<<
223.165	-10.88
223.4	-10.88
223.635	-10.88
223.869	-6.88
224.104	-18.88
224.338	-14.88
224.573	-22.88
224.808	-19.88
225.042	-1.88
225.277	-14.88
225.511	-3.88
225.746	-11.88
225.98	7.12
226.215	12.12
226.449	23.12
226.683	25.12
226.918	30.12
227.152	29.12
227.387	34.12
227.621	23.12
227.856	47.12
228.09	36.12
228.324	32.12
228.559	53.12
228.793	64.12
229.027	100.12
229.262	114.12
229.496	108.12
229.73	133.12
229.964	141.12
230.199	108.12
230.433	100.12
230.667	102.12
230.901	97.12
231.136	101.12
231.37	105.12
231.604	103.12
231.838	108.12
232.072	111.12
232.306	117.12
232.541	117.12
232.775	120.12
233.009	119.12
233.243	118.12
233.477	135.12
233.711	126.12
233.945	123.12
234.179	121.12
234.413	120.12
234.647	127.12
234.881	119.12
235.115	125.12
235.349	128.12
235.583	113.12
235.817	132.12
236.051	136.12
236.285	125.12
236.519	131.12
236.753	123.12
236.987	139.12
237.221	178.12
237.455	206.12
237.689	179.12
237.922	137.12
238.156	140.12
238.39	148.12
238.624	126.12
238.858	128.12
239.091	127.12
239.325	125.12
239.559	128.12
239.793	120.12
240.027	140.12
240.26	141.12
240.494	162.12
240.728	161.12
240.961	150.12
241.195	133.12
241.429	135.12
241.662	137.12
241.896	133.12
242.13	132.12
242.363	130.12
242.597	134.12
242.83	148.12
243.064	138.12
243.298	150.12
243.531	144.12
243.765	134.12
243.998	150.12
244.232	142.12
244.465	153.12
244.699	151.12
244.932	141.12
245.166	161.12
245.399	143.12
245.633	160.12
245.866	159.12
246.099	152.12
246.333	163.12
246.566	141.12
246.8	154.12
247.033	156.12
247.266	170.12
247.5	173.12
247.733	166.12
247.966	166.12
248.2	173.12
248.433	176.12
248.666	169.12
248.899	179.12
249.133	199.12
249.366	191.12
249.599	204.12
249.832	187.12
250.066	196.12
250.299	179.12
250.532	203.12
250.765	209.12
250.998	199.12
251.231	229.12
251.465	223.12
251.698	191.12
251.931	202.12
252.164	213.12
252.397	185.12
252.63	196.12
252.863	203.12
253.096	217.12
253.329	235.12
253.562	211.12
253.795	211.12
254.028	210.12
254.261	221.12
254.494	212.12
254.727	244.12
254.96	272.12
255.193	254.12
255.426	246.12
255.659	242.12
255.892	229.12
256.124	225.12
256.357	229.12
256.59	227.12
256.823	218.12
257.056	212.12
257.289	220.12
257.521	222.12
257.754	210.12
257.987	211.12
258.22	206.12
258.452	209.12
258.685	193.12
258.918	223.12
259.151	202.12
259.383	211.12
259.616	243.12
259.849	231.12
260.081	245.12
260.314	263.12
260.547	269.12
260.779	261.12
261.012	248.12
261.244	237.12
261.477	232.12
261.71	216.12
261.942	222.12
262.175	233.12
262.407	226.12
262.64	223.12
262.872	206.12
263.105	232.12
263.337	219.12
263.57	217.12
263.802	209.12
264.035	203.12
264.267	200.12
264.499	213.12
264.732	223.12
264.964	218.12
265.197	215.12
265.429	225.12
265.661	204.12
265.894	243.12
266.126	219.12
266.358	221.12
266.591	218.12
266.823	230.12
267.055	249.12
267.287	250.12
267.52	232.12
267.752	242.12
267.984	243.12
268.216	234.12
268.448	253.12
268.681	251.12
268.913	238.12
269.145	290.12
269.377	290.12
269.609	263.12
269.841	265.12
270.073	263.12
270.306	287.12
270.538	317.12
270.77	314.12
271.002	305.12
271.234	310.12
271.466	314.12
271.698	305.12
271.93	307.12
272.162	310.12
272.394	309.12
272.626	325.12
272.858	298.12
273.09	299.12
273.322	287.12
273.553	284.12
273.785	271.12
274.017	279.12
274.249	279.12
274.481	280.12
274.713	275.12
274.945	281.12
275.176	280.12
275.408	283.12
275.64	282.12
275.872	274.12
276.104	286.12
276.335	269.12
276.567	260.12
276.799	286.12
277.031	321.12
277.262	311.12
277.494	342.12
277.726	320.12
277.957	308.12
278.189	289.12
278.421	287.12
278.652	283.12
278.884	290.12
279.115	275.12
279.347	301.12
279.579	287.12
279.81	287.12
280.042	288.12
280.273	284.12
280.505	271.12
280.736	289.12
280.968	287.12
281.199	277.12
281.431	278.12
281.662	289.12
281.894	283.12
282.125	285.12
282.356	303.12
282.588	327.12
282.819	333.12
283.051	285.12
283.282	284.12
283.513	291.12
283.745	294.12
283.976	316.12
284.207	307.12
284.439	284.12
284.67	307.12
284.901	302.12
285.132	298.12
285.364	304.12
285.595	313.12
285.826	299.12
286.057	294.12
286.288	281.12
286.52	300.12
286.751	311.12
286.982	302.12
287.213	277.12
287.444	297.12
287.675	303.12
287.906	323.12
288.138	313.12
288.369	315.12
288.6	323.12
288.831	318.12
289.062	333.12
289.293	320.12
289.524	321.12
289.755	308.12
289.986	301.12
290.217	331.12
290.448	322.12
290.679	313.12
290.91	309.12
291.141	298.12
291.371	325.12
291.602	297.12
291.833	294.12
292.064	311.12
292.295	319.12
292.526	295.12
292.757	315.12
292.987	305.12
293.218	319.12
293.449	301.12
293.68	301.12
293.91	302.12
294.141	294.12
294.372	321.12
294.603	298.12
294.833	325.12
295.064	319.12
295.295	310.12
295.525	317.12
295.756	313.12
295.987	329.12
296.217	317.12
296.448	338.12
296.679	342.12
296.909	307.12
297.14	313.12
297.37	318.12
297.601	318.12
297.831	314.12
298.062	328.12
298.292	340.12
298.523	333.12
298.753	338.12
298.984	333.12
299.214	325.12
299.445	331.12
299.675	340.12
299.905	331.12
300.136	330.12
300.366	335.12
300.597	336.12
300.827	319.12
301.057	345.12
301.288	338.12
301.518	331.12
301.748	342.12
301.979	350.12
302.209	346.12
302.439	351.12
302.669	351.12
302.9	343.12
303.13	349.12
303.36	349.12
303.59	342.12
303.82	372.12
304.051	352.12
304.281	354.12
304.511	343.12
304.741	343.12
304.971	339.12
305.201	345.12
305.431	362.12
305.661	354.12
305.891	357.12
306.121	361.12
306.352	353.12
306.582	345.12
306.812	350.12
307.042	354.12
307.272	350.12
307.502	350.12
307.731	364.12
307.961	344.12
308.191	344.12
308.421	348.12
308.651	346.12
308.881	334.12
309.111	347.12
309.341	363.12
309.571	364.12
309.8	382.12
310.03	379.12
310.26	385.12
310.49	385.12
310.72	394.12
310.949	403.12
311.179	398.12
311.409	400.12
311.639	389.12
311.868	379.12
312.098	394.12
312.328	389.12
312.557	409.12
312.787	420.12
313.017	413.12
313.246	395.12
313.476	394.12
313.706	405.12
313.935	370.12
314.165	389.12
314.394	416.12
314.624	394.12
314.853	406.12
315.083	389.12
315.312	422.12
315.542	407.12
315.771	381.12
316.001	365.12
316.23	389.12
316.46	387.12
316.689	401.12
316.919	391.12
317.148	396.12
317.377	389.12
317.607	394.12
317.836	405.12
318.065	379.12
318.295	405.12
318.524	403.12
318.753	396.12
318.983	381.12
319.212	384.12
319.441	401.12
319.67	385.12
319.9	394.12
320.129	396.12
320.358	391.12
320.587	384.12
320.816	421.12
321.046	412.12
321.275	407.12
321.504	417.12
321.733	418.12
321.962	411.12
322.191	440.12
322.42	449.12
322.649	438.12
322.878	459.12
323.108	439.12
323.337	471.12
323.566	477.12
323.795	494.12
324.024	553.12
324.253	620.12
324.482	818.12
324.71	1278.12
324.939	1930.12
325.168	1619.12
325.397	849.12
325.626	586.12
325.855	501.12
326.084	506.12
326.313	480.12
326.542	485.12
326.77	517.12
326.999	615.12
327.228	780.12
327.457	1149.12
327.686	1424.12
327.914	943.12
328.143	648.12
328.372	561.12
328.6	561.12
328.829	522.12
329.058	548.12
329.287	546.12
329.515	539.12
329.744	471.12
329.972	493.12
330.201	503.12
330.43	550.12
330.658	557.12
330.887	570.12
331.115	553.12
331.344	513.12
331.572	483.12
331.801	485.12
332.03	503.12
332.258	479.12
332.486	485.12
332.715	473.12
332.943	467.12
333.172	487.12
333.4	506.12
333.629	480.12
333.857	514.12
334.085	521.12
334.314	526.12
334.542	543.12
334.771	554.12
334.999	522.12
335.227	498.12
335.455	487.12
335.684	479.12
335.912	477.12
336.14	473.12
336.369	477.12
336.597	494.12
336.825	473.12
337.053	460.12
337.281	467.12
337.51	455.12
337.738	451.12
337.966	457.12
338.194	457.12
338.422	454.12
338.65	437.12
338.878	451.12
339.106	447.12
339.334	474.12
339.562	450.12
339.79	445.12
340.018	449.12
340.246	435.12
340.474	458.12
340.702	451.12
340.93	458.12
341.158	434.12
341.386	460.12
341.614	425.12
341.842	437.12
342.07	427.12
342.298	455.12
342.526	447.12
342.754	412.12
342.981	442.12
343.209	461.12
343.437	439.12
343.665	444.12
343.893	471.12
344.12	491.12
344.348	483.12
344.576	483.12
344.804	473.12
345.031	450.12
345.259	458.12
345.487	427.12
345.714	444.12
345.942	436.12
346.17	415.12
346.397	442.12
346.625	435.12
346.853	435.12
347.08	439.12
347.308	412.12
347.535	438.12
347.763	435.12
347.99	431.12
348.218	439.12
348.445	445.12
348.673	429.12
348.9	447.12
349.128	434.12
349.355	427.12
349.583	418.12
349.81	437.12
350.037	398.12
350.265	421.12
350.492	433.12
350.72	422.12
350.947	412.12
351.174	432.12
351.402	431.12
351.629	427.12
351.856	411.12
352.083	418.12
352.311	456.12
352.538	425.12
352.765	427.12
352.992	435.12
353.22	446.12
353.447	423.12
353.674	427.12
353.901	414.12
354.128	410.12
354.355	412.12
354.583	396.12
354.81	411.12
355.037	413.12
355.264	395.12
355.491	403.12
355.718	399.12
355.945	397.12
356.172	422.12
356.399	394.12
356.626	398.12
356.853	413.12
357.08	414.12
357.307	393.12
357.534	388.12
357.761	402.12
357.988	393.12
358.215	417.12
358.441	400.12
358.668	387.12
358.895	400.12
359.122	407.12
359.349	415.12
359.576	415.12
359.802	454.12
360.029	472.12
360.256	473.12
360.483	454.12
360.709	421.12
360.936	433.12
361.163	449.12
361.39	416.12
361.616	435.12
361.843	432.12
362.07	437.12
362.296	420.12
362.523	438.12
362.749	433.12
362.976	405.12
363.203	430.12
363.429	412.12
363.656	398.12
363.882	429.12
364.109	430.12
364.335	412.12
364.562	401.12
364.788	412.12
365.015	425.12
365.241	414.12
365.468	419.12
365.694	405.12
365.92	408.12
366.147	417.12
366.373	427.12
366.599	404.12
366.826	395.12
367.052	398.12
367.278	411.12
367.505	410.12
367.731	410.12
367.957	405.12
368.184	413.12
368.41	392.12
368.636	412.12
368.862	440.12
369.089	419.12
369.315	428.12
369.541	405.12
369.767	397.12
369.993	411.12
370.219	415.12
370.445	412.12
370.672	396.12
370.898	444.12
371.124	405.12
371.35	421.12
371.576	418.12
371.802	424.12
372.028	413.12
372.254	409.12
372.48	412.12
372.706	427.12
372.932	420.12
373.158	417.12
373.384	416.12
373.61	435.12
373.835	425.12
374.061	430.12
374.287	426.12
374.513	422.12
374.739	423.12
374.965	444.12
375.191	430.12
375.416	446.12
375.642	421.12
375.868	451.12
376.094	424.12
376.319	420.12
376.545	411.12
376.771	415.12
376.997	434.12
377.222	441.12
377.448	401.12
377.674	428.12
377.899	415.12
378.125	421.12
378.35	416.12
378.576	419.12
378.802	405.12
379.027	423.12
379.253	414.12
379.478	435.12
379.704	414.12
379.929	444.12
380.155	446.12
380.38	423.12
380.606	427.12
380.831	422.12
381.057	426.12
381.282	420.12
381.507	433.12
381.733	416.12
381.958	433.12
382.184	416.12
382.409	429.12
382.634	445.12
382.86	436.12
383.085	414.12
383.31	434.12
383.535	449.12
383.761	426.12
383.986	439.12
384.211	437.12
384.436	456.12
384.662	446.12
384.887	451.12
385.112	443.12
385.337	462.12
385.562	479.12
385.787	446.12
386.013	480.12
386.238	461.12
386.463	472.12
386.688	478.12
386.913	482.12
387.138	449.12
387.363	455.12
387.588	464.12
387.813	468.12
388.038	467.12
388.263	466.12
388.488	454.12
388.713	467.12
388.938	469.12
389.163	475.12
389.387	459.12
389.612	460.12
389.837	460.12
390.062	475.12
390.287	460.12
390.512	469.12
390.736	473.12
390.961	477.12
391.186	467.12
391.411	447.12
391.636	463.12
391.86	481.12
392.085	479.12
392.31	490.12
392.534	483.12
392.759	492.12
392.984	477.12
393.208	467.12
393.433	457.12
393.658	491.12
393.882	475.12
394.107	477.12
394.331	472.12
394.556	458.12
394.78	481.12
395.005	473.12
395.229	479.12
395.454	500.12
395.678	494.12
395.903	515.12
396.127	535.12
396.352	534.12
396.576	490.12
396.801	489.12
397.025	471.12
397.249	504.12
397.474	504.12
397.698	500.12
397.922	492.12
398.147	512.12
398.371	527.12
398.595	532.12
398.82	544.12
399.044	571.12
399.268	601.12
399.492	630.12
399.717	657.12
399.941	691.12
400.165	692.12
400.389	687.12
400.613	620.12
400.837	579.12
401.062	581.12
401.286	558.12
401.51	549.12
401.734	539.12
401.958	537.12
402.182	562.12
402.406	541.12
402.63	549.12
402.854	573.12
403.078	572.12
403.302	591.12
403.526	573.12
403.75	569.12
403.974	564.12
404.198	557.12
404.422	576.12
404.645	587.12
404.869	592.12
405.093	611.12
405.317	647.12
405.541	686.12
405.765	643.12
405.988	594.12
406.212	563.12
406.436	632.12
406.66	649.12
406.883	611.12
407.107	631.12
407.331	684.12
407.555	730.12
407.778	734.12
408.002	666.12
408.226	641.12
408.449	618.12
408.673	644.12
408.896	661.12
409.12	699.12
409.344	660.12
409.567	574.12
409.791	590.12
410.014	574.12
410.238	573.12
410.461	572.12
410.685	581.12
410.908	570.12
411.132	623.12
411.355	652.12
411.578	599.12
411.802	592.12
412.025	552.12
412.249	580.12
412.472	589.12
412.695	622.12
412.919	593.12
413.142	578.12
413.365	564.12
413.589	542.12
413.812	537.12
414.035	549.12
414.258	534.12
414.482	525.12
414.705	529.12
414.928	550.12
415.151	516.12
415.374	529.12
415.597	536.12
415.821	526.12
416.044	525.12
416.267	523.12
416.49	543.12
416.713	543.12
416.936	534.12
417.159	517.12
417.382	526.12
417.605	549.12
417.828	533.12
418.051	570.12
418.274	550.12
418.497	546.12
418.72	543.12
418.943	538.12
419.166	557.12
419.389	611.12
419.611	575.12
419.834	578.12
420.057	589.12
420.28	585.12
420.503	552.12
420.726	555.12
420.948	554.12
421.171	589.12
421.394	631.12
421.617	570.12
421.839	571.12
422.062	578.12
422.285	572.12
422.507	630.12
422.73	687.12
422.953	677.12
423.175	603.12
423.398	561.12
423.621	564.12
423.843	606.12
424.066	621.12
424.288	584.12
424.511	619.12
424.733	636.12
424.956	746.12
425.178	713.12
425.401	714.12
425.623	724.12
425.846	631.12
426.068	605.12
426.291	591.12
426.513	578.12
426.735	592.12
426.958	630.12
427.18	714.12
427.402	819.12
427.625	904.12
427.847	769.12
428.069	673.12
428.292	617.12
428.514	573.12
428.736	556.12
428.958	563.12
429.181	551.12
429.403	531.12
429.625	549.12
429.847	580.12
430.069	626.12
430.292	637.12
430.514	565.12
430.736	539.12
430.958	530.12
431.18	533.12
431.402	523.12
431.624	499.12
431.846	486.12
432.068	500.12
432.29	517.12
432.512	494.12
432.734	510.12
432.956	523.12
433.178	547.12
433.4	531.12
433.622	537.12
433.844	521.12
434.066	517.12
434.287	500.12
434.509	523.12
434.731	531.12
434.953	540.12
435.175	561.12
435.397	585.12
435.618	586.12
435.84	629.12
436.062	719.12
436.284	809.12
436.505	655.12
436.727	579.12
436.949	573.12
437.17	548.12
437.392	548.12
437.614	543.12
437.835	575.12
438.057	655.12
438.278	755.12
438.5	759.12
438.721	829.12
438.943	811.12
439.165	652.12
439.386	606.12
439.608	605.12
439.829	569.12
440.05	587.12
440.272	649.12
440.493	604.12
440.715	549.12
440.936	548.12
441.158	542.12
441.379	552.12
441.6	563.12
441.822	608.12
442.043	647.12
442.264	718.12
442.486	767.12
442.707	625.12
442.928	606.12
443.149	592.12
443.371	627.12
443.592	668.12
443.813	766.12
444.034	806.12
444.255	686.12
444.476	633.12
444.698	615.12
444.919	631.12
445.14	720.12
445.361	673.12
445.582	627.12
445.803	683.12
446.024	777.12
446.245	795.12
446.466	703.12
446.687	611.12
446.908	569.12
447.129	562.12
447.35	536.12
447.571	525.12
447.792	525.12
448.013	523.12
448.234	553.12
448.455	609.12
448.675	686.12
448.896	817.12
449.117	708.12
449.338	652.12
449.559	771.12
449.779	897.12
450	683.12
450.221	569.12
450.442	519.12
450.662	513.12
450.883	514.12
451.104	539.12
451.324	501.12
451.545	501.12
451.766	478.12
451.986	486.12
452.207	473.12
452.428	483.12
452.648	472.12
452.869	473.12
453.089	501.12
453.31	513.12
453.53	482.12
453.751	475.12
453.971	478.12
454.192	468.12
454.412	490.12
454.633	482.12
454.853	467.12
455.073	469.12
455.294	484.12
455.514	569.12
455.734	569.12
455.955	460.12
456.175	454.12
456.395	459.12
456.616	434.12
456.836	466.12
457.056	449.12
457.276	442.12
457.497	456.12
457.717	452.12
457.937	447.12
458.157	464.12
458.377	470.12
458.598	473.12
458.818	519.12
459.038	584.12
459.258	636.12
459.478	552.12
459.698	502.12
459.918	520.12
460.138	507.12
460.358	537.12
460.578	556.12
460.798	529.12
461.018	539.12
461.238	524.12
461.458	531.12
461.678	530.12
461.898	558.12
462.118	546.12
462.338	549.12
462.558	554.12
462.777	580.12
462.997	595.12
463.217	626.12
463.437	617.12
463.657	604.12
463.876	570.12
464.096	586.12
464.316	575.12
464.536	587.12
464.755	571.12
464.975	570.12
465.195	613.12
465.414	639.12
465.634	579.12
465.854	539.12
466.073	518.12
466.293	527.12
466.512	508.12
466.732	490.12
466.951	467.12
467.171	500.12
467.391	470.12
467.61	500.12
467.829	481.12
468.049	479.12
468.268	494.12
468.488	493.12
468.707	484.12
468.927	487.12
469.146	492.12
469.365	476.12
469.585	482.12
469.804	476.12
470.023	490.12
470.243	470.12
470.462	491.12
470.681	537.12
470.901	535.12
471.12	520.12
471.339	499.12
471.558	495.12
471.777	474.12
471.997	498.12
472.216	500.12
472.435	533.12
472.654	511.12
472.873	488.12
473.092	470.12
473.311	497.12
473.53	517.12
473.749	502.12
473.968	545.12
474.187	621.12
474.406	650.12
474.625	556.12
474.844	513.12
475.063	491.12
475.282	491.12
475.501	512.12
475.72	525.12
475.939	505.12
476.158	516.12
476.377	521.12
476.596	523.12
476.814	546.12
477.033	517.12
477.252	524.12
477.471	531.12
477.69	547.12
477.908	533.12
478.127	556.12
478.346	549.12
478.564	535.12
478.783	562.12
479.002	547.12
479.22	565.12
479.439	580.12
479.658	596.12
479.876	591.12
480.095	609.12
480.313	626.12
480.532	616.12
480.751	620.12
480.969	628.12
481.188	658.12
481.406	678.12
481.624	619.12
481.843	605.12
482.061	585.12
482.28	601.12
482.498	585.12
482.717	557.12
482.935	592.12
483.153	576.12
483.372	583.12
483.59	585.12
483.808	590.12
484.027	579.12
484.245	591.12
484.463	581.12
484.681	601.12
484.9	577.12
485.118	589.12
485.336	581.12
485.554	592.12
485.772	598.12
485.99	610.12
486.209	559.12
486.427	601.12
486.645	614.12
486.863	621.12
487.081	605.12
487.299	626.12
487.517	607.12
487.735	613.12
487.953	618.12
488.171	627.12
488.389	599.12
488.607	613.12
488.825	620.12
489.043	617.12
489.261	629.12
489.479	634.12
489.696	637.12
489.914	621.12
490.132	641.12
490.35	637.12
490.568	671.12
490.786	643.12
491.003	649.12
491.221	692.12
491.439	671.12
491.657	693.12
491.874	691.12
492.092	711.12
492.31	712.12
492.527	704.12
492.745	718.12
492.963	732.12
493.18	709.12
493.398	718.12
493.615	718.12
493.833	740.12
494.05	725.12
494.268	720.12
494.485	732.12
494.703	710.12
494.92	709.12
495.138	736.12
495.355	730.12
495.573	733.12
495.79	723.12
496.008	723.12
496.225	724.12
496.442	700.12
496.66	768.12
496.877	729.12
497.094	744.12
497.312	769.12
497.529	777.12
497.746	783.12
497.963	811.12
498.181	801.12
498.398	831.12
498.615	829.12
498.832	876.12
499.049	916.12
499.267	926.12
499.484	947.12
499.701	985.12
499.918	1018.12
500.135	1094.12
500.352	1152.12
500.569	1148.12
500.786	1216.12
501.003	1155.12
501.22	1091.12
501.437	1043.12
501.654	1012.12
