Data from 1976.PennyLincolnUp.Lamp.En5.5.200Scan.071719.P1.Changed Mount._HRD10591_16-01-08-874.txt Node
Date: Thu Jul 18 16:01:08 EDT 2019
User: cochatt
Spectrometer: HR+D1059
Trigger mode: 1
Integration Time (sec): 1.000000E-1
Scans to average: 1
Electric dark correction enabled: true
Nonlinearity correction enabled: false
Boxcar width: 0
XAxis mode: Wavelengths
Number of Pixels in Spectrum: 2048
>>>>>Begin Spectral Data<<<<<
223.165	2.31
223.4	2.31
223.635	2.31
223.869	-8.69
224.104	-18.69
224.338	-17.69
224.573	-21.69
224.808	11.31
225.042	-12.69
225.277	-12.69
225.511	-14.69
225.746	1.31
225.98	0.31
226.215	3.31
226.449	15.31
226.683	21.31
226.918	29.31
227.152	22.31
227.387	38.31
227.621	29.31
227.856	43.31
228.09	44.31
228.324	47.31
228.559	57.31
228.793	69.31
229.027	86.31
229.262	81.31
229.496	107.31
229.73	98.31
229.964	152.31
230.199	116.31
230.433	119.31
230.667	112.31
230.901	93.31
231.136	101.31
231.37	101.31
231.604	103.31
231.838	101.31
232.072	114.31
232.306	123.31
232.541	110.31
232.775	105.31
233.009	109.31
233.243	111.31
233.477	110.31
233.711	111.31
233.945	107.31
234.179	117.31
234.413	113.31
234.647	111.31
234.881	118.31
235.115	111.31
235.349	123.31
235.583	99.31
235.817	121.31
236.051	119.31
236.285	130.31
236.519	131.31
236.753	128.31
236.987	125.31
237.221	182.31
237.455	234.31
237.689	170.31
237.922	157.31
238.156	131.31
238.39	136.31
238.624	122.31
238.858	132.31
239.091	122.31
239.325	133.31
239.559	137.31
239.793	138.31
240.027	137.31
240.26	137.31
240.494	148.31
240.728	128.31
240.961	136.31
241.195	137.31
241.429	133.31
241.662	127.31
241.896	134.31
242.13	133.31
242.363	142.31
242.597	146.31
242.83	149.31
243.064	143.31
243.298	125.31
243.531	139.31
243.765	133.31
243.998	129.31
244.232	138.31
244.465	134.31
244.699	147.31
244.932	146.31
245.166	148.31
245.399	144.31
245.633	148.31
245.866	158.31
246.099	141.31
246.333	146.31
246.566	140.31
246.8	144.31
247.033	166.31
247.266	170.31
247.5	161.31
247.733	181.31
247.966	179.31
248.2	168.31
248.433	173.31
248.666	180.31
248.899	187.31
249.133	190.31
249.366	205.31
249.599	191.31
249.832	178.31
250.066	178.31
250.299	193.31
250.532	189.31
250.765	207.31
250.998	221.31
251.231	222.31
251.465	211.31
251.698	209.31
251.931	198.31
252.164	177.31
252.397	203.31
252.63	195.31
252.863	208.31
253.096	203.31
253.329	226.31
253.562	214.31
253.795	215.31
254.028	216.31
254.261	196.31
254.494	242.31
254.727	255.31
254.96	282.31
255.193	281.31
255.426	260.31
255.659	242.31
255.892	240.31
256.124	239.31
256.357	250.31
256.59	229.31
256.823	223.31
257.056	231.31
257.289	208.31
257.521	218.31
257.754	216.31
257.987	209.31
258.22	231.31
258.452	214.31
258.685	212.31
258.918	231.31
259.151	212.31
259.383	237.31
259.616	244.31
259.849	218.31
260.081	232.31
260.314	237.31
260.547	278.31
260.779	259.31
261.012	260.31
261.244	222.31
261.477	245.31
261.71	226.31
261.942	218.31
262.175	229.31
262.407	219.31
262.64	227.31
262.872	226.31
263.105	213.31
263.337	213.31
263.57	231.31
263.802	226.31
264.035	230.31
264.267	202.31
264.499	195.31
264.732	235.31
264.964	230.31
265.197	221.31
265.429	229.31
265.661	218.31
265.894	213.31
266.126	218.31
266.358	230.31
266.591	238.31
266.823	230.31
267.055	230.31
267.287	221.31
267.52	243.31
267.752	248.31
267.984	256.31
268.216	250.31
268.448	251.31
268.681	237.31
268.913	266.31
269.145	263.31
269.377	282.31
269.609	276.31
269.841	293.31
270.073	280.31
270.306	296.31
270.538	319.31
270.77	306.31
271.002	310.31
271.234	327.31
271.466	304.31
271.698	314.31
271.93	321.31
272.162	309.31
272.394	297.31
272.626	310.31
272.858	313.31
273.09	287.31
273.322	289.31
273.553	278.31
273.785	277.31
274.017	283.31
274.249	294.31
274.481	288.31
274.713	281.31
274.945	280.31
275.176	262.31
275.408	277.31
275.64	261.31
275.872	270.31
276.104	283.31
276.335	279.31
276.567	271.31
276.799	293.31
277.031	299.31
277.262	337.31
277.494	330.31
277.726	308.31
277.957	295.31
278.189	294.31
278.421	297.31
278.652	284.31
278.884	273.31
279.115	263.31
279.347	311.31
279.579	301.31
279.81	273.31
280.042	287.31
280.273	292.31
280.505	285.31
280.736	291.31
280.968	285.31
281.199	274.31
281.431	296.31
281.662	279.31
281.894	280.31
282.125	298.31
282.356	310.31
282.588	317.31
282.819	330.31
283.051	305.31
283.282	281.31
283.513	289.31
283.745	281.31
283.976	303.31
284.207	307.31
284.439	286.31
284.67	309.31
284.901	299.31
285.132	295.31
285.364	314.31
285.595	303.31
285.826	313.31
286.057	307.31
286.288	307.31
286.52	308.31
286.751	293.31
286.982	301.31
287.213	299.31
287.444	306.31
287.675	304.31
287.906	326.31
288.138	324.31
288.369	330.31
288.6	311.31
288.831	332.31
289.062	323.31
289.293	303.31
289.524	313.31
289.755	330.31
289.986	321.31
290.217	320.31
290.448	313.31
290.679	337.31
290.91	320.31
291.141	312.31
291.371	313.31
291.602	317.31
291.833	318.31
292.064	307.31
292.295	307.31
292.526	327.31
292.757	313.31
292.987	327.31
293.218	307.31
293.449	336.31
293.68	310.31
293.91	338.31
294.141	325.31
294.372	324.31
294.603	327.31
294.833	319.31
295.064	307.31
295.295	314.31
295.525	321.31
295.756	331.31
295.987	310.31
296.217	356.31
296.448	351.31
296.679	314.31
296.909	319.31
297.14	326.31
297.37	333.31
297.601	312.31
297.831	322.31
298.062	329.31
298.292	333.31
298.523	336.31
298.753	330.31
298.984	326.31
299.214	327.31
299.445	362.31
299.675	341.31
299.905	345.31
300.136	352.31
300.366	358.31
300.597	320.31
300.827	333.31
301.057	345.31
301.288	337.31
301.518	350.31
301.748	362.31
301.979	343.31
302.209	365.31
302.439	359.31
302.669	350.31
302.9	352.31
303.13	350.31
303.36	343.31
303.59	350.31
303.82	361.31
304.051	343.31
304.281	370.31
304.511	351.31
304.741	356.31
304.971	335.31
305.201	345.31
305.431	344.31
305.661	359.31
305.891	361.31
306.121	352.31
306.352	352.31
306.582	365.31
306.812	358.31
307.042	349.31
307.272	346.31
307.502	349.31
307.731	365.31
307.961	343.31
308.191	352.31
308.421	355.31
308.651	365.31
308.881	355.31
309.111	367.31
309.341	375.31
309.571	372.31
309.8	375.31
310.03	382.31
310.26	392.31
310.49	394.31
310.72	399.31
310.949	415.31
311.179	415.31
311.409	430.31
311.639	381.31
311.868	404.31
312.098	396.31
312.328	382.31
312.557	410.31
312.787	424.31
313.017	421.31
313.246	410.31
313.476	403.31
313.706	371.31
313.935	424.31
314.165	391.31
314.394	420.31
314.624	410.31
314.853	388.31
315.083	407.31
315.312	413.31
315.542	402.31
315.771	384.31
316.001	395.31
316.23	391.31
316.46	385.31
316.689	415.31
316.919	402.31
317.148	401.31
317.377	416.31
317.607	416.31
317.836	388.31
318.065	405.31
318.295	383.31
318.524	421.31
318.753	381.31
318.983	402.31
319.212	405.31
319.441	405.31
319.67	402.31
319.9	402.31
320.129	390.31
320.358	375.31
320.587	398.31
320.816	420.31
321.046	419.31
321.275	398.31
321.504	415.31
321.733	403.31
321.962	445.31
322.191	425.31
322.42	427.31
322.649	447.31
322.878	446.31
323.108	452.31
323.337	494.31
323.566	503.31
323.795	512.31
324.024	530.31
324.253	651.31
324.482	858.31
324.71	1309.31
324.939	1947.31
325.168	1641.31
325.397	830.31
325.626	615.31
325.855	533.31
326.084	499.31
326.313	489.31
326.542	499.31
326.77	515.31
326.999	618.31
327.228	801.31
327.457	1180.31
327.686	1475.31
327.914	989.31
328.143	672.31
328.372	587.31
328.6	563.31
328.829	519.31
329.058	549.31
329.287	544.31
329.515	544.31
329.744	526.31
329.972	496.31
330.201	505.31
330.43	536.31
330.658	573.31
330.887	594.31
331.115	574.31
331.344	529.31
331.572	525.31
331.801	491.31
332.03	486.31
332.258	510.31
332.486	496.31
332.715	469.31
332.943	465.31
333.172	482.31
333.4	511.31
333.629	519.31
333.857	543.31
334.085	533.31
334.314	530.31
334.542	547.31
334.771	591.31
334.999	539.31
335.227	495.31
335.455	485.31
335.684	476.31
335.912	496.31
336.14	500.31
336.369	458.31
336.597	482.31
336.825	485.31
337.053	478.31
337.281	480.31
337.51	486.31
337.738	475.31
337.966	463.31
338.194	468.31
338.422	483.31
338.65	478.31
338.878	464.31
339.106	459.31
339.334	475.31
339.562	443.31
339.79	426.31
340.018	450.31
340.246	457.31
340.474	461.31
340.702	443.31
340.93	439.31
341.158	451.31
341.386	450.31
341.614	469.31
341.842	447.31
342.07	465.31
342.298	455.31
342.526	455.31
342.754	431.31
342.981	429.31
343.209	418.31
343.437	450.31
343.665	476.31
343.893	481.31
344.12	486.31
344.348	459.31
344.576	474.31
344.804	478.31
345.031	465.31
345.259	462.31
345.487	446.31
345.714	447.31
345.942	444.31
346.17	458.31
346.397	432.31
346.625	417.31
346.853	432.31
347.08	422.31
347.308	461.31
347.535	436.31
347.763	463.31
347.99	441.31
348.218	418.31
348.445	455.31
348.673	414.31
348.9	431.31
349.128	446.31
349.355	423.31
349.583	431.31
349.81	436.31
350.037	415.31
350.265	424.31
350.492	420.31
350.72	438.31
350.947	446.31
351.174	429.31
351.402	410.31
351.629	434.31
351.856	441.31
352.083	426.31
352.311	448.31
352.538	433.31
352.765	440.31
352.992	448.31
353.22	425.31
353.447	447.31
353.674	432.31
353.901	398.31
354.128	421.31
354.355	407.31
354.583	429.31
354.81	401.31
355.037	423.31
355.264	407.31
355.491	410.31
355.718	394.31
355.945	409.31
356.172	405.31
356.399	407.31
356.626	413.31
356.853	397.31
357.08	419.31
357.307	414.31
357.534	430.31
357.761	403.31
357.988	395.31
358.215	409.31
358.441	393.31
358.668	400.31
358.895	426.31
359.122	419.31
359.349	432.31
359.576	447.31
359.802	438.31
360.029	453.31
360.256	473.31
360.483	465.31
360.709	456.31
360.936	423.31
361.163	432.31
361.39	438.31
361.616	439.31
361.843	441.31
362.07	429.31
362.296	432.31
362.523	439.31
362.749	429.31
362.976	415.31
363.203	438.31
363.429	406.31
363.656	415.31
363.882	405.31
364.109	399.31
364.335	405.31
364.562	435.31
364.788	414.31
365.015	413.31
365.241	415.31
365.468	430.31
365.694	430.31
365.92	418.31
366.147	417.31
366.373	418.31
366.599	410.31
366.826	423.31
367.052	415.31
367.278	418.31
367.505	432.31
367.731	414.31
367.957	426.31
368.184	415.31
368.41	431.31
368.636	421.31
368.862	427.31
369.089	425.31
369.315	431.31
369.541	420.31
369.767	413.31
369.993	420.31
370.219	408.31
370.445	401.31
370.672	407.31
370.898	416.31
371.124	427.31
371.35	427.31
371.576	416.31
371.802	404.31
372.028	410.31
372.254	418.31
372.48	452.31
372.706	421.31
372.932	439.31
373.158	433.31
373.384	424.31
373.61	446.31
373.835	427.31
374.061	420.31
374.287	425.31
374.513	433.31
374.739	417.31
374.965	409.31
375.191	426.31
375.416	452.31
375.642	441.31
375.868	443.31
376.094	439.31
376.319	421.31
376.545	433.31
376.771	429.31
376.997	432.31
377.222	426.31
377.448	421.31
377.674	407.31
377.899	420.31
378.125	441.31
378.35	422.31
378.576	417.31
378.802	401.31
379.027	404.31
379.253	410.31
379.478	408.31
379.704	413.31
379.929	403.31
380.155	422.31
380.38	423.31
380.606	443.31
380.831	423.31
381.057	452.31
381.282	415.31
381.507	436.31
381.733	429.31
381.958	430.31
382.184	439.31
382.409	444.31
382.634	448.31
382.86	437.31
383.085	453.31
383.31	454.31
383.535	442.31
383.761	450.31
383.986	454.31
384.211	458.31
384.436	467.31
384.662	463.31
384.887	471.31
385.112	455.31
385.337	456.31
385.562	469.31
385.787	471.31
386.013	476.31
386.238	498.31
386.463	474.31
386.688	471.31
386.913	481.31
387.138	474.31
387.363	481.31
387.588	470.31
387.813	477.31
388.038	460.31
388.263	468.31
388.488	481.31
388.713	473.31
388.938	483.31
389.163	484.31
389.387	478.31
389.612	483.31
389.837	458.31
390.062	460.31
390.287	459.31
390.512	477.31
390.736	473.31
390.961	456.31
391.186	483.31
391.411	484.31
391.636	477.31
391.86	509.31
392.085	499.31
392.31	480.31
392.534	474.31
392.759	487.31
392.984	479.31
393.208	482.31
393.433	501.31
393.658	487.31
393.882	485.31
394.107	468.31
394.331	483.31
394.556	471.31
394.78	488.31
395.005	483.31
395.229	496.31
395.454	497.31
395.678	511.31
395.903	496.31
396.127	520.31
396.352	512.31
396.576	490.31
396.801	502.31
397.025	499.31
397.249	500.31
397.474	506.31
397.698	513.31
397.922	517.31
398.147	557.31
398.371	527.31
398.595	538.31
398.82	545.31
399.044	554.31
399.268	568.31
399.492	629.31
399.717	679.31
399.941	689.31
400.165	699.31
400.389	709.31
400.613	636.31
400.837	577.31
401.062	574.31
401.286	566.31
401.51	581.31
401.734	529.31
401.958	557.31
402.182	546.31
402.406	601.31
402.63	560.31
402.854	557.31
403.078	560.31
403.302	595.31
403.526	604.31
403.75	614.31
403.974	582.31
404.198	592.31
404.422	578.31
404.645	614.31
404.869	601.31
405.093	626.31
405.317	645.31
405.541	686.31
405.765	663.31
405.988	631.31
406.212	611.31
406.436	631.31
406.66	647.31
406.883	616.31
407.107	633.31
407.331	708.31
407.555	762.31
407.778	753.31
408.002	708.31
408.226	640.31
408.449	660.31
408.673	633.31
408.896	662.31
409.12	683.31
409.344	646.31
409.567	613.31
409.791	567.31
410.014	582.31
410.238	590.31
410.461	597.31
410.685	580.31
410.908	606.31
411.132	625.31
411.355	667.31
411.578	651.31
411.802	579.31
412.025	552.31
412.249	587.31
412.472	582.31
412.695	623.31
412.919	624.31
413.142	585.31
413.365	569.31
413.589	538.31
413.812	553.31
414.035	535.31
414.258	554.31
414.482	546.31
414.705	531.31
414.928	528.31
415.151	539.31
415.374	542.31
415.597	563.31
415.821	568.31
416.044	523.31
416.267	539.31
416.49	557.31
416.713	532.31
416.936	541.31
417.159	561.31
417.382	553.31
417.605	535.31
417.828	561.31
418.051	591.31
418.274	552.31
418.497	536.31
418.72	549.31
418.943	542.31
419.166	585.31
419.389	603.31
419.611	598.31
419.834	582.31
420.057	614.31
420.28	585.31
420.503	562.31
420.726	572.31
420.948	566.31
421.171	615.31
421.394	651.31
421.617	581.31
421.839	597.31
422.062	572.31
422.285	573.31
422.507	623.31
422.73	715.31
422.953	696.31
423.175	604.31
423.398	589.31
423.621	574.31
423.843	601.31
424.066	610.31
424.288	616.31
424.511	630.31
424.733	639.31
424.956	769.31
425.178	735.31
425.401	701.31
425.623	750.31
425.846	641.31
426.068	601.31
426.291	602.31
426.513	590.31
426.735	604.31
426.958	615.31
427.18	711.31
427.402	849.31
427.625	924.31
427.847	792.31
428.069	685.31
428.292	605.31
428.514	584.31
428.736	538.31
428.958	570.31
429.181	544.31
429.403	523.31
429.625	563.31
429.847	610.31
430.069	662.31
430.292	663.31
430.514	560.31
430.736	566.31
430.958	546.31
431.18	522.31
431.402	520.31
431.624	505.31
431.846	528.31
432.068	530.31
432.29	531.31
432.512	524.31
432.734	531.31
432.956	494.31
433.178	536.31
433.4	558.31
433.622	546.31
433.844	526.31
434.066	524.31
434.287	544.31
434.509	550.31
434.731	550.31
434.953	568.31
435.175	582.31
435.397	611.31
435.618	590.31
435.84	639.31
436.062	741.31
436.284	802.31
436.505	633.31
436.727	586.31
436.949	539.31
437.17	563.31
437.392	538.31
437.614	562.31
437.835	605.31
438.057	651.31
438.278	777.31
438.5	755.31
438.721	837.31
438.943	821.31
439.165	666.31
439.386	614.31
439.608	590.31
439.829	585.31
440.05	596.31
440.272	646.31
440.493	614.31
440.715	574.31
440.936	562.31
441.158	536.31
441.379	585.31
441.6	564.31
441.822	583.31
442.043	599.31
442.264	741.31
442.486	755.31
442.707	671.31
442.928	614.31
443.149	618.31
443.371	638.31
443.592	683.31
443.813	757.31
444.034	856.31
444.255	696.31
444.476	623.31
444.698	610.31
444.919	627.31
445.14	754.31
445.361	666.31
445.582	638.31
445.803	694.31
446.024	789.31
446.245	819.31
446.466	753.31
446.687	621.31
446.908	595.31
447.129	577.31
447.35	540.31
447.571	533.31
447.792	541.31
448.013	521.31
448.234	558.31
448.455	595.31
448.675	729.31
448.896	827.31
449.117	705.31
449.338	680.31
449.559	764.31
449.779	887.31
450	682.31
450.221	599.31
450.442	543.31
450.662	514.31
450.883	523.31
451.104	549.31
451.324	544.31
451.545	530.31
451.766	480.31
451.986	471.31
452.207	501.31
452.428	478.31
452.648	487.31
452.869	489.31
453.089	490.31
453.31	498.31
453.53	493.31
453.751	478.31
453.971	493.31
454.192	516.31
454.412	482.31
454.633	479.31
454.853	482.31
455.073	459.31
455.294	495.31
455.514	565.31
455.734	546.31
455.955	493.31
456.175	468.31
456.395	443.31
456.616	443.31
456.836	450.31
457.056	435.31
457.276	463.31
457.497	455.31
457.717	455.31
457.937	472.31
458.157	459.31
458.377	493.31
458.598	489.31
458.818	546.31
459.038	594.31
459.258	647.31
459.478	546.31
459.698	509.31
459.918	522.31
460.138	541.31
460.358	549.31
460.578	558.31
460.798	552.31
461.018	553.31
461.238	546.31
461.458	528.31
461.678	559.31
461.898	545.31
462.118	562.31
462.338	546.31
462.558	582.31
462.777	573.31
462.997	598.31
463.217	604.31
463.437	623.31
463.657	615.31
463.876	600.31
464.096	593.31
464.316	615.31
464.536	608.31
464.755	594.31
464.975	584.31
465.195	583.31
465.414	647.31
465.634	563.31
465.854	558.31
466.073	563.31
466.293	524.31
466.512	527.31
466.732	488.31
466.951	494.31
467.171	504.31
467.391	499.31
467.61	509.31
467.829	517.31
468.049	535.31
468.268	509.31
468.488	511.31
468.707	476.31
468.927	507.31
469.146	475.31
469.365	467.31
469.585	510.31
469.804	497.31
470.023	522.31
470.243	510.31
470.462	504.31
470.681	489.31
470.901	516.31
471.12	507.31
471.339	499.31
471.558	501.31
471.777	493.31
471.997	464.31
472.216	508.31
472.435	533.31
472.654	535.31
472.873	498.31
473.092	512.31
473.311	503.31
473.53	491.31
473.749	523.31
473.968	556.31
474.187	629.31
474.406	682.31
474.625	568.31
474.844	497.31
475.063	478.31
475.282	509.31
475.501	503.31
475.72	507.31
475.939	508.31
476.158	513.31
476.377	535.31
476.596	518.31
476.814	530.31
477.033	513.31
477.252	541.31
477.471	542.31
477.69	557.31
477.908	544.31
478.127	553.31
478.346	554.31
478.564	574.31
478.783	571.31
479.002	573.31
479.22	599.31
479.439	588.31
479.658	635.31
479.876	619.31
480.095	633.31
480.313	634.31
480.532	634.31
480.751	642.31
480.969	602.31
481.188	674.31
481.406	693.31
481.624	615.31
481.843	608.31
482.061	630.31
482.28	596.31
482.498	578.31
482.717	580.31
482.935	593.31
483.153	606.31
483.372	563.31
483.59	591.31
483.808	603.31
484.027	593.31
484.245	612.31
484.463	583.31
484.681	607.31
484.9	607.31
485.118	612.31
485.336	598.31
485.554	627.31
485.772	616.31
485.99	619.31
486.209	619.31
486.427	630.31
486.645	618.31
486.863	624.31
487.081	648.31
487.299	606.31
487.517	627.31
487.735	614.31
487.953	635.31
488.171	630.31
488.389	628.31
488.607	630.31
488.825	631.31
489.043	631.31
489.261	627.31
489.479	647.31
489.696	625.31
489.914	653.31
490.132	653.31
490.35	658.31
490.568	687.31
490.786	686.31
491.003	666.31
491.221	689.31
491.439	699.31
491.657	720.31
491.874	727.31
492.092	702.31
492.31	739.31
492.527	717.31
492.745	724.31
492.963	731.31
493.18	711.31
493.398	749.31
493.615	746.31
493.833	736.31
494.05	748.31
494.268	745.31
494.485	767.31
494.703	737.31
494.92	729.31
495.138	769.31
495.355	742.31
495.573	746.31
495.79	766.31
496.008	758.31
496.225	754.31
496.442	753.31
496.66	759.31
496.877	741.31
497.094	734.31
497.312	771.31
497.529	784.31
497.746	813.31
497.963	819.31
498.181	835.31
498.398	831.31
498.615	846.31
498.832	873.31
499.049	904.31
499.267	932.31
499.484	970.31
499.701	1010.31
499.918	1042.31
500.135	1109.31
500.352	1141.31
500.569	1183.31
500.786	1216.31
501.003	1174.31
501.22	1149.31
501.437	1075.31
501.654	989.31
