Data from 1976.PennyLincolnUp.Lamp.En5.5.200Scan.071719.P1.Changed Mount._HRD10591_16-00-27-861.txt Node
Date: Thu Jul 18 16:00:27 EDT 2019
User: cochatt
Spectrometer: HR+D1059
Trigger mode: 1
Integration Time (sec): 1.000000E-1
Scans to average: 1
Electric dark correction enabled: true
Nonlinearity correction enabled: false
Boxcar width: 0
XAxis mode: Wavelengths
Number of Pixels in Spectrum: 2048
>>>>>Begin Spectral Data<<<<<
223.165	-16.88
223.4	-16.88
223.635	-16.88
223.869	-7.88
224.104	-17.88
224.338	-10.88
224.573	-22.88
224.808	-19.88
225.042	-9.88
225.277	-0.88
225.511	3.12
225.746	0.12
225.98	14.12
226.215	9.12
226.449	-0.88
226.683	27.12
226.918	34.12
227.152	20.12
227.387	40.12
227.621	34.12
227.856	44.12
228.09	47.12
228.324	51.12
228.559	61.12
228.793	65.12
229.027	90.12
229.262	108.12
229.496	109.12
229.73	111.12
229.964	146.12
230.199	119.12
230.433	118.12
230.667	111.12
230.901	124.12
231.136	114.12
231.37	116.12
231.604	108.12
231.838	105.12
232.072	109.12
232.306	123.12
232.541	135.12
232.775	121.12
233.009	110.12
233.243	111.12
233.477	114.12
233.711	116.12
233.945	93.12
234.179	109.12
234.413	112.12
234.647	127.12
234.881	119.12
235.115	115.12
235.349	129.12
235.583	110.12
235.817	117.12
236.051	114.12
236.285	125.12
236.519	122.12
236.753	135.12
236.987	137.12
237.221	161.12
237.455	205.12
237.689	169.12
237.922	138.12
238.156	141.12
238.39	146.12
238.624	118.12
238.858	116.12
239.091	123.12
239.325	142.12
239.559	110.12
239.793	122.12
240.027	136.12
240.26	152.12
240.494	162.12
240.728	148.12
240.961	151.12
241.195	132.12
241.429	138.12
241.662	137.12
241.896	137.12
242.13	140.12
242.363	133.12
242.597	132.12
242.83	136.12
243.064	139.12
243.298	128.12
243.531	144.12
243.765	144.12
243.998	146.12
244.232	128.12
244.465	141.12
244.699	143.12
244.932	154.12
245.166	146.12
245.399	142.12
245.633	132.12
245.866	147.12
246.099	152.12
246.333	162.12
246.566	158.12
246.8	147.12
247.033	155.12
247.266	147.12
247.5	172.12
247.733	169.12
247.966	178.12
248.2	173.12
248.433	165.12
248.666	172.12
248.899	183.12
249.133	192.12
249.366	207.12
249.599	199.12
249.832	187.12
250.066	186.12
250.299	176.12
250.532	184.12
250.765	206.12
250.998	232.12
251.231	209.12
251.465	207.12
251.698	189.12
251.931	192.12
252.164	195.12
252.397	202.12
252.63	199.12
252.863	203.12
253.096	204.12
253.329	221.12
253.562	212.12
253.795	223.12
254.028	229.12
254.261	220.12
254.494	198.12
254.727	232.12
254.96	273.12
255.193	250.12
255.426	231.12
255.659	225.12
255.892	215.12
256.124	219.12
256.357	222.12
256.59	223.12
256.823	229.12
257.056	205.12
257.289	219.12
257.521	210.12
257.754	203.12
257.987	192.12
258.22	203.12
258.452	216.12
258.685	222.12
258.918	208.12
259.151	200.12
259.383	223.12
259.616	224.12
259.849	218.12
260.081	232.12
260.314	245.12
260.547	258.12
260.779	254.12
261.012	236.12
261.244	219.12
261.477	224.12
261.71	208.12
261.942	205.12
262.175	211.12
262.407	229.12
262.64	220.12
262.872	207.12
263.105	216.12
263.337	224.12
263.57	220.12
263.802	214.12
264.035	206.12
264.267	204.12
264.499	221.12
264.732	219.12
264.964	211.12
265.197	217.12
265.429	226.12
265.661	226.12
265.894	203.12
266.126	215.12
266.358	223.12
266.591	223.12
266.823	233.12
267.055	227.12
267.287	233.12
267.52	241.12
267.752	223.12
267.984	237.12
268.216	227.12
268.448	237.12
268.681	242.12
268.913	256.12
269.145	261.12
269.377	286.12
269.609	274.12
269.841	260.12
270.073	278.12
270.306	292.12
270.538	302.12
270.77	297.12
271.002	282.12
271.234	285.12
271.466	285.12
271.698	292.12
271.93	300.12
272.162	311.12
272.394	299.12
272.626	297.12
272.858	284.12
273.09	278.12
273.322	274.12
273.553	272.12
273.785	268.12
274.017	270.12
274.249	258.12
274.481	266.12
274.713	258.12
274.945	279.12
275.176	262.12
275.408	276.12
275.64	262.12
275.872	269.12
276.104	272.12
276.335	259.12
276.567	269.12
276.799	297.12
277.031	295.12
277.262	313.12
277.494	312.12
277.726	293.12
277.957	294.12
278.189	293.12
278.421	281.12
278.652	286.12
278.884	285.12
279.115	281.12
279.347	270.12
279.579	272.12
279.81	278.12
280.042	280.12
280.273	279.12
280.505	299.12
280.736	251.12
280.968	272.12
281.199	276.12
281.431	271.12
281.662	292.12
281.894	286.12
282.125	278.12
282.356	294.12
282.588	286.12
282.819	307.12
283.051	290.12
283.282	290.12
283.513	295.12
283.745	284.12
283.976	286.12
284.207	291.12
284.439	288.12
284.67	282.12
284.901	293.12
285.132	286.12
285.364	282.12
285.595	312.12
285.826	296.12
286.057	293.12
286.288	293.12
286.52	301.12
286.751	296.12
286.982	297.12
287.213	296.12
287.444	292.12
287.675	300.12
287.906	314.12
288.138	310.12
288.369	303.12
288.6	318.12
288.831	285.12
289.062	318.12
289.293	314.12
289.524	307.12
289.755	292.12
289.986	288.12
290.217	288.12
290.448	308.12
290.679	285.12
290.91	305.12
291.141	271.12
291.371	298.12
291.602	293.12
291.833	295.12
292.064	299.12
292.295	312.12
292.526	312.12
292.757	312.12
292.987	299.12
293.218	291.12
293.449	295.12
293.68	313.12
293.91	300.12
294.141	306.12
294.372	308.12
294.603	313.12
294.833	310.12
295.064	308.12
295.295	310.12
295.525	318.12
295.756	326.12
295.987	316.12
296.217	319.12
296.448	333.12
296.679	303.12
296.909	288.12
297.14	296.12
297.37	310.12
297.601	323.12
297.831	309.12
298.062	323.12
298.292	308.12
298.523	325.12
298.753	317.12
298.984	325.12
299.214	313.12
299.445	325.12
299.675	303.12
299.905	335.12
300.136	324.12
300.366	326.12
300.597	317.12
300.827	330.12
301.057	327.12
301.288	348.12
301.518	333.12
301.748	334.12
301.979	351.12
302.209	339.12
302.439	338.12
302.669	339.12
302.9	343.12
303.13	336.12
303.36	330.12
303.59	339.12
303.82	344.12
304.051	347.12
304.281	352.12
304.511	326.12
304.741	342.12
304.971	324.12
305.201	336.12
305.431	335.12
305.661	351.12
305.891	334.12
306.121	350.12
306.352	363.12
306.582	354.12
306.812	347.12
307.042	333.12
307.272	347.12
307.502	348.12
307.731	338.12
307.961	348.12
308.191	362.12
308.421	350.12
308.651	345.12
308.881	353.12
309.111	343.12
309.341	349.12
309.571	346.12
309.8	354.12
310.03	352.12
310.26	380.12
310.49	378.12
310.72	362.12
310.949	374.12
311.179	374.12
311.409	383.12
311.639	370.12
311.868	378.12
312.098	381.12
312.328	377.12
312.557	406.12
312.787	415.12
313.017	376.12
313.246	386.12
313.476	367.12
313.706	392.12
313.935	393.12
314.165	410.12
314.394	396.12
314.624	399.12
314.853	405.12
315.083	388.12
315.312	382.12
315.542	392.12
315.771	387.12
316.001	374.12
316.23	384.12
316.46	396.12
316.689	364.12
316.919	376.12
317.148	380.12
317.377	398.12
317.607	388.12
317.836	378.12
318.065	356.12
318.295	383.12
318.524	380.12
318.753	389.12
318.983	366.12
319.212	384.12
319.441	382.12
319.67	387.12
319.9	382.12
320.129	380.12
320.358	384.12
320.587	391.12
320.816	411.12
321.046	404.12
321.275	404.12
321.504	399.12
321.733	376.12
321.962	393.12
322.191	412.12
322.42	425.12
322.649	440.12
322.878	426.12
323.108	422.12
323.337	469.12
323.566	465.12
323.795	482.12
324.024	484.12
324.253	577.12
324.482	806.12
324.71	1182.12
324.939	1742.12
325.168	1540.12
325.397	769.12
325.626	565.12
325.855	489.12
326.084	459.12
326.313	445.12
326.542	472.12
326.77	496.12
326.999	559.12
327.228	739.12
327.457	1066.12
327.686	1347.12
327.914	932.12
328.143	618.12
328.372	566.12
328.6	513.12
328.829	512.12
329.058	513.12
329.287	521.12
329.515	512.12
329.744	453.12
329.972	460.12
330.201	498.12
330.43	520.12
330.658	529.12
330.887	564.12
331.115	540.12
331.344	488.12
331.572	477.12
331.801	488.12
332.03	492.12
332.258	461.12
332.486	447.12
332.715	452.12
332.943	482.12
333.172	474.12
333.4	455.12
333.629	476.12
333.857	506.12
334.085	494.12
334.314	500.12
334.542	534.12
334.771	548.12
334.999	510.12
335.227	484.12
335.455	464.12
335.684	471.12
335.912	464.12
336.14	462.12
336.369	469.12
336.597	490.12
336.825	458.12
337.053	471.12
337.281	442.12
337.51	456.12
337.738	427.12
337.966	443.12
338.194	457.12
338.422	449.12
338.65	448.12
338.878	460.12
339.106	447.12
339.334	440.12
339.562	429.12
339.79	437.12
340.018	412.12
340.246	443.12
340.474	440.12
340.702	446.12
340.93	452.12
341.158	430.12
341.386	435.12
341.614	424.12
341.842	436.12
342.07	421.12
342.298	431.12
342.526	439.12
342.754	446.12
342.981	414.12
343.209	421.12
343.437	434.12
343.665	422.12
343.893	451.12
344.12	466.12
344.348	462.12
344.576	438.12
344.804	436.12
345.031	441.12
345.259	455.12
345.487	454.12
345.714	426.12
345.942	436.12
346.17	428.12
346.397	414.12
346.625	407.12
346.853	419.12
347.08	413.12
347.308	431.12
347.535	432.12
347.763	409.12
347.99	448.12
348.218	427.12
348.445	432.12
348.673	418.12
348.9	446.12
349.128	431.12
349.355	412.12
349.583	410.12
349.81	402.12
350.037	400.12
350.265	399.12
350.492	422.12
350.72	408.12
350.947	420.12
351.174	418.12
351.402	414.12
351.629	431.12
351.856	398.12
352.083	424.12
352.311	439.12
352.538	431.12
352.765	428.12
352.992	427.12
353.22	421.12
353.447	425.12
353.674	408.12
353.901	392.12
354.128	401.12
354.355	385.12
354.583	394.12
354.81	391.12
355.037	398.12
355.264	399.12
355.491	386.12
355.718	399.12
355.945	402.12
356.172	408.12
356.399	406.12
356.626	398.12
356.853	394.12
357.08	395.12
357.307	397.12
357.534	394.12
357.761	403.12
357.988	392.12
358.215	394.12
358.441	378.12
358.668	397.12
358.895	417.12
359.122	385.12
359.349	410.12
359.576	415.12
359.802	418.12
360.029	431.12
360.256	461.12
360.483	443.12
360.709	418.12
360.936	429.12
361.163	421.12
361.39	385.12
361.616	423.12
361.843	411.12
362.07	412.12
362.296	409.12
362.523	406.12
362.749	413.12
362.976	409.12
363.203	420.12
363.429	397.12
363.656	398.12
363.882	396.12
364.109	414.12
364.335	390.12
364.562	386.12
364.788	416.12
365.015	387.12
365.241	406.12
365.468	410.12
365.694	418.12
365.92	399.12
366.147	410.12
366.373	398.12
366.599	404.12
366.826	414.12
367.052	404.12
367.278	409.12
367.505	416.12
367.731	377.12
367.957	408.12
368.184	407.12
368.41	399.12
368.636	410.12
368.862	420.12
369.089	407.12
369.315	408.12
369.541	399.12
369.767	390.12
369.993	412.12
370.219	401.12
370.445	407.12
370.672	408.12
370.898	398.12
371.124	406.12
371.35	383.12
371.576	391.12
371.802	403.12
372.028	386.12
372.254	400.12
372.48	405.12
372.706	416.12
372.932	419.12
373.158	444.12
373.384	420.12
373.61	412.12
373.835	399.12
374.061	402.12
374.287	418.12
374.513	402.12
374.739	434.12
374.965	425.12
375.191	426.12
375.416	436.12
375.642	406.12
375.868	422.12
376.094	408.12
376.319	403.12
376.545	392.12
376.771	398.12
376.997	382.12
377.222	415.12
377.448	391.12
377.674	403.12
377.899	410.12
378.125	372.12
378.35	391.12
378.576	392.12
378.802	388.12
379.027	408.12
379.253	408.12
379.478	411.12
379.704	415.12
379.929	408.12
380.155	400.12
380.38	406.12
380.606	406.12
380.831	410.12
381.057	416.12
381.282	399.12
381.507	420.12
381.733	417.12
381.958	403.12
382.184	407.12
382.409	421.12
382.634	420.12
382.86	414.12
383.085	422.12
383.31	438.12
383.535	421.12
383.761	439.12
383.986	425.12
384.211	428.12
384.436	447.12
384.662	444.12
384.887	463.12
385.112	434.12
385.337	438.12
385.562	467.12
385.787	465.12
386.013	478.12
386.238	460.12
386.463	457.12
386.688	437.12
386.913	441.12
387.138	428.12
387.363	467.12
387.588	440.12
387.813	446.12
388.038	456.12
388.263	454.12
388.488	443.12
388.713	462.12
388.938	464.12
389.163	462.12
389.387	448.12
389.612	454.12
389.837	459.12
390.062	474.12
390.287	454.12
390.512	447.12
390.736	452.12
390.961	470.12
391.186	469.12
391.411	474.12
391.636	470.12
391.86	484.12
392.085	476.12
392.31	477.12
392.534	466.12
392.759	463.12
392.984	457.12
393.208	479.12
393.433	468.12
393.658	475.12
393.882	457.12
394.107	455.12
394.331	453.12
394.556	474.12
394.78	478.12
395.005	473.12
395.229	466.12
395.454	469.12
395.678	476.12
395.903	482.12
396.127	484.12
396.352	511.12
396.576	477.12
396.801	473.12
397.025	483.12
397.249	453.12
397.474	487.12
397.698	486.12
397.922	511.12
398.147	524.12
398.371	515.12
398.595	514.12
398.82	530.12
399.044	543.12
399.268	568.12
399.492	611.12
399.717	632.12
399.941	648.12
400.165	697.12
400.389	660.12
400.613	604.12
400.837	562.12
401.062	558.12
401.286	536.12
401.51	518.12
401.734	518.12
401.958	565.12
402.182	544.12
402.406	551.12
402.63	541.12
402.854	536.12
403.078	555.12
403.302	540.12
403.526	559.12
403.75	552.12
403.974	548.12
404.198	550.12
404.422	568.12
404.645	580.12
404.869	577.12
405.093	598.12
405.317	634.12
405.541	659.12
405.765	600.12
405.988	588.12
406.212	633.12
406.436	600.12
406.66	608.12
406.883	592.12
407.107	617.12
407.331	653.12
407.555	711.12
407.778	724.12
408.002	669.12
408.226	621.12
408.449	620.12
408.673	582.12
408.896	593.12
409.12	652.12
409.344	636.12
409.567	569.12
409.791	554.12
410.014	554.12
410.238	560.12
410.461	549.12
410.685	567.12
410.908	543.12
411.132	603.12
411.355	625.12
411.578	605.12
411.802	548.12
412.025	550.12
412.249	559.12
412.472	547.12
412.695	597.12
412.919	626.12
413.142	538.12
413.365	543.12
413.589	532.12
413.812	530.12
414.035	516.12
414.258	515.12
414.482	529.12
414.705	524.12
414.928	494.12
415.151	500.12
415.374	500.12
415.597	514.12
415.821	506.12
416.044	512.12
416.267	502.12
416.49	505.12
416.713	518.12
416.936	523.12
417.159	518.12
417.382	533.12
417.605	502.12
417.828	551.12
418.051	547.12
418.274	541.12
418.497	521.12
418.72	551.12
418.943	521.12
419.166	560.12
419.389	580.12
419.611	548.12
419.834	539.12
420.057	536.12
420.28	542.12
420.503	537.12
420.726	540.12
420.948	559.12
421.171	581.12
421.394	609.12
421.617	572.12
421.839	554.12
422.062	552.12
422.285	567.12
422.507	616.12
422.73	657.12
422.953	623.12
423.175	576.12
423.398	572.12
423.621	565.12
423.843	578.12
424.066	589.12
424.288	574.12
424.511	597.12
424.733	659.12
424.956	731.12
425.178	683.12
425.401	688.12
425.623	699.12
425.846	630.12
426.068	581.12
426.291	552.12
426.513	556.12
426.735	575.12
426.958	602.12
427.18	671.12
427.402	787.12
427.625	884.12
427.847	756.12
428.069	652.12
428.292	581.12
428.514	556.12
428.736	547.12
428.958	551.12
429.181	514.12
429.403	522.12
429.625	522.12
429.847	547.12
430.069	604.12
430.292	621.12
430.514	528.12
430.736	526.12
430.958	525.12
431.18	494.12
431.402	499.12
431.624	487.12
431.846	509.12
432.068	486.12
432.29	501.12
432.512	502.12
432.734	499.12
432.956	511.12
433.178	518.12
433.4	518.12
433.622	496.12
433.844	487.12
434.066	487.12
434.287	518.12
434.509	518.12
434.731	493.12
434.953	520.12
435.175	529.12
435.397	550.12
435.618	554.12
435.84	607.12
436.062	683.12
436.284	731.12
436.505	632.12
436.727	581.12
436.949	548.12
437.17	526.12
437.392	518.12
437.614	529.12
437.835	535.12
438.057	642.12
438.278	730.12
438.5	714.12
438.721	800.12
438.943	782.12
439.165	623.12
439.386	588.12
439.608	583.12
439.829	557.12
440.05	574.12
440.272	615.12
440.493	574.12
440.715	568.12
440.936	531.12
441.158	513.12
441.379	512.12
441.6	547.12
441.822	584.12
442.043	590.12
442.264	666.12
442.486	701.12
442.707	634.12
442.928	576.12
443.149	570.12
443.371	614.12
443.592	645.12
443.813	731.12
444.034	791.12
444.255	647.12
444.476	607.12
444.698	603.12
444.919	589.12
445.14	692.12
445.361	637.12
445.582	614.12
445.803	658.12
446.024	764.12
446.245	757.12
446.466	676.12
446.687	595.12
446.908	544.12
447.129	540.12
447.35	512.12
447.571	523.12
447.792	501.12
448.013	527.12
448.234	532.12
448.455	578.12
448.675	688.12
448.896	792.12
449.117	691.12
449.338	638.12
449.559	735.12
449.779	830.12
450	666.12
450.221	554.12
450.442	526.12
450.662	507.12
450.883	503.12
451.104	487.12
451.324	505.12
451.545	486.12
451.766	485.12
451.986	449.12
452.207	444.12
452.428	479.12
452.648	468.12
452.869	470.12
453.089	464.12
453.31	474.12
453.53	444.12
453.751	452.12
453.971	471.12
454.192	480.12
454.412	458.12
454.633	451.12
454.853	432.12
455.073	439.12
455.294	470.12
455.514	544.12
455.734	542.12
455.955	457.12
456.175	447.12
456.395	453.12
456.616	426.12
456.836	435.12
457.056	452.12
457.276	440.12
457.497	441.12
457.717	469.12
457.937	447.12
458.157	452.12
458.377	457.12
458.598	470.12
458.818	500.12
459.038	570.12
459.258	622.12
459.478	527.12
459.698	500.12
459.918	506.12
460.138	525.12
460.358	536.12
460.578	518.12
460.798	529.12
461.018	514.12
461.238	528.12
461.458	512.12
461.678	515.12
461.898	509.12
462.118	513.12
462.338	541.12
462.558	548.12
462.777	584.12
462.997	558.12
463.217	595.12
463.437	605.12
463.657	568.12
463.876	586.12
464.096	567.12
464.316	571.12
464.536	569.12
464.755	580.12
464.975	581.12
465.195	590.12
465.414	612.12
465.634	539.12
465.854	529.12
466.073	512.12
466.293	488.12
466.512	500.12
466.732	478.12
466.951	469.12
467.171	488.12
467.391	462.12
467.61	471.12
467.829	490.12
468.049	456.12
468.268	486.12
468.488	475.12
468.707	466.12
468.927	473.12
469.146	455.12
469.365	478.12
469.585	473.12
469.804	476.12
470.023	483.12
470.243	498.12
470.462	490.12
470.681	489.12
470.901	501.12
471.12	486.12
471.339	505.12
471.558	480.12
471.777	465.12
471.997	476.12
472.216	472.12
472.435	507.12
472.654	498.12
472.873	499.12
473.092	483.12
473.311	485.12
473.53	487.12
473.749	499.12
473.968	534.12
474.187	620.12
474.406	638.12
474.625	536.12
474.844	492.12
475.063	485.12
475.282	477.12
475.501	463.12
475.72	489.12
475.939	502.12
476.158	495.12
476.377	501.12
476.596	487.12
476.814	497.12
477.033	512.12
477.252	498.12
477.471	529.12
477.69	535.12
477.908	532.12
478.127	538.12
478.346	540.12
478.564	529.12
478.783	544.12
479.002	563.12
479.22	581.12
479.439	557.12
479.658	566.12
479.876	591.12
480.095	593.12
480.313	614.12
480.532	608.12
480.751	600.12
480.969	609.12
481.188	627.12
481.406	664.12
481.624	606.12
481.843	564.12
482.061	553.12
482.28	573.12
482.498	563.12
482.717	557.12
482.935	562.12
483.153	569.12
483.372	548.12
483.59	568.12
483.808	560.12
484.027	557.12
484.245	577.12
484.463	568.12
484.681	584.12
484.9	551.12
485.118	574.12
485.336	562.12
485.554	568.12
485.772	589.12
485.99	570.12
486.209	567.12
486.427	568.12
486.645	600.12
486.863	598.12
487.081	600.12
487.299	605.12
487.517	580.12
487.735	606.12
487.953	619.12
488.171	594.12
488.389	600.12
488.607	593.12
488.825	611.12
489.043	587.12
489.261	598.12
489.479	588.12
489.696	586.12
489.914	623.12
490.132	604.12
490.35	623.12
490.568	636.12
490.786	642.12
491.003	634.12
491.221	650.12
491.439	669.12
491.657	670.12
491.874	674.12
492.092	667.12
492.31	669.12
492.527	695.12
492.745	694.12
492.963	690.12
493.18	680.12
493.398	695.12
493.615	692.12
493.833	699.12
494.05	707.12
494.268	707.12
494.485	695.12
494.703	706.12
494.92	690.12
495.138	716.12
495.355	727.12
495.573	699.12
495.79	668.12
496.008	711.12
496.225	710.12
496.442	702.12
496.66	724.12
496.877	691.12
497.094	729.12
497.312	748.12
497.529	741.12
497.746	749.12
497.963	755.12
498.181	764.12
498.398	775.12
498.615	807.12
498.832	838.12
499.049	861.12
499.267	901.12
499.484	914.12
499.701	935.12
499.918	988.12
500.135	1074.12
500.352	1122.12
500.569	1127.12
500.786	1153.12
501.003	1102.12
501.22	1094.12
501.437	1041.12
501.654	984.12
