Data from 1976.PennyLincolnUp.Lamp.En5.5.200Scan.071719.P1.Changed Mount._HRD10591_16-00-25-860.txt Node
Date: Thu Jul 18 16:00:25 EDT 2019
User: cochatt
Spectrometer: HR+D1059
Trigger mode: 1
Integration Time (sec): 1.000000E-1
Scans to average: 1
Electric dark correction enabled: true
Nonlinearity correction enabled: false
Boxcar width: 0
XAxis mode: Wavelengths
Number of Pixels in Spectrum: 2048
>>>>>Begin Spectral Data<<<<<
223.165	-9.25
223.4	-9.25
223.635	-9.25
223.869	-13.25
224.104	-5.25
224.338	-15.25
224.573	-11.25
224.808	-11.25
225.042	-16.25
225.277	3.75
225.511	0.75
225.746	4.75
225.98	-3.25
226.215	0.75
226.449	16.75
226.683	9.75
226.918	16.75
227.152	31.75
227.387	40.75
227.621	32.75
227.856	40.75
228.09	47.75
228.324	55.75
228.559	64.75
228.793	68.75
229.027	92.75
229.262	98.75
229.496	112.75
229.73	123.75
229.964	143.75
230.199	103.75
230.433	117.75
230.667	102.75
230.901	106.75
231.136	97.75
231.37	116.75
231.604	118.75
231.838	105.75
232.072	102.75
232.306	90.75
232.541	118.75
232.775	113.75
233.009	125.75
233.243	118.75
233.477	120.75
233.711	113.75
233.945	119.75
234.179	114.75
234.413	117.75
234.647	110.75
234.881	99.75
235.115	125.75
235.349	125.75
235.583	113.75
235.817	98.75
236.051	141.75
236.285	113.75
236.519	121.75
236.753	127.75
236.987	158.75
237.221	182.75
237.455	205.75
237.689	172.75
237.922	137.75
238.156	128.75
238.39	142.75
238.624	142.75
238.858	116.75
239.091	123.75
239.325	120.75
239.559	119.75
239.793	117.75
240.027	141.75
240.26	135.75
240.494	148.75
240.728	140.75
240.961	149.75
241.195	147.75
241.429	142.75
241.662	147.75
241.896	152.75
242.13	137.75
242.363	136.75
242.597	135.75
242.83	139.75
243.064	134.75
243.298	142.75
243.531	141.75
243.765	133.75
243.998	136.75
244.232	136.75
244.465	142.75
244.699	139.75
244.932	140.75
245.166	136.75
245.399	154.75
245.633	158.75
245.866	150.75
246.099	152.75
246.333	140.75
246.566	164.75
246.8	159.75
247.033	157.75
247.266	166.75
247.5	161.75
247.733	164.75
247.966	164.75
248.2	175.75
248.433	155.75
248.666	179.75
248.899	177.75
249.133	188.75
249.366	202.75
249.599	200.75
249.832	185.75
250.066	186.75
250.299	172.75
250.532	177.75
250.765	204.75
250.998	218.75
251.231	221.75
251.465	188.75
251.698	207.75
251.931	209.75
252.164	189.75
252.397	208.75
252.63	196.75
252.863	204.75
253.096	222.75
253.329	214.75
253.562	209.75
253.795	231.75
254.028	228.75
254.261	221.75
254.494	215.75
254.727	240.75
254.96	272.75
255.193	242.75
255.426	231.75
255.659	220.75
255.892	226.75
256.124	241.75
256.357	240.75
256.59	210.75
256.823	219.75
257.056	218.75
257.289	204.75
257.521	208.75
257.754	211.75
257.987	204.75
258.22	193.75
258.452	215.75
258.685	213.75
258.918	215.75
259.151	205.75
259.383	214.75
259.616	207.75
259.849	223.75
260.081	242.75
260.314	232.75
260.547	267.75
260.779	236.75
261.012	228.75
261.244	226.75
261.477	229.75
261.71	214.75
261.942	210.75
262.175	236.75
262.407	213.75
262.64	220.75
262.872	215.75
263.105	214.75
263.337	216.75
263.57	231.75
263.802	219.75
264.035	221.75
264.267	211.75
264.499	204.75
264.732	229.75
264.964	239.75
265.197	228.75
265.429	207.75
265.661	216.75
265.894	228.75
266.126	231.75
266.358	239.75
266.591	221.75
266.823	236.75
267.055	224.75
267.287	220.75
267.52	214.75
267.752	233.75
267.984	243.75
268.216	243.75
268.448	230.75
268.681	230.75
268.913	244.75
269.145	280.75
269.377	275.75
269.609	277.75
269.841	297.75
270.073	256.75
270.306	273.75
270.538	305.75
270.77	320.75
271.002	291.75
271.234	286.75
271.466	299.75
271.698	308.75
271.93	314.75
272.162	310.75
272.394	308.75
272.626	300.75
272.858	300.75
273.09	274.75
273.322	285.75
273.553	269.75
273.785	255.75
274.017	271.75
274.249	291.75
274.481	263.75
274.713	268.75
274.945	272.75
275.176	285.75
275.408	269.75
275.64	283.75
275.872	260.75
276.104	277.75
276.335	278.75
276.567	265.75
276.799	273.75
277.031	313.75
277.262	314.75
277.494	317.75
277.726	309.75
277.957	275.75
278.189	299.75
278.421	287.75
278.652	281.75
278.884	257.75
279.115	280.75
279.347	283.75
279.579	289.75
279.81	273.75
280.042	274.75
280.273	294.75
280.505	292.75
280.736	278.75
280.968	289.75
281.199	285.75
281.431	268.75
281.662	282.75
281.894	290.75
282.125	268.75
282.356	304.75
282.588	313.75
282.819	304.75
283.051	269.75
283.282	298.75
283.513	279.75
283.745	274.75
283.976	280.75
284.207	309.75
284.439	308.75
284.67	289.75
284.901	287.75
285.132	292.75
285.364	305.75
285.595	295.75
285.826	282.75
286.057	296.75
286.288	286.75
286.52	290.75
286.751	293.75
286.982	305.75
287.213	295.75
287.444	310.75
287.675	314.75
287.906	306.75
288.138	321.75
288.369	309.75
288.6	313.75
288.831	301.75
289.062	331.75
289.293	293.75
289.524	300.75
289.755	310.75
289.986	289.75
290.217	300.75
290.448	312.75
290.679	303.75
290.91	306.75
291.141	314.75
291.371	314.75
291.602	312.75
291.833	322.75
292.064	310.75
292.295	302.75
292.526	308.75
292.757	315.75
292.987	308.75
293.218	325.75
293.449	316.75
293.68	288.75
293.91	321.75
294.141	300.75
294.372	292.75
294.603	297.75
294.833	308.75
295.064	314.75
295.295	324.75
295.525	315.75
295.756	293.75
295.987	307.75
296.217	349.75
296.448	343.75
296.679	314.75
296.909	311.75
297.14	306.75
297.37	311.75
297.601	326.75
297.831	301.75
298.062	328.75
298.292	312.75
298.523	328.75
298.753	317.75
298.984	329.75
299.214	314.75
299.445	295.75
299.675	312.75
299.905	326.75
300.136	331.75
300.366	323.75
300.597	327.75
300.827	321.75
301.057	328.75
301.288	370.75
301.518	323.75
301.748	335.75
301.979	348.75
302.209	343.75
302.439	329.75
302.669	336.75
302.9	340.75
303.13	332.75
303.36	337.75
303.59	352.75
303.82	346.75
304.051	348.75
304.281	345.75
304.511	352.75
304.741	349.75
304.971	364.75
305.201	344.75
305.431	343.75
305.661	361.75
305.891	345.75
306.121	354.75
306.352	342.75
306.582	373.75
306.812	355.75
307.042	343.75
307.272	355.75
307.502	345.75
307.731	344.75
307.961	345.75
308.191	349.75
308.421	322.75
308.651	351.75
308.881	345.75
309.111	354.75
309.341	353.75
309.571	346.75
309.8	371.75
310.03	363.75
310.26	379.75
310.49	379.75
310.72	374.75
310.949	385.75
311.179	404.75
311.409	393.75
311.639	378.75
311.868	381.75
312.098	371.75
312.328	399.75
312.557	416.75
312.787	383.75
313.017	417.75
313.246	374.75
313.476	365.75
313.706	391.75
313.935	387.75
314.165	401.75
314.394	402.75
314.624	402.75
314.853	401.75
315.083	380.75
315.312	385.75
315.542	371.75
315.771	389.75
316.001	370.75
316.23	389.75
316.46	379.75
316.689	381.75
316.919	379.75
317.148	391.75
317.377	375.75
317.607	391.75
317.836	391.75
318.065	402.75
318.295	372.75
318.524	382.75
318.753	370.75
318.983	401.75
319.212	393.75
319.441	379.75
319.67	387.75
319.9	377.75
320.129	397.75
320.358	396.75
320.587	389.75
320.816	404.75
321.046	397.75
321.275	401.75
321.504	393.75
321.733	391.75
321.962	416.75
322.191	431.75
322.42	422.75
322.649	421.75
322.878	447.75
323.108	437.75
323.337	440.75
323.566	485.75
323.795	471.75
324.024	525.75
324.253	616.75
324.482	801.75
324.71	1197.75
324.939	1771.75
325.168	1566.75
325.397	812.75
325.626	560.75
325.855	483.75
326.084	484.75
326.313	467.75
326.542	464.75
326.77	505.75
326.999	588.75
327.228	736.75
327.457	1107.75
327.686	1356.75
327.914	927.75
328.143	609.75
328.372	567.75
328.6	532.75
328.829	548.75
329.058	507.75
329.287	520.75
329.515	513.75
329.744	465.75
329.972	500.75
330.201	479.75
330.43	508.75
330.658	525.75
330.887	571.75
331.115	545.75
331.344	485.75
331.572	488.75
331.801	466.75
332.03	465.75
332.258	474.75
332.486	481.75
332.715	459.75
332.943	456.75
333.172	457.75
333.4	473.75
333.629	491.75
333.857	509.75
334.085	505.75
334.314	504.75
334.542	564.75
334.771	546.75
334.999	523.75
335.227	520.75
335.455	484.75
335.684	456.75
335.912	452.75
336.14	458.75
336.369	459.75
336.597	490.75
336.825	457.75
337.053	458.75
337.281	465.75
337.51	456.75
337.738	471.75
337.966	428.75
338.194	426.75
338.422	476.75
338.65	435.75
338.878	448.75
339.106	449.75
339.334	451.75
339.562	451.75
339.79	436.75
340.018	452.75
340.246	431.75
340.474	440.75
340.702	439.75
340.93	446.75
341.158	437.75
341.386	451.75
341.614	432.75
341.842	428.75
342.07	420.75
342.298	420.75
342.526	444.75
342.754	433.75
342.981	408.75
343.209	433.75
343.437	431.75
343.665	441.75
343.893	451.75
344.12	459.75
344.348	493.75
344.576	460.75
344.804	464.75
345.031	465.75
345.259	453.75
345.487	467.75
345.714	446.75
345.942	441.75
346.17	435.75
346.397	408.75
346.625	428.75
346.853	423.75
347.08	434.75
347.308	433.75
347.535	433.75
347.763	441.75
347.99	426.75
348.218	435.75
348.445	442.75
348.673	420.75
348.9	422.75
349.128	422.75
349.355	406.75
349.583	424.75
349.81	420.75
350.037	425.75
350.265	432.75
350.492	408.75
350.72	411.75
350.947	389.75
351.174	411.75
351.402	426.75
351.629	418.75
351.856	422.75
352.083	445.75
352.311	460.75
352.538	430.75
352.765	423.75
352.992	419.75
353.22	419.75
353.447	412.75
353.674	397.75
353.901	394.75
354.128	406.75
354.355	404.75
354.583	389.75
354.81	413.75
355.037	393.75
355.264	412.75
355.491	378.75
355.718	395.75
355.945	398.75
356.172	369.75
356.399	402.75
356.626	397.75
356.853	377.75
357.08	378.75
357.307	393.75
357.534	400.75
357.761	397.75
357.988	383.75
358.215	383.75
358.441	389.75
358.668	392.75
358.895	395.75
359.122	391.75
359.349	413.75
359.576	415.75
359.802	451.75
360.029	448.75
360.256	451.75
360.483	431.75
360.709	432.75
360.936	438.75
361.163	439.75
361.39	412.75
361.616	427.75
361.843	406.75
362.07	410.75
362.296	419.75
362.523	397.75
362.749	414.75
362.976	409.75
363.203	415.75
363.429	427.75
363.656	392.75
363.882	403.75
364.109	400.75
364.335	416.75
364.562	394.75
364.788	398.75
365.015	409.75
365.241	412.75
365.468	408.75
365.694	412.75
365.92	410.75
366.147	417.75
366.373	419.75
366.599	416.75
366.826	392.75
367.052	388.75
367.278	404.75
367.505	422.75
367.731	415.75
367.957	408.75
368.184	414.75
368.41	420.75
368.636	414.75
368.862	410.75
369.089	397.75
369.315	390.75
369.541	405.75
369.767	399.75
369.993	397.75
370.219	398.75
370.445	397.75
370.672	396.75
370.898	407.75
371.124	407.75
371.35	433.75
371.576	415.75
371.802	413.75
372.028	412.75
372.254	425.75
372.48	400.75
372.706	416.75
372.932	415.75
373.158	418.75
373.384	419.75
373.61	427.75
373.835	418.75
374.061	421.75
374.287	409.75
374.513	408.75
374.739	423.75
374.965	409.75
375.191	418.75
375.416	424.75
375.642	428.75
375.868	383.75
376.094	398.75
376.319	413.75
376.545	414.75
376.771	420.75
376.997	400.75
377.222	396.75
377.448	419.75
377.674	420.75
377.899	401.75
378.125	392.75
378.35	397.75
378.576	421.75
378.802	418.75
379.027	403.75
379.253	415.75
379.478	402.75
379.704	424.75
379.929	434.75
380.155	421.75
380.38	428.75
380.606	416.75
380.831	408.75
381.057	398.75
381.282	395.75
381.507	407.75
381.733	400.75
381.958	417.75
382.184	425.75
382.409	431.75
382.634	412.75
382.86	417.75
383.085	426.75
383.31	431.75
383.535	430.75
383.761	448.75
383.986	441.75
384.211	456.75
384.436	451.75
384.662	433.75
384.887	453.75
385.112	456.75
385.337	466.75
385.562	441.75
385.787	435.75
386.013	454.75
386.238	463.75
386.463	471.75
386.688	462.75
386.913	464.75
387.138	472.75
387.363	470.75
387.588	450.75
387.813	449.75
388.038	445.75
388.263	472.75
388.488	476.75
388.713	435.75
388.938	451.75
389.163	449.75
389.387	444.75
389.612	462.75
389.837	467.75
390.062	452.75
390.287	468.75
390.512	431.75
390.736	454.75
390.961	461.75
391.186	458.75
391.411	478.75
391.636	495.75
391.86	485.75
392.085	491.75
392.31	481.75
392.534	463.75
392.759	487.75
392.984	473.75
393.208	475.75
393.433	471.75
393.658	474.75
393.882	463.75
394.107	451.75
394.331	441.75
394.556	461.75
394.78	448.75
395.005	468.75
395.229	457.75
395.454	476.75
395.678	469.75
395.903	509.75
396.127	523.75
396.352	510.75
396.576	483.75
396.801	479.75
397.025	492.75
397.249	481.75
397.474	516.75
397.698	495.75
397.922	533.75
398.147	535.75
398.371	510.75
398.595	539.75
398.82	541.75
399.044	550.75
399.268	580.75
399.492	630.75
399.717	661.75
399.941	668.75
400.165	671.75
400.389	655.75
400.613	605.75
400.837	583.75
401.062	571.75
401.286	550.75
401.51	545.75
401.734	538.75
401.958	540.75
402.182	517.75
402.406	553.75
402.63	537.75
402.854	543.75
403.078	561.75
403.302	549.75
403.526	578.75
403.75	573.75
403.974	580.75
404.198	536.75
404.422	582.75
404.645	573.75
404.869	587.75
405.093	586.75
405.317	640.75
405.541	667.75
405.765	610.75
405.988	594.75
406.212	580.75
406.436	600.75
406.66	607.75
406.883	587.75
407.107	612.75
407.331	658.75
407.555	710.75
407.778	729.75
408.002	663.75
408.226	628.75
408.449	589.75
408.673	600.75
408.896	632.75
409.12	684.75
409.344	642.75
409.567	592.75
409.791	593.75
410.014	583.75
410.238	579.75
410.461	565.75
410.685	568.75
410.908	557.75
411.132	602.75
411.355	600.75
411.578	602.75
411.802	591.75
412.025	554.75
412.249	565.75
412.472	587.75
412.695	616.75
412.919	630.75
413.142	579.75
413.365	548.75
413.589	555.75
413.812	516.75
414.035	544.75
414.258	524.75
414.482	529.75
414.705	542.75
414.928	533.75
415.151	533.75
415.374	540.75
415.597	533.75
415.821	514.75
416.044	528.75
416.267	509.75
416.49	536.75
416.713	512.75
416.936	523.75
417.159	513.75
417.382	536.75
417.605	528.75
417.828	523.75
418.051	533.75
418.274	537.75
418.497	541.75
418.72	543.75
418.943	527.75
419.166	550.75
419.389	573.75
419.611	589.75
419.834	573.75
420.057	557.75
420.28	562.75
420.503	547.75
420.726	560.75
420.948	515.75
421.171	584.75
421.394	634.75
421.617	579.75
421.839	540.75
422.062	540.75
422.285	536.75
422.507	627.75
422.73	698.75
422.953	650.75
423.175	580.75
423.398	582.75
423.621	565.75
423.843	589.75
424.066	584.75
424.288	557.75
424.511	591.75
424.733	646.75
424.956	721.75
425.178	687.75
425.401	706.75
425.623	699.75
425.846	616.75
426.068	579.75
426.291	549.75
426.513	580.75
426.735	597.75
426.958	629.75
427.18	673.75
427.402	806.75
427.625	895.75
427.847	759.75
428.069	660.75
428.292	599.75
428.514	575.75
428.736	538.75
428.958	538.75
429.181	530.75
429.403	528.75
429.625	521.75
429.847	548.75
430.069	609.75
430.292	624.75
430.514	547.75
430.736	545.75
430.958	518.75
431.18	523.75
431.402	504.75
431.624	505.75
431.846	528.75
432.068	491.75
432.29	516.75
432.512	500.75
432.734	533.75
432.956	531.75
433.178	541.75
433.4	502.75
433.622	526.75
433.844	498.75
434.066	507.75
434.287	507.75
434.509	521.75
434.731	529.75
434.953	510.75
435.175	532.75
435.397	594.75
435.618	574.75
435.84	590.75
436.062	671.75
436.284	789.75
436.505	649.75
436.727	568.75
436.949	531.75
437.17	544.75
437.392	535.75
437.614	529.75
437.835	570.75
438.057	648.75
438.278	748.75
438.5	737.75
438.721	821.75
438.943	778.75
439.165	627.75
439.386	561.75
439.608	556.75
439.829	561.75
440.05	586.75
440.272	629.75
440.493	595.75
440.715	549.75
440.936	541.75
441.158	533.75
441.379	503.75
441.6	561.75
441.822	576.75
442.043	620.75
442.264	690.75
442.486	728.75
442.707	621.75
442.928	584.75
443.149	592.75
443.371	593.75
443.592	639.75
443.813	738.75
444.034	780.75
444.255	671.75
444.476	624.75
444.698	595.75
444.919	583.75
445.14	733.75
445.361	671.75
445.582	625.75
445.803	673.75
446.024	753.75
446.245	758.75
446.466	687.75
446.687	608.75
446.908	567.75
447.129	539.75
447.35	536.75
447.571	507.75
447.792	546.75
448.013	520.75
448.234	561.75
448.455	592.75
448.675	703.75
448.896	785.75
449.117	667.75
449.338	638.75
449.559	744.75
449.779	837.75
450	677.75
450.221	567.75
450.442	537.75
450.662	488.75
450.883	486.75
451.104	507.75
451.324	507.75
451.545	501.75
451.766	484.75
451.986	462.75
452.207	455.75
452.428	469.75
452.648	469.75
452.869	468.75
453.089	476.75
453.31	482.75
453.53	466.75
453.751	476.75
453.971	465.75
454.192	487.75
454.412	454.75
454.633	463.75
454.853	455.75
455.073	463.75
455.294	500.75
455.514	548.75
455.734	526.75
455.955	476.75
456.175	447.75
456.395	435.75
456.616	449.75
456.836	428.75
457.056	449.75
457.276	433.75
457.497	435.75
457.717	449.75
457.937	455.75
458.157	459.75
458.377	460.75
458.598	476.75
458.818	504.75
459.038	567.75
459.258	621.75
459.478	554.75
459.698	500.75
459.918	501.75
460.138	515.75
460.358	512.75
460.578	528.75
460.798	521.75
461.018	491.75
461.238	525.75
461.458	509.75
461.678	531.75
461.898	535.75
462.118	561.75
462.338	555.75
462.558	531.75
462.777	543.75
462.997	601.75
463.217	594.75
463.437	602.75
463.657	604.75
463.876	573.75
464.096	573.75
464.316	583.75
464.536	568.75
464.755	579.75
464.975	583.75
465.195	611.75
465.414	620.75
465.634	560.75
465.854	543.75
466.073	508.75
466.293	496.75
466.512	498.75
466.732	487.75
466.951	481.75
467.171	505.75
467.391	521.75
467.61	496.75
467.829	503.75
468.049	497.75
468.268	486.75
468.488	467.75
468.707	483.75
468.927	469.75
469.146	479.75
469.365	481.75
469.585	471.75
469.804	473.75
470.023	488.75
470.243	494.75
470.462	499.75
470.681	474.75
470.901	507.75
471.12	492.75
471.339	473.75
471.558	498.75
471.777	511.75
471.997	513.75
472.216	503.75
472.435	521.75
472.654	512.75
472.873	488.75
473.092	501.75
473.311	481.75
473.53	482.75
473.749	499.75
473.968	529.75
474.187	614.75
474.406	653.75
474.625	544.75
474.844	495.75
475.063	514.75
475.282	485.75
475.501	511.75
475.72	498.75
475.939	514.75
476.158	483.75
476.377	507.75
476.596	481.75
476.814	513.75
477.033	504.75
477.252	523.75
477.471	517.75
477.69	511.75
477.908	516.75
478.127	564.75
478.346	529.75
478.564	533.75
478.783	556.75
479.002	577.75
479.22	574.75
479.439	575.75
479.658	562.75
479.876	575.75
480.095	587.75
480.313	632.75
480.532	631.75
480.751	617.75
480.969	616.75
481.188	642.75
481.406	671.75
481.624	598.75
481.843	602.75
482.061	576.75
482.28	577.75
482.498	580.75
482.717	578.75
482.935	581.75
483.153	564.75
483.372	566.75
483.59	563.75
483.808	559.75
484.027	562.75
484.245	578.75
484.463	578.75
484.681	595.75
484.9	579.75
485.118	585.75
485.336	589.75
485.554	585.75
485.772	586.75
485.99	571.75
486.209	590.75
486.427	579.75
486.645	594.75
486.863	631.75
487.081	602.75
487.299	589.75
487.517	610.75
487.735	603.75
487.953	598.75
488.171	614.75
488.389	602.75
488.607	615.75
488.825	598.75
489.043	601.75
489.261	621.75
489.479	600.75
489.696	612.75
489.914	615.75
490.132	626.75
490.35	632.75
490.568	639.75
490.786	639.75
491.003	660.75
491.221	661.75
491.439	660.75
491.657	673.75
491.874	684.75
492.092	685.75
492.31	703.75
492.527	691.75
492.745	668.75
492.963	717.75
493.18	697.75
493.398	706.75
493.615	699.75
493.833	699.75
494.05	728.75
494.268	710.75
494.485	713.75
494.703	723.75
494.92	708.75
495.138	725.75
495.355	716.75
495.573	691.75
495.79	698.75
496.008	726.75
496.225	732.75
496.442	698.75
496.66	705.75
496.877	719.75
497.094	723.75
497.312	725.75
497.529	752.75
497.746	752.75
497.963	754.75
498.181	789.75
498.398	769.75
498.615	833.75
498.832	859.75
499.049	856.75
499.267	888.75
499.484	921.75
499.701	973.75
499.918	1004.75
500.135	1061.75
500.352	1121.75
500.569	1141.75
500.786	1193.75
501.003	1164.75
501.22	1099.75
501.437	1031.75
501.654	971.75
501.871	974.75
