Data from 1976.PennyLincolnUp.Lamp.En5.5.200Scan.071719.P1.Changed Mount._HRD10591_16-00-39-861.txt Node
Date: Thu Jul 18 16:00:39 EDT 2019
User: cochatt
Spectrometer: HR+D1059
Trigger mode: 1
Integration Time (sec): 1.000000E-1
Scans to average: 1
Electric dark correction enabled: true
Nonlinearity correction enabled: false
Boxcar width: 0
XAxis mode: Wavelengths
Number of Pixels in Spectrum: 2048
>>>>>Begin Spectral Data<<<<<
223.165	-17.06
223.4	-17.06
223.635	-17.06
223.869	-28.06
224.104	-19.06
224.338	-27.06
224.573	-4.06
224.808	-22.06
225.042	-16.06
225.277	-20.06
225.511	6.94
225.746	13.94
225.98	-8.06
226.215	8.94
226.449	29.94
226.683	25.94
226.918	36.94
227.152	38.94
227.387	37.94
227.621	40.94
227.856	43.94
228.09	53.94
228.324	40.94
228.559	63.94
228.793	65.94
229.027	101.94
229.262	107.94
229.496	111.94
229.73	129.94
229.964	167.94
230.199	113.94
230.433	122.94
230.667	95.94
230.901	105.94
231.136	96.94
231.37	104.94
231.604	111.94
231.838	99.94
232.072	119.94
232.306	123.94
232.541	108.94
232.775	109.94
233.009	114.94
233.243	119.94
233.477	115.94
233.711	120.94
233.945	130.94
234.179	111.94
234.413	125.94
234.647	121.94
234.881	113.94
235.115	127.94
235.349	118.94
235.583	111.94
235.817	123.94
236.051	118.94
236.285	122.94
236.519	128.94
236.753	122.94
236.987	134.94
237.221	185.94
237.455	212.94
237.689	193.94
237.922	137.94
238.156	131.94
238.39	128.94
238.624	133.94
238.858	126.94
239.091	137.94
239.325	122.94
239.559	139.94
239.793	123.94
240.027	136.94
240.26	150.94
240.494	156.94
240.728	151.94
240.961	169.94
241.195	141.94
241.429	143.94
241.662	145.94
241.896	146.94
242.13	105.94
242.363	132.94
242.597	125.94
242.83	145.94
243.064	148.94
243.298	137.94
243.531	145.94
243.765	132.94
243.998	143.94
244.232	155.94
244.465	148.94
244.699	148.94
244.932	143.94
245.166	166.94
245.399	159.94
245.633	157.94
245.866	143.94
246.099	153.94
246.333	158.94
246.566	171.94
246.8	150.94
247.033	168.94
247.266	159.94
247.5	171.94
247.733	153.94
247.966	187.94
248.2	189.94
248.433	164.94
248.666	180.94
248.899	202.94
249.133	204.94
249.366	192.94
249.599	180.94
249.832	176.94
250.066	172.94
250.299	182.94
250.532	202.94
250.765	197.94
250.998	200.94
251.231	228.94
251.465	220.94
251.698	217.94
251.931	188.94
252.164	191.94
252.397	190.94
252.63	202.94
252.863	200.94
253.096	214.94
253.329	229.94
253.562	220.94
253.795	219.94
254.028	214.94
254.261	213.94
254.494	223.94
254.727	246.94
254.96	281.94
255.193	258.94
255.426	244.94
255.659	229.94
255.892	237.94
256.124	231.94
256.357	217.94
256.59	227.94
256.823	211.94
257.056	203.94
257.289	217.94
257.521	214.94
257.754	208.94
257.987	215.94
258.22	211.94
258.452	204.94
258.685	208.94
258.918	203.94
259.151	200.94
259.383	218.94
259.616	205.94
259.849	249.94
260.081	217.94
260.314	247.94
260.547	257.94
260.779	244.94
261.012	225.94
261.244	243.94
261.477	225.94
261.71	212.94
261.942	239.94
262.175	222.94
262.407	239.94
262.64	223.94
262.872	220.94
263.105	216.94
263.337	211.94
263.57	200.94
263.802	215.94
264.035	220.94
264.267	212.94
264.499	217.94
264.732	246.94
264.964	233.94
265.197	222.94
265.429	217.94
265.661	237.94
265.894	229.94
266.126	232.94
266.358	226.94
266.591	206.94
266.823	215.94
267.055	239.94
267.287	243.94
267.52	221.94
267.752	248.94
267.984	234.94
268.216	224.94
268.448	224.94
268.681	240.94
268.913	246.94
269.145	267.94
269.377	271.94
269.609	282.94
269.841	284.94
270.073	273.94
270.306	284.94
270.538	300.94
270.77	305.94
271.002	301.94
271.234	284.94
271.466	293.94
271.698	282.94
271.93	320.94
272.162	327.94
272.394	307.94
272.626	311.94
272.858	287.94
273.09	270.94
273.322	259.94
273.553	291.94
273.785	276.94
274.017	259.94
274.249	262.94
274.481	282.94
274.713	263.94
274.945	279.94
275.176	273.94
275.408	286.94
275.64	275.94
275.872	272.94
276.104	262.94
276.335	269.94
276.567	287.94
276.799	277.94
277.031	318.94
277.262	313.94
277.494	310.94
277.726	310.94
277.957	305.94
278.189	291.94
278.421	276.94
278.652	264.94
278.884	275.94
279.115	275.94
279.347	257.94
279.579	273.94
279.81	281.94
280.042	272.94
280.273	283.94
280.505	273.94
280.736	280.94
280.968	281.94
281.199	283.94
281.431	287.94
281.662	283.94
281.894	296.94
282.125	276.94
282.356	288.94
282.588	284.94
282.819	309.94
283.051	289.94
283.282	294.94
283.513	307.94
283.745	297.94
283.976	285.94
284.207	311.94
284.439	288.94
284.67	290.94
284.901	307.94
285.132	285.94
285.364	288.94
285.595	298.94
285.826	293.94
286.057	307.94
286.288	301.94
286.52	292.94
286.751	299.94
286.982	300.94
287.213	309.94
287.444	309.94
287.675	312.94
287.906	310.94
288.138	334.94
288.369	317.94
288.6	313.94
288.831	305.94
289.062	297.94
289.293	300.94
289.524	303.94
289.755	310.94
289.986	310.94
290.217	311.94
290.448	315.94
290.679	296.94
290.91	305.94
291.141	311.94
291.371	309.94
291.602	312.94
291.833	307.94
292.064	302.94
292.295	315.94
292.526	311.94
292.757	301.94
292.987	311.94
293.218	303.94
293.449	325.94
293.68	317.94
293.91	333.94
294.141	309.94
294.372	314.94
294.603	304.94
294.833	319.94
295.064	321.94
295.295	296.94
295.525	320.94
295.756	326.94
295.987	304.94
296.217	328.94
296.448	341.94
296.679	309.94
296.909	319.94
297.14	309.94
297.37	315.94
297.601	325.94
297.831	317.94
298.062	310.94
298.292	317.94
298.523	324.94
298.753	324.94
298.984	336.94
299.214	321.94
299.445	319.94
299.675	309.94
299.905	327.94
300.136	322.94
300.366	343.94
300.597	340.94
300.827	340.94
301.057	334.94
301.288	347.94
301.518	347.94
301.748	331.94
301.979	336.94
302.209	336.94
302.439	344.94
302.669	349.94
302.9	348.94
303.13	344.94
303.36	350.94
303.59	334.94
303.82	361.94
304.051	341.94
304.281	338.94
304.511	325.94
304.741	344.94
304.971	335.94
305.201	368.94
305.431	345.94
305.661	366.94
305.891	342.94
306.121	347.94
306.352	350.94
306.582	336.94
306.812	351.94
307.042	349.94
307.272	343.94
307.502	335.94
307.731	332.94
307.961	356.94
308.191	344.94
308.421	344.94
308.651	341.94
308.881	340.94
309.111	365.94
309.341	365.94
309.571	365.94
309.8	365.94
310.03	379.94
310.26	385.94
310.49	385.94
310.72	384.94
310.949	393.94
311.179	380.94
311.409	394.94
311.639	376.94
311.868	384.94
312.098	390.94
312.328	407.94
312.557	405.94
312.787	413.94
313.017	411.94
313.246	394.94
313.476	380.94
313.706	398.94
313.935	394.94
314.165	388.94
314.394	418.94
314.624	409.94
314.853	393.94
315.083	385.94
315.312	396.94
315.542	375.94
315.771	362.94
316.001	387.94
316.23	381.94
316.46	373.94
316.689	386.94
316.919	383.94
317.148	389.94
317.377	380.94
317.607	402.94
317.836	396.94
318.065	405.94
318.295	392.94
318.524	378.94
318.753	369.94
318.983	385.94
319.212	379.94
319.441	402.94
319.67	410.94
319.9	396.94
320.129	393.94
320.358	373.94
320.587	389.94
320.816	399.94
321.046	403.94
321.275	407.94
321.504	406.94
321.733	407.94
321.962	421.94
322.191	404.94
322.42	431.94
322.649	429.94
322.878	435.94
323.108	421.94
323.337	459.94
323.566	455.94
323.795	481.94
324.024	538.94
324.253	622.94
324.482	817.94
324.71	1257.94
324.939	1790.94
325.168	1586.94
325.397	807.94
325.626	566.94
325.855	487.94
326.084	481.94
326.313	451.94
326.542	459.94
326.77	508.94
326.999	599.94
327.228	771.94
327.457	1139.94
327.686	1417.94
327.914	943.94
328.143	613.94
328.372	570.94
328.6	535.94
328.829	527.94
329.058	531.94
329.287	539.94
329.515	516.94
329.744	494.94
329.972	486.94
330.201	513.94
330.43	529.94
330.658	543.94
330.887	569.94
331.115	554.94
331.344	499.94
331.572	482.94
331.801	464.94
332.03	494.94
332.258	462.94
332.486	480.94
332.715	457.94
332.943	455.94
333.172	476.94
333.4	460.94
333.629	465.94
333.857	496.94
334.085	501.94
334.314	507.94
334.542	544.94
334.771	541.94
334.999	492.94
335.227	468.94
335.455	478.94
335.684	465.94
335.912	472.94
336.14	459.94
336.369	473.94
336.597	476.94
336.825	468.94
337.053	456.94
337.281	461.94
337.51	455.94
337.738	463.94
337.966	459.94
338.194	452.94
338.422	471.94
338.65	462.94
338.878	430.94
339.106	435.94
339.334	449.94
339.562	444.94
339.79	420.94
340.018	432.94
340.246	438.94
340.474	447.94
340.702	435.94
340.93	444.94
341.158	432.94
341.386	435.94
341.614	443.94
341.842	440.94
342.07	440.94
342.298	433.94
342.526	421.94
342.754	402.94
342.981	425.94
343.209	425.94
343.437	431.94
343.665	456.94
343.893	451.94
344.12	476.94
344.348	460.94
344.576	444.94
344.804	457.94
345.031	440.94
345.259	453.94
345.487	445.94
345.714	444.94
345.942	425.94
346.17	419.94
346.397	426.94
346.625	415.94
346.853	399.94
347.08	421.94
347.308	425.94
347.535	410.94
347.763	439.94
347.99	431.94
348.218	432.94
348.445	448.94
348.673	421.94
348.9	430.94
349.128	397.94
349.355	406.94
349.583	404.94
349.81	412.94
350.037	433.94
350.265	418.94
350.492	423.94
350.72	421.94
350.947	398.94
351.174	420.94
351.402	426.94
351.629	430.94
351.856	410.94
352.083	413.94
352.311	428.94
352.538	429.94
352.765	403.94
352.992	421.94
353.22	425.94
353.447	432.94
353.674	405.94
353.901	426.94
354.128	406.94
354.355	412.94
354.583	398.94
354.81	412.94
355.037	393.94
355.264	407.94
355.491	408.94
355.718	405.94
355.945	405.94
356.172	397.94
356.399	412.94
356.626	411.94
356.853	408.94
357.08	383.94
357.307	383.94
357.534	380.94
357.761	394.94
357.988	392.94
358.215	407.94
358.441	414.94
358.668	397.94
358.895	410.94
359.122	413.94
359.349	396.94
359.576	412.94
359.802	433.94
360.029	454.94
360.256	458.94
360.483	437.94
360.709	444.94
360.936	423.94
361.163	414.94
361.39	411.94
361.616	408.94
361.843	402.94
362.07	423.94
362.296	425.94
362.523	409.94
362.749	427.94
362.976	442.94
363.203	414.94
363.429	405.94
363.656	424.94
363.882	429.94
364.109	411.94
364.335	410.94
364.562	405.94
364.788	396.94
365.015	407.94
365.241	416.94
365.468	401.94
365.694	428.94
365.92	406.94
366.147	426.94
366.373	410.94
366.599	405.94
366.826	400.94
367.052	397.94
367.278	409.94
367.505	419.94
367.731	421.94
367.957	414.94
368.184	413.94
368.41	399.94
368.636	417.94
368.862	412.94
369.089	413.94
369.315	412.94
369.541	426.94
369.767	397.94
369.993	409.94
370.219	418.94
370.445	404.94
370.672	404.94
370.898	410.94
371.124	408.94
371.35	411.94
371.576	401.94
371.802	406.94
372.028	424.94
372.254	433.94
372.48	420.94
372.706	406.94
372.932	426.94
373.158	419.94
373.384	417.94
373.61	435.94
373.835	421.94
374.061	425.94
374.287	416.94
374.513	413.94
374.739	395.94
374.965	431.94
375.191	443.94
375.416	420.94
375.642	418.94
375.868	429.94
376.094	403.94
376.319	420.94
376.545	397.94
376.771	411.94
376.997	400.94
377.222	413.94
377.448	411.94
377.674	415.94
377.899	405.94
378.125	392.94
378.35	416.94
378.576	417.94
378.802	390.94
379.027	425.94
379.253	403.94
379.478	421.94
379.704	419.94
379.929	421.94
380.155	425.94
380.38	422.94
380.606	411.94
380.831	393.94
381.057	440.94
381.282	407.94
381.507	398.94
381.733	427.94
381.958	421.94
382.184	433.94
382.409	426.94
382.634	433.94
382.86	423.94
383.085	419.94
383.31	431.94
383.535	437.94
383.761	423.94
383.986	433.94
384.211	432.94
384.436	458.94
384.662	472.94
384.887	446.94
385.112	431.94
385.337	448.94
385.562	438.94
385.787	450.94
386.013	456.94
386.238	475.94
386.463	484.94
386.688	474.94
386.913	450.94
387.138	460.94
387.363	474.94
387.588	446.94
387.813	440.94
388.038	441.94
388.263	459.94
388.488	460.94
388.713	443.94
388.938	455.94
389.163	477.94
389.387	463.94
389.612	458.94
389.837	459.94
390.062	436.94
390.287	465.94
390.512	470.94
390.736	441.94
390.961	472.94
391.186	464.94
391.411	449.94
391.636	476.94
391.86	487.94
392.085	486.94
392.31	474.94
392.534	466.94
392.759	478.94
392.984	470.94
393.208	471.94
393.433	443.94
393.658	473.94
393.882	462.94
394.107	466.94
394.331	465.94
394.556	457.94
394.78	462.94
395.005	464.94
395.229	489.94
395.454	484.94
395.678	492.94
395.903	493.94
396.127	527.94
396.352	508.94
396.576	488.94
396.801	480.94
397.025	486.94
397.249	478.94
397.474	516.94
397.698	488.94
397.922	532.94
398.147	529.94
398.371	522.94
398.595	518.94
398.82	519.94
399.044	539.94
399.268	547.94
399.492	608.94
399.717	638.94
399.941	672.94
400.165	693.94
400.389	659.94
400.613	625.94
400.837	557.94
401.062	556.94
401.286	541.94
401.51	539.94
401.734	549.94
401.958	517.94
402.182	536.94
402.406	527.94
402.63	523.94
402.854	547.94
403.078	547.94
403.302	557.94
403.526	550.94
403.75	567.94
403.974	560.94
404.198	561.94
404.422	583.94
404.645	569.94
404.869	582.94
405.093	597.94
405.317	630.94
405.541	657.94
405.765	629.94
405.988	593.94
406.212	567.94
406.436	599.94
406.66	639.94
406.883	591.94
407.107	630.94
407.331	659.94
407.555	716.94
407.778	747.94
408.002	664.94
408.226	618.94
408.449	604.94
408.673	624.94
408.896	643.94
409.12	683.94
409.344	635.94
409.567	586.94
409.791	551.94
410.014	557.94
410.238	557.94
410.461	564.94
410.685	579.94
410.908	564.94
411.132	609.94
411.355	627.94
411.578	608.94
411.802	590.94
412.025	558.94
412.249	563.94
412.472	581.94
412.695	637.94
412.919	630.94
413.142	573.94
413.365	525.94
413.589	539.94
413.812	519.94
414.035	529.94
414.258	541.94
414.482	529.94
414.705	544.94
414.928	538.94
415.151	550.94
415.374	551.94
415.597	539.94
415.821	532.94
416.044	532.94
416.267	513.94
416.49	529.94
416.713	505.94
416.936	507.94
417.159	510.94
417.382	520.94
417.605	507.94
417.828	542.94
418.051	570.94
418.274	536.94
418.497	518.94
418.72	518.94
418.943	511.94
419.166	554.94
419.389	558.94
419.611	566.94
419.834	558.94
420.057	560.94
420.28	525.94
420.503	577.94
420.726	555.94
420.948	572.94
421.171	597.94
421.394	625.94
421.617	573.94
421.839	546.94
422.062	540.94
422.285	571.94
422.507	589.94
422.73	698.94
422.953	663.94
423.175	604.94
423.398	563.94
423.621	562.94
423.843	585.94
424.066	582.94
424.288	585.94
424.511	615.94
424.733	638.94
424.956	715.94
425.178	679.94
425.401	687.94
425.623	688.94
425.846	613.94
426.068	569.94
426.291	579.94
426.513	553.94
426.735	583.94
426.958	624.94
427.18	700.94
427.402	835.94
427.625	879.94
427.847	769.94
428.069	676.94
428.292	599.94
428.514	554.94
428.736	544.94
428.958	532.94
429.181	504.94
429.403	505.94
429.625	536.94
429.847	549.94
430.069	655.94
430.292	622.94
430.514	545.94
430.736	547.94
430.958	534.94
431.18	515.94
431.402	517.94
431.624	501.94
431.846	500.94
432.068	507.94
432.29	525.94
432.512	505.94
432.734	519.94
432.956	512.94
433.178	503.94
433.4	513.94
433.622	511.94
433.844	504.94
434.066	528.94
434.287	497.94
434.509	494.94
434.731	508.94
434.953	537.94
435.175	542.94
435.397	573.94
435.618	567.94
435.84	603.94
436.062	687.94
436.284	768.94
436.505	636.94
436.727	579.94
436.949	539.94
437.17	544.94
437.392	527.94
437.614	539.94
437.835	565.94
438.057	626.94
438.278	738.94
438.5	742.94
438.721	828.94
438.943	784.94
439.165	622.94
439.386	589.94
439.608	572.94
439.829	591.94
440.05	610.94
440.272	636.94
440.493	595.94
440.715	557.94
440.936	548.94
441.158	538.94
441.379	538.94
441.6	539.94
441.822	568.94
442.043	613.94
442.264	711.94
442.486	735.94
442.707	593.94
442.928	583.94
443.149	599.94
443.371	608.94
443.592	632.94
443.813	728.94
444.034	809.94
444.255	678.94
444.476	632.94
444.698	615.94
444.919	606.94
445.14	711.94
445.361	645.94
445.582	600.94
445.803	687.94
446.024	756.94
446.245	758.94
446.466	701.94
446.687	605.94
446.908	569.94
447.129	535.94
447.35	525.94
447.571	534.94
447.792	509.94
448.013	527.94
448.234	536.94
448.455	585.94
448.675	701.94
448.896	795.94
449.117	688.94
449.338	661.94
449.559	729.94
449.779	846.94
450	680.94
450.221	575.94
450.442	525.94
450.662	509.94
450.883	520.94
451.104	510.94
451.324	476.94
451.545	491.94
451.766	468.94
451.986	456.94
452.207	449.94
452.428	480.94
452.648	476.94
452.869	448.94
453.089	488.94
453.31	494.94
453.53	495.94
453.751	470.94
453.971	471.94
454.192	477.94
454.412	468.94
454.633	449.94
454.853	462.94
455.073	473.94
455.294	496.94
455.514	565.94
455.734	537.94
455.955	478.94
456.175	446.94
456.395	441.94
456.616	447.94
456.836	435.94
457.056	424.94
457.276	424.94
457.497	443.94
457.717	449.94
457.937	458.94
458.157	467.94
458.377	439.94
458.598	468.94
458.818	518.94
459.038	593.94
459.258	608.94
459.478	542.94
459.698	495.94
459.918	507.94
460.138	515.94
460.358	504.94
460.578	527.94
460.798	518.94
461.018	531.94
461.238	512.94
461.458	549.94
461.678	529.94
461.898	517.94
462.118	519.94
462.338	555.94
462.558	557.94
462.777	566.94
462.997	569.94
463.217	583.94
463.437	592.94
463.657	574.94
463.876	555.94
464.096	588.94
464.316	579.94
464.536	576.94
464.755	567.94
464.975	575.94
465.195	588.94
465.414	606.94
465.634	558.94
465.854	523.94
466.073	491.94
466.293	512.94
466.512	482.94
466.732	493.94
466.951	486.94
467.171	478.94
467.391	486.94
467.61	479.94
467.829	476.94
468.049	488.94
468.268	490.94
468.488	459.94
468.707	470.94
468.927	474.94
469.146	463.94
469.365	475.94
469.585	473.94
469.804	483.94
470.023	508.94
470.243	496.94
470.462	490.94
470.681	495.94
470.901	498.94
471.12	472.94
471.339	488.94
471.558	493.94
471.777	491.94
471.997	489.94
472.216	508.94
472.435	496.94
472.654	488.94
472.873	487.94
473.092	496.94
473.311	487.94
473.53	480.94
473.749	490.94
473.968	524.94
474.187	616.94
474.406	668.94
474.625	542.94
474.844	491.94
475.063	494.94
475.282	480.94
475.501	494.94
475.72	501.94
475.939	492.94
476.158	506.94
476.377	499.94
476.596	488.94
476.814	506.94
477.033	513.94
477.252	521.94
477.471	529.94
477.69	533.94
477.908	537.94
478.127	572.94
478.346	542.94
478.564	544.94
478.783	537.94
479.002	547.94
479.22	591.94
479.439	568.94
479.658	555.94
479.876	593.94
480.095	604.94
480.313	596.94
480.532	641.94
480.751	621.94
480.969	597.94
481.188	638.94
481.406	652.94
481.624	615.94
481.843	567.94
482.061	571.94
482.28	565.94
482.498	565.94
482.717	561.94
482.935	582.94
483.153	552.94
483.372	537.94
483.59	556.94
483.808	557.94
484.027	576.94
484.245	575.94
484.463	587.94
484.681	575.94
484.9	564.94
485.118	583.94
485.336	586.94
485.554	590.94
485.772	596.94
485.99	597.94
486.209	594.94
486.427	573.94
486.645	597.94
486.863	601.94
487.081	600.94
487.299	599.94
487.517	611.94
487.735	643.94
487.953	627.94
488.171	621.94
488.389	604.94
488.607	613.94
488.825	597.94
489.043	617.94
489.261	606.94
489.479	628.94
489.696	609.94
489.914	623.94
490.132	640.94
490.35	621.94
490.568	631.94
490.786	645.94
491.003	653.94
491.221	676.94
491.439	648.94
491.657	670.94
491.874	679.94
492.092	703.94
492.31	703.94
492.527	688.94
492.745	694.94
492.963	725.94
493.18	704.94
493.398	682.94
493.615	699.94
493.833	703.94
494.05	697.94
494.268	697.94
494.485	712.94
494.703	694.94
494.92	720.94
495.138	703.94
495.355	732.94
495.573	713.94
495.79	732.94
496.008	714.94
496.225	715.94
496.442	702.94
496.66	733.94
496.877	728.94
497.094	721.94
497.312	723.94
497.529	754.94
497.746	737.94
497.963	771.94
498.181	804.94
498.398	810.94
498.615	831.94
498.832	839.94
499.049	868.94
499.267	911.94
499.484	910.94
499.701	961.94
499.918	999.94
500.135	1069.94
500.352	1132.94
500.569	1148.94
500.786	1097.94
501.003	1139.94
501.22	1105.94
501.437	1032.94
501.654	992.94
