Data from 1976.PennyLincolnUp.Lamp.En5.5.200Scan.071719.P1.Changed Mount._HRD10591_15-59-45-860.txt Node
Date: Thu Jul 18 15:59:45 EDT 2019
User: cochatt
Spectrometer: HR+D1059
Trigger mode: 1
Integration Time (sec): 1.000000E-1
Scans to average: 1
Electric dark correction enabled: true
Nonlinearity correction enabled: false
Boxcar width: 0
XAxis mode: Wavelengths
Number of Pixels in Spectrum: 2048
>>>>>Begin Spectral Data<<<<<
223.165	-19.56
223.4	-19.56
223.635	-19.56
223.869	-20.56
224.104	-8.56
224.338	-20.56
224.573	-19.56
224.808	6.44
225.042	-2.56
225.277	-18.56
225.511	-4.56
225.746	-0.56
225.98	5.44
226.215	9.44
226.449	21.44
226.683	17.44
226.918	28.44
227.152	26.44
227.387	27.44
227.621	36.44
227.856	53.44
228.09	58.44
228.324	57.44
228.559	61.44
228.793	61.44
229.027	76.44
229.262	93.44
229.496	97.44
229.73	107.44
229.964	146.44
230.199	111.44
230.433	102.44
230.667	97.44
230.901	108.44
231.136	103.44
231.37	104.44
231.604	118.44
231.838	115.44
232.072	118.44
232.306	103.44
232.541	117.44
232.775	120.44
233.009	116.44
233.243	114.44
233.477	110.44
233.711	121.44
233.945	105.44
234.179	125.44
234.413	109.44
234.647	114.44
234.881	112.44
235.115	98.44
235.349	102.44
235.583	115.44
235.817	107.44
236.051	110.44
236.285	119.44
236.519	122.44
236.753	125.44
236.987	120.44
237.221	161.44
237.455	217.44
237.689	171.44
237.922	126.44
238.156	125.44
238.39	121.44
238.624	122.44
238.858	129.44
239.091	133.44
239.325	121.44
239.559	121.44
239.793	116.44
240.027	125.44
240.26	136.44
240.494	139.44
240.728	124.44
240.961	147.44
241.195	141.44
241.429	129.44
241.662	142.44
241.896	138.44
242.13	118.44
242.363	130.44
242.597	124.44
242.83	129.44
243.064	129.44
243.298	129.44
243.531	125.44
243.765	110.44
243.998	154.44
244.232	131.44
244.465	138.44
244.699	140.44
244.932	136.44
245.166	136.44
245.399	141.44
245.633	147.44
245.866	139.44
246.099	138.44
246.333	138.44
246.566	153.44
246.8	147.44
247.033	164.44
247.266	161.44
247.5	168.44
247.733	169.44
247.966	175.44
248.2	168.44
248.433	148.44
248.666	164.44
248.899	165.44
249.133	179.44
249.366	193.44
249.599	182.44
249.832	172.44
250.066	153.44
250.299	167.44
250.532	207.44
250.765	188.44
250.998	208.44
251.231	206.44
251.465	220.44
251.698	191.44
251.931	191.44
252.164	197.44
252.397	191.44
252.63	206.44
252.863	212.44
253.096	214.44
253.329	211.44
253.562	190.44
253.795	195.44
254.028	198.44
254.261	197.44
254.494	207.44
254.727	244.44
254.96	259.44
255.193	235.44
255.426	221.44
255.659	219.44
255.892	211.44
256.124	216.44
256.357	217.44
256.59	199.44
256.823	201.44
257.056	193.44
257.289	209.44
257.521	205.44
257.754	220.44
257.987	219.44
258.22	209.44
258.452	207.44
258.685	199.44
258.918	198.44
259.151	202.44
259.383	198.44
259.616	196.44
259.849	214.44
260.081	227.44
260.314	235.44
260.547	259.44
260.779	222.44
261.012	222.44
261.244	227.44
261.477	213.44
261.71	215.44
261.942	233.44
262.175	210.44
262.407	211.44
262.64	217.44
262.872	200.44
263.105	191.44
263.337	209.44
263.57	203.44
263.802	210.44
264.035	204.44
264.267	212.44
264.499	212.44
264.732	194.44
264.964	212.44
265.197	202.44
265.429	203.44
265.661	215.44
265.894	212.44
266.126	218.44
266.358	226.44
266.591	236.44
266.823	223.44
267.055	228.44
267.287	227.44
267.52	218.44
267.752	225.44
267.984	242.44
268.216	231.44
268.448	237.44
268.681	237.44
268.913	219.44
269.145	245.44
269.377	273.44
269.609	258.44
269.841	259.44
270.073	261.44
270.306	286.44
270.538	314.44
270.77	300.44
271.002	289.44
271.234	271.44
271.466	287.44
271.698	278.44
271.93	289.44
272.162	305.44
272.394	314.44
272.626	297.44
272.858	270.44
273.09	267.44
273.322	266.44
273.553	264.44
273.785	257.44
274.017	258.44
274.249	244.44
274.481	254.44
274.713	268.44
274.945	277.44
275.176	277.44
275.408	263.44
275.64	246.44
275.872	247.44
276.104	275.44
276.335	297.44
276.567	274.44
276.799	287.44
277.031	289.44
277.262	283.44
277.494	309.44
277.726	297.44
277.957	285.44
278.189	276.44
278.421	284.44
278.652	263.44
278.884	249.44
279.115	267.44
279.347	283.44
279.579	275.44
279.81	262.44
280.042	275.44
280.273	259.44
280.505	262.44
280.736	259.44
280.968	242.44
281.199	274.44
281.431	281.44
281.662	269.44
281.894	251.44
282.125	262.44
282.356	281.44
282.588	296.44
282.819	286.44
283.051	286.44
283.282	252.44
283.513	300.44
283.745	286.44
283.976	292.44
284.207	276.44
284.439	283.44
284.67	295.44
284.901	273.44
285.132	282.44
285.364	296.44
285.595	285.44
285.826	276.44
286.057	283.44
286.288	286.44
286.52	286.44
286.751	293.44
286.982	285.44
287.213	293.44
287.444	311.44
287.675	292.44
287.906	292.44
288.138	305.44
288.369	297.44
288.6	321.44
288.831	297.44
289.062	315.44
289.293	306.44
289.524	292.44
289.755	290.44
289.986	275.44
290.217	281.44
290.448	290.44
290.679	301.44
290.91	292.44
291.141	290.44
291.371	300.44
291.602	284.44
291.833	286.44
292.064	293.44
292.295	280.44
292.526	279.44
292.757	277.44
292.987	310.44
293.218	312.44
293.449	302.44
293.68	289.44
293.91	294.44
294.141	309.44
294.372	294.44
294.603	321.44
294.833	296.44
295.064	302.44
295.295	296.44
295.525	297.44
295.756	317.44
295.987	310.44
296.217	325.44
296.448	322.44
296.679	300.44
296.909	305.44
297.14	311.44
297.37	315.44
297.601	300.44
297.831	307.44
298.062	296.44
298.292	297.44
298.523	307.44
298.753	327.44
298.984	319.44
299.214	313.44
299.445	311.44
299.675	301.44
299.905	327.44
300.136	312.44
300.366	321.44
300.597	326.44
300.827	331.44
301.057	341.44
301.288	313.44
301.518	331.44
301.748	319.44
301.979	340.44
302.209	314.44
302.439	339.44
302.669	337.44
302.9	330.44
303.13	329.44
303.36	325.44
303.59	317.44
303.82	350.44
304.051	340.44
304.281	342.44
304.511	342.44
304.741	328.44
304.971	342.44
305.201	319.44
305.431	346.44
305.661	327.44
305.891	326.44
306.121	318.44
306.352	335.44
306.582	343.44
306.812	352.44
307.042	337.44
307.272	325.44
307.502	334.44
307.731	321.44
307.961	333.44
308.191	338.44
308.421	345.44
308.651	325.44
308.881	333.44
309.111	333.44
309.341	349.44
309.571	348.44
309.8	363.44
310.03	353.44
310.26	350.44
310.49	350.44
310.72	351.44
310.949	366.44
311.179	369.44
311.409	361.44
311.639	355.44
311.868	360.44
312.098	361.44
312.328	362.44
312.557	377.44
312.787	394.44
313.017	385.44
313.246	383.44
313.476	359.44
313.706	369.44
313.935	364.44
314.165	381.44
314.394	375.44
314.624	384.44
314.853	389.44
315.083	377.44
315.312	372.44
315.542	371.44
315.771	379.44
316.001	361.44
316.23	373.44
316.46	371.44
316.689	374.44
316.919	377.44
317.148	386.44
317.377	379.44
317.607	377.44
317.836	360.44
318.065	365.44
318.295	355.44
318.524	375.44
318.753	366.44
318.983	372.44
319.212	374.44
319.441	368.44
319.67	379.44
319.9	375.44
320.129	375.44
320.358	380.44
320.587	379.44
320.816	374.44
321.046	398.44
321.275	370.44
321.504	399.44
321.733	404.44
321.962	376.44
322.191	397.44
322.42	398.44
322.649	405.44
322.878	399.44
323.108	413.44
323.337	415.44
323.566	441.44
323.795	460.44
324.024	478.44
324.253	572.44
324.482	752.44
324.71	1100.44
324.939	1637.44
325.168	1397.44
325.397	716.44
325.626	515.44
325.855	462.44
326.084	438.44
326.313	452.44
326.542	423.44
326.77	469.44
326.999	535.44
327.228	700.44
327.457	1016.44
327.686	1250.44
327.914	830.44
328.143	581.44
328.372	505.44
328.6	518.44
328.829	478.44
329.058	503.44
329.287	497.44
329.515	486.44
329.744	460.44
329.972	459.44
330.201	446.44
330.43	489.44
330.658	515.44
330.887	533.44
331.115	526.44
331.344	463.44
331.572	439.44
331.801	446.44
332.03	456.44
332.258	444.44
332.486	445.44
332.715	446.44
332.943	457.44
333.172	468.44
333.4	461.44
333.629	468.44
333.857	487.44
334.085	489.44
334.314	494.44
334.542	498.44
334.771	506.44
334.999	452.44
335.227	467.44
335.455	446.44
335.684	446.44
335.912	461.44
336.14	441.44
336.369	441.44
336.597	428.44
336.825	437.44
337.053	444.44
337.281	426.44
337.51	421.44
337.738	433.44
337.966	427.44
338.194	443.44
338.422	449.44
338.65	431.44
338.878	441.44
339.106	427.44
339.334	427.44
339.562	436.44
339.79	407.44
340.018	395.44
340.246	399.44
340.474	419.44
340.702	400.44
340.93	425.44
341.158	417.44
341.386	415.44
341.614	421.44
341.842	411.44
342.07	430.44
342.298	420.44
342.526	423.44
342.754	417.44
342.981	391.44
343.209	402.44
343.437	445.44
343.665	445.44
343.893	437.44
344.12	437.44
344.348	444.44
344.576	445.44
344.804	414.44
345.031	443.44
345.259	424.44
345.487	432.44
345.714	409.44
345.942	434.44
346.17	414.44
346.397	399.44
346.625	414.44
346.853	397.44
347.08	410.44
347.308	392.44
347.535	404.44
347.763	397.44
347.99	433.44
348.218	411.44
348.445	395.44
348.673	409.44
348.9	401.44
349.128	415.44
349.355	386.44
349.583	385.44
349.81	379.44
350.037	389.44
350.265	383.44
350.492	386.44
350.72	391.44
350.947	391.44
351.174	422.44
351.402	409.44
351.629	396.44
351.856	390.44
352.083	419.44
352.311	417.44
352.538	414.44
352.765	413.44
352.992	401.44
353.22	408.44
353.447	392.44
353.674	387.44
353.901	392.44
354.128	400.44
354.355	383.44
354.583	406.44
354.81	401.44
355.037	389.44
355.264	386.44
355.491	365.44
355.718	379.44
355.945	387.44
356.172	391.44
356.399	384.44
356.626	379.44
356.853	394.44
357.08	383.44
357.307	395.44
357.534	373.44
357.761	377.44
357.988	385.44
358.215	391.44
358.441	387.44
358.668	380.44
358.895	385.44
359.122	385.44
359.349	400.44
359.576	412.44
359.802	407.44
360.029	413.44
360.256	411.44
360.483	424.44
360.709	380.44
360.936	418.44
361.163	400.44
361.39	404.44
361.616	414.44
361.843	378.44
362.07	406.44
362.296	400.44
362.523	385.44
362.749	403.44
362.976	414.44
363.203	375.44
363.429	388.44
363.656	392.44
363.882	376.44
364.109	397.44
364.335	387.44
364.562	391.44
364.788	388.44
365.015	390.44
365.241	393.44
365.468	394.44
365.694	402.44
365.92	407.44
366.147	375.44
366.373	382.44
366.599	394.44
366.826	380.44
367.052	377.44
367.278	396.44
367.505	378.44
367.731	388.44
367.957	383.44
368.184	399.44
368.41	392.44
368.636	413.44
368.862	402.44
369.089	389.44
369.315	381.44
369.541	396.44
369.767	400.44
369.993	409.44
370.219	403.44
370.445	380.44
370.672	398.44
370.898	381.44
371.124	382.44
371.35	389.44
371.576	400.44
371.802	385.44
372.028	381.44
372.254	393.44
372.48	384.44
372.706	423.44
372.932	379.44
373.158	421.44
373.384	408.44
373.61	411.44
373.835	413.44
374.061	402.44
374.287	401.44
374.513	413.44
374.739	414.44
374.965	429.44
375.191	423.44
375.416	395.44
375.642	407.44
375.868	420.44
376.094	408.44
376.319	400.44
376.545	394.44
376.771	397.44
376.997	393.44
377.222	407.44
377.448	391.44
377.674	402.44
377.899	407.44
378.125	389.44
378.35	391.44
378.576	388.44
378.802	393.44
379.027	425.44
379.253	390.44
379.478	370.44
379.704	396.44
379.929	404.44
380.155	374.44
380.38	394.44
380.606	393.44
380.831	393.44
381.057	415.44
381.282	403.44
381.507	394.44
381.733	423.44
381.958	388.44
382.184	393.44
382.409	410.44
382.634	417.44
382.86	414.44
383.085	401.44
383.31	411.44
383.535	420.44
383.761	431.44
383.986	435.44
384.211	437.44
384.436	425.44
384.662	435.44
384.887	444.44
385.112	447.44
385.337	438.44
385.562	457.44
385.787	442.44
386.013	469.44
386.238	457.44
386.463	455.44
386.688	459.44
386.913	442.44
387.138	444.44
387.363	450.44
387.588	454.44
387.813	460.44
388.038	460.44
388.263	449.44
388.488	460.44
388.713	446.44
388.938	441.44
389.163	449.44
389.387	427.44
389.612	428.44
389.837	465.44
390.062	428.44
390.287	437.44
390.512	446.44
390.736	423.44
390.961	439.44
391.186	451.44
391.411	461.44
391.636	460.44
391.86	460.44
392.085	453.44
392.31	461.44
392.534	471.44
392.759	459.44
392.984	443.44
393.208	452.44
393.433	458.44
393.658	438.44
393.882	460.44
394.107	438.44
394.331	453.44
394.556	434.44
394.78	461.44
395.005	481.44
395.229	441.44
395.454	454.44
395.678	478.44
395.903	464.44
396.127	516.44
396.352	509.44
396.576	476.44
396.801	469.44
397.025	469.44
397.249	476.44
397.474	477.44
397.698	505.44
397.922	494.44
398.147	506.44
398.371	503.44
398.595	487.44
398.82	503.44
399.044	534.44
399.268	561.44
399.492	577.44
399.717	617.44
399.941	635.44
400.165	662.44
400.389	654.44
400.613	594.44
400.837	583.44
401.062	526.44
401.286	531.44
401.51	541.44
401.734	544.44
401.958	561.44
402.182	511.44
402.406	509.44
402.63	505.44
402.854	527.44
403.078	528.44
403.302	516.44
403.526	558.44
403.75	549.44
403.974	565.44
404.198	538.44
404.422	541.44
404.645	564.44
404.869	559.44
405.093	566.44
405.317	614.44
405.541	631.44
405.765	597.44
405.988	565.44
406.212	573.44
406.436	566.44
406.66	598.44
406.883	570.44
407.107	603.44
407.331	641.44
407.555	703.44
407.778	675.44
408.002	644.44
408.226	582.44
408.449	607.44
408.673	583.44
408.896	601.44
409.12	649.44
409.344	619.44
409.567	547.44
409.791	567.44
410.014	547.44
410.238	543.44
410.461	532.44
410.685	511.44
410.908	552.44
411.132	561.44
411.355	597.44
411.578	601.44
411.802	554.44
412.025	522.44
412.249	535.44
412.472	573.44
412.695	586.44
412.919	566.44
413.142	527.44
413.365	537.44
413.589	527.44
413.812	528.44
414.035	499.44
414.258	505.44
414.482	510.44
414.705	492.44
414.928	503.44
415.151	490.44
415.374	507.44
415.597	509.44
415.821	488.44
416.044	518.44
416.267	519.44
416.49	498.44
416.713	506.44
416.936	523.44
417.159	493.44
417.382	509.44
417.605	516.44
417.828	515.44
418.051	513.44
418.274	519.44
418.497	505.44
418.72	514.44
418.943	513.44
419.166	534.44
419.389	569.44
419.611	549.44
419.834	521.44
420.057	529.44
420.28	528.44
420.503	547.44
420.726	526.44
420.948	535.44
421.171	555.44
421.394	583.44
421.617	558.44
421.839	545.44
422.062	545.44
422.285	530.44
422.507	581.44
422.73	666.44
422.953	629.44
423.175	573.44
423.398	553.44
423.621	550.44
423.843	587.44
424.066	558.44
424.288	553.44
424.511	581.44
424.733	646.44
424.956	711.44
425.178	673.44
425.401	666.44
425.623	685.44
425.846	592.44
426.068	536.44
426.291	540.44
426.513	559.44
426.735	558.44
426.958	577.44
427.18	660.44
427.402	774.44
427.625	863.44
427.847	707.44
428.069	616.44
428.292	577.44
428.514	526.44
428.736	535.44
428.958	521.44
429.181	508.44
429.403	490.44
429.625	510.44
429.847	542.44
430.069	614.44
430.292	595.44
430.514	539.44
430.736	513.44
430.958	530.44
431.18	494.44
431.402	480.44
431.624	474.44
431.846	469.44
432.068	478.44
432.29	482.44
432.512	498.44
432.734	499.44
432.956	484.44
433.178	491.44
433.4	505.44
433.622	500.44
433.844	501.44
434.066	487.44
434.287	469.44
434.509	506.44
434.731	519.44
434.953	537.44
435.175	556.44
435.397	556.44
435.618	527.44
435.84	580.44
436.062	674.44
436.284	725.44
436.505	608.44
436.727	527.44
436.949	517.44
437.17	497.44
437.392	491.44
437.614	501.44
437.835	527.44
438.057	605.44
438.278	715.44
438.5	696.44
438.721	787.44
438.943	769.44
439.165	628.44
439.386	540.44
439.608	520.44
439.829	527.44
440.05	570.44
440.272	612.44
440.493	577.44
440.715	527.44
440.936	506.44
441.158	515.44
441.379	481.44
441.6	519.44
441.822	531.44
442.043	581.44
442.264	642.44
442.486	677.44
442.707	618.44
442.928	561.44
443.149	562.44
443.371	548.44
443.592	625.44
443.813	691.44
444.034	763.44
444.255	643.44
444.476	572.44
444.698	583.44
444.919	607.44
445.14	711.44
445.361	599.44
445.582	608.44
445.803	617.44
446.024	721.44
446.245	709.44
446.466	662.44
446.687	567.44
446.908	526.44
447.129	522.44
447.35	505.44
447.571	501.44
447.792	493.44
448.013	502.44
448.234	503.44
448.455	578.44
448.675	670.44
448.896	754.44
449.117	648.44
449.338	597.44
449.559	703.44
449.779	814.44
450	631.44
450.221	518.44
450.442	498.44
450.662	491.44
450.883	488.44
451.104	466.44
451.324	479.44
451.545	491.44
451.766	479.44
451.986	440.44
452.207	443.44
452.428	436.44
452.648	445.44
452.869	443.44
453.089	469.44
453.31	463.44
453.53	448.44
453.751	444.44
453.971	452.44
454.192	458.44
454.412	461.44
454.633	446.44
454.853	462.44
455.073	440.44
455.294	474.44
455.514	523.44
455.734	511.44
455.955	441.44
456.175	416.44
456.395	425.44
456.616	437.44
456.836	442.44
457.056	417.44
457.276	429.44
457.497	416.44
457.717	415.44
457.937	434.44
458.157	421.44
458.377	444.44
458.598	466.44
458.818	473.44
459.038	571.44
459.258	583.44
459.478	519.44
459.698	472.44
459.918	469.44
460.138	481.44
460.358	500.44
460.578	490.44
460.798	521.44
461.018	512.44
461.238	514.44
461.458	499.44
461.678	478.44
461.898	523.44
462.118	493.44
462.338	523.44
462.558	509.44
462.777	548.44
462.997	547.44
463.217	578.44
463.437	598.44
463.657	543.44
463.876	555.44
464.096	552.44
464.316	538.44
464.536	549.44
464.755	535.44
464.975	531.44
465.195	548.44
465.414	569.44
465.634	535.44
465.854	516.44
466.073	475.44
466.293	485.44
466.512	481.44
466.732	462.44
466.951	471.44
467.171	452.44
467.391	483.44
467.61	464.44
467.829	476.44
468.049	479.44
468.268	469.44
468.488	446.44
468.707	433.44
468.927	445.44
469.146	430.44
469.365	428.44
469.585	457.44
469.804	468.44
470.023	483.44
470.243	470.44
470.462	474.44
470.681	471.44
470.901	492.44
471.12	476.44
471.339	464.44
471.558	481.44
471.777	473.44
471.997	452.44
472.216	463.44
472.435	484.44
472.654	469.44
472.873	465.44
473.092	457.44
473.311	461.44
473.53	456.44
473.749	483.44
473.968	515.44
474.187	606.44
474.406	625.44
474.625	522.44
474.844	475.44
475.063	456.44
475.282	454.44
475.501	486.44
475.72	495.44
475.939	481.44
476.158	488.44
476.377	498.44
476.596	490.44
476.814	506.44
477.033	492.44
477.252	490.44
477.471	489.44
477.69	519.44
477.908	509.44
478.127	517.44
478.346	503.44
478.564	528.44
478.783	531.44
479.002	562.44
479.22	563.44
479.439	547.44
479.658	559.44
479.876	538.44
480.095	587.44
480.313	586.44
480.532	607.44
480.751	600.44
480.969	589.44
481.188	609.44
481.406	628.44
481.624	578.44
481.843	553.44
482.061	578.44
482.28	534.44
482.498	513.44
482.717	553.44
482.935	531.44
483.153	543.44
483.372	560.44
483.59	543.44
483.808	547.44
484.027	565.44
484.245	545.44
484.463	534.44
484.681	573.44
484.9	563.44
485.118	553.44
485.336	558.44
485.554	559.44
485.772	555.44
485.99	560.44
486.209	563.44
486.427	565.44
486.645	577.44
486.863	581.44
487.081	573.44
487.299	582.44
487.517	578.44
487.735	564.44
487.953	590.44
488.171	604.44
488.389	577.44
488.607	599.44
488.825	577.44
489.043	595.44
489.261	565.44
489.479	586.44
489.696	585.44
489.914	595.44
490.132	596.44
490.35	621.44
490.568	598.44
490.786	612.44
491.003	621.44
491.221	644.44
491.439	643.44
491.657	617.44
491.874	675.44
492.092	654.44
492.31	645.44
492.527	656.44
492.745	689.44
492.963	688.44
493.18	678.44
493.398	653.44
493.615	647.44
493.833	691.44
494.05	692.44
494.268	673.44
494.485	679.44
494.703	676.44
494.92	676.44
495.138	694.44
495.355	703.44
495.573	672.44
495.79	681.44
496.008	708.44
496.225	681.44
496.442	674.44
496.66	694.44
496.877	707.44
497.094	700.44
497.312	713.44
497.529	725.44
497.746	727.44
497.963	745.44
498.181	753.44
498.398	777.44
498.615	791.44
498.832	802.44
499.049	825.44
499.267	873.44
499.484	883.44
499.701	915.44
499.918	974.44
500.135	1006.44
500.352	1109.44
500.569	1096.44
500.786	1149.44
501.003	1110.44
501.22	1035.44
501.437	1000.44
501.654	952.44
