Data from 1976.PennyLincolnUp.Lamp.En5.5.200Scan.071719.P1.Changed Mount._HRD10591_16-01-46-861.txt Node
Date: Thu Jul 18 16:01:46 EDT 2019
User: cochatt
Spectrometer: HR+D1059
Trigger mode: 1
Integration Time (sec): 1.000000E-1
Scans to average: 1
Electric dark correction enabled: true
Nonlinearity correction enabled: false
Boxcar width: 0
XAxis mode: Wavelengths
Number of Pixels in Spectrum: 2048
>>>>>Begin Spectral Data<<<<<
223.165	-28.31
223.4	-28.31
223.635	-28.31
223.869	-17.31
224.104	-20.31
224.338	-10.31
224.573	-11.31
224.808	-11.31
225.042	-5.31
225.277	-13.31
225.511	-9.31
225.746	8.69
225.98	11.69
226.215	9.69
226.449	23.69
226.683	13.69
226.918	23.69
227.152	35.69
227.387	32.69
227.621	35.69
227.856	57.69
228.09	45.69
228.324	45.69
228.559	69.69
228.793	75.69
229.027	89.69
229.262	112.69
229.496	112.69
229.73	140.69
229.964	152.69
230.199	123.69
230.433	129.69
230.667	122.69
230.901	104.69
231.136	118.69
231.37	113.69
231.604	116.69
231.838	125.69
232.072	116.69
232.306	116.69
232.541	112.69
232.775	107.69
233.009	124.69
233.243	108.69
233.477	124.69
233.711	123.69
233.945	130.69
234.179	136.69
234.413	105.69
234.647	118.69
234.881	124.69
235.115	116.69
235.349	125.69
235.583	120.69
235.817	123.69
236.051	121.69
236.285	128.69
236.519	126.69
236.753	136.69
236.987	144.69
237.221	183.69
237.455	224.69
237.689	188.69
237.922	156.69
238.156	153.69
238.39	148.69
238.624	138.69
238.858	123.69
239.091	126.69
239.325	129.69
239.559	132.69
239.793	112.69
240.027	122.69
240.26	132.69
240.494	149.69
240.728	163.69
240.961	165.69
241.195	159.69
241.429	130.69
241.662	149.69
241.896	126.69
242.13	143.69
242.363	152.69
242.597	141.69
242.83	147.69
243.064	148.69
243.298	139.69
243.531	142.69
243.765	154.69
243.998	156.69
244.232	168.69
244.465	148.69
244.699	158.69
244.932	139.69
245.166	151.69
245.399	163.69
245.633	171.69
245.866	153.69
246.099	141.69
246.333	146.69
246.566	158.69
246.8	154.69
247.033	156.69
247.266	151.69
247.5	172.69
247.733	180.69
247.966	186.69
248.2	166.69
248.433	178.69
248.666	183.69
248.899	189.69
249.133	194.69
249.366	207.69
249.599	195.69
249.832	202.69
250.066	173.69
250.299	206.69
250.532	182.69
250.765	213.69
250.998	245.69
251.231	245.69
251.465	216.69
251.698	206.69
251.931	205.69
252.164	201.69
252.397	201.69
252.63	204.69
252.863	209.69
253.096	216.69
253.329	213.69
253.562	230.69
253.795	226.69
254.028	220.69
254.261	224.69
254.494	215.69
254.727	258.69
254.96	292.69
255.193	292.69
255.426	246.69
255.659	263.69
255.892	237.69
256.124	233.69
256.357	253.69
256.59	238.69
256.823	234.69
257.056	224.69
257.289	216.69
257.521	216.69
257.754	212.69
257.987	223.69
258.22	235.69
258.452	227.69
258.685	220.69
258.918	212.69
259.151	228.69
259.383	233.69
259.616	228.69
259.849	225.69
260.081	254.69
260.314	259.69
260.547	278.69
260.779	244.69
261.012	235.69
261.244	244.69
261.477	215.69
261.71	217.69
261.942	236.69
262.175	244.69
262.407	241.69
262.64	216.69
262.872	219.69
263.105	240.69
263.337	232.69
263.57	229.69
263.802	212.69
264.035	227.69
264.267	226.69
264.499	229.69
264.732	238.69
264.964	237.69
265.197	232.69
265.429	219.69
265.661	237.69
265.894	220.69
266.126	246.69
266.358	227.69
266.591	234.69
266.823	240.69
267.055	245.69
267.287	236.69
267.52	231.69
267.752	249.69
267.984	235.69
268.216	239.69
268.448	240.69
268.681	250.69
268.913	257.69
269.145	268.69
269.377	309.69
269.609	282.69
269.841	284.69
270.073	274.69
270.306	320.69
270.538	326.69
270.77	334.69
271.002	320.69
271.234	298.69
271.466	310.69
271.698	315.69
271.93	344.69
272.162	328.69
272.394	316.69
272.626	316.69
272.858	302.69
273.09	297.69
273.322	274.69
273.553	286.69
273.785	280.69
274.017	284.69
274.249	289.69
274.481	297.69
274.713	294.69
274.945	294.69
275.176	287.69
275.408	284.69
275.64	288.69
275.872	291.69
276.104	270.69
276.335	280.69
276.567	291.69
276.799	300.69
277.031	326.69
277.262	325.69
277.494	338.69
277.726	320.69
277.957	335.69
278.189	289.69
278.421	314.69
278.652	285.69
278.884	301.69
279.115	270.69
279.347	282.69
279.579	284.69
279.81	281.69
280.042	289.69
280.273	296.69
280.505	286.69
280.736	286.69
280.968	290.69
281.199	297.69
281.431	275.69
281.662	318.69
281.894	301.69
282.125	298.69
282.356	311.69
282.588	337.69
282.819	322.69
283.051	305.69
283.282	282.69
283.513	288.69
283.745	289.69
283.976	301.69
284.207	316.69
284.439	293.69
284.67	320.69
284.901	324.69
285.132	316.69
285.364	314.69
285.595	298.69
285.826	319.69
286.057	315.69
286.288	295.69
286.52	323.69
286.751	326.69
286.982	317.69
287.213	306.69
287.444	335.69
287.675	316.69
287.906	329.69
288.138	338.69
288.369	323.69
288.6	358.69
288.831	320.69
289.062	327.69
289.293	322.69
289.524	324.69
289.755	329.69
289.986	315.69
290.217	333.69
290.448	333.69
290.679	319.69
290.91	310.69
291.141	312.69
291.371	310.69
291.602	314.69
291.833	301.69
292.064	325.69
292.295	300.69
292.526	313.69
292.757	326.69
292.987	310.69
293.218	320.69
293.449	324.69
293.68	337.69
293.91	320.69
294.141	326.69
294.372	324.69
294.603	311.69
294.833	328.69
295.064	314.69
295.295	325.69
295.525	317.69
295.756	337.69
295.987	345.69
296.217	352.69
296.448	354.69
296.679	344.69
296.909	331.69
297.14	331.69
297.37	328.69
297.601	338.69
297.831	314.69
298.062	321.69
298.292	331.69
298.523	346.69
298.753	331.69
298.984	352.69
299.214	342.69
299.445	350.69
299.675	363.69
299.905	333.69
300.136	345.69
300.366	368.69
300.597	370.69
300.827	353.69
301.057	362.69
301.288	360.69
301.518	359.69
301.748	362.69
301.979	370.69
302.209	344.69
302.439	380.69
302.669	358.69
302.9	352.69
303.13	366.69
303.36	370.69
303.59	371.69
303.82	372.69
304.051	370.69
304.281	373.69
304.511	356.69
304.741	363.69
304.971	347.69
305.201	369.69
305.431	354.69
305.661	370.69
305.891	370.69
306.121	347.69
306.352	348.69
306.582	371.69
306.812	376.69
307.042	365.69
307.272	365.69
307.502	379.69
307.731	382.69
307.961	358.69
308.191	380.69
308.421	368.69
308.651	372.69
308.881	365.69
309.111	380.69
309.341	378.69
309.571	383.69
309.8	393.69
310.03	386.69
310.26	397.69
310.49	378.69
310.72	428.69
310.949	426.69
311.179	418.69
311.409	380.69
311.639	376.69
311.868	402.69
312.098	393.69
312.328	418.69
312.557	425.69
312.787	449.69
313.017	422.69
313.246	405.69
313.476	398.69
313.706	427.69
313.935	390.69
314.165	403.69
314.394	431.69
314.624	402.69
314.853	404.69
315.083	420.69
315.312	411.69
315.542	406.69
315.771	396.69
316.001	399.69
316.23	418.69
316.46	415.69
316.689	395.69
316.919	402.69
317.148	425.69
317.377	404.69
317.607	429.69
317.836	416.69
318.065	411.69
318.295	404.69
318.524	392.69
318.753	394.69
318.983	401.69
319.212	400.69
319.441	404.69
319.67	407.69
319.9	402.69
320.129	386.69
320.358	389.69
320.587	415.69
320.816	403.69
321.046	422.69
321.275	434.69
321.504	417.69
321.733	425.69
321.962	423.69
322.191	449.69
322.42	412.69
322.649	445.69
322.878	457.69
323.108	469.69
323.337	477.69
323.566	521.69
323.795	526.69
324.024	570.69
324.253	666.69
324.482	903.69
324.71	1406.69
324.939	2078.69
325.168	1825.69
325.397	896.69
325.626	627.69
325.855	538.69
326.084	517.69
326.313	506.69
326.542	507.69
326.77	550.69
326.999	636.69
327.228	852.69
327.457	1279.69
327.686	1562.69
327.914	1042.69
328.143	693.69
328.372	618.69
328.6	572.69
328.829	572.69
329.058	580.69
329.287	579.69
329.515	547.69
329.744	538.69
329.972	533.69
330.201	547.69
330.43	582.69
330.658	588.69
330.887	595.69
331.115	598.69
331.344	554.69
331.572	506.69
331.801	525.69
332.03	514.69
332.258	511.69
332.486	495.69
332.715	493.69
332.943	487.69
333.172	480.69
333.4	515.69
333.629	497.69
333.857	510.69
334.085	542.69
334.314	538.69
334.542	556.69
334.771	565.69
334.999	541.69
335.227	508.69
335.455	499.69
335.684	482.69
335.912	482.69
336.14	490.69
336.369	492.69
336.597	477.69
336.825	493.69
337.053	498.69
337.281	491.69
337.51	462.69
337.738	489.69
337.966	476.69
338.194	473.69
338.422	475.69
338.65	477.69
338.878	451.69
339.106	457.69
339.334	454.69
339.562	470.69
339.79	462.69
340.018	455.69
340.246	461.69
340.474	466.69
340.702	455.69
340.93	461.69
341.158	452.69
341.386	469.69
341.614	446.69
341.842	462.69
342.07	451.69
342.298	454.69
342.526	470.69
342.754	434.69
342.981	454.69
343.209	437.69
343.437	450.69
343.665	468.69
343.893	466.69
344.12	486.69
344.348	487.69
344.576	463.69
344.804	500.69
345.031	482.69
345.259	479.69
345.487	478.69
345.714	459.69
345.942	445.69
346.17	438.69
346.397	436.69
346.625	436.69
346.853	439.69
347.08	453.69
347.308	426.69
347.535	440.69
347.763	436.69
347.99	451.69
348.218	445.69
348.445	464.69
348.673	456.69
348.9	447.69
349.128	454.69
349.355	431.69
349.583	435.69
349.81	426.69
350.037	420.69
350.265	429.69
350.492	441.69
350.72	443.69
350.947	434.69
351.174	438.69
351.402	440.69
351.629	440.69
351.856	435.69
352.083	439.69
352.311	458.69
352.538	452.69
352.765	448.69
352.992	449.69
353.22	445.69
353.447	420.69
353.674	434.69
353.901	425.69
354.128	421.69
354.355	427.69
354.583	405.69
354.81	410.69
355.037	414.69
355.264	409.69
355.491	408.69
355.718	405.69
355.945	400.69
356.172	409.69
356.399	437.69
356.626	416.69
356.853	428.69
357.08	419.69
357.307	404.69
357.534	393.69
357.761	409.69
357.988	426.69
358.215	410.69
358.441	413.69
358.668	412.69
358.895	421.69
359.122	430.69
359.349	443.69
359.576	456.69
359.802	445.69
360.029	470.69
360.256	504.69
360.483	461.69
360.709	458.69
360.936	417.69
361.163	442.69
361.39	440.69
361.616	457.69
361.843	417.69
362.07	425.69
362.296	443.69
362.523	425.69
362.749	421.69
362.976	447.69
363.203	420.69
363.429	426.69
363.656	436.69
363.882	419.69
364.109	414.69
364.335	412.69
364.562	424.69
364.788	418.69
365.015	410.69
365.241	420.69
365.468	421.69
365.694	425.69
365.92	436.69
366.147	394.69
366.373	413.69
366.599	435.69
366.826	395.69
367.052	412.69
367.278	427.69
367.505	424.69
367.731	441.69
367.957	423.69
368.184	448.69
368.41	438.69
368.636	446.69
368.862	445.69
369.089	434.69
369.315	443.69
369.541	428.69
369.767	414.69
369.993	429.69
370.219	434.69
370.445	399.69
370.672	429.69
370.898	428.69
371.124	444.69
371.35	425.69
371.576	422.69
371.802	418.69
372.028	445.69
372.254	420.69
372.48	432.69
372.706	418.69
372.932	435.69
373.158	413.69
373.384	450.69
373.61	453.69
373.835	446.69
374.061	432.69
374.287	435.69
374.513	428.69
374.739	447.69
374.965	457.69
375.191	459.69
375.416	418.69
375.642	425.69
375.868	461.69
376.094	451.69
376.319	419.69
376.545	429.69
376.771	421.69
376.997	427.69
377.222	437.69
377.448	440.69
377.674	434.69
377.899	416.69
378.125	416.69
378.35	429.69
378.576	420.69
378.802	432.69
379.027	412.69
379.253	418.69
379.478	433.69
379.704	441.69
379.929	410.69
380.155	427.69
380.38	436.69
380.606	420.69
380.831	441.69
381.057	414.69
381.282	424.69
381.507	413.69
381.733	424.69
381.958	428.69
382.184	440.69
382.409	438.69
382.634	442.69
382.86	433.69
383.085	451.69
383.31	449.69
383.535	438.69
383.761	448.69
383.986	454.69
384.211	437.69
384.436	452.69
384.662	449.69
384.887	470.69
385.112	484.69
385.337	484.69
385.562	488.69
385.787	448.69
386.013	494.69
386.238	477.69
386.463	480.69
386.688	472.69
386.913	466.69
387.138	461.69
387.363	471.69
387.588	475.69
387.813	469.69
388.038	490.69
388.263	473.69
388.488	482.69
388.713	491.69
388.938	476.69
389.163	472.69
389.387	493.69
389.612	483.69
389.837	449.69
390.062	485.69
390.287	497.69
390.512	483.69
390.736	478.69
390.961	475.69
391.186	473.69
391.411	490.69
391.636	501.69
391.86	506.69
392.085	536.69
392.31	487.69
392.534	514.69
392.759	499.69
392.984	502.69
393.208	497.69
393.433	490.69
393.658	481.69
393.882	474.69
394.107	489.69
394.331	453.69
394.556	459.69
394.78	502.69
395.005	508.69
395.229	481.69
395.454	502.69
395.678	510.69
395.903	531.69
396.127	534.69
396.352	524.69
396.576	488.69
396.801	492.69
397.025	476.69
397.249	493.69
397.474	508.69
397.698	507.69
397.922	545.69
398.147	545.69
398.371	526.69
398.595	549.69
398.82	560.69
399.044	563.69
399.268	608.69
399.492	636.69
399.717	676.69
399.941	705.69
400.165	728.69
400.389	683.69
400.613	646.69
400.837	621.69
401.062	562.69
401.286	550.69
401.51	566.69
401.734	566.69
401.958	564.69
402.182	576.69
402.406	580.69
402.63	569.69
402.854	576.69
403.078	574.69
403.302	575.69
403.526	601.69
403.75	590.69
403.974	592.69
404.198	584.69
404.422	597.69
404.645	587.69
404.869	605.69
405.093	616.69
405.317	663.69
405.541	712.69
405.765	633.69
405.988	620.69
406.212	610.69
406.436	629.69
406.66	656.69
406.883	640.69
407.107	656.69
407.331	699.69
407.555	776.69
407.778	759.69
408.002	704.69
408.226	660.69
408.449	653.69
408.673	634.69
408.896	654.69
409.12	692.69
409.344	673.69
409.567	616.69
409.791	628.69
410.014	582.69
410.238	576.69
410.461	586.69
410.685	582.69
410.908	608.69
411.132	630.69
411.355	678.69
411.578	654.69
411.802	590.69
412.025	605.69
412.249	563.69
412.472	600.69
412.695	650.69
412.919	618.69
413.142	593.69
413.365	597.69
413.589	597.69
413.812	556.69
414.035	556.69
414.258	566.69
414.482	548.69
414.705	539.69
414.928	569.69
415.151	548.69
415.374	544.69
415.597	551.69
415.821	556.69
416.044	530.69
416.267	565.69
416.49	549.69
416.713	564.69
416.936	536.69
417.159	525.69
417.382	537.69
417.605	561.69
417.828	566.69
418.051	580.69
418.274	582.69
418.497	578.69
418.72	555.69
418.943	544.69
419.166	573.69
419.389	611.69
419.611	578.69
419.834	584.69
420.057	587.69
420.28	548.69
420.503	582.69
420.726	565.69
420.948	590.69
421.171	629.69
421.394	678.69
421.617	599.69
421.839	570.69
422.062	563.69
422.285	600.69
422.507	662.69
422.73	745.69
422.953	690.69
423.175	618.69
423.398	616.69
423.621	614.69
423.843	607.69
424.066	634.69
424.288	631.69
424.511	647.69
424.733	676.69
424.956	788.69
425.178	726.69
425.401	706.69
425.623	780.69
425.846	658.69
426.068	617.69
426.291	625.69
426.513	619.69
426.735	606.69
426.958	654.69
427.18	705.69
427.402	884.69
427.625	924.69
427.847	840.69
428.069	700.69
428.292	650.69
428.514	602.69
428.736	584.69
428.958	534.69
429.181	560.69
429.403	564.69
429.625	575.69
429.847	584.69
430.069	650.69
430.292	662.69
430.514	564.69
430.736	542.69
430.958	513.69
431.18	520.69
431.402	515.69
431.624	530.69
431.846	525.69
432.068	528.69
432.29	523.69
432.512	516.69
432.734	537.69
432.956	560.69
433.178	554.69
433.4	538.69
433.622	512.69
433.844	546.69
434.066	540.69
434.287	512.69
434.509	556.69
434.731	565.69
434.953	560.69
435.175	590.69
435.397	610.69
435.618	586.69
435.84	635.69
436.062	714.69
436.284	830.69
436.505	689.69
436.727	598.69
436.949	580.69
437.17	554.69
437.392	573.69
437.614	546.69
437.835	608.69
438.057	679.69
438.278	790.69
438.5	806.69
438.721	881.69
438.943	865.69
439.165	660.69
439.386	614.69
439.608	595.69
439.829	599.69
440.05	616.69
440.272	666.69
440.493	665.69
440.715	570.69
440.936	598.69
441.158	595.69
441.379	557.69
441.6	580.69
441.822	613.69
442.043	649.69
442.264	729.69
442.486	810.69
442.707	656.69
442.928	617.69
443.149	624.69
443.371	637.69
443.592	671.69
443.813	785.69
444.034	846.69
444.255	708.69
444.476	656.69
444.698	630.69
444.919	615.69
445.14	726.69
445.361	703.69
445.582	650.69
445.803	722.69
446.024	805.69
446.245	845.69
446.466	763.69
446.687	647.69
446.908	621.69
447.129	578.69
447.35	568.69
447.571	553.69
447.792	524.69
448.013	528.69
448.234	564.69
448.455	609.69
448.675	736.69
448.896	865.69
449.117	727.69
449.338	690.69
449.559	771.69
449.779	893.69
450	731.69
450.221	598.69
450.442	549.69
450.662	519.69
450.883	528.69
451.104	521.69
451.324	540.69
451.545	498.69
451.766	506.69
451.986	496.69
452.207	472.69
452.428	470.69
452.648	480.69
452.869	483.69
453.089	501.69
453.31	502.69
453.53	500.69
453.751	507.69
453.971	484.69
454.192	490.69
454.412	481.69
454.633	481.69
454.853	474.69
455.073	490.69
455.294	522.69
455.514	572.69
455.734	545.69
455.955	493.69
456.175	485.69
456.395	465.69
456.616	461.69
456.836	472.69
457.056	473.69
457.276	452.69
457.497	454.69
457.717	465.69
457.937	470.69
458.157	509.69
458.377	480.69
458.598	515.69
458.818	542.69
459.038	605.69
459.258	655.69
459.478	566.69
459.698	532.69
459.918	546.69
460.138	528.69
460.358	565.69
460.578	535.69
460.798	564.69
461.018	563.69
461.238	551.69
461.458	555.69
461.678	535.69
461.898	561.69
462.118	564.69
462.338	569.69
462.558	572.69
462.777	613.69
462.997	590.69
463.217	627.69
463.437	625.69
463.657	640.69
463.876	611.69
464.096	594.69
464.316	619.69
464.536	610.69
464.755	598.69
464.975	593.69
465.195	621.69
465.414	661.69
465.634	574.69
465.854	566.69
466.073	540.69
466.293	517.69
466.512	502.69
466.732	503.69
466.951	504.69
467.171	503.69
467.391	512.69
467.61	500.69
467.829	523.69
468.049	520.69
468.268	504.69
468.488	500.69
468.707	491.69
468.927	498.69
469.146	489.69
469.365	488.69
469.585	489.69
469.804	532.69
470.023	529.69
470.243	528.69
470.462	520.69
470.681	548.69
470.901	524.69
471.12	511.69
471.339	509.69
471.558	492.69
471.777	514.69
471.997	489.69
472.216	517.69
472.435	547.69
472.654	515.69
472.873	519.69
473.092	505.69
473.311	481.69
473.53	509.69
473.749	530.69
473.968	552.69
474.187	662.69
474.406	694.69
474.625	568.69
474.844	540.69
475.063	529.69
475.282	510.69
475.501	499.69
475.72	511.69
475.939	534.69
476.158	531.69
476.377	520.69
476.596	524.69
476.814	534.69
477.033	532.69
477.252	537.69
477.471	549.69
477.69	541.69
477.908	546.69
478.127	578.69
478.346	566.69
478.564	568.69
478.783	602.69
479.002	597.69
479.22	589.69
479.439	596.69
479.658	618.69
479.876	607.69
480.095	620.69
480.313	651.69
480.532	665.69
480.751	636.69
480.969	628.69
481.188	714.69
481.406	714.69
481.624	644.69
481.843	605.69
482.061	620.69
482.28	617.69
482.498	568.69
482.717	561.69
482.935	608.69
483.153	595.69
483.372	605.69
483.59	583.69
483.808	600.69
484.027	579.69
484.245	590.69
484.463	609.69
484.681	607.69
484.9	582.69
485.118	595.69
485.336	602.69
485.554	625.69
485.772	634.69
485.99	611.69
486.209	623.69
486.427	614.69
486.645	617.69
486.863	633.69
487.081	642.69
487.299	642.69
487.517	645.69
487.735	643.69
487.953	642.69
488.171	636.69
488.389	634.69
488.607	642.69
488.825	628.69
489.043	636.69
489.261	635.69
489.479	671.69
489.696	633.69
489.914	649.69
490.132	655.69
490.35	664.69
490.568	671.69
490.786	668.69
491.003	678.69
491.221	701.69
491.439	698.69
491.657	718.69
491.874	733.69
492.092	727.69
492.31	741.69
492.527	749.69
492.745	727.69
492.963	720.69
493.18	714.69
493.398	750.69
493.615	755.69
493.833	767.69
494.05	749.69
494.268	757.69
494.485	744.69
494.703	772.69
494.92	740.69
495.138	747.69
495.355	753.69
495.573	754.69
495.79	737.69
496.008	774.69
496.225	752.69
496.442	769.69
496.66	791.69
496.877	737.69
497.094	787.69
497.312	768.69
497.529	818.69
497.746	792.69
497.963	802.69
498.181	824.69
498.398	853.69
498.615	868.69
498.832	906.69
499.049	934.69
499.267	938.69
499.484	973.69
499.701	1021.69
499.918	1063.69
500.135	1121.69
500.352	1173.69
500.569	1207.69
500.786	1229.69
501.003	1180.69
501.22	1141.69
501.437	1101.69
501.654	1023.69
