Data from 1976.PennyLincolnUp.Lamp.En5.5.200Scan.071719.P1.Changed Mount._HRD10591_16-02-21-861.txt Node
Date: Thu Jul 18 16:02:21 EDT 2019
User: cochatt
Spectrometer: HR+D1059
Trigger mode: 1
Integration Time (sec): 1.000000E-1
Scans to average: 1
Electric dark correction enabled: true
Nonlinearity correction enabled: false
Boxcar width: 0
XAxis mode: Wavelengths
Number of Pixels in Spectrum: 2048
>>>>>Begin Spectral Data<<<<<
223.165	-15.12
223.4	-15.12
223.635	-15.12
223.869	-27.12
224.104	-23.12
224.338	-21.12
224.573	-18.12
224.808	-11.12
225.042	-15.12
225.277	-0.12
225.511	0.88
225.746	11.88
225.98	-7.12
226.215	14.88
226.449	22.88
226.683	27.88
226.918	18.88
227.152	40.88
227.387	34.88
227.621	41.88
227.856	39.88
228.09	38.88
228.324	61.88
228.559	52.88
228.793	80.88
229.027	97.88
229.262	106.88
229.496	117.88
229.73	140.88
229.964	164.88
230.199	144.88
230.433	104.88
230.667	109.88
230.901	95.88
231.136	116.88
231.37	103.88
231.604	105.88
231.838	110.88
232.072	115.88
232.306	120.88
232.541	126.88
232.775	122.88
233.009	120.88
233.243	118.88
233.477	104.88
233.711	118.88
233.945	130.88
234.179	126.88
234.413	123.88
234.647	114.88
234.881	109.88
235.115	130.88
235.349	127.88
235.583	126.88
235.817	128.88
236.051	123.88
236.285	145.88
236.519	116.88
236.753	136.88
236.987	152.88
237.221	186.88
237.455	236.88
237.689	189.88
237.922	142.88
238.156	146.88
238.39	128.88
238.624	128.88
238.858	135.88
239.091	148.88
239.325	123.88
239.559	120.88
239.793	134.88
240.027	132.88
240.26	165.88
240.494	168.88
240.728	159.88
240.961	155.88
241.195	150.88
241.429	137.88
241.662	137.88
241.896	148.88
242.13	138.88
242.363	140.88
242.597	133.88
242.83	142.88
243.064	143.88
243.298	138.88
243.531	151.88
243.765	141.88
243.998	151.88
244.232	153.88
244.465	158.88
244.699	150.88
244.932	157.88
245.166	154.88
245.399	155.88
245.633	147.88
245.866	151.88
246.099	150.88
246.333	162.88
246.566	144.88
246.8	152.88
247.033	154.88
247.266	172.88
247.5	158.88
247.733	187.88
247.966	185.88
248.2	171.88
248.433	185.88
248.666	192.88
248.899	182.88
249.133	199.88
249.366	220.88
249.599	195.88
249.832	187.88
250.066	206.88
250.299	198.88
250.532	205.88
250.765	214.88
250.998	227.88
251.231	246.88
251.465	218.88
251.698	205.88
251.931	197.88
252.164	198.88
252.397	202.88
252.63	201.88
252.863	219.88
253.096	224.88
253.329	233.88
253.562	227.88
253.795	231.88
254.028	216.88
254.261	217.88
254.494	224.88
254.727	266.88
254.96	289.88
255.193	298.88
255.426	257.88
255.659	248.88
255.892	243.88
256.124	238.88
256.357	245.88
256.59	230.88
256.823	242.88
257.056	219.88
257.289	204.88
257.521	208.88
257.754	216.88
257.987	208.88
258.22	216.88
258.452	212.88
258.685	221.88
258.918	206.88
259.151	208.88
259.383	222.88
259.616	242.88
259.849	234.88
260.081	230.88
260.314	279.88
260.547	256.88
260.779	252.88
261.012	266.88
261.244	216.88
261.477	246.88
261.71	248.88
261.942	216.88
262.175	250.88
262.407	223.88
262.64	219.88
262.872	230.88
263.105	235.88
263.337	215.88
263.57	219.88
263.802	225.88
264.035	230.88
264.267	244.88
264.499	224.88
264.732	237.88
264.964	217.88
265.197	219.88
265.429	218.88
265.661	229.88
265.894	236.88
266.126	239.88
266.358	213.88
266.591	236.88
266.823	233.88
267.055	240.88
267.287	231.88
267.52	246.88
267.752	240.88
267.984	248.88
268.216	242.88
268.448	240.88
268.681	255.88
268.913	282.88
269.145	266.88
269.377	310.88
269.609	291.88
269.841	284.88
270.073	313.88
270.306	328.88
270.538	328.88
270.77	330.88
271.002	327.88
271.234	299.88
271.466	305.88
271.698	330.88
271.93	321.88
272.162	331.88
272.394	324.88
272.626	330.88
272.858	307.88
273.09	288.88
273.322	309.88
273.553	304.88
273.785	297.88
274.017	262.88
274.249	278.88
274.481	289.88
274.713	285.88
274.945	301.88
275.176	293.88
275.408	276.88
275.64	275.88
275.872	288.88
276.104	266.88
276.335	284.88
276.567	279.88
276.799	295.88
277.031	305.88
277.262	330.88
277.494	344.88
277.726	315.88
277.957	302.88
278.189	309.88
278.421	289.88
278.652	288.88
278.884	281.88
279.115	308.88
279.347	293.88
279.579	286.88
279.81	291.88
280.042	298.88
280.273	297.88
280.505	294.88
280.736	286.88
280.968	288.88
281.199	284.88
281.431	279.88
281.662	298.88
281.894	289.88
282.125	269.88
282.356	305.88
282.588	315.88
282.819	330.88
283.051	321.88
283.282	311.88
283.513	314.88
283.745	294.88
283.976	301.88
284.207	301.88
284.439	311.88
284.67	308.88
284.901	298.88
285.132	293.88
285.364	315.88
285.595	324.88
285.826	307.88
286.057	313.88
286.288	306.88
286.52	312.88
286.751	304.88
286.982	314.88
287.213	306.88
287.444	320.88
287.675	330.88
287.906	302.88
288.138	336.88
288.369	346.88
288.6	318.88
288.831	322.88
289.062	317.88
289.293	333.88
289.524	315.88
289.755	333.88
289.986	332.88
290.217	305.88
290.448	313.88
290.679	330.88
290.91	307.88
291.141	325.88
291.371	311.88
291.602	321.88
291.833	313.88
292.064	324.88
292.295	301.88
292.526	331.88
292.757	307.88
292.987	321.88
293.218	299.88
293.449	328.88
293.68	326.88
293.91	311.88
294.141	325.88
294.372	339.88
294.603	309.88
294.833	326.88
295.064	314.88
295.295	326.88
295.525	336.88
295.756	317.88
295.987	332.88
296.217	341.88
296.448	372.88
296.679	332.88
296.909	325.88
297.14	345.88
297.37	333.88
297.601	329.88
297.831	329.88
298.062	348.88
298.292	336.88
298.523	349.88
298.753	349.88
298.984	329.88
299.214	344.88
299.445	341.88
299.675	358.88
299.905	343.88
300.136	344.88
300.366	338.88
300.597	341.88
300.827	342.88
301.057	356.88
301.288	362.88
301.518	370.88
301.748	352.88
301.979	344.88
302.209	363.88
302.439	350.88
302.669	352.88
302.9	352.88
303.13	343.88
303.36	344.88
303.59	353.88
303.82	360.88
304.051	378.88
304.281	369.88
304.511	360.88
304.741	357.88
304.971	345.88
305.201	350.88
305.431	348.88
305.661	356.88
305.891	361.88
306.121	372.88
306.352	368.88
306.582	375.88
306.812	357.88
307.042	357.88
307.272	366.88
307.502	345.88
307.731	368.88
307.961	372.88
308.191	359.88
308.421	362.88
308.651	379.88
308.881	376.88
309.111	372.88
309.341	376.88
309.571	377.88
309.8	386.88
310.03	390.88
310.26	392.88
310.49	397.88
310.72	406.88
310.949	390.88
311.179	416.88
311.409	389.88
311.639	368.88
311.868	393.88
312.098	402.88
312.328	403.88
312.557	425.88
312.787	438.88
313.017	439.88
313.246	420.88
313.476	416.88
313.706	413.88
313.935	415.88
314.165	429.88
314.394	438.88
314.624	435.88
314.853	419.88
315.083	413.88
315.312	402.88
315.542	417.88
315.771	396.88
316.001	407.88
316.23	386.88
316.46	410.88
316.689	404.88
316.919	416.88
317.148	444.88
317.377	419.88
317.607	408.88
317.836	411.88
318.065	426.88
318.295	393.88
318.524	412.88
318.753	389.88
318.983	398.88
319.212	407.88
319.441	398.88
319.67	414.88
319.9	409.88
320.129	412.88
320.358	408.88
320.587	434.88
320.816	412.88
321.046	425.88
321.275	440.88
321.504	426.88
321.733	452.88
321.962	438.88
322.191	457.88
322.42	454.88
322.649	450.88
322.878	473.88
323.108	498.88
323.337	469.88
323.566	509.88
323.795	545.88
324.024	572.88
324.253	666.88
324.482	938.88
324.71	1446.88
324.939	2145.88
325.168	1842.88
325.397	937.88
325.626	621.88
325.855	543.88
326.084	528.88
326.313	513.88
326.542	512.88
326.77	552.88
326.999	651.88
327.228	860.88
327.457	1288.88
327.686	1600.88
327.914	1043.88
328.143	702.88
328.372	604.88
328.6	574.88
328.829	562.88
329.058	572.88
329.287	588.88
329.515	545.88
329.744	535.88
329.972	537.88
330.201	530.88
330.43	586.88
330.658	606.88
330.887	628.88
331.115	586.88
331.344	538.88
331.572	498.88
331.801	504.88
332.03	520.88
332.258	503.88
332.486	501.88
332.715	507.88
332.943	509.88
333.172	509.88
333.4	508.88
333.629	497.88
333.857	539.88
334.085	531.88
334.314	530.88
334.542	571.88
334.771	577.88
334.999	534.88
335.227	512.88
335.455	505.88
335.684	494.88
335.912	510.88
336.14	484.88
336.369	487.88
336.597	476.88
336.825	491.88
337.053	494.88
337.281	482.88
337.51	476.88
337.738	462.88
337.966	474.88
338.194	483.88
338.422	484.88
338.65	435.88
338.878	468.88
339.106	472.88
339.334	457.88
339.562	461.88
339.79	457.88
340.018	446.88
340.246	466.88
340.474	460.88
340.702	474.88
340.93	486.88
341.158	456.88
341.386	459.88
341.614	445.88
341.842	458.88
342.07	455.88
342.298	469.88
342.526	437.88
342.754	446.88
342.981	433.88
343.209	441.88
343.437	441.88
343.665	469.88
343.893	477.88
344.12	505.88
344.348	493.88
344.576	483.88
344.804	479.88
345.031	469.88
345.259	473.88
345.487	477.88
345.714	447.88
345.942	449.88
346.17	433.88
346.397	450.88
346.625	448.88
346.853	449.88
347.08	440.88
347.308	458.88
347.535	463.88
347.763	438.88
347.99	460.88
348.218	467.88
348.445	442.88
348.673	467.88
348.9	452.88
349.128	449.88
349.355	448.88
349.583	408.88
349.81	444.88
350.037	425.88
350.265	426.88
350.492	445.88
350.72	437.88
350.947	449.88
351.174	449.88
351.402	453.88
351.629	445.88
351.856	458.88
352.083	438.88
352.311	465.88
352.538	469.88
352.765	454.88
352.992	428.88
353.22	453.88
353.447	433.88
353.674	432.88
353.901	425.88
354.128	418.88
354.355	410.88
354.583	412.88
354.81	407.88
355.037	427.88
355.264	437.88
355.491	423.88
355.718	421.88
355.945	416.88
356.172	402.88
356.399	417.88
356.626	392.88
356.853	429.88
357.08	426.88
357.307	411.88
357.534	425.88
357.761	428.88
357.988	412.88
358.215	427.88
358.441	421.88
358.668	400.88
358.895	443.88
359.122	425.88
359.349	433.88
359.576	440.88
359.802	459.88
360.029	461.88
360.256	503.88
360.483	487.88
360.709	442.88
360.936	434.88
361.163	457.88
361.39	446.88
361.616	438.88
361.843	434.88
362.07	438.88
362.296	449.88
362.523	432.88
362.749	428.88
362.976	455.88
363.203	430.88
363.429	426.88
363.656	427.88
363.882	429.88
364.109	412.88
364.335	425.88
364.562	432.88
364.788	440.88
365.015	438.88
365.241	425.88
365.468	420.88
365.694	445.88
365.92	442.88
366.147	429.88
366.373	410.88
366.599	408.88
366.826	411.88
367.052	422.88
367.278	428.88
367.505	440.88
367.731	423.88
367.957	424.88
368.184	429.88
368.41	405.88
368.636	439.88
368.862	457.88
369.089	416.88
369.315	416.88
369.541	403.88
369.767	426.88
369.993	425.88
370.219	419.88
370.445	429.88
370.672	433.88
370.898	442.88
371.124	434.88
371.35	435.88
371.576	437.88
371.802	430.88
372.028	430.88
372.254	455.88
372.48	449.88
372.706	443.88
372.932	447.88
373.158	424.88
373.384	437.88
373.61	424.88
373.835	440.88
374.061	450.88
374.287	448.88
374.513	425.88
374.739	440.88
374.965	465.88
375.191	466.88
375.416	449.88
375.642	443.88
375.868	433.88
376.094	421.88
376.319	414.88
376.545	418.88
376.771	448.88
376.997	437.88
377.222	413.88
377.448	427.88
377.674	414.88
377.899	420.88
378.125	427.88
378.35	426.88
378.576	428.88
378.802	429.88
379.027	446.88
379.253	420.88
379.478	432.88
379.704	425.88
379.929	420.88
380.155	446.88
380.38	428.88
380.606	427.88
380.831	450.88
381.057	432.88
381.282	428.88
381.507	440.88
381.733	435.88
381.958	418.88
382.184	440.88
382.409	445.88
382.634	442.88
382.86	432.88
383.085	445.88
383.31	433.88
383.535	461.88
383.761	442.88
383.986	441.88
384.211	445.88
384.436	455.88
384.662	465.88
384.887	485.88
385.112	470.88
385.337	476.88
385.562	473.88
385.787	470.88
386.013	461.88
386.238	477.88
386.463	480.88
386.688	474.88
386.913	461.88
387.138	480.88
387.363	482.88
387.588	473.88
387.813	473.88
388.038	461.88
388.263	458.88
388.488	480.88
388.713	486.88
388.938	475.88
389.163	484.88
389.387	490.88
389.612	461.88
389.837	472.88
390.062	491.88
390.287	482.88
390.512	511.88
390.736	482.88
390.961	463.88
391.186	479.88
391.411	488.88
391.636	479.88
391.86	520.88
392.085	516.88
392.31	491.88
392.534	485.88
392.759	488.88
392.984	511.88
393.208	503.88
393.433	465.88
393.658	473.88
393.882	499.88
394.107	475.88
394.331	484.88
394.556	478.88
394.78	514.88
395.005	467.88
395.229	489.88
395.454	515.88
395.678	520.88
395.903	517.88
396.127	529.88
396.352	526.88
396.576	537.88
396.801	511.88
397.025	471.88
397.249	507.88
397.474	528.88
397.698	501.88
397.922	525.88
398.147	543.88
398.371	552.88
398.595	570.88
398.82	545.88
399.044	549.88
399.268	590.88
399.492	606.88
399.717	667.88
399.941	672.88
400.165	682.88
400.389	703.88
400.613	628.88
400.837	603.88
401.062	580.88
401.286	583.88
401.51	578.88
401.734	563.88
401.958	570.88
402.182	564.88
402.406	560.88
402.63	584.88
402.854	578.88
403.078	583.88
403.302	589.88
403.526	590.88
403.75	586.88
403.974	578.88
404.198	572.88
404.422	610.88
404.645	606.88
404.869	596.88
405.093	632.88
405.317	669.88
405.541	694.88
405.765	652.88
405.988	617.88
406.212	608.88
406.436	612.88
406.66	657.88
406.883	636.88
407.107	643.88
407.331	717.88
407.555	786.88
407.778	774.88
408.002	680.88
408.226	661.88
408.449	663.88
408.673	642.88
408.896	648.88
409.12	700.88
409.344	666.88
409.567	612.88
409.791	602.88
410.014	590.88
410.238	584.88
410.461	584.88
410.685	584.88
410.908	597.88
411.132	606.88
411.355	700.88
411.578	662.88
411.802	600.88
412.025	574.88
412.249	597.88
412.472	608.88
412.695	631.88
412.919	620.88
413.142	590.88
413.365	562.88
413.589	582.88
413.812	564.88
414.035	553.88
414.258	570.88
414.482	555.88
414.705	549.88
414.928	543.88
415.151	578.88
415.374	560.88
415.597	556.88
415.821	545.88
416.044	557.88
416.267	560.88
416.49	551.88
416.713	541.88
416.936	532.88
417.159	551.88
417.382	552.88
417.605	547.88
417.828	574.88
418.051	589.88
418.274	557.88
418.497	555.88
418.72	546.88
418.943	569.88
419.166	597.88
419.389	600.88
419.611	585.88
419.834	577.88
420.057	582.88
420.28	586.88
420.503	595.88
420.726	578.88
420.948	585.88
421.171	625.88
421.394	660.88
421.617	603.88
421.839	587.88
422.062	573.88
422.285	579.88
422.507	661.88
422.73	743.88
422.953	691.88
423.175	612.88
423.398	606.88
423.621	578.88
423.843	606.88
424.066	629.88
424.288	604.88
424.511	651.88
424.733	670.88
424.956	766.88
425.178	734.88
425.401	725.88
425.623	788.88
425.846	644.88
426.068	622.88
426.291	594.88
426.513	605.88
426.735	597.88
426.958	651.88
427.18	736.88
427.402	875.88
427.625	968.88
427.847	814.88
428.069	742.88
428.292	660.88
428.514	603.88
428.736	583.88
428.958	550.88
429.181	541.88
429.403	550.88
429.625	552.88
429.847	585.88
430.069	666.88
430.292	674.88
430.514	576.88
430.736	579.88
430.958	535.88
431.18	554.88
431.402	546.88
431.624	524.88
431.846	547.88
432.068	518.88
432.29	524.88
432.512	526.88
432.734	540.88
432.956	537.88
433.178	546.88
433.4	549.88
433.622	543.88
433.844	542.88
434.066	514.88
434.287	520.88
434.509	530.88
434.731	534.88
434.953	562.88
435.175	562.88
435.397	598.88
435.618	616.88
435.84	660.88
436.062	725.88
436.284	816.88
436.505	694.88
436.727	626.88
436.949	588.88
437.17	573.88
437.392	574.88
437.614	596.88
437.835	605.88
438.057	684.88
438.278	782.88
438.5	792.88
438.721	859.88
438.943	844.88
439.165	676.88
439.386	601.88
439.608	615.88
439.829	608.88
440.05	630.88
440.272	661.88
440.493	642.88
440.715	593.88
440.936	558.88
441.158	573.88
441.379	585.88
441.6	592.88
441.822	593.88
442.043	633.88
442.264	724.88
442.486	770.88
442.707	678.88
442.928	609.88
443.149	631.88
443.371	655.88
443.592	693.88
443.813	780.88
444.034	863.88
444.255	704.88
444.476	641.88
444.698	634.88
444.919	609.88
445.14	714.88
445.361	665.88
445.582	641.88
445.803	720.88
446.024	832.88
446.245	832.88
446.466	770.88
446.687	647.88
446.908	613.88
447.129	564.88
447.35	535.88
447.571	544.88
447.792	539.88
448.013	544.88
448.234	540.88
448.455	601.88
448.675	744.88
448.896	857.88
449.117	728.88
449.338	660.88
449.559	783.88
449.779	941.88
450	710.88
450.221	608.88
450.442	544.88
450.662	519.88
450.883	557.88
451.104	551.88
451.324	538.88
451.545	519.88
451.766	517.88
451.986	490.88
452.207	507.88
452.428	495.88
452.648	480.88
452.869	502.88
453.089	497.88
453.31	496.88
453.53	516.88
453.751	486.88
453.971	507.88
454.192	508.88
454.412	460.88
454.633	494.88
454.853	487.88
455.073	470.88
455.294	508.88
455.514	593.88
455.734	558.88
455.955	508.88
456.175	476.88
456.395	475.88
456.616	457.88
456.836	457.88
457.056	454.88
457.276	449.88
457.497	460.88
457.717	466.88
457.937	446.88
458.157	477.88
458.377	500.88
458.598	517.88
458.818	546.88
459.038	618.88
459.258	668.88
459.478	585.88
459.698	553.88
459.918	502.88
460.138	518.88
460.358	554.88
460.578	541.88
460.798	543.88
461.018	566.88
461.238	537.88
461.458	557.88
461.678	532.88
461.898	535.88
462.118	538.88
462.338	573.88
462.558	587.88
462.777	607.88
462.997	578.88
463.217	625.88
463.437	628.88
463.657	635.88
463.876	590.88
464.096	601.88
464.316	586.88
464.536	586.88
464.755	611.88
464.975	604.88
465.195	595.88
465.414	680.88
465.634	601.88
465.854	564.88
466.073	548.88
466.293	501.88
466.512	488.88
466.732	508.88
466.951	503.88
467.171	508.88
467.391	508.88
467.61	504.88
467.829	507.88
468.049	509.88
468.268	504.88
468.488	505.88
468.707	487.88
468.927	480.88
469.146	485.88
469.365	508.88
469.585	485.88
469.804	502.88
470.023	545.88
470.243	494.88
470.462	539.88
470.681	523.88
470.901	532.88
471.12	515.88
471.339	525.88
471.558	488.88
471.777	520.88
471.997	503.88
472.216	542.88
472.435	543.88
472.654	520.88
472.873	491.88
473.092	502.88
473.311	501.88
473.53	510.88
473.749	532.88
473.968	556.88
474.187	658.88
474.406	710.88
474.625	575.88
474.844	530.88
475.063	510.88
475.282	512.88
475.501	504.88
475.72	539.88
475.939	507.88
476.158	523.88
476.377	518.88
476.596	507.88
476.814	513.88
477.033	536.88
477.252	549.88
477.471	554.88
477.69	558.88
477.908	563.88
478.127	573.88
478.346	553.88
478.564	576.88
478.783	567.88
479.002	589.88
479.22	606.88
479.439	609.88
479.658	627.88
479.876	629.88
480.095	624.88
480.313	664.88
480.532	636.88
480.751	637.88
480.969	645.88
481.188	696.88
481.406	701.88
481.624	632.88
481.843	630.88
482.061	623.88
482.28	585.88
482.498	616.88
482.717	602.88
482.935	588.88
483.153	586.88
483.372	587.88
483.59	585.88
483.808	595.88
484.027	588.88
484.245	610.88
484.463	574.88
484.681	593.88
484.9	596.88
485.118	604.88
485.336	600.88
485.554	603.88
485.772	610.88
485.99	605.88
486.209	603.88
486.427	634.88
486.645	619.88
486.863	648.88
487.081	626.88
487.299	640.88
487.517	632.88
487.735	622.88
487.953	648.88
488.171	639.88
488.389	650.88
488.607	640.88
488.825	628.88
489.043	640.88
489.261	641.88
489.479	640.88
489.696	632.88
489.914	650.88
490.132	664.88
490.35	661.88
490.568	657.88
490.786	696.88
491.003	706.88
491.221	717.88
491.439	740.88
491.657	711.88
491.874	725.88
492.092	726.88
492.31	756.88
492.527	737.88
492.745	745.88
492.963	748.88
493.18	753.88
493.398	744.88
493.615	737.88
493.833	752.88
494.05	745.88
494.268	752.88
494.485	728.88
494.703	752.88
494.92	783.88
495.138	766.88
495.355	783.88
495.573	746.88
495.79	768.88
496.008	736.88
496.225	739.88
496.442	766.88
496.66	754.88
496.877	753.88
497.094	756.88
497.312	763.88
497.529	794.88
497.746	799.88
497.963	790.88
498.181	841.88
498.398	860.88
498.615	857.88
498.832	886.88
499.049	918.88
499.267	917.88
499.484	968.88
499.701	1012.88
499.918	1046.88
500.135	1109.88
500.352	1194.88
500.569	1230.88
500.786	1230.88
501.003	1178.88
501.22	1160.88
501.437	1065.88
501.654	1031.88
