Data from 1976.PennyLincolnUp.Lamp.En5.5.200Scan.071719.P1.Changed Mount._HRD10591_16-00-34-861.txt Node
Date: Thu Jul 18 16:00:34 EDT 2019
User: cochatt
Spectrometer: HR+D1059
Trigger mode: 1
Integration Time (sec): 1.000000E-1
Scans to average: 1
Electric dark correction enabled: true
Nonlinearity correction enabled: false
Boxcar width: 0
XAxis mode: Wavelengths
Number of Pixels in Spectrum: 2048
>>>>>Begin Spectral Data<<<<<
223.165	-10.56
223.4	-10.56
223.635	-10.56
223.869	-0.56
224.104	-15.56
224.338	-20.56
224.573	-6.56
224.808	-25.56
225.042	-5.56
225.277	-6.56
225.511	4.44
225.746	3.44
225.98	7.44
226.215	11.44
226.449	14.44
226.683	22.44
226.918	15.44
227.152	12.44
227.387	33.44
227.621	30.44
227.856	44.44
228.09	36.44
228.324	37.44
228.559	39.44
228.793	54.44
229.027	92.44
229.262	94.44
229.496	117.44
229.73	133.44
229.964	141.44
230.199	108.44
230.433	103.44
230.667	103.44
230.901	109.44
231.136	95.44
231.37	93.44
231.604	106.44
231.838	109.44
232.072	104.44
232.306	106.44
232.541	109.44
232.775	112.44
233.009	109.44
233.243	116.44
233.477	112.44
233.711	124.44
233.945	129.44
234.179	109.44
234.413	101.44
234.647	111.44
234.881	112.44
235.115	125.44
235.349	129.44
235.583	117.44
235.817	133.44
236.051	118.44
236.285	135.44
236.519	121.44
236.753	128.44
236.987	132.44
237.221	154.44
237.455	218.44
237.689	164.44
237.922	129.44
238.156	122.44
238.39	135.44
238.624	120.44
238.858	125.44
239.091	116.44
239.325	120.44
239.559	126.44
239.793	121.44
240.027	132.44
240.26	131.44
240.494	134.44
240.728	152.44
240.961	153.44
241.195	128.44
241.429	125.44
241.662	134.44
241.896	121.44
242.13	112.44
242.363	123.44
242.597	143.44
242.83	147.44
243.064	136.44
243.298	127.44
243.531	124.44
243.765	126.44
243.998	129.44
244.232	146.44
244.465	143.44
244.699	161.44
244.932	127.44
245.166	140.44
245.399	149.44
245.633	148.44
245.866	153.44
246.099	150.44
246.333	166.44
246.566	132.44
246.8	161.44
247.033	154.44
247.266	160.44
247.5	172.44
247.733	168.44
247.966	148.44
248.2	157.44
248.433	172.44
248.666	172.44
248.899	180.44
249.133	188.44
249.366	197.44
249.599	188.44
249.832	187.44
250.066	185.44
250.299	188.44
250.532	190.44
250.765	200.44
250.998	221.44
251.231	216.44
251.465	214.44
251.698	206.44
251.931	195.44
252.164	182.44
252.397	186.44
252.63	209.44
252.863	192.44
253.096	213.44
253.329	213.44
253.562	216.44
253.795	203.44
254.028	223.44
254.261	199.44
254.494	234.44
254.727	257.44
254.96	260.44
255.193	260.44
255.426	230.44
255.659	221.44
255.892	219.44
256.124	236.44
256.357	222.44
256.59	217.44
256.823	218.44
257.056	220.44
257.289	220.44
257.521	204.44
257.754	204.44
257.987	217.44
258.22	195.44
258.452	213.44
258.685	200.44
258.918	213.44
259.151	207.44
259.383	217.44
259.616	211.44
259.849	216.44
260.081	229.44
260.314	236.44
260.547	256.44
260.779	258.44
261.012	233.44
261.244	225.44
261.477	249.44
261.71	228.44
261.942	220.44
262.175	223.44
262.407	241.44
262.64	210.44
262.872	206.44
263.105	192.44
263.337	216.44
263.57	221.44
263.802	227.44
264.035	206.44
264.267	215.44
264.499	232.44
264.732	214.44
264.964	244.44
265.197	213.44
265.429	220.44
265.661	230.44
265.894	236.44
266.126	228.44
266.358	238.44
266.591	219.44
266.823	238.44
267.055	229.44
267.287	228.44
267.52	222.44
267.752	232.44
267.984	244.44
268.216	233.44
268.448	258.44
268.681	244.44
268.913	258.44
269.145	271.44
269.377	260.44
269.609	276.44
269.841	275.44
270.073	271.44
270.306	292.44
270.538	307.44
270.77	312.44
271.002	296.44
271.234	288.44
271.466	292.44
271.698	289.44
271.93	320.44
272.162	298.44
272.394	316.44
272.626	298.44
272.858	300.44
273.09	284.44
273.322	276.44
273.553	266.44
273.785	255.44
274.017	273.44
274.249	289.44
274.481	273.44
274.713	263.44
274.945	262.44
275.176	262.44
275.408	272.44
275.64	278.44
275.872	245.44
276.104	265.44
276.335	253.44
276.567	272.44
276.799	295.44
277.031	300.44
277.262	330.44
277.494	322.44
277.726	314.44
277.957	289.44
278.189	282.44
278.421	286.44
278.652	281.44
278.884	280.44
279.115	286.44
279.347	264.44
279.579	288.44
279.81	265.44
280.042	272.44
280.273	289.44
280.505	274.44
280.736	262.44
280.968	277.44
281.199	278.44
281.431	290.44
281.662	284.44
281.894	289.44
282.125	292.44
282.356	291.44
282.588	292.44
282.819	325.44
283.051	309.44
283.282	274.44
283.513	289.44
283.745	279.44
283.976	281.44
284.207	306.44
284.439	291.44
284.67	294.44
284.901	302.44
285.132	289.44
285.364	303.44
285.595	306.44
285.826	279.44
286.057	297.44
286.288	310.44
286.52	301.44
286.751	292.44
286.982	301.44
287.213	302.44
287.444	305.44
287.675	305.44
287.906	309.44
288.138	308.44
288.369	320.44
288.6	327.44
288.831	304.44
289.062	308.44
289.293	298.44
289.524	305.44
289.755	306.44
289.986	303.44
290.217	305.44
290.448	295.44
290.679	305.44
290.91	310.44
291.141	283.44
291.371	307.44
291.602	304.44
291.833	297.44
292.064	310.44
292.295	311.44
292.526	303.44
292.757	297.44
292.987	304.44
293.218	313.44
293.449	325.44
293.68	299.44
293.91	306.44
294.141	304.44
294.372	290.44
294.603	304.44
294.833	317.44
295.064	292.44
295.295	302.44
295.525	288.44
295.756	319.44
295.987	326.44
296.217	333.44
296.448	321.44
296.679	330.44
296.909	293.44
297.14	312.44
297.37	313.44
297.601	323.44
297.831	322.44
298.062	310.44
298.292	308.44
298.523	321.44
298.753	333.44
298.984	339.44
299.214	321.44
299.445	324.44
299.675	309.44
299.905	342.44
300.136	323.44
300.366	338.44
300.597	326.44
300.827	316.44
301.057	344.44
301.288	342.44
301.518	341.44
301.748	335.44
301.979	350.44
302.209	335.44
302.439	354.44
302.669	345.44
302.9	349.44
303.13	364.44
303.36	346.44
303.59	338.44
303.82	341.44
304.051	346.44
304.281	338.44
304.511	345.44
304.741	338.44
304.971	346.44
305.201	327.44
305.431	332.44
305.661	347.44
305.891	365.44
306.121	343.44
306.352	335.44
306.582	344.44
306.812	351.44
307.042	354.44
307.272	348.44
307.502	351.44
307.731	357.44
307.961	368.44
308.191	321.44
308.421	348.44
308.651	357.44
308.881	351.44
309.111	364.44
309.341	364.44
309.571	350.44
309.8	354.44
310.03	366.44
310.26	382.44
310.49	382.44
310.72	372.44
310.949	387.44
311.179	410.44
311.409	373.44
311.639	395.44
311.868	382.44
312.098	389.44
312.328	373.44
312.557	388.44
312.787	401.44
313.017	401.44
313.246	390.44
313.476	360.44
313.706	362.44
313.935	383.44
314.165	419.44
314.394	405.44
314.624	400.44
314.853	395.44
315.083	378.44
315.312	394.44
315.542	362.44
315.771	387.44
316.001	391.44
316.23	367.44
316.46	370.44
316.689	393.44
316.919	386.44
317.148	404.44
317.377	383.44
317.607	373.44
317.836	392.44
318.065	390.44
318.295	383.44
318.524	357.44
318.753	374.44
318.983	376.44
319.212	397.44
319.441	400.44
319.67	386.44
319.9	402.44
320.129	373.44
320.358	389.44
320.587	391.44
320.816	394.44
321.046	405.44
321.275	393.44
321.504	393.44
321.733	414.44
321.962	421.44
322.191	406.44
322.42	417.44
322.649	458.44
322.878	452.44
323.108	423.44
323.337	457.44
323.566	466.44
323.795	476.44
324.024	498.44
324.253	613.44
324.482	840.44
324.71	1242.44
324.939	1820.44
325.168	1606.44
325.397	806.44
325.626	586.44
325.855	513.44
326.084	482.44
326.313	465.44
326.542	478.44
326.77	516.44
326.999	589.44
327.228	783.44
327.457	1143.44
327.686	1395.44
327.914	935.44
328.143	625.44
328.372	574.44
328.6	552.44
328.829	529.44
329.058	528.44
329.287	550.44
329.515	559.44
329.744	497.44
329.972	494.44
330.201	499.44
330.43	544.44
330.658	538.44
330.887	575.44
331.115	540.44
331.344	504.44
331.572	481.44
331.801	480.44
332.03	492.44
332.258	479.44
332.486	452.44
332.715	483.44
332.943	474.44
333.172	472.44
333.4	500.44
333.629	490.44
333.857	509.44
334.085	512.44
334.314	526.44
334.542	523.44
334.771	547.44
334.999	515.44
335.227	494.44
335.455	495.44
335.684	484.44
335.912	456.44
336.14	466.44
336.369	472.44
336.597	464.44
336.825	468.44
337.053	457.44
337.281	458.44
337.51	457.44
337.738	460.44
337.966	449.44
338.194	451.44
338.422	471.44
338.65	455.44
338.878	439.44
339.106	433.44
339.334	447.44
339.562	425.44
339.79	444.44
340.018	428.44
340.246	445.44
340.474	439.44
340.702	443.44
340.93	446.44
341.158	434.44
341.386	442.44
341.614	425.44
341.842	426.44
342.07	439.44
342.298	408.44
342.526	421.44
342.754	406.44
342.981	413.44
343.209	409.44
343.437	442.44
343.665	444.44
343.893	449.44
344.12	474.44
344.348	481.44
344.576	455.44
344.804	457.44
345.031	465.44
345.259	450.44
345.487	436.44
345.714	443.44
345.942	439.44
346.17	413.44
346.397	436.44
346.625	427.44
346.853	447.44
347.08	407.44
347.308	436.44
347.535	426.44
347.763	446.44
347.99	448.44
348.218	426.44
348.445	439.44
348.673	438.44
348.9	412.44
349.128	415.44
349.355	425.44
349.583	405.44
349.81	408.44
350.037	403.44
350.265	421.44
350.492	406.44
350.72	419.44
350.947	414.44
351.174	396.44
351.402	447.44
351.629	426.44
351.856	435.44
352.083	446.44
352.311	425.44
352.538	432.44
352.765	430.44
352.992	408.44
353.22	416.44
353.447	414.44
353.674	428.44
353.901	415.44
354.128	399.44
354.355	419.44
354.583	398.44
354.81	412.44
355.037	400.44
355.264	407.44
355.491	395.44
355.718	392.44
355.945	402.44
356.172	408.44
356.399	398.44
356.626	405.44
356.853	393.44
357.08	375.44
357.307	374.44
357.534	402.44
357.761	402.44
357.988	403.44
358.215	398.44
358.441	398.44
358.668	422.44
358.895	393.44
359.122	409.44
359.349	409.44
359.576	415.44
359.802	418.44
360.029	460.44
360.256	436.44
360.483	427.44
360.709	421.44
360.936	428.44
361.163	417.44
361.39	397.44
361.616	413.44
361.843	402.44
362.07	423.44
362.296	398.44
362.523	419.44
362.749	403.44
362.976	398.44
363.203	394.44
363.429	405.44
363.656	417.44
363.882	393.44
364.109	406.44
364.335	410.44
364.562	403.44
364.788	425.44
365.015	411.44
365.241	405.44
365.468	402.44
365.694	410.44
365.92	409.44
366.147	417.44
366.373	404.44
366.599	406.44
366.826	402.44
367.052	405.44
367.278	405.44
367.505	407.44
367.731	409.44
367.957	398.44
368.184	400.44
368.41	426.44
368.636	406.44
368.862	419.44
369.089	405.44
369.315	414.44
369.541	411.44
369.767	388.44
369.993	406.44
370.219	419.44
370.445	394.44
370.672	408.44
370.898	398.44
371.124	412.44
371.35	410.44
371.576	402.44
371.802	413.44
372.028	407.44
372.254	399.44
372.48	393.44
372.706	417.44
372.932	410.44
373.158	435.44
373.384	424.44
373.61	434.44
373.835	402.44
374.061	411.44
374.287	424.44
374.513	432.44
374.739	432.44
374.965	421.44
375.191	435.44
375.416	433.44
375.642	414.44
375.868	422.44
376.094	431.44
376.319	411.44
376.545	406.44
376.771	395.44
376.997	424.44
377.222	405.44
377.448	416.44
377.674	419.44
377.899	433.44
378.125	409.44
378.35	402.44
378.576	407.44
378.802	418.44
379.027	409.44
379.253	429.44
379.478	411.44
379.704	408.44
379.929	398.44
380.155	398.44
380.38	414.44
380.606	432.44
380.831	424.44
381.057	423.44
381.282	416.44
381.507	402.44
381.733	410.44
381.958	412.44
382.184	414.44
382.409	415.44
382.634	420.44
382.86	429.44
383.085	430.44
383.31	448.44
383.535	436.44
383.761	441.44
383.986	434.44
384.211	412.44
384.436	415.44
384.662	461.44
384.887	455.44
385.112	448.44
385.337	460.44
385.562	456.44
385.787	460.44
386.013	469.44
386.238	457.44
386.463	476.44
386.688	465.44
386.913	459.44
387.138	476.44
387.363	470.44
387.588	465.44
387.813	460.44
388.038	465.44
388.263	456.44
388.488	473.44
388.713	475.44
388.938	477.44
389.163	468.44
389.387	467.44
389.612	448.44
389.837	449.44
390.062	468.44
390.287	434.44
390.512	449.44
390.736	478.44
390.961	484.44
391.186	458.44
391.411	441.44
391.636	471.44
391.86	485.44
392.085	514.44
392.31	470.44
392.534	473.44
392.759	464.44
392.984	466.44
393.208	461.44
393.433	471.44
393.658	476.44
393.882	460.44
394.107	470.44
394.331	457.44
394.556	449.44
394.78	471.44
395.005	484.44
395.229	450.44
395.454	460.44
395.678	489.44
395.903	512.44
396.127	510.44
396.352	522.44
396.576	492.44
396.801	477.44
397.025	481.44
397.249	508.44
397.474	506.44
397.698	476.44
397.922	524.44
398.147	521.44
398.371	503.44
398.595	533.44
398.82	542.44
399.044	545.44
399.268	595.44
399.492	628.44
399.717	625.44
399.941	672.44
400.165	684.44
400.389	678.44
400.613	611.44
400.837	560.44
401.062	539.44
401.286	546.44
401.51	545.44
401.734	551.44
401.958	542.44
402.182	543.44
402.406	560.44
402.63	569.44
402.854	547.44
403.078	562.44
403.302	551.44
403.526	564.44
403.75	566.44
403.974	580.44
404.198	553.44
404.422	562.44
404.645	572.44
404.869	567.44
405.093	596.44
405.317	632.44
405.541	690.44
405.765	622.44
405.988	596.44
406.212	562.44
406.436	611.44
406.66	630.44
406.883	606.44
407.107	639.44
407.331	670.44
407.555	745.44
407.778	729.44
408.002	670.44
408.226	620.44
408.449	590.44
408.673	590.44
408.896	621.44
409.12	646.44
409.344	630.44
409.567	568.44
409.791	582.44
410.014	552.44
410.238	584.44
410.461	568.44
410.685	554.44
410.908	590.44
411.132	618.44
411.355	615.44
411.578	603.44
411.802	570.44
412.025	558.44
412.249	578.44
412.472	575.44
412.695	620.44
412.919	614.44
413.142	576.44
413.365	554.44
413.589	548.44
413.812	529.44
414.035	536.44
414.258	528.44
414.482	546.44
414.705	533.44
414.928	540.44
415.151	523.44
415.374	528.44
415.597	529.44
415.821	513.44
416.044	521.44
416.267	512.44
416.49	513.44
416.713	523.44
416.936	513.44
417.159	528.44
417.382	527.44
417.605	525.44
417.828	564.44
418.051	560.44
418.274	542.44
418.497	501.44
418.72	561.44
418.943	510.44
419.166	556.44
419.389	581.44
419.611	579.44
419.834	546.44
420.057	574.44
420.28	548.44
420.503	543.44
420.726	545.44
420.948	576.44
421.171	590.44
421.394	642.44
421.617	566.44
421.839	545.44
422.062	572.44
422.285	570.44
422.507	608.44
422.73	698.44
422.953	664.44
423.175	594.44
423.398	588.44
423.621	574.44
423.843	580.44
424.066	583.44
424.288	567.44
424.511	603.44
424.733	640.44
424.956	724.44
425.178	688.44
425.401	684.44
425.623	716.44
425.846	620.44
426.068	570.44
426.291	564.44
426.513	568.44
426.735	577.44
426.958	606.44
427.18	722.44
427.402	828.44
427.625	926.44
427.847	759.44
428.069	675.44
428.292	616.44
428.514	562.44
428.736	549.44
428.958	547.44
429.181	522.44
429.403	530.44
429.625	545.44
429.847	576.44
430.069	637.44
430.292	630.44
430.514	566.44
430.736	553.44
430.958	545.44
431.18	510.44
431.402	492.44
431.624	500.44
431.846	513.44
432.068	508.44
432.29	485.44
432.512	518.44
432.734	526.44
432.956	516.44
433.178	512.44
433.4	535.44
433.622	492.44
433.844	499.44
434.066	485.44
434.287	508.44
434.509	506.44
434.731	544.44
434.953	526.44
435.175	559.44
435.397	588.44
435.618	584.44
435.84	609.44
436.062	675.44
436.284	759.44
436.505	634.44
436.727	592.44
436.949	549.44
437.17	520.44
437.392	514.44
437.614	549.44
437.835	564.44
438.057	618.44
438.278	771.44
438.5	766.44
438.721	831.44
438.943	792.44
439.165	643.44
439.386	568.44
439.608	576.44
439.829	574.44
440.05	614.44
440.272	641.44
440.493	604.44
440.715	547.44
440.936	528.44
441.158	531.44
441.379	545.44
441.6	576.44
441.822	564.44
442.043	626.44
442.264	714.44
442.486	752.44
442.707	629.44
442.928	593.44
443.149	608.44
443.371	606.44
443.592	666.44
443.813	761.44
444.034	815.44
444.255	701.44
444.476	615.44
444.698	605.44
444.919	591.44
445.14	721.44
445.361	654.44
445.582	624.44
445.803	679.44
446.024	732.44
446.245	751.44
446.466	702.44
446.687	620.44
446.908	573.44
447.129	505.44
447.35	520.44
447.571	524.44
447.792	501.44
448.013	520.44
448.234	544.44
448.455	594.44
448.675	688.44
448.896	794.44
449.117	673.44
449.338	639.44
449.559	743.44
449.779	859.44
450	665.44
450.221	558.44
450.442	511.44
450.662	495.44
450.883	515.44
451.104	534.44
451.324	526.44
451.545	488.44
451.766	469.44
451.986	464.44
452.207	466.44
452.428	469.44
452.648	475.44
452.869	456.44
453.089	484.44
453.31	508.44
453.53	473.44
453.751	450.44
453.971	472.44
454.192	471.44
454.412	462.44
454.633	470.44
454.853	454.44
455.073	463.44
455.294	478.44
455.514	523.44
455.734	519.44
455.955	462.44
456.175	456.44
456.395	422.44
456.616	454.44
456.836	426.44
457.056	455.44
457.276	432.44
457.497	464.44
457.717	441.44
457.937	460.44
458.157	446.44
458.377	456.44
458.598	456.44
458.818	531.44
459.038	579.44
459.258	607.44
459.478	566.44
459.698	500.44
459.918	480.44
460.138	499.44
460.358	524.44
460.578	523.44
460.798	510.44
461.018	525.44
461.238	528.44
461.458	516.44
461.678	522.44
461.898	540.44
462.118	516.44
462.338	541.44
462.558	534.44
462.777	571.44
462.997	561.44
463.217	602.44
463.437	605.44
463.657	588.44
463.876	581.44
464.096	561.44
464.316	576.44
464.536	573.44
464.755	570.44
464.975	571.44
465.195	558.44
465.414	592.44
465.634	572.44
465.854	531.44
466.073	503.44
466.293	497.44
466.512	487.44
466.732	507.44
466.951	460.44
467.171	495.44
467.391	497.44
467.61	486.44
467.829	504.44
468.049	498.44
468.268	509.44
468.488	477.44
468.707	463.44
468.927	480.44
469.146	483.44
469.365	483.44
469.585	482.44
469.804	489.44
470.023	495.44
470.243	484.44
470.462	468.44
470.681	520.44
470.901	501.44
471.12	483.44
471.339	473.44
471.558	490.44
471.777	501.44
471.997	492.44
472.216	497.44
472.435	521.44
472.654	491.44
472.873	481.44
473.092	477.44
473.311	482.44
473.53	475.44
473.749	507.44
473.968	538.44
474.187	632.44
474.406	636.44
474.625	550.44
474.844	498.44
475.063	497.44
475.282	486.44
475.501	480.44
475.72	488.44
475.939	473.44
476.158	519.44
476.377	482.44
476.596	508.44
476.814	506.44
477.033	497.44
477.252	515.44
477.471	511.44
477.69	516.44
477.908	498.44
478.127	552.44
478.346	516.44
478.564	550.44
478.783	567.44
479.002	558.44
479.22	592.44
479.439	571.44
479.658	575.44
479.876	566.44
480.095	594.44
480.313	630.44
480.532	644.44
480.751	617.44
480.969	630.44
481.188	632.44
481.406	662.44
481.624	583.44
481.843	593.44
482.061	574.44
482.28	583.44
482.498	590.44
482.717	565.44
482.935	580.44
483.153	566.44
483.372	576.44
483.59	578.44
483.808	566.44
484.027	560.44
484.245	562.44
484.463	566.44
484.681	584.44
484.9	579.44
485.118	589.44
485.336	568.44
485.554	577.44
485.772	560.44
485.99	599.44
486.209	591.44
486.427	565.44
486.645	593.44
486.863	636.44
487.081	624.44
487.299	611.44
487.517	599.44
487.735	616.44
487.953	631.44
488.171	601.44
488.389	601.44
488.607	601.44
488.825	634.44
489.043	622.44
489.261	621.44
489.479	605.44
489.696	626.44
489.914	629.44
490.132	630.44
490.35	638.44
490.568	644.44
490.786	674.44
491.003	651.44
491.221	658.44
491.439	682.44
491.657	686.44
491.874	694.44
492.092	681.44
492.31	698.44
492.527	686.44
492.745	693.44
492.963	711.44
493.18	693.44
493.398	736.44
493.615	727.44
493.833	718.44
494.05	714.44
494.268	719.44
494.485	717.44
494.703	708.44
494.92	720.44
495.138	690.44
495.355	727.44
495.573	720.44
495.79	690.44
496.008	720.44
496.225	701.44
496.442	726.44
496.66	732.44
496.877	728.44
497.094	732.44
497.312	771.44
497.529	745.44
497.746	772.44
497.963	738.44
498.181	766.44
498.398	801.44
498.615	830.44
498.832	851.44
499.049	870.44
499.267	890.44
499.484	951.44
499.701	979.44
499.918	1034.44
500.135	1073.44
500.352	1107.44
500.569	1157.44
500.786	1166.44
501.003	1138.44
501.22	1081.44
501.437	1053.44
501.654	995.44
