Data from 1976.PennyLincolnUp.Lamp.En5.5.200Scan.071719.P1.Changed Mount._HRD10591_15-59-58-860.txt Node
Date: Thu Jul 18 15:59:58 EDT 2019
User: cochatt
Spectrometer: HR+D1059
Trigger mode: 1
Integration Time (sec): 1.000000E-1
Scans to average: 1
Electric dark correction enabled: true
Nonlinearity correction enabled: false
Boxcar width: 0
XAxis mode: Wavelengths
Number of Pixels in Spectrum: 2048
>>>>>Begin Spectral Data<<<<<
223.165	-27.94
223.4	-27.94
223.635	-27.94
223.869	-20.94
224.104	-22.94
224.338	-23.94
224.573	-13.94
224.808	-2.94
225.042	-7.94
225.277	-4.94
225.511	-23.94
225.746	4.06
225.98	11.06
226.215	19.06
226.449	12.06
226.683	29.06
226.918	28.06
227.152	46.06
227.387	39.06
227.621	49.06
227.856	49.06
228.09	49.06
228.324	43.06
228.559	61.06
228.793	81.06
229.027	101.06
229.262	100.06
229.496	103.06
229.73	130.06
229.964	159.06
230.199	121.06
230.433	126.06
230.667	103.06
230.901	116.06
231.136	111.06
231.37	113.06
231.604	107.06
231.838	119.06
232.072	111.06
232.306	116.06
232.541	121.06
232.775	112.06
233.009	119.06
233.243	121.06
233.477	113.06
233.711	128.06
233.945	121.06
234.179	148.06
234.413	126.06
234.647	126.06
234.881	110.06
235.115	125.06
235.349	112.06
235.583	143.06
235.817	123.06
236.051	127.06
236.285	138.06
236.519	115.06
236.753	138.06
236.987	139.06
237.221	164.06
237.455	227.06
237.689	192.06
237.922	130.06
238.156	149.06
238.39	132.06
238.624	135.06
238.858	125.06
239.091	135.06
239.325	123.06
239.559	124.06
239.793	146.06
240.027	124.06
240.26	152.06
240.494	163.06
240.728	146.06
240.961	138.06
241.195	148.06
241.429	149.06
241.662	139.06
241.896	140.06
242.13	135.06
242.363	126.06
242.597	124.06
242.83	137.06
243.064	135.06
243.298	131.06
243.531	142.06
243.765	142.06
243.998	147.06
244.232	150.06
244.465	158.06
244.699	153.06
244.932	158.06
245.166	137.06
245.399	157.06
245.633	157.06
245.866	158.06
246.099	153.06
246.333	156.06
246.566	149.06
246.8	157.06
247.033	159.06
247.266	149.06
247.5	151.06
247.733	160.06
247.966	183.06
248.2	159.06
248.433	171.06
248.666	180.06
248.899	197.06
249.133	189.06
249.366	190.06
249.599	191.06
249.832	173.06
250.066	180.06
250.299	176.06
250.532	213.06
250.765	217.06
250.998	221.06
251.231	225.06
251.465	201.06
251.698	199.06
251.931	209.06
252.164	204.06
252.397	188.06
252.63	188.06
252.863	208.06
253.096	208.06
253.329	207.06
253.562	216.06
253.795	199.06
254.028	206.06
254.261	213.06
254.494	218.06
254.727	240.06
254.96	261.06
255.193	257.06
255.426	247.06
255.659	214.06
255.892	239.06
256.124	216.06
256.357	220.06
256.59	234.06
256.823	216.06
257.056	206.06
257.289	220.06
257.521	211.06
257.754	216.06
257.987	191.06
258.22	212.06
258.452	207.06
258.685	191.06
258.918	208.06
259.151	221.06
259.383	222.06
259.616	235.06
259.849	223.06
260.081	212.06
260.314	263.06
260.547	263.06
260.779	251.06
261.012	249.06
261.244	204.06
261.477	229.06
261.71	233.06
261.942	234.06
262.175	221.06
262.407	221.06
262.64	223.06
262.872	201.06
263.105	217.06
263.337	211.06
263.57	219.06
263.802	211.06
264.035	216.06
264.267	229.06
264.499	211.06
264.732	218.06
264.964	223.06
265.197	222.06
265.429	225.06
265.661	226.06
265.894	223.06
266.126	238.06
266.358	233.06
266.591	215.06
266.823	233.06
267.055	229.06
267.287	229.06
267.52	232.06
267.752	217.06
267.984	237.06
268.216	235.06
268.448	232.06
268.681	248.06
268.913	256.06
269.145	257.06
269.377	286.06
269.609	272.06
269.841	243.06
270.073	293.06
270.306	293.06
270.538	298.06
270.77	311.06
271.002	311.06
271.234	286.06
271.466	304.06
271.698	319.06
271.93	316.06
272.162	329.06
272.394	300.06
272.626	306.06
272.858	299.06
273.09	279.06
273.322	283.06
273.553	272.06
273.785	246.06
274.017	252.06
274.249	264.06
274.481	251.06
274.713	251.06
274.945	255.06
275.176	268.06
275.408	267.06
275.64	273.06
275.872	257.06
276.104	277.06
276.335	275.06
276.567	273.06
276.799	273.06
277.031	304.06
277.262	307.06
277.494	319.06
277.726	292.06
277.957	295.06
278.189	291.06
278.421	286.06
278.652	265.06
278.884	311.06
279.115	272.06
279.347	285.06
279.579	275.06
279.81	283.06
280.042	270.06
280.273	294.06
280.505	289.06
280.736	282.06
280.968	297.06
281.199	288.06
281.431	263.06
281.662	282.06
281.894	297.06
282.125	290.06
282.356	302.06
282.588	306.06
282.819	300.06
283.051	292.06
283.282	276.06
283.513	286.06
283.745	292.06
283.976	296.06
284.207	297.06
284.439	292.06
284.67	283.06
284.901	300.06
285.132	291.06
285.364	289.06
285.595	292.06
285.826	278.06
286.057	292.06
286.288	297.06
286.52	286.06
286.751	285.06
286.982	312.06
287.213	308.06
287.444	294.06
287.675	301.06
287.906	298.06
288.138	308.06
288.369	324.06
288.6	315.06
288.831	312.06
289.062	311.06
289.293	301.06
289.524	306.06
289.755	302.06
289.986	291.06
290.217	300.06
290.448	303.06
290.679	281.06
290.91	312.06
291.141	301.06
291.371	325.06
291.602	308.06
291.833	303.06
292.064	304.06
292.295	309.06
292.526	309.06
292.757	304.06
292.987	314.06
293.218	304.06
293.449	308.06
293.68	320.06
293.91	304.06
294.141	304.06
294.372	333.06
294.603	315.06
294.833	331.06
295.064	316.06
295.295	305.06
295.525	312.06
295.756	301.06
295.987	309.06
296.217	317.06
296.448	353.06
296.679	307.06
296.909	318.06
297.14	305.06
297.37	305.06
297.601	310.06
297.831	324.06
298.062	315.06
298.292	320.06
298.523	308.06
298.753	323.06
298.984	304.06
299.214	315.06
299.445	319.06
299.675	315.06
299.905	318.06
300.136	338.06
300.366	325.06
300.597	331.06
300.827	342.06
301.057	325.06
301.288	309.06
301.518	341.06
301.748	335.06
301.979	343.06
302.209	346.06
302.439	342.06
302.669	349.06
302.9	337.06
303.13	336.06
303.36	327.06
303.59	360.06
303.82	346.06
304.051	339.06
304.281	350.06
304.511	331.06
304.741	324.06
304.971	340.06
305.201	352.06
305.431	351.06
305.661	337.06
305.891	341.06
306.121	347.06
306.352	342.06
306.582	365.06
306.812	347.06
307.042	331.06
307.272	344.06
307.502	345.06
307.731	349.06
307.961	346.06
308.191	345.06
308.421	362.06
308.651	353.06
308.881	344.06
309.111	349.06
309.341	361.06
309.571	359.06
309.8	368.06
310.03	370.06
310.26	379.06
310.49	367.06
310.72	375.06
310.949	391.06
311.179	382.06
311.409	369.06
311.639	384.06
311.868	359.06
312.098	378.06
312.328	366.06
312.557	405.06
312.787	408.06
313.017	407.06
313.246	382.06
313.476	369.06
313.706	389.06
313.935	394.06
314.165	378.06
314.394	387.06
314.624	383.06
314.853	394.06
315.083	387.06
315.312	394.06
315.542	396.06
315.771	372.06
316.001	372.06
316.23	394.06
316.46	382.06
316.689	387.06
316.919	385.06
317.148	383.06
317.377	373.06
317.607	385.06
317.836	398.06
318.065	385.06
318.295	377.06
318.524	363.06
318.753	361.06
318.983	395.06
319.212	388.06
319.441	384.06
319.67	394.06
319.9	382.06
320.129	376.06
320.358	370.06
320.587	372.06
320.816	416.06
321.046	381.06
321.275	397.06
321.504	379.06
321.733	384.06
321.962	400.06
322.191	406.06
322.42	389.06
322.649	403.06
322.878	421.06
323.108	440.06
323.337	471.06
323.566	454.06
323.795	475.06
324.024	496.06
324.253	573.06
324.482	779.06
324.71	1159.06
324.939	1727.06
325.168	1507.06
325.397	765.06
325.626	547.06
325.855	507.06
326.084	467.06
326.313	434.06
326.542	473.06
326.77	507.06
326.999	556.06
327.228	724.06
327.457	1050.06
327.686	1294.06
327.914	891.06
328.143	591.06
328.372	564.06
328.6	532.06
328.829	524.06
329.058	507.06
329.287	513.06
329.515	506.06
329.744	507.06
329.972	466.06
330.201	483.06
330.43	514.06
330.658	532.06
330.887	551.06
331.115	556.06
331.344	503.06
331.572	477.06
331.801	479.06
332.03	474.06
332.258	460.06
332.486	445.06
332.715	444.06
332.943	472.06
333.172	466.06
333.4	462.06
333.629	466.06
333.857	466.06
334.085	488.06
334.314	489.06
334.542	524.06
334.771	509.06
334.999	510.06
335.227	488.06
335.455	464.06
335.684	473.06
335.912	464.06
336.14	466.06
336.369	452.06
336.597	476.06
336.825	466.06
337.053	459.06
337.281	461.06
337.51	455.06
337.738	435.06
337.966	454.06
338.194	436.06
338.422	435.06
338.65	448.06
338.878	451.06
339.106	450.06
339.334	430.06
339.562	426.06
339.79	457.06
340.018	429.06
340.246	416.06
340.474	427.06
340.702	423.06
340.93	430.06
341.158	440.06
341.386	424.06
341.614	431.06
341.842	434.06
342.07	432.06
342.298	430.06
342.526	436.06
342.754	433.06
342.981	431.06
343.209	425.06
343.437	420.06
343.665	447.06
343.893	455.06
344.12	473.06
344.348	477.06
344.576	441.06
344.804	421.06
345.031	452.06
345.259	445.06
345.487	457.06
345.714	433.06
345.942	420.06
346.17	405.06
346.397	416.06
346.625	410.06
346.853	421.06
347.08	424.06
347.308	420.06
347.535	426.06
347.763	441.06
347.99	429.06
348.218	414.06
348.445	419.06
348.673	435.06
348.9	407.06
349.128	421.06
349.355	411.06
349.583	400.06
349.81	403.06
350.037	417.06
350.265	396.06
350.492	413.06
350.72	404.06
350.947	417.06
351.174	410.06
351.402	401.06
351.629	433.06
351.856	400.06
352.083	441.06
352.311	424.06
352.538	412.06
352.765	431.06
352.992	405.06
353.22	417.06
353.447	394.06
353.674	395.06
353.901	405.06
354.128	393.06
354.355	421.06
354.583	401.06
354.81	403.06
355.037	399.06
355.264	412.06
355.491	392.06
355.718	391.06
355.945	416.06
356.172	391.06
356.399	385.06
356.626	399.06
356.853	401.06
357.08	393.06
357.307	397.06
357.534	394.06
357.761	381.06
357.988	391.06
358.215	399.06
358.441	389.06
358.668	401.06
358.895	391.06
359.122	413.06
359.349	406.06
359.576	402.06
359.802	432.06
360.029	448.06
360.256	460.06
360.483	427.06
360.709	419.06
360.936	405.06
361.163	430.06
361.39	420.06
361.616	427.06
361.843	413.06
362.07	420.06
362.296	414.06
362.523	405.06
362.749	419.06
362.976	411.06
363.203	400.06
363.429	395.06
363.656	384.06
363.882	425.06
364.109	391.06
364.335	403.06
364.562	403.06
364.788	386.06
365.015	391.06
365.241	399.06
365.468	408.06
365.694	408.06
365.92	418.06
366.147	382.06
366.373	418.06
366.599	420.06
366.826	396.06
367.052	400.06
367.278	395.06
367.505	424.06
367.731	392.06
367.957	407.06
368.184	393.06
368.41	419.06
368.636	420.06
368.862	417.06
369.089	420.06
369.315	387.06
369.541	404.06
369.767	413.06
369.993	408.06
370.219	408.06
370.445	420.06
370.672	408.06
370.898	406.06
371.124	395.06
371.35	420.06
371.576	413.06
371.802	407.06
372.028	400.06
372.254	415.06
372.48	414.06
372.706	411.06
372.932	425.06
373.158	422.06
373.384	387.06
373.61	414.06
373.835	408.06
374.061	408.06
374.287	415.06
374.513	427.06
374.739	442.06
374.965	427.06
375.191	449.06
375.416	448.06
375.642	435.06
375.868	407.06
376.094	411.06
376.319	409.06
376.545	407.06
376.771	430.06
376.997	410.06
377.222	434.06
377.448	412.06
377.674	415.06
377.899	414.06
378.125	424.06
378.35	408.06
378.576	408.06
378.802	397.06
379.027	397.06
379.253	402.06
379.478	414.06
379.704	404.06
379.929	411.06
380.155	401.06
380.38	410.06
380.606	425.06
380.831	403.06
381.057	400.06
381.282	412.06
381.507	417.06
381.733	413.06
381.958	433.06
382.184	427.06
382.409	419.06
382.634	439.06
382.86	426.06
383.085	433.06
383.31	410.06
383.535	411.06
383.761	435.06
383.986	455.06
384.211	448.06
384.436	429.06
384.662	448.06
384.887	451.06
385.112	446.06
385.337	450.06
385.562	456.06
385.787	452.06
386.013	455.06
386.238	449.06
386.463	490.06
386.688	472.06
386.913	447.06
387.138	476.06
387.363	476.06
387.588	459.06
387.813	484.06
388.038	463.06
388.263	449.06
388.488	463.06
388.713	468.06
388.938	464.06
389.163	442.06
389.387	464.06
389.612	452.06
389.837	458.06
390.062	459.06
390.287	478.06
390.512	463.06
390.736	463.06
390.961	455.06
391.186	463.06
391.411	453.06
391.636	468.06
391.86	481.06
392.085	479.06
392.31	485.06
392.534	493.06
392.759	468.06
392.984	487.06
393.208	477.06
393.433	467.06
393.658	471.06
393.882	452.06
394.107	461.06
394.331	475.06
394.556	467.06
394.78	478.06
395.005	479.06
395.229	476.06
395.454	476.06
395.678	485.06
395.903	499.06
396.127	501.06
396.352	504.06
396.576	483.06
396.801	473.06
397.025	465.06
397.249	486.06
397.474	505.06
397.698	479.06
397.922	495.06
398.147	519.06
398.371	527.06
398.595	532.06
398.82	540.06
399.044	531.06
399.268	582.06
399.492	601.06
399.717	627.06
399.941	667.06
400.165	681.06
400.389	675.06
400.613	608.06
400.837	569.06
401.062	552.06
401.286	546.06
401.51	539.06
401.734	521.06
401.958	551.06
402.182	544.06
402.406	563.06
402.63	526.06
402.854	537.06
403.078	545.06
403.302	548.06
403.526	571.06
403.75	569.06
403.974	570.06
404.198	572.06
404.422	585.06
404.645	553.06
404.869	588.06
405.093	586.06
405.317	613.06
405.541	651.06
405.765	618.06
405.988	578.06
406.212	609.06
406.436	609.06
406.66	632.06
406.883	573.06
407.107	612.06
407.331	662.06
407.555	697.06
407.778	711.06
408.002	660.06
408.226	639.06
408.449	589.06
408.673	599.06
408.896	624.06
409.12	677.06
409.344	626.06
409.567	557.06
409.791	593.06
410.014	583.06
410.238	577.06
410.461	563.06
410.685	559.06
410.908	566.06
411.132	624.06
411.355	642.06
411.578	595.06
411.802	552.06
412.025	539.06
412.249	547.06
412.472	559.06
412.695	591.06
412.919	610.06
413.142	557.06
413.365	567.06
413.589	533.06
413.812	529.06
414.035	519.06
414.258	530.06
414.482	520.06
414.705	521.06
414.928	526.06
415.151	528.06
415.374	520.06
415.597	539.06
415.821	538.06
416.044	519.06
416.267	510.06
416.49	511.06
416.713	523.06
416.936	510.06
417.159	527.06
417.382	515.06
417.605	541.06
417.828	541.06
418.051	530.06
418.274	538.06
418.497	536.06
418.72	534.06
418.943	535.06
419.166	547.06
419.389	570.06
419.611	574.06
419.834	579.06
420.057	543.06
420.28	546.06
420.503	533.06
420.726	551.06
420.948	540.06
421.171	597.06
421.394	621.06
421.617	561.06
421.839	546.06
422.062	541.06
422.285	536.06
422.507	603.06
422.73	691.06
422.953	644.06
423.175	573.06
423.398	582.06
423.621	586.06
423.843	605.06
424.066	577.06
424.288	564.06
424.511	600.06
424.733	651.06
424.956	719.06
425.178	701.06
425.401	674.06
425.623	706.06
425.846	602.06
426.068	580.06
426.291	558.06
426.513	581.06
426.735	568.06
426.958	601.06
427.18	671.06
427.402	787.06
427.625	867.06
427.847	769.06
428.069	630.06
428.292	605.06
428.514	563.06
428.736	543.06
428.958	554.06
429.181	504.06
429.403	499.06
429.625	531.06
429.847	567.06
430.069	631.06
430.292	600.06
430.514	543.06
430.736	529.06
430.958	501.06
431.18	526.06
431.402	513.06
431.624	510.06
431.846	501.06
432.068	525.06
432.29	511.06
432.512	491.06
432.734	517.06
432.956	503.06
433.178	522.06
433.4	513.06
433.622	508.06
433.844	491.06
434.066	498.06
434.287	503.06
434.509	501.06
434.731	533.06
434.953	508.06
435.175	549.06
435.397	545.06
435.618	560.06
435.84	610.06
436.062	699.06
436.284	753.06
436.505	610.06
436.727	571.06
436.949	526.06
437.17	523.06
437.392	500.06
437.614	533.06
437.835	562.06
438.057	641.06
438.278	717.06
438.5	722.06
438.721	805.06
438.943	777.06
439.165	599.06
439.386	569.06
439.608	571.06
439.829	560.06
440.05	589.06
440.272	621.06
440.493	586.06
440.715	533.06
440.936	524.06
441.158	517.06
441.379	517.06
441.6	541.06
441.822	564.06
442.043	613.06
442.264	679.06
442.486	712.06
442.707	612.06
442.928	569.06
443.149	583.06
443.371	605.06
443.592	647.06
443.813	710.06
444.034	793.06
444.255	651.06
444.476	599.06
444.698	601.06
444.919	584.06
445.14	717.06
445.361	639.06
445.582	625.06
445.803	649.06
446.024	752.06
446.245	736.06
446.466	697.06
446.687	610.06
446.908	592.06
447.129	544.06
447.35	529.06
447.571	524.06
447.792	514.06
448.013	523.06
448.234	529.06
448.455	569.06
448.675	683.06
448.896	803.06
449.117	656.06
449.338	628.06
449.559	748.06
449.779	826.06
450	644.06
450.221	554.06
450.442	517.06
450.662	464.06
450.883	492.06
451.104	487.06
451.324	475.06
451.545	487.06
451.766	457.06
451.986	468.06
452.207	456.06
452.428	456.06
452.648	449.06
452.869	450.06
453.089	481.06
453.31	484.06
453.53	462.06
453.751	458.06
453.971	445.06
454.192	463.06
454.412	475.06
454.633	457.06
454.853	470.06
455.073	468.06
455.294	457.06
455.514	527.06
455.734	545.06
455.955	467.06
456.175	446.06
456.395	452.06
456.616	423.06
456.836	443.06
457.056	436.06
457.276	424.06
457.497	452.06
457.717	434.06
457.937	440.06
458.157	442.06
458.377	442.06
458.598	476.06
458.818	525.06
459.038	580.06
459.258	602.06
459.478	523.06
459.698	514.06
459.918	492.06
460.138	506.06
460.358	503.06
460.578	515.06
460.798	526.06
461.018	538.06
461.238	512.06
461.458	517.06
461.678	525.06
461.898	548.06
462.118	533.06
462.338	521.06
462.558	537.06
462.777	538.06
462.997	558.06
463.217	589.06
463.437	592.06
463.657	592.06
463.876	584.06
464.096	572.06
464.316	545.06
464.536	573.06
464.755	569.06
464.975	562.06
465.195	573.06
465.414	607.06
465.634	551.06
465.854	563.06
466.073	519.06
466.293	495.06
466.512	484.06
466.732	462.06
466.951	471.06
467.171	474.06
467.391	483.06
467.61	478.06
467.829	493.06
468.049	481.06
468.268	476.06
468.488	474.06
468.707	476.06
468.927	480.06
469.146	460.06
469.365	468.06
469.585	468.06
469.804	468.06
470.023	474.06
470.243	487.06
470.462	484.06
470.681	509.06
470.901	491.06
471.12	478.06
471.339	479.06
471.558	504.06
471.777	502.06
471.997	488.06
472.216	500.06
472.435	478.06
472.654	499.06
472.873	487.06
473.092	478.06
473.311	455.06
473.53	467.06
473.749	487.06
473.968	533.06
474.187	619.06
474.406	628.06
474.625	540.06
474.844	513.06
475.063	493.06
475.282	487.06
475.501	481.06
475.72	474.06
475.939	464.06
476.158	510.06
476.377	509.06
476.596	501.06
476.814	496.06
477.033	509.06
477.252	507.06
477.471	502.06
477.69	510.06
477.908	526.06
478.127	539.06
478.346	533.06
478.564	521.06
478.783	547.06
479.002	534.06
479.22	555.06
479.439	586.06
479.658	567.06
479.876	571.06
480.095	585.06
480.313	620.06
480.532	596.06
480.751	622.06
480.969	577.06
481.188	622.06
481.406	627.06
481.624	596.06
481.843	556.06
482.061	549.06
482.28	557.06
482.498	544.06
482.717	557.06
482.935	559.06
483.153	547.06
483.372	578.06
483.59	569.06
483.808	560.06
484.027	579.06
484.245	576.06
484.463	540.06
484.681	581.06
484.9	578.06
485.118	591.06
485.336	577.06
485.554	572.06
485.772	603.06
485.99	585.06
486.209	554.06
486.427	572.06
486.645	592.06
486.863	590.06
487.081	584.06
487.299	586.06
487.517	587.06
487.735	588.06
487.953	604.06
488.171	608.06
488.389	597.06
488.607	595.06
488.825	604.06
489.043	577.06
489.261	590.06
489.479	612.06
489.696	616.06
489.914	603.06
490.132	620.06
490.35	628.06
490.568	630.06
490.786	641.06
491.003	624.06
491.221	651.06
491.439	669.06
491.657	673.06
491.874	666.06
492.092	675.06
492.31	680.06
492.527	706.06
492.745	671.06
492.963	674.06
493.18	681.06
493.398	709.06
493.615	695.06
493.833	705.06
494.05	699.06
494.268	687.06
494.485	702.06
494.703	701.06
494.92	698.06
495.138	716.06
495.355	681.06
495.573	704.06
495.79	709.06
496.008	703.06
496.225	705.06
496.442	699.06
496.66	697.06
496.877	711.06
497.094	716.06
497.312	713.06
497.529	755.06
497.746	729.06
497.963	762.06
498.181	785.06
498.398	760.06
498.615	789.06
498.832	830.06
499.049	851.06
499.267	878.06
499.484	921.06
499.701	957.06
499.918	1010.06
500.135	1035.06
500.352	1147.06
500.569	1125.06
500.786	1157.06
501.003	1115.06
501.22	1085.06
501.437	1030.06
501.654	953.06
