Data from 1976.PennyLincolnUp.Lamp.En5.5.200Scan.071719.P1.Changed Mount._HRD10591_16-01-29-861.txt Node
Date: Thu Jul 18 16:01:29 EDT 2019
User: cochatt
Spectrometer: HR+D1059
Trigger mode: 1
Integration Time (sec): 1.000000E-1
Scans to average: 1
Electric dark correction enabled: true
Nonlinearity correction enabled: false
Boxcar width: 0
XAxis mode: Wavelengths
Number of Pixels in Spectrum: 2048
>>>>>Begin Spectral Data<<<<<
223.165	-8.12
223.4	-8.12
223.635	-8.12
223.869	-30.12
224.104	-6.12
224.338	-10.12
224.573	-14.12
224.808	-12.12
225.042	-9.12
225.277	-6.12
225.511	-16.12
225.746	-2.12
225.98	5.88
226.215	9.88
226.449	9.88
226.683	21.88
226.918	31.88
227.152	34.88
227.387	33.88
227.621	40.88
227.856	41.88
228.09	43.88
228.324	58.88
228.559	49.88
228.793	73.88
229.027	106.88
229.262	115.88
229.496	121.88
229.73	129.88
229.964	170.88
230.199	137.88
230.433	111.88
230.667	111.88
230.901	112.88
231.136	106.88
231.37	127.88
231.604	117.88
231.838	127.88
232.072	120.88
232.306	104.88
232.541	129.88
232.775	113.88
233.009	113.88
233.243	120.88
233.477	127.88
233.711	112.88
233.945	119.88
234.179	130.88
234.413	119.88
234.647	118.88
234.881	119.88
235.115	112.88
235.349	131.88
235.583	123.88
235.817	104.88
236.051	137.88
236.285	116.88
236.519	116.88
236.753	121.88
236.987	138.88
237.221	189.88
237.455	242.88
237.689	174.88
237.922	159.88
238.156	140.88
238.39	135.88
238.624	132.88
238.858	134.88
239.091	124.88
239.325	119.88
239.559	133.88
239.793	133.88
240.027	128.88
240.26	137.88
240.494	143.88
240.728	153.88
240.961	167.88
241.195	151.88
241.429	150.88
241.662	135.88
241.896	135.88
242.13	141.88
242.363	138.88
242.597	144.88
242.83	144.88
243.064	134.88
243.298	143.88
243.531	159.88
243.765	151.88
243.998	137.88
244.232	155.88
244.465	157.88
244.699	148.88
244.932	168.88
245.166	142.88
245.399	140.88
245.633	153.88
245.866	141.88
246.099	154.88
246.333	167.88
246.566	137.88
246.8	167.88
247.033	164.88
247.266	164.88
247.5	187.88
247.733	165.88
247.966	167.88
248.2	176.88
248.433	159.88
248.666	179.88
248.899	191.88
249.133	220.88
249.366	231.88
249.599	207.88
249.832	203.88
250.066	187.88
250.299	203.88
250.532	205.88
250.765	213.88
250.998	224.88
251.231	235.88
251.465	234.88
251.698	200.88
251.931	213.88
252.164	200.88
252.397	216.88
252.63	204.88
252.863	224.88
253.096	214.88
253.329	240.88
253.562	251.88
253.795	219.88
254.028	213.88
254.261	240.88
254.494	241.88
254.727	259.88
254.96	281.88
255.193	259.88
255.426	253.88
255.659	245.88
255.892	244.88
256.124	238.88
256.357	250.88
256.59	236.88
256.823	238.88
257.056	246.88
257.289	215.88
257.521	215.88
257.754	233.88
257.987	227.88
258.22	231.88
258.452	222.88
258.685	208.88
258.918	230.88
259.151	222.88
259.383	233.88
259.616	233.88
259.849	236.88
260.081	252.88
260.314	271.88
260.547	279.88
260.779	274.88
261.012	255.88
261.244	241.88
261.477	248.88
261.71	247.88
261.942	243.88
262.175	243.88
262.407	246.88
262.64	223.88
262.872	239.88
263.105	234.88
263.337	224.88
263.57	247.88
263.802	231.88
264.035	217.88
264.267	231.88
264.499	232.88
264.732	241.88
264.964	236.88
265.197	230.88
265.429	233.88
265.661	231.88
265.894	226.88
266.126	249.88
266.358	237.88
266.591	245.88
266.823	243.88
267.055	254.88
267.287	248.88
267.52	247.88
267.752	246.88
267.984	248.88
268.216	227.88
268.448	235.88
268.681	240.88
268.913	271.88
269.145	271.88
269.377	304.88
269.609	294.88
269.841	300.88
270.073	298.88
270.306	312.88
270.538	345.88
270.77	332.88
271.002	317.88
271.234	308.88
271.466	304.88
271.698	326.88
271.93	319.88
272.162	341.88
272.394	348.88
272.626	317.88
272.858	311.88
273.09	303.88
273.322	303.88
273.553	284.88
273.785	292.88
274.017	282.88
274.249	270.88
274.481	286.88
274.713	275.88
274.945	297.88
275.176	294.88
275.408	296.88
275.64	294.88
275.872	282.88
276.104	279.88
276.335	305.88
276.567	297.88
276.799	318.88
277.031	329.88
277.262	333.88
277.494	349.88
277.726	321.88
277.957	327.88
278.189	299.88
278.421	318.88
278.652	300.88
278.884	304.88
279.115	293.88
279.347	312.88
279.579	295.88
279.81	295.88
280.042	299.88
280.273	309.88
280.505	277.88
280.736	291.88
280.968	307.88
281.199	306.88
281.431	305.88
281.662	305.88
281.894	300.88
282.125	307.88
282.356	335.88
282.588	323.88
282.819	330.88
283.051	299.88
283.282	301.88
283.513	307.88
283.745	304.88
283.976	318.88
284.207	329.88
284.439	313.88
284.67	307.88
284.901	304.88
285.132	317.88
285.364	280.88
285.595	273.88
285.826	318.88
286.057	317.88
286.288	312.88
286.52	307.88
286.751	309.88
286.982	328.88
287.213	295.88
287.444	327.88
287.675	313.88
287.906	321.88
288.138	308.88
288.369	325.88
288.6	349.88
288.831	338.88
289.062	336.88
289.293	330.88
289.524	335.88
289.755	320.88
289.986	326.88
290.217	322.88
290.448	319.88
290.679	307.88
290.91	308.88
291.141	327.88
291.371	327.88
291.602	304.88
291.833	296.88
292.064	323.88
292.295	325.88
292.526	326.88
292.757	349.88
292.987	318.88
293.218	307.88
293.449	347.88
293.68	345.88
293.91	320.88
294.141	333.88
294.372	311.88
294.603	317.88
294.833	328.88
295.064	334.88
295.295	325.88
295.525	329.88
295.756	349.88
295.987	343.88
296.217	372.88
296.448	365.88
296.679	331.88
296.909	334.88
297.14	319.88
297.37	355.88
297.601	331.88
297.831	321.88
298.062	330.88
298.292	334.88
298.523	329.88
298.753	362.88
298.984	345.88
299.214	348.88
299.445	329.88
299.675	333.88
299.905	347.88
300.136	355.88
300.366	343.88
300.597	351.88
300.827	340.88
301.057	366.88
301.288	376.88
301.518	352.88
301.748	347.88
301.979	352.88
302.209	353.88
302.439	364.88
302.669	377.88
302.9	373.88
303.13	365.88
303.36	362.88
303.59	385.88
303.82	395.88
304.051	353.88
304.281	343.88
304.511	363.88
304.741	360.88
304.971	355.88
305.201	360.88
305.431	353.88
305.661	380.88
305.891	385.88
306.121	360.88
306.352	357.88
306.582	386.88
306.812	368.88
307.042	357.88
307.272	362.88
307.502	369.88
307.731	361.88
307.961	386.88
308.191	355.88
308.421	376.88
308.651	377.88
308.881	383.88
309.111	377.88
309.341	386.88
309.571	377.88
309.8	399.88
310.03	377.88
310.26	384.88
310.49	411.88
310.72	391.88
310.949	431.88
311.179	428.88
311.409	415.88
311.639	407.88
311.868	415.88
312.098	396.88
312.328	401.88
312.557	430.88
312.787	446.88
313.017	446.88
313.246	429.88
313.476	396.88
313.706	419.88
313.935	436.88
314.165	423.88
314.394	435.88
314.624	442.88
314.853	422.88
315.083	424.88
315.312	429.88
315.542	392.88
315.771	395.88
316.001	416.88
316.23	407.88
316.46	425.88
316.689	414.88
316.919	392.88
317.148	423.88
317.377	424.88
317.607	415.88
317.836	410.88
318.065	415.88
318.295	399.88
318.524	416.88
318.753	407.88
318.983	392.88
319.212	420.88
319.441	415.88
319.67	411.88
319.9	419.88
320.129	421.88
320.358	408.88
320.587	412.88
320.816	437.88
321.046	418.88
321.275	412.88
321.504	442.88
321.733	416.88
321.962	449.88
322.191	440.88
322.42	463.88
322.649	441.88
322.878	474.88
323.108	487.88
323.337	473.88
323.566	527.88
323.795	545.88
324.024	565.88
324.253	687.88
324.482	944.88
324.71	1403.88
324.939	2115.88
325.168	1818.88
325.397	903.88
325.626	627.88
325.855	543.88
326.084	512.88
326.313	526.88
326.542	520.88
326.77	564.88
326.999	621.88
327.228	834.88
327.457	1297.88
327.686	1607.88
327.914	1043.88
328.143	676.88
328.372	605.88
328.6	603.88
328.829	553.88
329.058	591.88
329.287	569.88
329.515	559.88
329.744	544.88
329.972	541.88
330.201	571.88
330.43	581.88
330.658	595.88
330.887	603.88
331.115	602.88
331.344	557.88
331.572	527.88
331.801	517.88
332.03	507.88
332.258	513.88
332.486	517.88
332.715	503.88
332.943	514.88
333.172	495.88
333.4	514.88
333.629	525.88
333.857	531.88
334.085	525.88
334.314	552.88
334.542	582.88
334.771	593.88
334.999	538.88
335.227	503.88
335.455	526.88
335.684	500.88
335.912	525.88
336.14	479.88
336.369	501.88
336.597	489.88
336.825	529.88
337.053	502.88
337.281	480.88
337.51	468.88
337.738	502.88
337.966	488.88
338.194	508.88
338.422	480.88
338.65	489.88
338.878	484.88
339.106	471.88
339.334	469.88
339.562	472.88
339.79	461.88
340.018	449.88
340.246	467.88
340.474	470.88
340.702	466.88
340.93	464.88
341.158	459.88
341.386	451.88
341.614	478.88
341.842	459.88
342.07	464.88
342.298	465.88
342.526	475.88
342.754	453.88
342.981	478.88
343.209	452.88
343.437	458.88
343.665	485.88
343.893	497.88
344.12	517.88
344.348	496.88
344.576	490.88
344.804	491.88
345.031	489.88
345.259	488.88
345.487	479.88
345.714	484.88
345.942	464.88
346.17	463.88
346.397	479.88
346.625	462.88
346.853	455.88
347.08	455.88
347.308	449.88
347.535	462.88
347.763	455.88
347.99	457.88
348.218	454.88
348.445	457.88
348.673	443.88
348.9	448.88
349.128	451.88
349.355	426.88
349.583	451.88
349.81	424.88
350.037	439.88
350.265	432.88
350.492	417.88
350.72	450.88
350.947	449.88
351.174	449.88
351.402	441.88
351.629	456.88
351.856	453.88
352.083	451.88
352.311	461.88
352.538	466.88
352.765	466.88
352.992	463.88
353.22	453.88
353.447	426.88
353.674	445.88
353.901	453.88
354.128	435.88
354.355	431.88
354.583	420.88
354.81	441.88
355.037	414.88
355.264	410.88
355.491	407.88
355.718	431.88
355.945	426.88
356.172	435.88
356.399	425.88
356.626	422.88
356.853	423.88
357.08	424.88
357.307	407.88
357.534	416.88
357.761	415.88
357.988	431.88
358.215	437.88
358.441	435.88
358.668	425.88
358.895	448.88
359.122	444.88
359.349	459.88
359.576	452.88
359.802	461.88
360.029	463.88
360.256	502.88
360.483	493.88
360.709	443.88
360.936	428.88
361.163	455.88
361.39	455.88
361.616	468.88
361.843	457.88
362.07	436.88
362.296	447.88
362.523	448.88
362.749	444.88
362.976	446.88
363.203	422.88
363.429	436.88
363.656	443.88
363.882	430.88
364.109	428.88
364.335	448.88
364.562	428.88
364.788	429.88
365.015	441.88
365.241	419.88
365.468	442.88
365.694	463.88
365.92	444.88
366.147	464.88
366.373	438.88
366.599	429.88
366.826	430.88
367.052	434.88
367.278	415.88
367.505	420.88
367.731	443.88
367.957	432.88
368.184	453.88
368.41	424.88
368.636	453.88
368.862	451.88
369.089	453.88
369.315	430.88
369.541	418.88
369.767	441.88
369.993	432.88
370.219	413.88
370.445	432.88
370.672	443.88
370.898	453.88
371.124	443.88
371.35	442.88
371.576	419.88
371.802	455.88
372.028	421.88
372.254	425.88
372.48	441.88
372.706	407.88
372.932	441.88
373.158	441.88
373.384	430.88
373.61	443.88
373.835	426.88
374.061	419.88
374.287	469.88
374.513	442.88
374.739	445.88
374.965	462.88
375.191	472.88
375.416	436.88
375.642	435.88
375.868	460.88
376.094	441.88
376.319	451.88
376.545	454.88
376.771	437.88
376.997	441.88
377.222	452.88
377.448	421.88
377.674	440.88
377.899	409.88
378.125	426.88
378.35	437.88
378.576	433.88
378.802	441.88
379.027	420.88
379.253	441.88
379.478	448.88
379.704	441.88
379.929	439.88
380.155	425.88
380.38	447.88
380.606	447.88
380.831	438.88
381.057	447.88
381.282	444.88
381.507	445.88
381.733	427.88
381.958	440.88
382.184	437.88
382.409	460.88
382.634	458.88
382.86	440.88
383.085	458.88
383.31	463.88
383.535	471.88
383.761	462.88
383.986	468.88
384.211	448.88
384.436	468.88
384.662	472.88
384.887	468.88
385.112	456.88
385.337	461.88
385.562	480.88
385.787	488.88
386.013	479.88
386.238	479.88
386.463	493.88
386.688	497.88
386.913	486.88
387.138	480.88
387.363	489.88
387.588	485.88
387.813	474.88
388.038	473.88
388.263	490.88
388.488	485.88
388.713	485.88
388.938	496.88
389.163	493.88
389.387	480.88
389.612	469.88
389.837	481.88
390.062	479.88
390.287	493.88
390.512	478.88
390.736	477.88
390.961	486.88
391.186	482.88
391.411	507.88
391.636	507.88
391.86	508.88
392.085	499.88
392.31	509.88
392.534	515.88
392.759	514.88
392.984	502.88
393.208	487.88
393.433	481.88
393.658	471.88
393.882	487.88
394.107	494.88
394.331	499.88
394.556	499.88
394.78	499.88
395.005	492.88
395.229	487.88
395.454	504.88
395.678	519.88
395.903	520.88
396.127	541.88
396.352	541.88
396.576	522.88
396.801	510.88
397.025	496.88
397.249	518.88
397.474	526.88
397.698	525.88
397.922	535.88
398.147	558.88
398.371	559.88
398.595	543.88
398.82	579.88
399.044	581.88
399.268	611.88
399.492	648.88
399.717	688.88
399.941	731.88
400.165	717.88
400.389	716.88
400.613	656.88
400.837	617.88
401.062	557.88
401.286	569.88
401.51	577.88
401.734	569.88
401.958	574.88
402.182	589.88
402.406	569.88
402.63	574.88
402.854	581.88
403.078	595.88
403.302	581.88
403.526	606.88
403.75	596.88
403.974	594.88
404.198	606.88
404.422	595.88
404.645	607.88
404.869	594.88
405.093	642.88
405.317	691.88
405.541	716.88
405.765	633.88
405.988	604.88
406.212	633.88
406.436	635.88
406.66	660.88
406.883	639.88
407.107	677.88
407.331	739.88
407.555	775.88
407.778	785.88
408.002	724.88
408.226	687.88
408.449	637.88
408.673	654.88
408.896	671.88
409.12	703.88
409.344	685.88
409.567	608.88
409.791	597.88
410.014	601.88
410.238	600.88
410.461	599.88
410.685	611.88
410.908	633.88
411.132	636.88
411.355	681.88
411.578	624.88
411.802	589.88
412.025	593.88
412.249	607.88
412.472	616.88
412.695	652.88
412.919	645.88
413.142	591.88
413.365	572.88
413.589	586.88
413.812	576.88
414.035	544.88
414.258	557.88
414.482	566.88
414.705	541.88
414.928	567.88
415.151	571.88
415.374	569.88
415.597	555.88
415.821	553.88
416.044	556.88
416.267	554.88
416.49	535.88
416.713	549.88
416.936	547.88
417.159	534.88
417.382	552.88
417.605	561.88
417.828	571.88
418.051	567.88
418.274	565.88
418.497	547.88
418.72	560.88
418.943	561.88
419.166	566.88
419.389	616.88
419.611	623.88
419.834	583.88
420.057	605.88
420.28	590.88
420.503	604.88
420.726	599.88
420.948	605.88
421.171	652.88
421.394	671.88
421.617	607.88
421.839	587.88
422.062	579.88
422.285	592.88
422.507	672.88
422.73	767.88
422.953	735.88
423.175	616.88
423.398	592.88
423.621	608.88
423.843	651.88
424.066	638.88
424.288	627.88
424.511	631.88
424.733	697.88
424.956	762.88
425.178	739.88
425.401	716.88
425.623	759.88
425.846	650.88
426.068	604.88
426.291	587.88
426.513	604.88
426.735	627.88
426.958	628.88
427.18	737.88
427.402	895.88
427.625	983.88
427.847	819.88
428.069	723.88
428.292	637.88
428.514	599.88
428.736	598.88
428.958	578.88
429.181	565.88
429.403	542.88
429.625	553.88
429.847	589.88
430.069	666.88
430.292	695.88
430.514	601.88
430.736	580.88
430.958	558.88
431.18	536.88
431.402	557.88
431.624	533.88
431.846	536.88
432.068	511.88
432.29	557.88
432.512	515.88
432.734	555.88
432.956	551.88
433.178	547.88
433.4	574.88
433.622	554.88
433.844	543.88
434.066	549.88
434.287	539.88
434.509	552.88
434.731	550.88
434.953	571.88
435.175	587.88
435.397	612.88
435.618	611.88
435.84	674.88
436.062	742.88
436.284	812.88
436.505	709.88
436.727	615.88
436.949	573.88
437.17	569.88
437.392	542.88
437.614	579.88
437.835	605.88
438.057	708.88
438.278	808.88
438.5	805.88
438.721	893.88
438.943	825.88
439.165	695.88
439.386	607.88
439.608	607.88
439.829	624.88
440.05	635.88
440.272	673.88
440.493	634.88
440.715	614.88
440.936	593.88
441.158	572.88
441.379	586.88
441.6	575.88
441.822	637.88
442.043	645.88
442.264	717.88
442.486	785.88
442.707	679.88
442.928	634.88
443.149	643.88
443.371	652.88
443.592	677.88
443.813	769.88
444.034	854.88
444.255	724.88
444.476	651.88
444.698	620.88
444.919	637.88
445.14	751.88
445.361	685.88
445.582	649.88
445.803	730.88
446.024	835.88
446.245	831.88
446.466	765.88
446.687	639.88
446.908	607.88
447.129	551.88
447.35	560.88
447.571	581.88
447.792	560.88
448.013	531.88
448.234	572.88
448.455	593.88
448.675	756.88
448.896	861.88
449.117	722.88
449.338	689.88
449.559	819.88
449.779	940.88
450	718.88
450.221	612.88
450.442	572.88
450.662	566.88
450.883	549.88
451.104	525.88
451.324	552.88
451.545	521.88
451.766	504.88
451.986	501.88
452.207	511.88
452.428	515.88
452.648	494.88
452.869	506.88
453.089	519.88
453.31	517.88
453.53	512.88
453.751	494.88
453.971	485.88
454.192	501.88
454.412	503.88
454.633	513.88
454.853	491.88
455.073	480.88
455.294	496.88
455.514	571.88
455.734	583.88
455.955	499.88
456.175	491.88
456.395	460.88
456.616	475.88
456.836	453.88
457.056	476.88
457.276	443.88
457.497	461.88
457.717	455.88
457.937	474.88
458.157	475.88
458.377	472.88
458.598	511.88
458.818	557.88
459.038	637.88
459.258	661.88
459.478	565.88
459.698	557.88
459.918	525.88
460.138	566.88
460.358	582.88
460.578	551.88
460.798	573.88
461.018	565.88
461.238	542.88
461.458	571.88
461.678	559.88
461.898	556.88
462.118	556.88
462.338	582.88
462.558	588.88
462.777	587.88
462.997	602.88
463.217	646.88
463.437	636.88
463.657	629.88
463.876	595.88
464.096	605.88
464.316	613.88
464.536	615.88
464.755	625.88
464.975	595.88
465.195	635.88
465.414	669.88
465.634	593.88
465.854	577.88
466.073	573.88
466.293	538.88
466.512	512.88
466.732	523.88
466.951	525.88
467.171	523.88
467.391	532.88
467.61	515.88
467.829	528.88
468.049	523.88
468.268	515.88
468.488	502.88
468.707	494.88
468.927	509.88
469.146	490.88
469.365	501.88
469.585	513.88
469.804	507.88
470.023	530.88
470.243	523.88
470.462	549.88
470.681	511.88
470.901	551.88
471.12	529.88
471.339	524.88
471.558	523.88
471.777	534.88
471.997	537.88
472.216	501.88
472.435	534.88
472.654	530.88
472.873	496.88
473.092	498.88
473.311	513.88
473.53	520.88
473.749	536.88
473.968	569.88
474.187	667.88
474.406	686.88
474.625	549.88
474.844	521.88
475.063	527.88
475.282	547.88
475.501	511.88
475.72	525.88
475.939	534.88
476.158	520.88
476.377	550.88
476.596	528.88
476.814	549.88
477.033	541.88
477.252	571.88
477.471	539.88
477.69	540.88
477.908	556.88
478.127	577.88
478.346	569.88
478.564	572.88
478.783	588.88
479.002	588.88
479.22	608.88
479.439	605.88
479.658	618.88
479.876	617.88
480.095	643.88
480.313	666.88
480.532	632.88
480.751	648.88
480.969	667.88
481.188	699.88
481.406	701.88
481.624	647.88
481.843	620.88
482.061	612.88
482.28	612.88
482.498	592.88
482.717	603.88
482.935	599.88
483.153	599.88
483.372	604.88
483.59	604.88
483.808	589.88
484.027	615.88
484.245	604.88
484.463	624.88
484.681	605.88
484.9	592.88
485.118	617.88
485.336	620.88
485.554	619.88
485.772	628.88
485.99	618.88
486.209	625.88
486.427	628.88
486.645	649.88
486.863	670.88
487.081	640.88
487.299	659.88
487.517	652.88
487.735	625.88
487.953	649.88
488.171	653.88
488.389	633.88
488.607	629.88
488.825	649.88
489.043	671.88
489.261	651.88
489.479	652.88
489.696	663.88
489.914	675.88
490.132	694.88
490.35	661.88
490.568	654.88
490.786	677.88
491.003	679.88
491.221	722.88
491.439	733.88
491.657	752.88
491.874	756.88
492.092	759.88
492.31	751.88
492.527	748.88
492.745	741.88
492.963	744.88
493.18	773.88
493.398	769.88
493.615	772.88
493.833	757.88
494.05	771.88
494.268	759.88
494.485	762.88
494.703	767.88
494.92	757.88
495.138	747.88
495.355	783.88
495.573	762.88
495.79	781.88
496.008	780.88
496.225	763.88
496.442	754.88
496.66	788.88
496.877	783.88
497.094	795.88
497.312	812.88
497.529	800.88
497.746	813.88
497.963	824.88
498.181	845.88
498.398	860.88
498.615	875.88
498.832	919.88
499.049	905.88
499.267	951.88
499.484	991.88
499.701	1029.88
499.918	1051.88
500.135	1161.88
500.352	1156.88
500.569	1216.88
500.786	1229.88
501.003	1187.88
501.22	1157.88
501.437	1120.88
501.654	1076.88
