Data from 1976.PennyLincolnUp.Lamp.En5.5.200Scan.071719.P1.Changed Mount._HRD10591_16-01-34-864.txt Node
Date: Thu Jul 18 16:01:34 EDT 2019
User: cochatt
Spectrometer: HR+D1059
Trigger mode: 1
Integration Time (sec): 1.000000E-1
Scans to average: 1
Electric dark correction enabled: true
Nonlinearity correction enabled: false
Boxcar width: 0
XAxis mode: Wavelengths
Number of Pixels in Spectrum: 2048
>>>>>Begin Spectral Data<<<<<
223.165	-20.56
223.4	-20.56
223.635	-20.56
223.869	-15.56
224.104	-5.56
224.338	0.44
224.573	-12.56
224.808	-12.56
225.042	-8.56
225.277	-5.56
225.511	-1.56
225.746	-3.56
225.98	7.44
226.215	15.44
226.449	8.44
226.683	15.44
226.918	20.44
227.152	18.44
227.387	38.44
227.621	37.44
227.856	40.44
228.09	50.44
228.324	53.44
228.559	77.44
228.793	59.44
229.027	102.44
229.262	118.44
229.496	100.44
229.73	122.44
229.964	162.44
230.199	125.44
230.433	119.44
230.667	122.44
230.901	119.44
231.136	111.44
231.37	111.44
231.604	118.44
231.838	116.44
232.072	111.44
232.306	111.44
232.541	120.44
232.775	120.44
233.009	120.44
233.243	107.44
233.477	124.44
233.711	128.44
233.945	102.44
234.179	124.44
234.413	132.44
234.647	125.44
234.881	131.44
235.115	126.44
235.349	105.44
235.583	127.44
235.817	127.44
236.051	139.44
236.285	135.44
236.519	128.44
236.753	136.44
236.987	143.44
237.221	172.44
237.455	219.44
237.689	185.44
237.922	145.44
238.156	144.44
238.39	152.44
238.624	135.44
238.858	123.44
239.091	149.44
239.325	135.44
239.559	132.44
239.793	137.44
240.027	132.44
240.26	144.44
240.494	164.44
240.728	159.44
240.961	141.44
241.195	138.44
241.429	141.44
241.662	139.44
241.896	133.44
242.13	149.44
242.363	143.44
242.597	140.44
242.83	139.44
243.064	151.44
243.298	147.44
243.531	142.44
243.765	142.44
243.998	131.44
244.232	168.44
244.465	140.44
244.699	145.44
244.932	147.44
245.166	144.44
245.399	152.44
245.633	149.44
245.866	143.44
246.099	148.44
246.333	156.44
246.566	159.44
246.8	144.44
247.033	165.44
247.266	164.44
247.5	169.44
247.733	162.44
247.966	169.44
248.2	175.44
248.433	174.44
248.666	182.44
248.899	193.44
249.133	220.44
249.366	202.44
249.599	204.44
249.832	192.44
250.066	200.44
250.299	200.44
250.532	189.44
250.765	215.44
250.998	226.44
251.231	238.44
251.465	227.44
251.698	208.44
251.931	221.44
252.164	202.44
252.397	216.44
252.63	222.44
252.863	213.44
253.096	234.44
253.329	231.44
253.562	241.44
253.795	220.44
254.028	202.44
254.261	219.44
254.494	238.44
254.727	249.44
254.96	287.44
255.193	287.44
255.426	260.44
255.659	221.44
255.892	234.44
256.124	252.44
256.357	254.44
256.59	233.44
256.823	220.44
257.056	218.44
257.289	211.44
257.521	208.44
257.754	208.44
257.987	235.44
258.22	200.44
258.452	215.44
258.685	213.44
258.918	222.44
259.151	227.44
259.383	231.44
259.616	216.44
259.849	246.44
260.081	262.44
260.314	271.44
260.547	269.44
260.779	270.44
261.012	252.44
261.244	233.44
261.477	247.44
261.71	227.44
261.942	232.44
262.175	235.44
262.407	233.44
262.64	228.44
262.872	224.44
263.105	231.44
263.337	219.44
263.57	222.44
263.802	224.44
264.035	230.44
264.267	245.44
264.499	230.44
264.732	229.44
264.964	230.44
265.197	236.44
265.429	227.44
265.661	232.44
265.894	222.44
266.126	215.44
266.358	249.44
266.591	237.44
266.823	236.44
267.055	261.44
267.287	246.44
267.52	233.44
267.752	235.44
267.984	248.44
268.216	260.44
268.448	261.44
268.681	255.44
268.913	264.44
269.145	287.44
269.377	295.44
269.609	301.44
269.841	290.44
270.073	271.44
270.306	318.44
270.538	330.44
270.77	332.44
271.002	319.44
271.234	314.44
271.466	326.44
271.698	320.44
271.93	336.44
272.162	345.44
272.394	351.44
272.626	329.44
272.858	290.44
273.09	315.44
273.322	288.44
273.553	288.44
273.785	291.44
274.017	286.44
274.249	299.44
274.481	286.44
274.713	264.44
274.945	283.44
275.176	283.44
275.408	291.44
275.64	291.44
275.872	296.44
276.104	288.44
276.335	300.44
276.567	287.44
276.799	306.44
277.031	321.44
277.262	333.44
277.494	331.44
277.726	325.44
277.957	300.44
278.189	295.44
278.421	301.44
278.652	301.44
278.884	292.44
279.115	283.44
279.347	279.44
279.579	287.44
279.81	295.44
280.042	287.44
280.273	271.44
280.505	293.44
280.736	282.44
280.968	284.44
281.199	298.44
281.431	294.44
281.662	291.44
281.894	293.44
282.125	306.44
282.356	306.44
282.588	351.44
282.819	330.44
283.051	314.44
283.282	318.44
283.513	311.44
283.745	308.44
283.976	302.44
284.207	298.44
284.439	316.44
284.67	304.44
284.901	303.44
285.132	314.44
285.364	295.44
285.595	303.44
285.826	311.44
286.057	329.44
286.288	313.44
286.52	312.44
286.751	295.44
286.982	321.44
287.213	303.44
287.444	328.44
287.675	327.44
287.906	326.44
288.138	315.44
288.369	320.44
288.6	335.44
288.831	344.44
289.062	336.44
289.293	329.44
289.524	312.44
289.755	327.44
289.986	322.44
290.217	325.44
290.448	311.44
290.679	335.44
290.91	322.44
291.141	308.44
291.371	320.44
291.602	323.44
291.833	333.44
292.064	325.44
292.295	304.44
292.526	310.44
292.757	325.44
292.987	318.44
293.218	315.44
293.449	329.44
293.68	335.44
293.91	316.44
294.141	301.44
294.372	330.44
294.603	324.44
294.833	331.44
295.064	330.44
295.295	329.44
295.525	323.44
295.756	336.44
295.987	327.44
296.217	342.44
296.448	349.44
296.679	356.44
296.909	339.44
297.14	321.44
297.37	323.44
297.601	335.44
297.831	349.44
298.062	346.44
298.292	327.44
298.523	344.44
298.753	345.44
298.984	331.44
299.214	359.44
299.445	338.44
299.675	336.44
299.905	335.44
300.136	355.44
300.366	346.44
300.597	355.44
300.827	347.44
301.057	360.44
301.288	350.44
301.518	349.44
301.748	350.44
301.979	354.44
302.209	359.44
302.439	365.44
302.669	367.44
302.9	368.44
303.13	359.44
303.36	349.44
303.59	342.44
303.82	362.44
304.051	370.44
304.281	362.44
304.511	376.44
304.741	368.44
304.971	366.44
305.201	367.44
305.431	348.44
305.661	364.44
305.891	345.44
306.121	347.44
306.352	368.44
306.582	372.44
306.812	354.44
307.042	356.44
307.272	373.44
307.502	352.44
307.731	374.44
307.961	372.44
308.191	364.44
308.421	349.44
308.651	346.44
308.881	379.44
309.111	356.44
309.341	352.44
309.571	391.44
309.8	382.44
310.03	390.44
310.26	388.44
310.49	380.44
310.72	400.44
310.949	407.44
311.179	423.44
311.409	419.44
311.639	398.44
311.868	401.44
312.098	407.44
312.328	400.44
312.557	414.44
312.787	410.44
313.017	432.44
313.246	417.44
313.476	406.44
313.706	408.44
313.935	404.44
314.165	435.44
314.394	423.44
314.624	431.44
314.853	423.44
315.083	416.44
315.312	399.44
315.542	398.44
315.771	398.44
316.001	412.44
316.23	389.44
316.46	411.44
316.689	392.44
316.919	401.44
317.148	396.44
317.377	421.44
317.607	410.44
317.836	392.44
318.065	400.44
318.295	411.44
318.524	406.44
318.753	425.44
318.983	404.44
319.212	413.44
319.441	422.44
319.67	388.44
319.9	415.44
320.129	395.44
320.358	403.44
320.587	410.44
320.816	430.44
321.046	409.44
321.275	416.44
321.504	423.44
321.733	409.44
321.962	417.44
322.191	429.44
322.42	454.44
322.649	462.44
322.878	469.44
323.108	467.44
323.337	477.44
323.566	481.44
323.795	524.44
324.024	570.44
324.253	662.44
324.482	910.44
324.71	1378.44
324.939	2050.44
325.168	1767.44
325.397	914.44
325.626	635.44
325.855	537.44
326.084	518.44
326.313	496.44
326.542	522.44
326.77	538.44
326.999	648.44
327.228	834.44
327.457	1222.44
327.686	1574.44
327.914	1056.44
328.143	689.44
328.372	628.44
328.6	592.44
328.829	572.44
329.058	554.44
329.287	586.44
329.515	564.44
329.744	539.44
329.972	525.44
330.201	542.44
330.43	559.44
330.658	588.44
330.887	609.44
331.115	591.44
331.344	555.44
331.572	522.44
331.801	529.44
332.03	513.44
332.258	535.44
332.486	478.44
332.715	490.44
332.943	511.44
333.172	502.44
333.4	523.44
333.629	529.44
333.857	526.44
334.085	535.44
334.314	551.44
334.542	569.44
334.771	581.44
334.999	531.44
335.227	540.44
335.455	482.44
335.684	503.44
335.912	474.44
336.14	452.44
336.369	500.44
336.597	471.44
336.825	470.44
337.053	476.44
337.281	480.44
337.51	483.44
337.738	484.44
337.966	493.44
338.194	493.44
338.422	481.44
338.65	466.44
338.878	485.44
339.106	470.44
339.334	467.44
339.562	460.44
339.79	465.44
340.018	471.44
340.246	459.44
340.474	459.44
340.702	467.44
340.93	482.44
341.158	462.44
341.386	469.44
341.614	462.44
341.842	428.44
342.07	446.44
342.298	448.44
342.526	443.44
342.754	456.44
342.981	463.44
343.209	457.44
343.437	444.44
343.665	459.44
343.893	477.44
344.12	501.44
344.348	487.44
344.576	478.44
344.804	464.44
345.031	479.44
345.259	466.44
345.487	474.44
345.714	453.44
345.942	472.44
346.17	461.44
346.397	468.44
346.625	460.44
346.853	439.44
347.08	447.44
347.308	422.44
347.535	447.44
347.763	468.44
347.99	444.44
348.218	465.44
348.445	470.44
348.673	455.44
348.9	438.44
349.128	446.44
349.355	432.44
349.583	442.44
349.81	420.44
350.037	424.44
350.265	423.44
350.492	430.44
350.72	443.44
350.947	458.44
351.174	430.44
351.402	458.44
351.629	454.44
351.856	432.44
352.083	469.44
352.311	438.44
352.538	446.44
352.765	460.44
352.992	461.44
353.22	437.44
353.447	441.44
353.674	436.44
353.901	424.44
354.128	436.44
354.355	441.44
354.583	430.44
354.81	403.44
355.037	427.44
355.264	419.44
355.491	419.44
355.718	408.44
355.945	404.44
356.172	407.44
356.399	409.44
356.626	420.44
356.853	402.44
357.08	410.44
357.307	431.44
357.534	410.44
357.761	408.44
357.988	412.44
358.215	430.44
358.441	430.44
358.668	425.44
358.895	427.44
359.122	419.44
359.349	439.44
359.576	438.44
359.802	437.44
360.029	477.44
360.256	500.44
360.483	440.44
360.709	463.44
360.936	462.44
361.163	436.44
361.39	436.44
361.616	462.44
361.843	448.44
362.07	454.44
362.296	428.44
362.523	448.44
362.749	450.44
362.976	434.44
363.203	448.44
363.429	415.44
363.656	414.44
363.882	436.44
364.109	434.44
364.335	431.44
364.562	436.44
364.788	424.44
365.015	426.44
365.241	430.44
365.468	416.44
365.694	419.44
365.92	421.44
366.147	414.44
366.373	440.44
366.599	437.44
366.826	413.44
367.052	445.44
367.278	436.44
367.505	425.44
367.731	442.44
367.957	443.44
368.184	437.44
368.41	434.44
368.636	446.44
368.862	470.44
369.089	429.44
369.315	426.44
369.541	439.44
369.767	420.44
369.993	428.44
370.219	422.44
370.445	437.44
370.672	413.44
370.898	431.44
371.124	420.44
371.35	417.44
371.576	427.44
371.802	440.44
372.028	414.44
372.254	434.44
372.48	430.44
372.706	440.44
372.932	427.44
373.158	440.44
373.384	443.44
373.61	444.44
373.835	427.44
374.061	431.44
374.287	462.44
374.513	444.44
374.739	464.44
374.965	452.44
375.191	457.44
375.416	455.44
375.642	437.44
375.868	432.44
376.094	434.44
376.319	438.44
376.545	413.44
376.771	440.44
376.997	442.44
377.222	427.44
377.448	415.44
377.674	430.44
377.899	435.44
378.125	424.44
378.35	423.44
378.576	439.44
378.802	435.44
379.027	432.44
379.253	434.44
379.478	418.44
379.704	420.44
379.929	438.44
380.155	442.44
380.38	436.44
380.606	434.44
380.831	451.44
381.057	448.44
381.282	443.44
381.507	423.44
381.733	420.44
381.958	416.44
382.184	447.44
382.409	450.44
382.634	463.44
382.86	432.44
383.085	440.44
383.31	438.44
383.535	445.44
383.761	452.44
383.986	460.44
384.211	469.44
384.436	486.44
384.662	464.44
384.887	458.44
385.112	446.44
385.337	468.44
385.562	493.44
385.787	484.44
386.013	493.44
386.238	490.44
386.463	458.44
386.688	478.44
386.913	483.44
387.138	474.44
387.363	452.44
387.588	468.44
387.813	477.44
388.038	478.44
388.263	486.44
388.488	498.44
388.713	482.44
388.938	484.44
389.163	476.44
389.387	478.44
389.612	472.44
389.837	489.44
390.062	463.44
390.287	471.44
390.512	476.44
390.736	492.44
390.961	502.44
391.186	484.44
391.411	490.44
391.636	482.44
391.86	487.44
392.085	511.44
392.31	514.44
392.534	498.44
392.759	494.44
392.984	485.44
393.208	471.44
393.433	480.44
393.658	485.44
393.882	503.44
394.107	488.44
394.331	480.44
394.556	505.44
394.78	492.44
395.005	486.44
395.229	494.44
395.454	502.44
395.678	522.44
395.903	500.44
396.127	537.44
396.352	547.44
396.576	511.44
396.801	491.44
397.025	503.44
397.249	492.44
397.474	526.44
397.698	538.44
397.922	552.44
398.147	541.44
398.371	558.44
398.595	541.44
398.82	546.44
399.044	552.44
399.268	598.44
399.492	614.44
399.717	667.44
399.941	698.44
400.165	726.44
400.389	684.44
400.613	620.44
400.837	610.44
401.062	588.44
401.286	589.44
401.51	561.44
401.734	570.44
401.958	569.44
402.182	546.44
402.406	570.44
402.63	577.44
402.854	606.44
403.078	598.44
403.302	582.44
403.526	566.44
403.75	591.44
403.974	572.44
404.198	599.44
404.422	610.44
404.645	578.44
404.869	612.44
405.093	622.44
405.317	691.44
405.541	722.44
405.765	667.44
405.988	605.44
406.212	615.44
406.436	631.44
406.66	656.44
406.883	648.44
407.107	638.44
407.331	701.44
407.555	776.44
407.778	760.44
408.002	694.44
408.226	667.44
408.449	638.44
408.673	630.44
408.896	658.44
409.12	703.44
409.344	660.44
409.567	611.44
409.791	614.44
410.014	603.44
410.238	587.44
410.461	560.44
410.685	599.44
410.908	574.44
411.132	658.44
411.355	650.44
411.578	615.44
411.802	587.44
412.025	600.44
412.249	598.44
412.472	612.44
412.695	649.44
412.919	633.44
413.142	604.44
413.365	592.44
413.589	589.44
413.812	571.44
414.035	562.44
414.258	543.44
414.482	540.44
414.705	560.44
414.928	556.44
415.151	548.44
415.374	558.44
415.597	562.44
415.821	563.44
416.044	559.44
416.267	543.44
416.49	552.44
416.713	546.44
416.936	526.44
417.159	550.44
417.382	555.44
417.605	521.44
417.828	566.44
418.051	582.44
418.274	534.44
418.497	542.44
418.72	556.44
418.943	539.44
419.166	567.44
419.389	596.44
419.611	590.44
419.834	600.44
420.057	591.44
420.28	590.44
420.503	563.44
420.726	563.44
420.948	586.44
421.171	614.44
421.394	674.44
421.617	588.44
421.839	574.44
422.062	552.44
422.285	585.44
422.507	634.44
422.73	710.44
422.953	681.44
423.175	634.44
423.398	602.44
423.621	594.44
423.843	622.44
424.066	623.44
424.288	638.44
424.511	630.44
424.733	675.44
424.956	727.44
425.178	717.44
425.401	746.44
425.623	745.44
425.846	667.44
426.068	593.44
426.291	620.44
426.513	613.44
426.735	593.44
426.958	632.44
427.18	724.44
427.402	870.44
427.625	948.44
427.847	824.44
428.069	690.44
428.292	638.44
428.514	598.44
428.736	562.44
428.958	539.44
429.181	534.44
429.403	560.44
429.625	571.44
429.847	581.44
430.069	690.44
430.292	654.44
430.514	564.44
430.736	556.44
430.958	550.44
431.18	527.44
431.402	516.44
431.624	538.44
431.846	520.44
432.068	530.44
432.29	540.44
432.512	544.44
432.734	536.44
432.956	534.44
433.178	556.44
433.4	538.44
433.622	530.44
433.844	546.44
434.066	518.44
434.287	538.44
434.509	550.44
434.731	554.44
434.953	562.44
435.175	574.44
435.397	603.44
435.618	608.44
435.84	655.44
436.062	758.44
436.284	827.44
436.505	697.44
436.727	616.44
436.949	581.44
437.17	551.44
437.392	546.44
437.614	583.44
437.835	579.44
438.057	670.44
438.278	776.44
438.5	772.44
438.721	876.44
438.943	843.44
439.165	657.44
439.386	590.44
439.608	635.44
439.829	606.44
440.05	634.44
440.272	689.44
440.493	640.44
440.715	591.44
440.936	598.44
441.158	569.44
441.379	588.44
441.6	559.44
441.822	584.44
442.043	621.44
442.264	744.44
442.486	778.44
442.707	634.44
442.928	614.44
443.149	634.44
443.371	648.44
443.592	685.44
443.813	794.44
444.034	858.44
444.255	711.44
444.476	641.44
444.698	624.44
444.919	633.44
445.14	754.44
445.361	700.44
445.582	659.44
445.803	702.44
446.024	810.44
446.245	828.44
446.466	732.44
446.687	644.44
446.908	584.44
447.129	578.44
447.35	568.44
447.571	566.44
447.792	530.44
448.013	542.44
448.234	556.44
448.455	617.44
448.675	713.44
448.896	859.44
449.117	734.44
449.338	695.44
449.559	770.44
449.779	883.44
450	704.44
450.221	599.44
450.442	575.44
450.662	550.44
450.883	533.44
451.104	568.44
451.324	534.44
451.545	501.44
451.766	517.44
451.986	502.44
452.207	493.44
452.428	507.44
452.648	493.44
452.869	487.44
453.089	518.44
453.31	512.44
453.53	515.44
453.751	487.44
453.971	504.44
454.192	505.44
454.412	495.44
454.633	472.44
454.853	485.44
455.073	488.44
455.294	521.44
455.514	596.44
455.734	567.44
455.955	479.44
456.175	481.44
456.395	460.44
456.616	461.44
456.836	468.44
457.056	472.44
457.276	468.44
457.497	451.44
457.717	458.44
457.937	486.44
458.157	470.44
458.377	509.44
458.598	495.44
458.818	548.44
459.038	618.44
459.258	660.44
459.478	567.44
459.698	538.44
459.918	534.44
460.138	539.44
460.358	543.44
460.578	559.44
460.798	544.44
461.018	547.44
461.238	534.44
461.458	529.44
461.678	556.44
461.898	568.44
462.118	570.44
462.338	580.44
462.558	588.44
462.777	598.44
462.997	597.44
463.217	631.44
463.437	657.44
463.657	602.44
463.876	598.44
464.096	610.44
464.316	603.44
464.536	601.44
464.755	601.44
464.975	603.44
465.195	620.44
465.414	660.44
465.634	609.44
465.854	559.44
466.073	533.44
466.293	531.44
466.512	524.44
466.732	515.44
466.951	503.44
467.171	515.44
467.391	527.44
467.61	499.44
467.829	525.44
468.049	540.44
468.268	532.44
468.488	501.44
468.707	492.44
468.927	483.44
469.146	479.44
469.365	501.44
469.585	515.44
469.804	518.44
470.023	510.44
470.243	517.44
470.462	531.44
470.681	503.44
470.901	517.44
471.12	534.44
471.339	519.44
471.558	503.44
471.777	519.44
471.997	484.44
472.216	502.44
472.435	543.44
472.654	526.44
472.873	504.44
473.092	522.44
473.311	502.44
473.53	502.44
473.749	493.44
473.968	558.44
474.187	654.44
474.406	692.44
474.625	576.44
474.844	532.44
475.063	532.44
475.282	504.44
475.501	509.44
475.72	519.44
475.939	519.44
476.158	507.44
476.377	509.44
476.596	525.44
476.814	526.44
477.033	544.44
477.252	556.44
477.471	542.44
477.69	555.44
477.908	547.44
478.127	552.44
478.346	559.44
478.564	574.44
478.783	583.44
479.002	592.44
479.22	555.44
479.439	595.44
479.658	607.44
479.876	614.44
480.095	617.44
480.313	647.44
480.532	647.44
480.751	642.44
480.969	633.44
481.188	691.44
481.406	718.44
481.624	650.44
481.843	605.44
482.061	601.44
482.28	604.44
482.498	605.44
482.717	595.44
482.935	596.44
483.153	597.44
483.372	596.44
483.59	610.44
483.808	585.44
484.027	594.44
484.245	598.44
484.463	606.44
484.681	605.44
484.9	603.44
485.118	620.44
485.336	616.44
485.554	619.44
485.772	622.44
485.99	590.44
486.209	611.44
486.427	607.44
486.645	646.44
486.863	667.44
487.081	639.44
487.299	643.44
487.517	630.44
487.735	630.44
487.953	610.44
488.171	631.44
488.389	630.44
488.607	644.44
488.825	619.44
489.043	626.44
489.261	640.44
489.479	654.44
489.696	655.44
489.914	644.44
490.132	648.44
490.35	664.44
490.568	664.44
490.786	683.44
491.003	720.44
491.221	698.44
491.439	685.44
491.657	708.44
491.874	727.44
492.092	728.44
492.31	726.44
492.527	755.44
492.745	743.44
492.963	713.44
493.18	741.44
493.398	732.44
493.615	759.44
493.833	727.44
494.05	746.44
494.268	780.44
494.485	761.44
494.703	775.44
494.92	774.44
495.138	750.44
495.355	759.44
495.573	762.44
495.79	751.44
496.008	751.44
496.225	754.44
496.442	750.44
496.66	776.44
496.877	770.44
497.094	761.44
497.312	778.44
497.529	781.44
497.746	819.44
497.963	795.44
498.181	842.44
498.398	830.44
498.615	859.44
498.832	863.44
499.049	867.44
499.267	937.44
499.484	962.44
499.701	1010.44
499.918	1071.44
500.135	1091.44
500.352	1206.44
500.569	1224.44
500.786	1219.44
501.003	1186.44
501.22	1152.44
501.437	1110.44
501.654	1015.44
