Data from 1976.PennyLincolnUp.Lamp.En5.5.200Scan.071719.P1.Changed Mount._HRD10591_16-02-14-861.txt Node
Date: Thu Jul 18 16:02:14 EDT 2019
User: cochatt
Spectrometer: HR+D1059
Trigger mode: 1
Integration Time (sec): 1.000000E-1
Scans to average: 1
Electric dark correction enabled: true
Nonlinearity correction enabled: false
Boxcar width: 0
XAxis mode: Wavelengths
Number of Pixels in Spectrum: 2048
>>>>>Begin Spectral Data<<<<<
223.165	-23.38
223.4	-23.38
223.635	-23.38
223.869	-26.38
224.104	-11.38
224.338	-10.38
224.573	-18.38
224.808	-10.38
225.042	-13.38
225.277	-13.38
225.511	4.62
225.746	10.62
225.98	7.62
226.215	-3.38
226.449	19.62
226.683	28.62
226.918	29.62
227.152	29.62
227.387	22.62
227.621	49.62
227.856	48.62
228.09	47.62
228.324	44.62
228.559	48.62
228.793	76.62
229.027	90.62
229.262	88.62
229.496	113.62
229.73	128.62
229.964	162.62
230.199	135.62
230.433	109.62
230.667	103.62
230.901	109.62
231.136	98.62
231.37	99.62
231.604	109.62
231.838	114.62
232.072	111.62
232.306	114.62
232.541	121.62
232.775	131.62
233.009	122.62
233.243	113.62
233.477	128.62
233.711	107.62
233.945	113.62
234.179	131.62
234.413	121.62
234.647	132.62
234.881	123.62
235.115	120.62
235.349	120.62
235.583	126.62
235.817	125.62
236.051	132.62
236.285	130.62
236.519	121.62
236.753	130.62
236.987	139.62
237.221	170.62
237.455	224.62
237.689	184.62
237.922	140.62
238.156	127.62
238.39	133.62
238.624	118.62
238.858	132.62
239.091	130.62
239.325	119.62
239.559	128.62
239.793	132.62
240.027	142.62
240.26	138.62
240.494	166.62
240.728	143.62
240.961	160.62
241.195	143.62
241.429	136.62
241.662	157.62
241.896	132.62
242.13	126.62
242.363	132.62
242.597	142.62
242.83	152.62
243.064	154.62
243.298	128.62
243.531	140.62
243.765	136.62
243.998	149.62
244.232	132.62
244.465	133.62
244.699	147.62
244.932	137.62
245.166	154.62
245.399	140.62
245.633	156.62
245.866	167.62
246.099	141.62
246.333	154.62
246.566	148.62
246.8	156.62
247.033	148.62
247.266	166.62
247.5	164.62
247.733	174.62
247.966	165.62
248.2	177.62
248.433	170.62
248.666	170.62
248.899	182.62
249.133	180.62
249.366	206.62
249.599	192.62
249.832	189.62
250.066	183.62
250.299	187.62
250.532	197.62
250.765	222.62
250.998	228.62
251.231	239.62
251.465	247.62
251.698	213.62
251.931	223.62
252.164	204.62
252.397	204.62
252.63	200.62
252.863	213.62
253.096	216.62
253.329	226.62
253.562	237.62
253.795	221.62
254.028	221.62
254.261	237.62
254.494	232.62
254.727	256.62
254.96	288.62
255.193	285.62
255.426	243.62
255.659	219.62
255.892	237.62
256.124	237.62
256.357	252.62
256.59	241.62
256.823	226.62
257.056	224.62
257.289	203.62
257.521	212.62
257.754	210.62
257.987	219.62
258.22	216.62
258.452	208.62
258.685	199.62
258.918	226.62
259.151	222.62
259.383	229.62
259.616	233.62
259.849	236.62
260.081	241.62
260.314	250.62
260.547	259.62
260.779	258.62
261.012	262.62
261.244	233.62
261.477	246.62
261.71	243.62
261.942	224.62
262.175	215.62
262.407	250.62
262.64	246.62
262.872	227.62
263.105	220.62
263.337	219.62
263.57	227.62
263.802	235.62
264.035	224.62
264.267	214.62
264.499	233.62
264.732	205.62
264.964	221.62
265.197	232.62
265.429	223.62
265.661	223.62
265.894	241.62
266.126	224.62
266.358	227.62
266.591	246.62
266.823	244.62
267.055	239.62
267.287	248.62
267.52	231.62
267.752	258.62
267.984	246.62
268.216	241.62
268.448	248.62
268.681	246.62
268.913	262.62
269.145	288.62
269.377	280.62
269.609	304.62
269.841	286.62
270.073	288.62
270.306	301.62
270.538	338.62
270.77	339.62
271.002	325.62
271.234	309.62
271.466	314.62
271.698	339.62
271.93	338.62
272.162	320.62
272.394	321.62
272.626	318.62
272.858	297.62
273.09	277.62
273.322	278.62
273.553	294.62
273.785	292.62
274.017	277.62
274.249	281.62
274.481	284.62
274.713	280.62
274.945	289.62
275.176	288.62
275.408	278.62
275.64	306.62
275.872	280.62
276.104	289.62
276.335	290.62
276.567	301.62
276.799	303.62
277.031	326.62
277.262	356.62
277.494	352.62
277.726	320.62
277.957	313.62
278.189	295.62
278.421	281.62
278.652	287.62
278.884	304.62
279.115	309.62
279.347	300.62
279.579	288.62
279.81	292.62
280.042	309.62
280.273	295.62
280.505	303.62
280.736	292.62
280.968	290.62
281.199	308.62
281.431	291.62
281.662	307.62
281.894	306.62
282.125	290.62
282.356	307.62
282.588	325.62
282.819	328.62
283.051	315.62
283.282	292.62
283.513	295.62
283.745	300.62
283.976	315.62
284.207	314.62
284.439	302.62
284.67	312.62
284.901	332.62
285.132	331.62
285.364	302.62
285.595	304.62
285.826	320.62
286.057	317.62
286.288	318.62
286.52	324.62
286.751	306.62
286.982	327.62
287.213	321.62
287.444	318.62
287.675	321.62
287.906	346.62
288.138	327.62
288.369	335.62
288.6	342.62
288.831	321.62
289.062	318.62
289.293	333.62
289.524	340.62
289.755	330.62
289.986	329.62
290.217	320.62
290.448	308.62
290.679	331.62
290.91	316.62
291.141	326.62
291.371	299.62
291.602	317.62
291.833	329.62
292.064	313.62
292.295	322.62
292.526	332.62
292.757	318.62
292.987	331.62
293.218	332.62
293.449	320.62
293.68	318.62
293.91	316.62
294.141	323.62
294.372	325.62
294.603	325.62
294.833	315.62
295.064	313.62
295.295	329.62
295.525	344.62
295.756	322.62
295.987	333.62
296.217	343.62
296.448	352.62
296.679	351.62
296.909	316.62
297.14	342.62
297.37	340.62
297.601	334.62
297.831	334.62
298.062	320.62
298.292	323.62
298.523	350.62
298.753	333.62
298.984	339.62
299.214	357.62
299.445	349.62
299.675	333.62
299.905	349.62
300.136	345.62
300.366	350.62
300.597	329.62
300.827	342.62
301.057	370.62
301.288	353.62
301.518	346.62
301.748	370.62
301.979	369.62
302.209	379.62
302.439	355.62
302.669	366.62
302.9	375.62
303.13	359.62
303.36	358.62
303.59	376.62
303.82	358.62
304.051	356.62
304.281	364.62
304.511	361.62
304.741	353.62
304.971	356.62
305.201	343.62
305.431	361.62
305.661	356.62
305.891	356.62
306.121	367.62
306.352	372.62
306.582	344.62
306.812	374.62
307.042	378.62
307.272	380.62
307.502	363.62
307.731	374.62
307.961	356.62
308.191	371.62
308.421	378.62
308.651	376.62
308.881	366.62
309.111	372.62
309.341	372.62
309.571	383.62
309.8	394.62
310.03	389.62
310.26	405.62
310.49	402.62
310.72	406.62
310.949	417.62
311.179	426.62
311.409	402.62
311.639	403.62
311.868	409.62
312.098	379.62
312.328	425.62
312.557	408.62
312.787	414.62
313.017	414.62
313.246	413.62
313.476	414.62
313.706	387.62
313.935	398.62
314.165	426.62
314.394	427.62
314.624	418.62
314.853	412.62
315.083	393.62
315.312	420.62
315.542	404.62
315.771	392.62
316.001	384.62
316.23	401.62
316.46	402.62
316.689	418.62
316.919	417.62
317.148	416.62
317.377	395.62
317.607	409.62
317.836	410.62
318.065	430.62
318.295	386.62
318.524	405.62
318.753	411.62
318.983	418.62
319.212	392.62
319.441	407.62
319.67	424.62
319.9	403.62
320.129	413.62
320.358	413.62
320.587	404.62
320.816	440.62
321.046	429.62
321.275	425.62
321.504	427.62
321.733	432.62
321.962	438.62
322.191	434.62
322.42	454.62
322.649	473.62
322.878	476.62
323.108	475.62
323.337	480.62
323.566	512.62
323.795	526.62
324.024	534.62
324.253	640.62
324.482	903.62
324.71	1402.62
324.939	2100.62
325.168	1778.62
325.397	905.62
325.626	619.62
325.855	533.62
326.084	534.62
326.313	517.62
326.542	521.62
326.77	545.62
326.999	625.62
327.228	859.62
327.457	1280.62
327.686	1570.62
327.914	1032.62
328.143	693.62
328.372	619.62
328.6	598.62
328.829	552.62
329.058	593.62
329.287	573.62
329.515	566.62
329.744	516.62
329.972	526.62
330.201	552.62
330.43	619.62
330.658	585.62
330.887	611.62
331.115	594.62
331.344	526.62
331.572	520.62
331.801	532.62
332.03	523.62
332.258	502.62
332.486	476.62
332.715	491.62
332.943	481.62
333.172	498.62
333.4	519.62
333.629	498.62
333.857	538.62
334.085	538.62
334.314	541.62
334.542	561.62
334.771	572.62
334.999	532.62
335.227	538.62
335.455	516.62
335.684	514.62
335.912	502.62
336.14	474.62
336.369	501.62
336.597	476.62
336.825	485.62
337.053	490.62
337.281	462.62
337.51	496.62
337.738	491.62
337.966	476.62
338.194	487.62
338.422	494.62
338.65	480.62
338.878	453.62
339.106	484.62
339.334	482.62
339.562	467.62
339.79	472.62
340.018	469.62
340.246	446.62
340.474	460.62
340.702	454.62
340.93	460.62
341.158	471.62
341.386	442.62
341.614	457.62
341.842	449.62
342.07	446.62
342.298	478.62
342.526	452.62
342.754	434.62
342.981	462.62
343.209	448.62
343.437	474.62
343.665	476.62
343.893	478.62
344.12	491.62
344.348	483.62
344.576	483.62
344.804	479.62
345.031	473.62
345.259	515.62
345.487	468.62
345.714	477.62
345.942	454.62
346.17	449.62
346.397	460.62
346.625	434.62
346.853	459.62
347.08	444.62
347.308	451.62
347.535	448.62
347.763	444.62
347.99	451.62
348.218	445.62
348.445	460.62
348.673	465.62
348.9	448.62
349.128	418.62
349.355	423.62
349.583	444.62
349.81	448.62
350.037	444.62
350.265	458.62
350.492	430.62
350.72	439.62
350.947	440.62
351.174	426.62
351.402	439.62
351.629	446.62
351.856	456.62
352.083	438.62
352.311	450.62
352.538	452.62
352.765	451.62
352.992	444.62
353.22	460.62
353.447	443.62
353.674	432.62
353.901	432.62
354.128	418.62
354.355	419.62
354.583	436.62
354.81	433.62
355.037	419.62
355.264	420.62
355.491	420.62
355.718	436.62
355.945	415.62
356.172	414.62
356.399	412.62
356.626	417.62
356.853	404.62
357.08	418.62
357.307	418.62
357.534	430.62
357.761	427.62
357.988	442.62
358.215	415.62
358.441	428.62
358.668	430.62
358.895	435.62
359.122	427.62
359.349	434.62
359.576	426.62
359.802	448.62
360.029	480.62
360.256	488.62
360.483	473.62
360.709	444.62
360.936	454.62
361.163	437.62
361.39	448.62
361.616	444.62
361.843	443.62
362.07	454.62
362.296	442.62
362.523	441.62
362.749	455.62
362.976	427.62
363.203	436.62
363.429	422.62
363.656	441.62
363.882	442.62
364.109	427.62
364.335	436.62
364.562	427.62
364.788	435.62
365.015	436.62
365.241	422.62
365.468	443.62
365.694	442.62
365.92	445.62
366.147	443.62
366.373	428.62
366.599	408.62
366.826	438.62
367.052	426.62
367.278	410.62
367.505	433.62
367.731	404.62
367.957	409.62
368.184	439.62
368.41	421.62
368.636	439.62
368.862	440.62
369.089	418.62
369.315	414.62
369.541	403.62
369.767	417.62
369.993	429.62
370.219	426.62
370.445	436.62
370.672	420.62
370.898	422.62
371.124	434.62
371.35	432.62
371.576	444.62
371.802	444.62
372.028	457.62
372.254	442.62
372.48	444.62
372.706	420.62
372.932	428.62
373.158	449.62
373.384	469.62
373.61	444.62
373.835	431.62
374.061	429.62
374.287	430.62
374.513	449.62
374.739	451.62
374.965	442.62
375.191	460.62
375.416	449.62
375.642	444.62
375.868	466.62
376.094	429.62
376.319	435.62
376.545	405.62
376.771	429.62
376.997	423.62
377.222	427.62
377.448	460.62
377.674	436.62
377.899	419.62
378.125	427.62
378.35	436.62
378.576	450.62
378.802	443.62
379.027	442.62
379.253	436.62
379.478	439.62
379.704	424.62
379.929	432.62
380.155	415.62
380.38	427.62
380.606	430.62
380.831	430.62
381.057	447.62
381.282	424.62
381.507	424.62
381.733	443.62
381.958	424.62
382.184	438.62
382.409	453.62
382.634	436.62
382.86	445.62
383.085	447.62
383.31	469.62
383.535	455.62
383.761	450.62
383.986	456.62
384.211	449.62
384.436	463.62
384.662	464.62
384.887	472.62
385.112	468.62
385.337	463.62
385.562	458.62
385.787	496.62
386.013	495.62
386.238	500.62
386.463	488.62
386.688	484.62
386.913	469.62
387.138	471.62
387.363	495.62
387.588	491.62
387.813	501.62
388.038	480.62
388.263	500.62
388.488	466.62
388.713	474.62
388.938	482.62
389.163	490.62
389.387	497.62
389.612	480.62
389.837	475.62
390.062	474.62
390.287	486.62
390.512	459.62
390.736	486.62
390.961	486.62
391.186	464.62
391.411	489.62
391.636	516.62
391.86	520.62
392.085	521.62
392.31	500.62
392.534	503.62
392.759	471.62
392.984	504.62
393.208	462.62
393.433	494.62
393.658	489.62
393.882	467.62
394.107	512.62
394.331	514.62
394.556	499.62
394.78	498.62
395.005	474.62
395.229	486.62
395.454	506.62
395.678	517.62
395.903	499.62
396.127	536.62
396.352	524.62
396.576	511.62
396.801	510.62
397.025	524.62
397.249	519.62
397.474	506.62
397.698	532.62
397.922	544.62
398.147	532.62
398.371	520.62
398.595	541.62
398.82	570.62
399.044	566.62
399.268	636.62
399.492	649.62
399.717	661.62
399.941	699.62
400.165	713.62
400.389	713.62
400.613	661.62
400.837	594.62
401.062	582.62
401.286	575.62
401.51	564.62
401.734	551.62
401.958	553.62
402.182	589.62
402.406	580.62
402.63	611.62
402.854	594.62
403.078	599.62
403.302	600.62
403.526	608.62
403.75	595.62
403.974	592.62
404.198	599.62
404.422	596.62
404.645	599.62
404.869	602.62
405.093	645.62
405.317	683.62
405.541	720.62
405.765	666.62
405.988	608.62
406.212	630.62
406.436	632.62
406.66	636.62
406.883	619.62
407.107	660.62
407.331	688.62
407.555	773.62
407.778	770.62
408.002	714.62
408.226	670.62
408.449	642.62
408.673	629.62
408.896	685.62
409.12	713.62
409.344	676.62
409.567	642.62
409.791	607.62
410.014	596.62
410.238	617.62
410.461	573.62
410.685	598.62
410.908	607.62
411.132	633.62
411.355	654.62
411.578	651.62
411.802	614.62
412.025	590.62
412.249	593.62
412.472	621.62
412.695	651.62
412.919	634.62
413.142	586.62
413.365	600.62
413.589	576.62
413.812	572.62
414.035	547.62
414.258	562.62
414.482	564.62
414.705	553.62
414.928	552.62
415.151	551.62
415.374	551.62
415.597	551.62
415.821	555.62
416.044	564.62
416.267	555.62
416.49	545.62
416.713	533.62
416.936	561.62
417.159	564.62
417.382	550.62
417.605	566.62
417.828	570.62
418.051	556.62
418.274	586.62
418.497	539.62
418.72	554.62
418.943	536.62
419.166	589.62
419.389	601.62
419.611	615.62
419.834	587.62
420.057	598.62
420.28	598.62
420.503	585.62
420.726	575.62
420.948	587.62
421.171	627.62
421.394	659.62
421.617	593.62
421.839	587.62
422.062	566.62
422.285	596.62
422.507	660.62
422.73	735.62
422.953	700.62
423.175	611.62
423.398	599.62
423.621	599.62
423.843	611.62
424.066	596.62
424.288	613.62
424.511	633.62
424.733	692.62
424.956	792.62
425.178	730.62
425.401	719.62
425.623	788.62
425.846	668.62
426.068	619.62
426.291	603.62
426.513	604.62
426.735	644.62
426.958	656.62
427.18	762.62
427.402	864.62
427.625	963.62
427.847	812.62
428.069	721.62
428.292	653.62
428.514	579.62
428.736	577.62
428.958	582.62
429.181	544.62
429.403	528.62
429.625	569.62
429.847	602.62
430.069	663.62
430.292	650.62
430.514	564.62
430.736	565.62
430.958	556.62
431.18	517.62
431.402	541.62
431.624	534.62
431.846	542.62
432.068	535.62
432.29	548.62
432.512	552.62
432.734	566.62
432.956	510.62
433.178	554.62
433.4	552.62
433.622	535.62
433.844	551.62
434.066	540.62
434.287	533.62
434.509	554.62
434.731	544.62
434.953	563.62
435.175	586.62
435.397	620.62
435.618	624.62
435.84	627.62
436.062	753.62
436.284	837.62
436.505	698.62
436.727	605.62
436.949	583.62
437.17	570.62
437.392	541.62
437.614	571.62
437.835	595.62
438.057	690.62
438.278	794.62
438.5	780.62
438.721	882.62
438.943	842.62
439.165	648.62
439.386	626.62
439.608	620.62
439.829	612.62
440.05	626.62
440.272	681.62
440.493	655.62
440.715	621.62
440.936	589.62
441.158	574.62
441.379	556.62
441.6	614.62
441.822	616.62
442.043	629.62
442.264	726.62
442.486	798.62
442.707	656.62
442.928	632.62
443.149	637.62
443.371	654.62
443.592	702.62
443.813	804.62
444.034	844.62
444.255	699.62
444.476	641.62
444.698	646.62
444.919	642.62
445.14	700.62
445.361	674.62
445.582	656.62
445.803	715.62
446.024	820.62
446.245	824.62
446.466	755.62
446.687	658.62
446.908	617.62
447.129	556.62
447.35	566.62
447.571	544.62
447.792	562.62
448.013	562.62
448.234	574.62
448.455	619.62
448.675	722.62
448.896	868.62
449.117	734.62
449.338	670.62
449.559	811.62
449.779	912.62
450	736.62
450.221	605.62
450.442	577.62
450.662	549.62
450.883	531.62
451.104	556.62
451.324	530.62
451.545	532.62
451.766	509.62
451.986	494.62
452.207	503.62
452.428	487.62
452.648	473.62
452.869	468.62
453.089	503.62
453.31	526.62
453.53	490.62
453.751	505.62
453.971	509.62
454.192	514.62
454.412	510.62
454.633	482.62
454.853	469.62
455.073	504.62
455.294	524.62
455.514	597.62
455.734	587.62
455.955	497.62
456.175	475.62
456.395	491.62
456.616	463.62
456.836	453.62
457.056	467.62
457.276	454.62
457.497	470.62
457.717	478.62
457.937	512.62
458.157	476.62
458.377	486.62
458.598	490.62
458.818	536.62
459.038	618.62
459.258	629.62
459.478	577.62
459.698	548.62
459.918	534.62
460.138	534.62
460.358	539.62
460.578	560.62
460.798	544.62
461.018	583.62
461.238	555.62
461.458	540.62
461.678	569.62
461.898	558.62
462.118	562.62
462.338	580.62
462.558	574.62
462.777	593.62
462.997	637.62
463.217	644.62
463.437	608.62
463.657	608.62
463.876	599.62
464.096	610.62
464.316	594.62
464.536	596.62
464.755	613.62
464.975	610.62
465.195	636.62
465.414	666.62
465.634	605.62
465.854	567.62
466.073	542.62
466.293	543.62
466.512	498.62
466.732	520.62
466.951	496.62
467.171	501.62
467.391	521.62
467.61	518.62
467.829	531.62
468.049	536.62
468.268	514.62
468.488	508.62
468.707	512.62
468.927	495.62
469.146	496.62
469.365	487.62
469.585	498.62
469.804	504.62
470.023	539.62
470.243	480.62
470.462	524.62
470.681	557.62
470.901	528.62
471.12	538.62
471.339	518.62
471.558	526.62
471.777	518.62
471.997	520.62
472.216	526.62
472.435	539.62
472.654	538.62
472.873	501.62
473.092	523.62
473.311	521.62
473.53	509.62
473.749	523.62
473.968	557.62
474.187	684.62
474.406	679.62
474.625	566.62
474.844	518.62
475.063	543.62
475.282	493.62
475.501	518.62
475.72	514.62
475.939	542.62
476.158	554.62
476.377	533.62
476.596	523.62
476.814	531.62
477.033	553.62
477.252	542.62
477.471	547.62
477.69	548.62
477.908	577.62
478.127	571.62
478.346	562.62
478.564	579.62
478.783	574.62
479.002	572.62
479.22	577.62
479.439	603.62
479.658	620.62
479.876	608.62
480.095	641.62
480.313	640.62
480.532	649.62
480.751	636.62
480.969	619.62
481.188	692.62
481.406	696.62
481.624	667.62
481.843	603.62
482.061	618.62
482.28	604.62
482.498	594.62
482.717	604.62
482.935	586.62
483.153	604.62
483.372	597.62
483.59	611.62
483.808	596.62
484.027	594.62
484.245	595.62
484.463	606.62
484.681	595.62
484.9	611.62
485.118	618.62
485.336	592.62
485.554	618.62
485.772	642.62
485.99	638.62
486.209	638.62
486.427	622.62
486.645	628.62
486.863	665.62
487.081	628.62
487.299	645.62
487.517	620.62
487.735	634.62
487.953	658.62
488.171	634.62
488.389	665.62
488.607	633.62
488.825	637.62
489.043	639.62
489.261	660.62
489.479	648.62
489.696	654.62
489.914	674.62
490.132	684.62
490.35	661.62
490.568	672.62
490.786	690.62
491.003	695.62
491.221	702.62
491.439	702.62
491.657	714.62
491.874	725.62
492.092	733.62
492.31	740.62
492.527	750.62
492.745	755.62
492.963	749.62
493.18	730.62
493.398	729.62
493.615	730.62
493.833	760.62
494.05	731.62
494.268	769.62
494.485	776.62
494.703	770.62
494.92	781.62
495.138	758.62
495.355	781.62
495.573	761.62
495.79	748.62
496.008	745.62
496.225	771.62
496.442	768.62
496.66	759.62
496.877	786.62
497.094	788.62
497.312	760.62
497.529	801.62
497.746	830.62
497.963	822.62
498.181	826.62
498.398	850.62
498.615	875.62
498.832	910.62
499.049	917.62
499.267	963.62
499.484	985.62
499.701	1011.62
499.918	1067.62
500.135	1137.62
500.352	1229.62
500.569	1225.62
500.786	1192.62
501.003	1222.62
501.22	1157.62
501.437	1123.62
501.654	1072.62
