Data from 1976.PennyLincolnUp.Lamp.En5.5.200Scan.071719.P1.Changed Mount._HRD10591_16-01-19-876.txt Node
Date: Thu Jul 18 16:01:19 EDT 2019
User: cochatt
Spectrometer: HR+D1059
Trigger mode: 1
Integration Time (sec): 1.000000E-1
Scans to average: 1
Electric dark correction enabled: true
Nonlinearity correction enabled: false
Boxcar width: 0
XAxis mode: Wavelengths
Number of Pixels in Spectrum: 2048
>>>>>Begin Spectral Data<<<<<
223.165	3.12
223.4	3.12
223.635	3.12
223.869	-30.88
224.104	-7.88
224.338	-15.88
224.573	-15.88
224.808	-5.88
225.042	-3.88
225.277	2.12
225.511	3.12
225.746	-3.88
225.98	6.12
226.215	6.12
226.449	13.12
226.683	8.12
226.918	20.12
227.152	22.12
227.387	39.12
227.621	39.12
227.856	40.12
228.09	43.12
228.324	50.12
228.559	60.12
228.793	78.12
229.027	110.12
229.262	118.12
229.496	128.12
229.73	130.12
229.964	155.12
230.199	144.12
230.433	107.12
230.667	116.12
230.901	120.12
231.136	105.12
231.37	92.12
231.604	114.12
231.838	110.12
232.072	98.12
232.306	122.12
232.541	104.12
232.775	113.12
233.009	110.12
233.243	123.12
233.477	121.12
233.711	122.12
233.945	109.12
234.179	116.12
234.413	119.12
234.647	113.12
234.881	121.12
235.115	113.12
235.349	119.12
235.583	126.12
235.817	124.12
236.051	127.12
236.285	133.12
236.519	126.12
236.753	134.12
236.987	144.12
237.221	170.12
237.455	226.12
237.689	178.12
237.922	141.12
238.156	140.12
238.39	140.12
238.624	138.12
238.858	140.12
239.091	134.12
239.325	131.12
239.559	123.12
239.793	132.12
240.027	142.12
240.26	154.12
240.494	158.12
240.728	162.12
240.961	154.12
241.195	145.12
241.429	142.12
241.662	147.12
241.896	144.12
242.13	143.12
242.363	148.12
242.597	137.12
242.83	160.12
243.064	165.12
243.298	136.12
243.531	140.12
243.765	138.12
243.998	152.12
244.232	147.12
244.465	150.12
244.699	142.12
244.932	133.12
245.166	156.12
245.399	159.12
245.633	163.12
245.866	148.12
246.099	161.12
246.333	150.12
246.566	149.12
246.8	160.12
247.033	156.12
247.266	159.12
247.5	166.12
247.733	188.12
247.966	182.12
248.2	191.12
248.433	182.12
248.666	188.12
248.899	205.12
249.133	204.12
249.366	202.12
249.599	193.12
249.832	192.12
250.066	199.12
250.299	192.12
250.532	208.12
250.765	204.12
250.998	222.12
251.231	224.12
251.465	224.12
251.698	213.12
251.931	198.12
252.164	207.12
252.397	194.12
252.63	230.12
252.863	221.12
253.096	217.12
253.329	230.12
253.562	231.12
253.795	219.12
254.028	225.12
254.261	227.12
254.494	224.12
254.727	269.12
254.96	282.12
255.193	250.12
255.426	236.12
255.659	232.12
255.892	247.12
256.124	247.12
256.357	255.12
256.59	247.12
256.823	226.12
257.056	230.12
257.289	239.12
257.521	208.12
257.754	212.12
257.987	242.12
258.22	227.12
258.452	218.12
258.685	214.12
258.918	213.12
259.151	210.12
259.383	245.12
259.616	248.12
259.849	236.12
260.081	249.12
260.314	267.12
260.547	245.12
260.779	259.12
261.012	241.12
261.244	242.12
261.477	226.12
261.71	235.12
261.942	228.12
262.175	245.12
262.407	240.12
262.64	230.12
262.872	228.12
263.105	227.12
263.337	233.12
263.57	223.12
263.802	223.12
264.035	215.12
264.267	233.12
264.499	217.12
264.732	228.12
264.964	226.12
265.197	226.12
265.429	237.12
265.661	224.12
265.894	230.12
266.126	228.12
266.358	238.12
266.591	244.12
266.823	251.12
267.055	243.12
267.287	239.12
267.52	242.12
267.752	249.12
267.984	234.12
268.216	245.12
268.448	264.12
268.681	254.12
268.913	267.12
269.145	287.12
269.377	275.12
269.609	281.12
269.841	266.12
270.073	275.12
270.306	303.12
270.538	315.12
270.77	324.12
271.002	312.12
271.234	316.12
271.466	320.12
271.698	333.12
271.93	332.12
272.162	348.12
272.394	333.12
272.626	305.12
272.858	292.12
273.09	288.12
273.322	300.12
273.553	284.12
273.785	288.12
274.017	289.12
274.249	281.12
274.481	283.12
274.713	290.12
274.945	278.12
275.176	276.12
275.408	288.12
275.64	295.12
275.872	296.12
276.104	301.12
276.335	272.12
276.567	308.12
276.799	292.12
277.031	299.12
277.262	317.12
277.494	332.12
277.726	319.12
277.957	312.12
278.189	299.12
278.421	300.12
278.652	300.12
278.884	300.12
279.115	298.12
279.347	291.12
279.579	281.12
279.81	294.12
280.042	295.12
280.273	296.12
280.505	293.12
280.736	309.12
280.968	295.12
281.199	284.12
281.431	289.12
281.662	302.12
281.894	308.12
282.125	304.12
282.356	313.12
282.588	319.12
282.819	331.12
283.051	314.12
283.282	292.12
283.513	312.12
283.745	296.12
283.976	296.12
284.207	308.12
284.439	325.12
284.67	312.12
284.901	303.12
285.132	310.12
285.364	300.12
285.595	295.12
285.826	301.12
286.057	296.12
286.288	318.12
286.52	314.12
286.751	328.12
286.982	298.12
287.213	319.12
287.444	324.12
287.675	305.12
287.906	328.12
288.138	326.12
288.369	345.12
288.6	327.12
288.831	333.12
289.062	340.12
289.293	312.12
289.524	325.12
289.755	325.12
289.986	339.12
290.217	324.12
290.448	341.12
290.679	321.12
290.91	321.12
291.141	326.12
291.371	329.12
291.602	316.12
291.833	316.12
292.064	331.12
292.295	313.12
292.526	319.12
292.757	339.12
292.987	328.12
293.218	330.12
293.449	342.12
293.68	320.12
293.91	300.12
294.141	317.12
294.372	321.12
294.603	318.12
294.833	320.12
295.064	333.12
295.295	332.12
295.525	322.12
295.756	336.12
295.987	335.12
296.217	353.12
296.448	360.12
296.679	326.12
296.909	332.12
297.14	332.12
297.37	330.12
297.601	334.12
297.831	320.12
298.062	338.12
298.292	347.12
298.523	326.12
298.753	346.12
298.984	345.12
299.214	319.12
299.445	341.12
299.675	332.12
299.905	342.12
300.136	356.12
300.366	337.12
300.597	368.12
300.827	363.12
301.057	348.12
301.288	365.12
301.518	342.12
301.748	350.12
301.979	369.12
302.209	374.12
302.439	351.12
302.669	372.12
302.9	372.12
303.13	359.12
303.36	356.12
303.59	364.12
303.82	375.12
304.051	384.12
304.281	343.12
304.511	367.12
304.741	368.12
304.971	372.12
305.201	367.12
305.431	369.12
305.661	352.12
305.891	356.12
306.121	359.12
306.352	372.12
306.582	356.12
306.812	365.12
307.042	367.12
307.272	363.12
307.502	365.12
307.731	365.12
307.961	379.12
308.191	348.12
308.421	353.12
308.651	380.12
308.881	376.12
309.111	366.12
309.341	376.12
309.571	353.12
309.8	376.12
310.03	396.12
310.26	398.12
310.49	386.12
310.72	394.12
310.949	390.12
311.179	406.12
311.409	421.12
311.639	400.12
311.868	384.12
312.098	398.12
312.328	409.12
312.557	406.12
312.787	416.12
313.017	432.12
313.246	409.12
313.476	403.12
313.706	382.12
313.935	414.12
314.165	422.12
314.394	404.12
314.624	424.12
314.853	400.12
315.083	392.12
315.312	391.12
315.542	408.12
315.771	402.12
316.001	392.12
316.23	398.12
316.46	399.12
316.689	441.12
316.919	405.12
317.148	432.12
317.377	429.12
317.607	418.12
317.836	421.12
318.065	400.12
318.295	410.12
318.524	412.12
318.753	377.12
318.983	395.12
319.212	400.12
319.441	397.12
319.67	406.12
319.9	402.12
320.129	402.12
320.358	387.12
320.587	402.12
320.816	417.12
321.046	426.12
321.275	420.12
321.504	402.12
321.733	416.12
321.962	431.12
322.191	418.12
322.42	438.12
322.649	480.12
322.878	453.12
323.108	465.12
323.337	479.12
323.566	511.12
323.795	516.12
324.024	547.12
324.253	656.12
324.482	926.12
324.71	1323.12
324.939	1990.12
325.168	1766.12
325.397	912.12
325.626	634.12
325.855	552.12
326.084	512.12
326.313	510.12
326.542	525.12
326.77	545.12
326.999	621.12
327.228	822.12
327.457	1247.12
327.686	1542.12
327.914	1012.12
328.143	676.12
328.372	607.12
328.6	577.12
328.829	540.12
329.058	571.12
329.287	562.12
329.515	534.12
329.744	525.12
329.972	526.12
330.201	541.12
330.43	577.12
330.658	585.12
330.887	600.12
331.115	582.12
331.344	540.12
331.572	508.12
331.801	503.12
332.03	502.12
332.258	512.12
332.486	484.12
332.715	498.12
332.943	492.12
333.172	488.12
333.4	501.12
333.629	524.12
333.857	534.12
334.085	530.12
334.314	533.12
334.542	584.12
334.771	577.12
334.999	550.12
335.227	518.12
335.455	501.12
335.684	503.12
335.912	485.12
336.14	480.12
336.369	476.12
336.597	491.12
336.825	504.12
337.053	486.12
337.281	492.12
337.51	469.12
337.738	494.12
337.966	485.12
338.194	480.12
338.422	464.12
338.65	462.12
338.878	487.12
339.106	463.12
339.334	496.12
339.562	469.12
339.79	468.12
340.018	471.12
340.246	466.12
340.474	470.12
340.702	465.12
340.93	454.12
341.158	464.12
341.386	471.12
341.614	477.12
341.842	456.12
342.07	446.12
342.298	442.12
342.526	448.12
342.754	430.12
342.981	443.12
343.209	454.12
343.437	443.12
343.665	471.12
343.893	484.12
344.12	501.12
344.348	468.12
344.576	484.12
344.804	469.12
345.031	465.12
345.259	488.12
345.487	479.12
345.714	461.12
345.942	448.12
346.17	449.12
346.397	440.12
346.625	463.12
346.853	443.12
347.08	442.12
347.308	464.12
347.535	456.12
347.763	437.12
347.99	436.12
348.218	452.12
348.445	452.12
348.673	453.12
348.9	454.12
349.128	461.12
349.355	419.12
349.583	438.12
349.81	453.12
350.037	422.12
350.265	435.12
350.492	439.12
350.72	431.12
350.947	430.12
351.174	479.12
351.402	458.12
351.629	450.12
351.856	436.12
352.083	464.12
352.311	443.12
352.538	467.12
352.765	443.12
352.992	444.12
353.22	461.12
353.447	430.12
353.674	429.12
353.901	428.12
354.128	406.12
354.355	433.12
354.583	432.12
354.81	420.12
355.037	420.12
355.264	429.12
355.491	399.12
355.718	422.12
355.945	398.12
356.172	412.12
356.399	425.12
356.626	433.12
356.853	445.12
357.08	434.12
357.307	394.12
357.534	436.12
357.761	412.12
357.988	417.12
358.215	422.12
358.441	405.12
358.668	417.12
358.895	420.12
359.122	414.12
359.349	444.12
359.576	431.12
359.802	468.12
360.029	481.12
360.256	477.12
360.483	455.12
360.709	425.12
360.936	432.12
361.163	424.12
361.39	453.12
361.616	457.12
361.843	448.12
362.07	434.12
362.296	446.12
362.523	429.12
362.749	438.12
362.976	423.12
363.203	446.12
363.429	401.12
363.656	417.12
363.882	442.12
364.109	430.12
364.335	414.12
364.562	415.12
364.788	432.12
365.015	431.12
365.241	407.12
365.468	425.12
365.694	432.12
365.92	431.12
366.147	436.12
366.373	433.12
366.599	423.12
366.826	424.12
367.052	421.12
367.278	428.12
367.505	424.12
367.731	444.12
367.957	434.12
368.184	431.12
368.41	423.12
368.636	436.12
368.862	426.12
369.089	450.12
369.315	427.12
369.541	420.12
369.767	425.12
369.993	431.12
370.219	426.12
370.445	419.12
370.672	411.12
370.898	441.12
371.124	418.12
371.35	428.12
371.576	423.12
371.802	425.12
372.028	425.12
372.254	428.12
372.48	426.12
372.706	432.12
372.932	426.12
373.158	458.12
373.384	438.12
373.61	440.12
373.835	427.12
374.061	438.12
374.287	428.12
374.513	431.12
374.739	422.12
374.965	425.12
375.191	463.12
375.416	446.12
375.642	450.12
375.868	440.12
376.094	438.12
376.319	410.12
376.545	410.12
376.771	422.12
376.997	414.12
377.222	407.12
377.448	429.12
377.674	412.12
377.899	429.12
378.125	434.12
378.35	428.12
378.576	425.12
378.802	420.12
379.027	419.12
379.253	426.12
379.478	442.12
379.704	436.12
379.929	409.12
380.155	430.12
380.38	414.12
380.606	438.12
380.831	428.12
381.057	431.12
381.282	462.12
381.507	433.12
381.733	421.12
381.958	445.12
382.184	432.12
382.409	429.12
382.634	441.12
382.86	431.12
383.085	462.12
383.31	453.12
383.535	434.12
383.761	444.12
383.986	454.12
384.211	474.12
384.436	477.12
384.662	482.12
384.887	447.12
385.112	457.12
385.337	465.12
385.562	465.12
385.787	476.12
386.013	495.12
386.238	481.12
386.463	484.12
386.688	462.12
386.913	456.12
387.138	476.12
387.363	470.12
387.588	478.12
387.813	464.12
388.038	479.12
388.263	485.12
388.488	490.12
388.713	480.12
388.938	492.12
389.163	474.12
389.387	461.12
389.612	480.12
389.837	466.12
390.062	463.12
390.287	473.12
390.512	471.12
390.736	484.12
390.961	472.12
391.186	478.12
391.411	478.12
391.636	480.12
391.86	487.12
392.085	508.12
392.31	516.12
392.534	524.12
392.759	502.12
392.984	513.12
393.208	474.12
393.433	473.12
393.658	492.12
393.882	474.12
394.107	490.12
394.331	495.12
394.556	502.12
394.78	494.12
395.005	480.12
395.229	475.12
395.454	527.12
395.678	495.12
395.903	524.12
396.127	542.12
396.352	517.12
396.576	524.12
396.801	479.12
397.025	529.12
397.249	494.12
397.474	495.12
397.698	518.12
397.922	548.12
398.147	520.12
398.371	540.12
398.595	541.12
398.82	562.12
399.044	567.12
399.268	611.12
399.492	644.12
399.717	685.12
399.941	704.12
400.165	704.12
400.389	687.12
400.613	656.12
400.837	624.12
401.062	578.12
401.286	578.12
401.51	571.12
401.734	559.12
401.958	570.12
402.182	555.12
402.406	574.12
402.63	578.12
402.854	566.12
403.078	582.12
403.302	554.12
403.526	613.12
403.75	589.12
403.974	577.12
404.198	580.12
404.422	586.12
404.645	598.12
404.869	633.12
405.093	634.12
405.317	659.12
405.541	696.12
405.765	646.12
405.988	601.12
406.212	622.12
406.436	638.12
406.66	661.12
406.883	630.12
407.107	679.12
407.331	705.12
407.555	779.12
407.778	765.12
408.002	700.12
408.226	660.12
408.449	652.12
408.673	645.12
408.896	656.12
409.12	698.12
409.344	682.12
409.567	638.12
409.791	597.12
410.014	570.12
410.238	580.12
410.461	594.12
410.685	587.12
410.908	594.12
411.132	627.12
411.355	656.12
411.578	637.12
411.802	593.12
412.025	597.12
412.249	554.12
412.472	640.12
412.695	639.12
412.919	631.12
413.142	607.12
413.365	596.12
413.589	588.12
413.812	558.12
414.035	528.12
414.258	537.12
414.482	576.12
414.705	554.12
414.928	551.12
415.151	550.12
415.374	559.12
415.597	551.12
415.821	542.12
416.044	554.12
416.267	542.12
416.49	547.12
416.713	558.12
416.936	540.12
417.159	531.12
417.382	574.12
417.605	531.12
417.828	566.12
418.051	584.12
418.274	583.12
418.497	545.12
418.72	559.12
418.943	546.12
419.166	587.12
419.389	590.12
419.611	593.12
419.834	616.12
420.057	560.12
420.28	589.12
420.503	584.12
420.726	566.12
420.948	574.12
421.171	643.12
421.394	666.12
421.617	591.12
421.839	582.12
422.062	576.12
422.285	588.12
422.507	653.12
422.73	721.12
422.953	717.12
423.175	620.12
423.398	584.12
423.621	604.12
423.843	609.12
424.066	614.12
424.288	609.12
424.511	619.12
424.733	702.12
424.956	749.12
425.178	712.12
425.401	714.12
425.623	734.12
425.846	653.12
426.068	602.12
426.291	598.12
426.513	589.12
426.735	616.12
426.958	631.12
427.18	704.12
427.402	867.12
427.625	945.12
427.847	808.12
428.069	696.12
428.292	638.12
428.514	572.12
428.736	562.12
428.958	568.12
429.181	553.12
429.403	545.12
429.625	537.12
429.847	594.12
430.069	666.12
430.292	659.12
430.514	584.12
430.736	542.12
430.958	597.12
431.18	530.12
431.402	531.12
431.624	525.12
431.846	520.12
432.068	538.12
432.29	526.12
432.512	514.12
432.734	555.12
432.956	555.12
433.178	549.12
433.4	549.12
433.622	532.12
433.844	553.12
434.066	525.12
434.287	537.12
434.509	546.12
434.731	557.12
434.953	553.12
435.175	571.12
435.397	587.12
435.618	606.12
435.84	659.12
436.062	733.12
436.284	798.12
436.505	657.12
436.727	626.12
436.949	567.12
437.17	531.12
437.392	571.12
437.614	536.12
437.835	589.12
438.057	684.12
438.278	772.12
438.5	787.12
438.721	848.12
438.943	839.12
439.165	665.12
439.386	605.12
439.608	605.12
439.829	594.12
440.05	608.12
440.272	673.12
440.493	628.12
440.715	594.12
440.936	588.12
441.158	565.12
441.379	568.12
441.6	573.12
441.822	591.12
442.043	654.12
442.264	720.12
442.486	766.12
442.707	653.12
442.928	595.12
443.149	632.12
443.371	630.12
443.592	683.12
443.813	782.12
444.034	841.12
444.255	734.12
444.476	642.12
444.698	610.12
444.919	646.12
445.14	731.12
445.361	685.12
445.582	662.12
445.803	719.12
446.024	797.12
446.245	817.12
446.466	751.12
446.687	625.12
446.908	602.12
447.129	561.12
447.35	568.12
447.571	559.12
447.792	549.12
448.013	568.12
448.234	568.12
448.455	601.12
448.675	737.12
448.896	867.12
449.117	743.12
449.338	670.12
449.559	787.12
449.779	917.12
450	718.12
450.221	615.12
450.442	552.12
450.662	529.12
450.883	535.12
451.104	539.12
451.324	536.12
451.545	521.12
451.766	518.12
451.986	515.12
452.207	467.12
452.428	486.12
452.648	498.12
452.869	484.12
453.089	492.12
453.31	511.12
453.53	520.12
453.751	479.12
453.971	466.12
454.192	483.12
454.412	485.12
454.633	484.12
454.853	477.12
455.073	489.12
455.294	521.12
455.514	585.12
455.734	590.12
455.955	493.12
456.175	482.12
456.395	462.12
456.616	465.12
456.836	469.12
457.056	456.12
457.276	463.12
457.497	458.12
457.717	481.12
457.937	472.12
458.157	471.12
458.377	491.12
458.598	497.12
458.818	553.12
459.038	595.12
459.258	640.12
459.478	562.12
459.698	552.12
459.918	533.12
460.138	516.12
460.358	548.12
460.578	547.12
460.798	546.12
461.018	551.12
461.238	552.12
461.458	546.12
461.678	549.12
461.898	569.12
462.118	568.12
462.338	567.12
462.558	584.12
462.777	593.12
462.997	621.12
463.217	622.12
463.437	624.12
463.657	622.12
463.876	605.12
464.096	602.12
464.316	584.12
464.536	587.12
464.755	596.12
464.975	620.12
465.195	624.12
465.414	647.12
465.634	607.12
465.854	565.12
466.073	531.12
466.293	524.12
466.512	504.12
466.732	500.12
466.951	514.12
467.171	506.12
467.391	526.12
467.61	500.12
467.829	513.12
468.049	522.12
468.268	504.12
468.488	504.12
468.707	498.12
468.927	503.12
469.146	480.12
469.365	498.12
469.585	492.12
469.804	491.12
470.023	512.12
470.243	503.12
470.462	518.12
470.681	546.12
470.901	538.12
471.12	496.12
471.339	504.12
471.558	520.12
471.777	528.12
471.997	517.12
472.216	506.12
472.435	522.12
472.654	534.12
472.873	502.12
473.092	505.12
473.311	509.12
473.53	514.12
473.749	507.12
473.968	573.12
474.187	641.12
474.406	664.12
474.625	577.12
474.844	538.12
475.063	508.12
475.282	516.12
475.501	525.12
475.72	539.12
475.939	527.12
476.158	530.12
476.377	533.12
476.596	521.12
476.814	534.12
477.033	538.12
477.252	533.12
477.471	563.12
477.69	561.12
477.908	543.12
478.127	545.12
478.346	569.12
478.564	580.12
478.783	574.12
479.002	591.12
479.22	589.12
479.439	606.12
479.658	642.12
479.876	632.12
480.095	624.12
480.313	682.12
480.532	675.12
480.751	617.12
480.969	624.12
481.188	689.12
481.406	698.12
481.624	658.12
481.843	615.12
482.061	616.12
482.28	588.12
482.498	607.12
482.717	592.12
482.935	592.12
483.153	583.12
483.372	606.12
483.59	599.12
483.808	582.12
484.027	598.12
484.245	597.12
484.463	594.12
484.681	597.12
484.9	596.12
485.118	594.12
485.336	618.12
485.554	610.12
485.772	609.12
485.99	623.12
486.209	631.12
486.427	625.12
486.645	632.12
486.863	632.12
487.081	626.12
487.299	646.12
487.517	632.12
487.735	648.12
487.953	636.12
488.171	645.12
488.389	628.12
488.607	625.12
488.825	630.12
489.043	634.12
489.261	657.12
489.479	652.12
489.696	655.12
489.914	668.12
490.132	667.12
490.35	670.12
490.568	667.12
490.786	695.12
491.003	687.12
491.221	695.12
491.439	704.12
491.657	715.12
491.874	724.12
492.092	713.12
492.31	732.12
492.527	740.12
492.745	732.12
492.963	753.12
493.18	735.12
493.398	738.12
493.615	753.12
493.833	756.12
494.05	746.12
494.268	745.12
494.485	754.12
494.703	737.12
494.92	753.12
495.138	728.12
495.355	758.12
495.573	741.12
495.79	768.12
496.008	760.12
496.225	741.12
496.442	782.12
496.66	756.12
496.877	747.12
497.094	757.12
497.312	782.12
497.529	784.12
497.746	782.12
497.963	793.12
498.181	834.12
498.398	838.12
498.615	851.12
498.832	873.12
499.049	913.12
499.267	945.12
499.484	986.12
499.701	1028.12
499.918	1075.12
500.135	1124.12
500.352	1206.12
500.569	1194.12
500.786	1198.12
501.003	1183.12
501.22	1144.12
501.437	1082.12
501.654	1030.12
