Data from 1976.PennyLincolnUp.Lamp.En5.5.200Scan.071719.P1.Changed Mount._HRD10591_16-01-01-861.txt Node
Date: Thu Jul 18 16:01:01 EDT 2019
User: cochatt
Spectrometer: HR+D1059
Trigger mode: 1
Integration Time (sec): 1.000000E-1
Scans to average: 1
Electric dark correction enabled: true
Nonlinearity correction enabled: false
Boxcar width: 0
XAxis mode: Wavelengths
Number of Pixels in Spectrum: 2048
>>>>>Begin Spectral Data<<<<<
223.165	-16.75
223.4	-16.75
223.635	-16.75
223.869	-15.75
224.104	-14.75
224.338	-14.75
224.573	-28.75
224.808	-5.75
225.042	-5.75
225.277	-12.75
225.511	-1.75
225.746	4.25
225.98	8.25
226.215	8.25
226.449	23.25
226.683	25.25
226.918	26.25
227.152	21.25
227.387	34.25
227.621	31.25
227.856	44.25
228.09	52.25
228.324	44.25
228.559	60.25
228.793	71.25
229.027	100.25
229.262	102.25
229.496	112.25
229.73	118.25
229.964	144.25
230.199	111.25
230.433	107.25
230.667	120.25
230.901	112.25
231.136	108.25
231.37	106.25
231.604	100.25
231.838	104.25
232.072	107.25
232.306	105.25
232.541	114.25
232.775	115.25
233.009	114.25
233.243	115.25
233.477	118.25
233.711	127.25
233.945	112.25
234.179	126.25
234.413	124.25
234.647	131.25
234.881	105.25
235.115	139.25
235.349	126.25
235.583	122.25
235.817	123.25
236.051	113.25
236.285	131.25
236.519	126.25
236.753	134.25
236.987	139.25
237.221	178.25
237.455	239.25
237.689	188.25
237.922	169.25
238.156	131.25
238.39	129.25
238.624	127.25
238.858	124.25
239.091	134.25
239.325	127.25
239.559	143.25
239.793	134.25
240.027	147.25
240.26	145.25
240.494	152.25
240.728	146.25
240.961	154.25
241.195	144.25
241.429	143.25
241.662	146.25
241.896	128.25
242.13	149.25
242.363	152.25
242.597	144.25
242.83	137.25
243.064	136.25
243.298	134.25
243.531	156.25
243.765	152.25
243.998	131.25
244.232	151.25
244.465	142.25
244.699	164.25
244.932	167.25
245.166	152.25
245.399	140.25
245.633	140.25
245.866	170.25
246.099	148.25
246.333	167.25
246.566	165.25
246.8	165.25
247.033	152.25
247.266	169.25
247.5	163.25
247.733	188.25
247.966	183.25
248.2	174.25
248.433	162.25
248.666	186.25
248.899	203.25
249.133	191.25
249.366	206.25
249.599	204.25
249.832	190.25
250.066	190.25
250.299	177.25
250.532	181.25
250.765	213.25
250.998	208.25
251.231	239.25
251.465	219.25
251.698	220.25
251.931	210.25
252.164	213.25
252.397	192.25
252.63	203.25
252.863	217.25
253.096	234.25
253.329	228.25
253.562	224.25
253.795	232.25
254.028	218.25
254.261	216.25
254.494	232.25
254.727	245.25
254.96	281.25
255.193	271.25
255.426	237.25
255.659	229.25
255.892	230.25
256.124	227.25
256.357	248.25
256.59	233.25
256.823	247.25
257.056	231.25
257.289	212.25
257.521	229.25
257.754	220.25
257.987	214.25
258.22	221.25
258.452	215.25
258.685	203.25
258.918	204.25
259.151	219.25
259.383	230.25
259.616	233.25
259.849	233.25
260.081	254.25
260.314	254.25
260.547	276.25
260.779	269.25
261.012	245.25
261.244	234.25
261.477	238.25
261.71	227.25
261.942	223.25
262.175	252.25
262.407	226.25
262.64	197.25
262.872	226.25
263.105	209.25
263.337	218.25
263.57	234.25
263.802	226.25
264.035	218.25
264.267	235.25
264.499	221.25
264.732	233.25
264.964	228.25
265.197	227.25
265.429	228.25
265.661	227.25
265.894	232.25
266.126	231.25
266.358	229.25
266.591	188.25
266.823	235.25
267.055	237.25
267.287	240.25
267.52	242.25
267.752	238.25
267.984	238.25
268.216	239.25
268.448	229.25
268.681	238.25
268.913	274.25
269.145	276.25
269.377	289.25
269.609	296.25
269.841	284.25
270.073	286.25
270.306	310.25
270.538	309.25
270.77	329.25
271.002	314.25
271.234	303.25
271.466	300.25
271.698	321.25
271.93	322.25
272.162	326.25
272.394	309.25
272.626	327.25
272.858	317.25
273.09	279.25
273.322	282.25
273.553	296.25
273.785	276.25
274.017	279.25
274.249	273.25
274.481	289.25
274.713	265.25
274.945	273.25
275.176	274.25
275.408	268.25
275.64	295.25
275.872	276.25
276.104	276.25
276.335	271.25
276.567	279.25
276.799	316.25
277.031	331.25
277.262	323.25
277.494	333.25
277.726	326.25
277.957	298.25
278.189	301.25
278.421	291.25
278.652	283.25
278.884	283.25
279.115	271.25
279.347	295.25
279.579	287.25
279.81	281.25
280.042	285.25
280.273	300.25
280.505	278.25
280.736	289.25
280.968	294.25
281.199	308.25
281.431	321.25
281.662	271.25
281.894	313.25
282.125	317.25
282.356	303.25
282.588	313.25
282.819	314.25
283.051	322.25
283.282	297.25
283.513	301.25
283.745	306.25
283.976	313.25
284.207	300.25
284.439	316.25
284.67	291.25
284.901	314.25
285.132	296.25
285.364	310.25
285.595	301.25
285.826	295.25
286.057	304.25
286.288	301.25
286.52	304.25
286.751	325.25
286.982	315.25
287.213	302.25
287.444	314.25
287.675	310.25
287.906	343.25
288.138	330.25
288.369	333.25
288.6	326.25
288.831	323.25
289.062	332.25
289.293	327.25
289.524	313.25
289.755	303.25
289.986	337.25
290.217	312.25
290.448	314.25
290.679	295.25
290.91	302.25
291.141	320.25
291.371	308.25
291.602	316.25
291.833	315.25
292.064	303.25
292.295	294.25
292.526	329.25
292.757	311.25
292.987	316.25
293.218	311.25
293.449	309.25
293.68	312.25
293.91	322.25
294.141	322.25
294.372	319.25
294.603	319.25
294.833	301.25
295.064	312.25
295.295	342.25
295.525	339.25
295.756	344.25
295.987	329.25
296.217	371.25
296.448	354.25
296.679	321.25
296.909	332.25
297.14	329.25
297.37	341.25
297.601	336.25
297.831	328.25
298.062	352.25
298.292	314.25
298.523	340.25
298.753	330.25
298.984	320.25
299.214	323.25
299.445	323.25
299.675	320.25
299.905	338.25
300.136	332.25
300.366	334.25
300.597	333.25
300.827	355.25
301.057	338.25
301.288	347.25
301.518	336.25
301.748	350.25
301.979	366.25
302.209	369.25
302.439	367.25
302.669	374.25
302.9	355.25
303.13	353.25
303.36	359.25
303.59	361.25
303.82	371.25
304.051	372.25
304.281	384.25
304.511	340.25
304.741	357.25
304.971	370.25
305.201	363.25
305.431	363.25
305.661	354.25
305.891	351.25
306.121	360.25
306.352	352.25
306.582	361.25
306.812	350.25
307.042	350.25
307.272	365.25
307.502	362.25
307.731	356.25
307.961	379.25
308.191	374.25
308.421	374.25
308.651	361.25
308.881	355.25
309.111	370.25
309.341	364.25
309.571	376.25
309.8	383.25
310.03	383.25
310.26	393.25
310.49	374.25
310.72	391.25
310.949	428.25
311.179	427.25
311.409	394.25
311.639	387.25
311.868	393.25
312.098	403.25
312.328	402.25
312.557	431.25
312.787	420.25
313.017	390.25
313.246	404.25
313.476	379.25
313.706	412.25
313.935	423.25
314.165	414.25
314.394	419.25
314.624	426.25
314.853	412.25
315.083	390.25
315.312	409.25
315.542	418.25
315.771	386.25
316.001	395.25
316.23	407.25
316.46	390.25
316.689	382.25
316.919	406.25
317.148	418.25
317.377	410.25
317.607	384.25
317.836	400.25
318.065	403.25
318.295	399.25
318.524	402.25
318.753	394.25
318.983	400.25
319.212	422.25
319.441	411.25
319.67	397.25
319.9	404.25
320.129	405.25
320.358	399.25
320.587	404.25
320.816	414.25
321.046	399.25
321.275	410.25
321.504	424.25
321.733	420.25
321.962	431.25
322.191	416.25
322.42	443.25
322.649	448.25
322.878	450.25
323.108	449.25
323.337	479.25
323.566	504.25
323.795	523.25
324.024	560.25
324.253	637.25
324.482	859.25
324.71	1306.25
324.939	1914.25
325.168	1668.25
325.397	846.25
325.626	614.25
325.855	514.25
326.084	495.25
326.313	483.25
326.542	476.25
326.77	532.25
326.999	630.25
327.228	810.25
327.457	1168.25
327.686	1446.25
327.914	967.25
328.143	658.25
328.372	587.25
328.6	554.25
328.829	554.25
329.058	557.25
329.287	569.25
329.515	536.25
329.744	507.25
329.972	510.25
330.201	507.25
330.43	538.25
330.658	543.25
330.887	579.25
331.115	590.25
331.344	526.25
331.572	503.25
331.801	520.25
332.03	495.25
332.258	517.25
332.486	473.25
332.715	462.25
332.943	457.25
333.172	492.25
333.4	497.25
333.629	506.25
333.857	502.25
334.085	523.25
334.314	555.25
334.542	559.25
334.771	562.25
334.999	528.25
335.227	492.25
335.455	490.25
335.684	474.25
335.912	480.25
336.14	474.25
336.369	479.25
336.597	480.25
336.825	491.25
337.053	475.25
337.281	476.25
337.51	460.25
337.738	484.25
337.966	470.25
338.194	452.25
338.422	464.25
338.65	461.25
338.878	463.25
339.106	453.25
339.334	479.25
339.562	468.25
339.79	442.25
340.018	453.25
340.246	444.25
340.474	467.25
340.702	457.25
340.93	450.25
341.158	445.25
341.386	443.25
341.614	456.25
341.842	449.25
342.07	446.25
342.298	454.25
342.526	429.25
342.754	450.25
342.981	461.25
343.209	431.25
343.437	440.25
343.665	468.25
343.893	482.25
344.12	506.25
344.348	483.25
344.576	462.25
344.804	478.25
345.031	469.25
345.259	465.25
345.487	464.25
345.714	445.25
345.942	442.25
346.17	451.25
346.397	423.25
346.625	452.25
346.853	430.25
347.08	448.25
347.308	420.25
347.535	456.25
347.763	444.25
347.99	450.25
348.218	444.25
348.445	444.25
348.673	463.25
348.9	425.25
349.128	444.25
349.355	421.25
349.583	415.25
349.81	415.25
350.037	412.25
350.265	425.25
350.492	414.25
350.72	427.25
350.947	426.25
351.174	447.25
351.402	442.25
351.629	441.25
351.856	459.25
352.083	437.25
352.311	426.25
352.538	432.25
352.765	446.25
352.992	440.25
353.22	449.25
353.447	426.25
353.674	406.25
353.901	418.25
354.128	423.25
354.355	426.25
354.583	407.25
354.81	408.25
355.037	421.25
355.264	426.25
355.491	414.25
355.718	413.25
355.945	425.25
356.172	427.25
356.399	423.25
356.626	411.25
356.853	429.25
357.08	406.25
357.307	393.25
357.534	410.25
357.761	423.25
357.988	401.25
358.215	431.25
358.441	404.25
358.668	418.25
358.895	411.25
359.122	429.25
359.349	431.25
359.576	444.25
359.802	466.25
360.029	463.25
360.256	471.25
360.483	470.25
360.709	451.25
360.936	436.25
361.163	422.25
361.39	435.25
361.616	448.25
361.843	430.25
362.07	431.25
362.296	430.25
362.523	423.25
362.749	430.25
362.976	421.25
363.203	447.25
363.429	418.25
363.656	430.25
363.882	396.25
364.109	416.25
364.335	427.25
364.562	404.25
364.788	402.25
365.015	421.25
365.241	432.25
365.468	436.25
365.694	427.25
365.92	438.25
366.147	420.25
366.373	423.25
366.599	430.25
366.826	410.25
367.052	432.25
367.278	422.25
367.505	411.25
367.731	416.25
367.957	425.25
368.184	423.25
368.41	424.25
368.636	409.25
368.862	411.25
369.089	409.25
369.315	423.25
369.541	406.25
369.767	436.25
369.993	425.25
370.219	414.25
370.445	426.25
370.672	412.25
370.898	411.25
371.124	423.25
371.35	441.25
371.576	436.25
371.802	425.25
372.028	414.25
372.254	426.25
372.48	418.25
372.706	423.25
372.932	421.25
373.158	438.25
373.384	421.25
373.61	411.25
373.835	428.25
374.061	431.25
374.287	423.25
374.513	435.25
374.739	430.25
374.965	445.25
375.191	434.25
375.416	413.25
375.642	427.25
375.868	435.25
376.094	411.25
376.319	451.25
376.545	442.25
376.771	416.25
376.997	422.25
377.222	404.25
377.448	430.25
377.674	438.25
377.899	418.25
378.125	425.25
378.35	419.25
378.576	412.25
378.802	410.25
379.027	410.25
379.253	444.25
379.478	397.25
379.704	409.25
379.929	434.25
380.155	428.25
380.38	445.25
380.606	418.25
380.831	441.25
381.057	442.25
381.282	438.25
381.507	419.25
381.733	438.25
381.958	444.25
382.184	446.25
382.409	442.25
382.634	440.25
382.86	425.25
383.085	431.25
383.31	450.25
383.535	464.25
383.761	459.25
383.986	450.25
384.211	445.25
384.436	458.25
384.662	453.25
384.887	468.25
385.112	463.25
385.337	476.25
385.562	479.25
385.787	478.25
386.013	484.25
386.238	470.25
386.463	491.25
386.688	485.25
386.913	480.25
387.138	470.25
387.363	469.25
387.588	470.25
387.813	488.25
388.038	469.25
388.263	467.25
388.488	459.25
388.713	450.25
388.938	466.25
389.163	471.25
389.387	485.25
389.612	468.25
389.837	448.25
390.062	476.25
390.287	435.25
390.512	470.25
390.736	470.25
390.961	473.25
391.186	464.25
391.411	468.25
391.636	483.25
391.86	512.25
392.085	520.25
392.31	493.25
392.534	475.25
392.759	478.25
392.984	471.25
393.208	511.25
393.433	476.25
393.658	478.25
393.882	483.25
394.107	490.25
394.331	486.25
394.556	485.25
394.78	479.25
395.005	487.25
395.229	487.25
395.454	493.25
395.678	485.25
395.903	511.25
396.127	525.25
396.352	539.25
396.576	519.25
396.801	511.25
397.025	516.25
397.249	497.25
397.474	525.25
397.698	500.25
397.922	520.25
398.147	552.25
398.371	553.25
398.595	547.25
398.82	532.25
399.044	574.25
399.268	581.25
399.492	615.25
399.717	649.25
399.941	682.25
400.165	717.25
400.389	697.25
400.613	644.25
400.837	585.25
401.062	591.25
401.286	598.25
401.51	557.25
401.734	558.25
401.958	557.25
402.182	542.25
402.406	573.25
402.63	546.25
402.854	574.25
403.078	556.25
403.302	565.25
403.526	581.25
403.75	584.25
403.974	591.25
404.198	589.25
404.422	575.25
404.645	589.25
404.869	588.25
405.093	609.25
405.317	674.25
405.541	695.25
405.765	642.25
405.988	612.25
406.212	616.25
406.436	624.25
406.66	638.25
406.883	613.25
407.107	646.25
407.331	704.25
407.555	775.25
407.778	747.25
408.002	687.25
408.226	655.25
408.449	617.25
408.673	627.25
408.896	671.25
409.12	698.25
409.344	662.25
409.567	628.25
409.791	581.25
410.014	578.25
410.238	556.25
410.461	544.25
410.685	580.25
410.908	606.25
411.132	618.25
411.355	648.25
411.578	628.25
411.802	574.25
412.025	574.25
412.249	579.25
412.472	597.25
412.695	631.25
412.919	636.25
413.142	592.25
413.365	604.25
413.589	574.25
413.812	572.25
414.035	543.25
414.258	552.25
414.482	556.25
414.705	548.25
414.928	535.25
415.151	535.25
415.374	538.25
415.597	547.25
415.821	556.25
416.044	546.25
416.267	558.25
416.49	548.25
416.713	540.25
416.936	532.25
417.159	530.25
417.382	543.25
417.605	535.25
417.828	525.25
418.051	563.25
418.274	572.25
418.497	547.25
418.72	532.25
418.943	543.25
419.166	553.25
419.389	605.25
419.611	563.25
419.834	588.25
420.057	569.25
420.28	583.25
420.503	564.25
420.726	554.25
420.948	584.25
421.171	617.25
421.394	645.25
421.617	587.25
421.839	557.25
422.062	573.25
422.285	592.25
422.507	632.25
422.73	725.25
422.953	685.25
423.175	611.25
423.398	584.25
423.621	584.25
423.843	631.25
424.066	620.25
424.288	609.25
424.511	607.25
424.733	655.25
424.956	743.25
425.178	708.25
425.401	699.25
425.623	747.25
425.846	631.25
426.068	601.25
426.291	591.25
426.513	587.25
426.735	596.25
426.958	643.25
427.18	698.25
427.402	870.25
427.625	892.25
427.847	778.25
428.069	698.25
428.292	629.25
428.514	616.25
428.736	574.25
428.958	544.25
429.181	533.25
429.403	532.25
429.625	549.25
429.847	582.25
430.069	649.25
430.292	614.25
430.514	584.25
430.736	551.25
430.958	525.25
431.18	528.25
431.402	539.25
431.624	536.25
431.846	529.25
432.068	515.25
432.29	523.25
432.512	534.25
432.734	534.25
432.956	522.25
433.178	523.25
433.4	510.25
433.622	540.25
433.844	533.25
434.066	540.25
434.287	522.25
434.509	540.25
434.731	544.25
434.953	537.25
435.175	542.25
435.397	565.25
435.618	572.25
435.84	608.25
436.062	714.25
436.284	791.25
436.505	672.25
436.727	589.25
436.949	554.25
437.17	549.25
437.392	564.25
437.614	551.25
437.835	589.25
438.057	660.25
438.278	782.25
438.5	772.25
438.721	821.25
438.943	784.25
439.165	643.25
439.386	601.25
439.608	600.25
439.829	592.25
440.05	590.25
440.272	651.25
440.493	641.25
440.715	580.25
440.936	549.25
441.158	572.25
441.379	570.25
441.6	592.25
441.822	592.25
442.043	637.25
442.264	693.25
442.486	746.25
442.707	636.25
442.928	613.25
443.149	620.25
443.371	636.25
443.592	662.25
443.813	755.25
444.034	842.25
444.255	702.25
444.476	622.25
444.698	602.25
444.919	622.25
445.14	733.25
445.361	679.25
445.582	650.25
445.803	685.25
446.024	813.25
446.245	795.25
446.466	725.25
446.687	663.25
446.908	606.25
447.129	582.25
447.35	548.25
447.571	540.25
447.792	542.25
448.013	543.25
448.234	543.25
448.455	597.25
448.675	693.25
448.896	821.25
449.117	678.25
449.338	663.25
449.559	767.25
449.779	858.25
450	694.25
450.221	597.25
450.442	546.25
450.662	528.25
450.883	520.25
451.104	535.25
451.324	506.25
451.545	506.25
451.766	523.25
451.986	482.25
452.207	481.25
452.428	486.25
452.648	482.25
452.869	477.25
453.089	488.25
453.31	501.25
453.53	474.25
453.751	491.25
453.971	482.25
454.192	484.25
454.412	478.25
454.633	474.25
454.853	472.25
455.073	494.25
455.294	509.25
455.514	575.25
455.734	567.25
455.955	483.25
456.175	458.25
456.395	459.25
456.616	467.25
456.836	438.25
457.056	454.25
457.276	428.25
457.497	466.25
457.717	452.25
457.937	460.25
458.157	445.25
458.377	474.25
458.598	494.25
458.818	540.25
459.038	632.25
459.258	636.25
459.478	563.25
459.698	520.25
459.918	520.25
460.138	553.25
460.358	537.25
460.578	520.25
460.798	549.25
461.018	524.25
461.238	528.25
461.458	517.25
461.678	523.25
461.898	537.25
462.118	539.25
462.338	547.25
462.558	557.25
462.777	576.25
462.997	593.25
463.217	617.25
463.437	635.25
463.657	596.25
463.876	582.25
464.096	604.25
464.316	578.25
464.536	599.25
464.755	594.25
464.975	590.25
465.195	618.25
465.414	660.25
465.634	588.25
465.854	552.25
466.073	543.25
466.293	525.25
466.512	502.25
466.732	508.25
466.951	518.25
467.171	513.25
467.391	499.25
467.61	506.25
467.829	493.25
468.049	514.25
468.268	518.25
468.488	488.25
468.707	461.25
468.927	498.25
469.146	470.25
469.365	480.25
469.585	457.25
469.804	511.25
470.023	510.25
470.243	495.25
470.462	514.25
470.681	528.25
470.901	518.25
471.12	519.25
471.339	513.25
471.558	502.25
471.777	512.25
471.997	503.25
472.216	495.25
472.435	545.25
472.654	520.25
472.873	495.25
473.092	484.25
473.311	492.25
473.53	492.25
473.749	514.25
473.968	541.25
474.187	634.25
474.406	644.25
474.625	548.25
474.844	546.25
475.063	496.25
475.282	499.25
475.501	493.25
475.72	503.25
475.939	514.25
476.158	526.25
476.377	534.25
476.596	502.25
476.814	524.25
477.033	524.25
477.252	527.25
477.471	512.25
477.69	531.25
477.908	540.25
478.127	565.25
478.346	557.25
478.564	568.25
478.783	578.25
479.002	589.25
479.22	574.25
479.439	601.25
479.658	604.25
479.876	600.25
480.095	620.25
480.313	668.25
480.532	600.25
480.751	648.25
480.969	640.25
481.188	676.25
481.406	688.25
481.624	625.25
481.843	599.25
482.061	596.25
482.28	580.25
482.498	591.25
482.717	582.25
482.935	600.25
483.153	571.25
483.372	584.25
483.59	584.25
483.808	580.25
484.027	612.25
484.245	581.25
484.463	588.25
484.681	598.25
484.9	606.25
485.118	591.25
485.336	592.25
485.554	605.25
485.772	628.25
485.99	596.25
486.209	607.25
486.427	597.25
486.645	623.25
486.863	633.25
487.081	632.25
487.299	628.25
487.517	625.25
487.735	630.25
487.953	610.25
488.171	628.25
488.389	635.25
488.607	621.25
488.825	611.25
489.043	632.25
489.261	639.25
489.479	643.25
489.696	647.25
489.914	637.25
490.132	621.25
490.35	631.25
490.568	660.25
490.786	659.25
491.003	663.25
491.221	718.25
491.439	714.25
491.657	711.25
491.874	722.25
492.092	700.25
492.31	723.25
492.527	697.25
492.745	727.25
492.963	747.25
493.18	711.25
493.398	704.25
493.615	751.25
493.833	740.25
494.05	728.25
494.268	744.25
494.485	731.25
494.703	723.25
494.92	740.25
495.138	699.25
495.355	743.25
495.573	746.25
495.79	741.25
496.008	746.25
496.225	708.25
496.442	749.25
496.66	756.25
496.877	749.25
497.094	767.25
497.312	741.25
497.529	782.25
497.746	787.25
497.963	813.25
498.181	845.25
498.398	816.25
498.615	855.25
498.832	869.25
499.049	889.25
499.267	932.25
499.484	938.25
499.701	1020.25
499.918	1028.25
500.135	1111.25
500.352	1162.25
500.569	1196.25
500.786	1211.25
501.003	1189.25
501.22	1089.25
501.437	1055.25
501.654	1013.25
