Data from 1976.PennyLincolnUp.Lamp.En5.5.200Scan.071719.P1.Changed Mount._HRD10591_16-01-26-861.txt Node
Date: Thu Jul 18 16:01:26 EDT 2019
User: cochatt
Spectrometer: HR+D1059
Trigger mode: 1
Integration Time (sec): 1.000000E-1
Scans to average: 1
Electric dark correction enabled: true
Nonlinearity correction enabled: false
Boxcar width: 0
XAxis mode: Wavelengths
Number of Pixels in Spectrum: 2048
>>>>>Begin Spectral Data<<<<<
223.165	-13.81
223.4	-13.81
223.635	-13.81
223.869	-22.81
224.104	-25.81
224.338	-9.81
224.573	-6.81
224.808	-5.81
225.042	-4.81
225.277	-12.81
225.511	-3.81
225.746	3.19
225.98	15.19
226.215	3.19
226.449	15.19
226.683	17.19
226.918	28.19
227.152	24.19
227.387	42.19
227.621	49.19
227.856	51.19
228.09	55.19
228.324	55.19
228.559	48.19
228.793	69.19
229.027	98.19
229.262	99.19
229.496	105.19
229.73	128.19
229.964	169.19
230.199	126.19
230.433	117.19
230.667	103.19
230.901	126.19
231.136	120.19
231.37	111.19
231.604	123.19
231.838	104.19
232.072	117.19
232.306	104.19
232.541	121.19
232.775	120.19
233.009	134.19
233.243	126.19
233.477	115.19
233.711	99.19
233.945	114.19
234.179	106.19
234.413	127.19
234.647	125.19
234.881	111.19
235.115	128.19
235.349	124.19
235.583	132.19
235.817	123.19
236.051	133.19
236.285	128.19
236.519	117.19
236.753	147.19
236.987	153.19
237.221	179.19
237.455	240.19
237.689	200.19
237.922	159.19
238.156	137.19
238.39	138.19
238.624	126.19
238.858	134.19
239.091	128.19
239.325	128.19
239.559	124.19
239.793	137.19
240.027	133.19
240.26	150.19
240.494	160.19
240.728	147.19
240.961	159.19
241.195	135.19
241.429	153.19
241.662	138.19
241.896	146.19
242.13	159.19
242.363	140.19
242.597	143.19
242.83	139.19
243.064	148.19
243.298	143.19
243.531	148.19
243.765	144.19
243.998	143.19
244.232	128.19
244.465	146.19
244.699	170.19
244.932	170.19
245.166	156.19
245.399	133.19
245.633	141.19
245.866	157.19
246.099	152.19
246.333	155.19
246.566	160.19
246.8	159.19
247.033	153.19
247.266	165.19
247.5	178.19
247.733	189.19
247.966	173.19
248.2	178.19
248.433	182.19
248.666	168.19
248.899	161.19
249.133	201.19
249.366	224.19
249.599	213.19
249.832	193.19
250.066	187.19
250.299	189.19
250.532	198.19
250.765	211.19
250.998	225.19
251.231	246.19
251.465	220.19
251.698	193.19
251.931	208.19
252.164	188.19
252.397	204.19
252.63	205.19
252.863	196.19
253.096	219.19
253.329	247.19
253.562	224.19
253.795	231.19
254.028	227.19
254.261	217.19
254.494	239.19
254.727	252.19
254.96	292.19
255.193	279.19
255.426	246.19
255.659	235.19
255.892	231.19
256.124	240.19
256.357	238.19
256.59	247.19
256.823	224.19
257.056	207.19
257.289	218.19
257.521	225.19
257.754	219.19
257.987	212.19
258.22	225.19
258.452	216.19
258.685	225.19
258.918	227.19
259.151	215.19
259.383	215.19
259.616	239.19
259.849	231.19
260.081	251.19
260.314	279.19
260.547	268.19
260.779	257.19
261.012	238.19
261.244	235.19
261.477	249.19
261.71	234.19
261.942	238.19
262.175	243.19
262.407	240.19
262.64	227.19
262.872	227.19
263.105	226.19
263.337	222.19
263.57	229.19
263.802	225.19
264.035	193.19
264.267	217.19
264.499	219.19
264.732	220.19
264.964	229.19
265.197	224.19
265.429	234.19
265.661	240.19
265.894	232.19
266.126	230.19
266.358	248.19
266.591	225.19
266.823	233.19
267.055	228.19
267.287	247.19
267.52	238.19
267.752	236.19
267.984	261.19
268.216	274.19
268.448	267.19
268.681	238.19
268.913	261.19
269.145	289.19
269.377	307.19
269.609	295.19
269.841	290.19
270.073	290.19
270.306	322.19
270.538	338.19
270.77	334.19
271.002	312.19
271.234	301.19
271.466	325.19
271.698	330.19
271.93	342.19
272.162	329.19
272.394	325.19
272.626	310.19
272.858	315.19
273.09	312.19
273.322	300.19
273.553	293.19
273.785	273.19
274.017	271.19
274.249	281.19
274.481	274.19
274.713	280.19
274.945	280.19
275.176	263.19
275.408	281.19
275.64	285.19
275.872	284.19
276.104	285.19
276.335	273.19
276.567	273.19
276.799	297.19
277.031	344.19
277.262	346.19
277.494	344.19
277.726	321.19
277.957	315.19
278.189	315.19
278.421	298.19
278.652	287.19
278.884	311.19
279.115	298.19
279.347	295.19
279.579	278.19
279.81	284.19
280.042	280.19
280.273	294.19
280.505	301.19
280.736	277.19
280.968	298.19
281.199	293.19
281.431	297.19
281.662	299.19
281.894	302.19
282.125	273.19
282.356	309.19
282.588	313.19
282.819	329.19
283.051	304.19
283.282	288.19
283.513	316.19
283.745	314.19
283.976	298.19
284.207	306.19
284.439	313.19
284.67	303.19
284.901	303.19
285.132	298.19
285.364	313.19
285.595	294.19
285.826	283.19
286.057	309.19
286.288	289.19
286.52	310.19
286.751	307.19
286.982	301.19
287.213	303.19
287.444	316.19
287.675	335.19
287.906	313.19
288.138	339.19
288.369	319.19
288.6	331.19
288.831	319.19
289.062	321.19
289.293	312.19
289.524	299.19
289.755	325.19
289.986	317.19
290.217	302.19
290.448	320.19
290.679	307.19
290.91	306.19
291.141	324.19
291.371	321.19
291.602	300.19
291.833	335.19
292.064	317.19
292.295	312.19
292.526	310.19
292.757	318.19
292.987	302.19
293.218	334.19
293.449	325.19
293.68	327.19
293.91	318.19
294.141	309.19
294.372	337.19
294.603	309.19
294.833	343.19
295.064	317.19
295.295	340.19
295.525	336.19
295.756	338.19
295.987	353.19
296.217	345.19
296.448	352.19
296.679	343.19
296.909	331.19
297.14	332.19
297.37	337.19
297.601	349.19
297.831	336.19
298.062	335.19
298.292	341.19
298.523	348.19
298.753	325.19
298.984	331.19
299.214	347.19
299.445	337.19
299.675	340.19
299.905	317.19
300.136	337.19
300.366	335.19
300.597	342.19
300.827	351.19
301.057	369.19
301.288	348.19
301.518	332.19
301.748	350.19
301.979	354.19
302.209	361.19
302.439	378.19
302.669	371.19
302.9	351.19
303.13	352.19
303.36	361.19
303.59	364.19
303.82	365.19
304.051	356.19
304.281	355.19
304.511	356.19
304.741	336.19
304.971	359.19
305.201	360.19
305.431	338.19
305.661	364.19
305.891	359.19
306.121	376.19
306.352	365.19
306.582	355.19
306.812	353.19
307.042	353.19
307.272	352.19
307.502	334.19
307.731	357.19
307.961	357.19
308.191	352.19
308.421	361.19
308.651	356.19
308.881	368.19
309.111	356.19
309.341	361.19
309.571	365.19
309.8	377.19
310.03	371.19
310.26	403.19
310.49	398.19
310.72	403.19
310.949	393.19
311.179	425.19
311.409	399.19
311.639	412.19
311.868	402.19
312.098	413.19
312.328	419.19
312.557	395.19
312.787	411.19
313.017	418.19
313.246	417.19
313.476	409.19
313.706	400.19
313.935	386.19
314.165	413.19
314.394	433.19
314.624	396.19
314.853	419.19
315.083	401.19
315.312	396.19
315.542	395.19
315.771	401.19
316.001	393.19
316.23	397.19
316.46	405.19
316.689	399.19
316.919	417.19
317.148	433.19
317.377	389.19
317.607	411.19
317.836	391.19
318.065	374.19
318.295	391.19
318.524	397.19
318.753	391.19
318.983	404.19
319.212	394.19
319.441	411.19
319.67	401.19
319.9	409.19
320.129	394.19
320.358	400.19
320.587	395.19
320.816	407.19
321.046	429.19
321.275	405.19
321.504	424.19
321.733	417.19
321.962	429.19
322.191	430.19
322.42	438.19
322.649	451.19
322.878	468.19
323.108	465.19
323.337	489.19
323.566	493.19
323.795	531.19
324.024	558.19
324.253	652.19
324.482	872.19
324.71	1375.19
324.939	2055.19
325.168	1747.19
325.397	898.19
325.626	599.19
325.855	519.19
326.084	499.19
326.313	502.19
326.542	509.19
326.77	541.19
326.999	629.19
327.228	833.19
327.457	1235.19
327.686	1500.19
327.914	1020.19
328.143	685.19
328.372	593.19
328.6	559.19
328.829	557.19
329.058	552.19
329.287	542.19
329.515	539.19
329.744	504.19
329.972	504.19
330.201	524.19
330.43	561.19
330.658	599.19
330.887	586.19
331.115	564.19
331.344	522.19
331.572	512.19
331.801	499.19
332.03	520.19
332.258	509.19
332.486	480.19
332.715	489.19
332.943	505.19
333.172	488.19
333.4	509.19
333.629	494.19
333.857	521.19
334.085	522.19
334.314	547.19
334.542	563.19
334.771	568.19
334.999	536.19
335.227	491.19
335.455	502.19
335.684	498.19
335.912	482.19
336.14	482.19
336.369	474.19
336.597	472.19
336.825	489.19
337.053	472.19
337.281	474.19
337.51	478.19
337.738	492.19
337.966	491.19
338.194	470.19
338.422	465.19
338.65	472.19
338.878	453.19
339.106	471.19
339.334	460.19
339.562	449.19
339.79	449.19
340.018	454.19
340.246	464.19
340.474	478.19
340.702	470.19
340.93	454.19
341.158	463.19
341.386	455.19
341.614	455.19
341.842	463.19
342.07	448.19
342.298	446.19
342.526	449.19
342.754	441.19
342.981	449.19
343.209	439.19
343.437	467.19
343.665	455.19
343.893	471.19
344.12	470.19
344.348	473.19
344.576	503.19
344.804	489.19
345.031	472.19
345.259	473.19
345.487	455.19
345.714	471.19
345.942	473.19
346.17	447.19
346.397	443.19
346.625	459.19
346.853	428.19
347.08	411.19
347.308	444.19
347.535	449.19
347.763	432.19
347.99	452.19
348.218	443.19
348.445	459.19
348.673	447.19
348.9	450.19
349.128	445.19
349.355	417.19
349.583	433.19
349.81	417.19
350.037	412.19
350.265	407.19
350.492	421.19
350.72	421.19
350.947	424.19
351.174	439.19
351.402	432.19
351.629	431.19
351.856	428.19
352.083	442.19
352.311	445.19
352.538	439.19
352.765	453.19
352.992	452.19
353.22	445.19
353.447	431.19
353.674	419.19
353.901	422.19
354.128	415.19
354.355	414.19
354.583	407.19
354.81	407.19
355.037	417.19
355.264	429.19
355.491	404.19
355.718	418.19
355.945	424.19
356.172	417.19
356.399	409.19
356.626	426.19
356.853	407.19
357.08	433.19
357.307	419.19
357.534	436.19
357.761	421.19
357.988	404.19
358.215	412.19
358.441	423.19
358.668	420.19
358.895	410.19
359.122	428.19
359.349	428.19
359.576	447.19
359.802	467.19
360.029	468.19
360.256	473.19
360.483	461.19
360.709	440.19
360.936	441.19
361.163	422.19
361.39	449.19
361.616	431.19
361.843	418.19
362.07	449.19
362.296	445.19
362.523	442.19
362.749	450.19
362.976	421.19
363.203	434.19
363.429	414.19
363.656	423.19
363.882	433.19
364.109	419.19
364.335	432.19
364.562	422.19
364.788	417.19
365.015	431.19
365.241	423.19
365.468	428.19
365.694	439.19
365.92	437.19
366.147	433.19
366.373	406.19
366.599	414.19
366.826	430.19
367.052	415.19
367.278	417.19
367.505	415.19
367.731	425.19
367.957	442.19
368.184	419.19
368.41	420.19
368.636	454.19
368.862	463.19
369.089	435.19
369.315	431.19
369.541	444.19
369.767	435.19
369.993	421.19
370.219	441.19
370.445	429.19
370.672	423.19
370.898	416.19
371.124	426.19
371.35	411.19
371.576	425.19
371.802	436.19
372.028	417.19
372.254	428.19
372.48	438.19
372.706	433.19
372.932	425.19
373.158	434.19
373.384	425.19
373.61	424.19
373.835	443.19
374.061	436.19
374.287	449.19
374.513	432.19
374.739	441.19
374.965	429.19
375.191	462.19
375.416	449.19
375.642	449.19
375.868	455.19
376.094	420.19
376.319	446.19
376.545	418.19
376.771	434.19
376.997	433.19
377.222	423.19
377.448	415.19
377.674	439.19
377.899	415.19
378.125	427.19
378.35	426.19
378.576	433.19
378.802	427.19
379.027	423.19
379.253	405.19
379.478	427.19
379.704	431.19
379.929	447.19
380.155	413.19
380.38	421.19
380.606	426.19
380.831	437.19
381.057	444.19
381.282	423.19
381.507	459.19
381.733	452.19
381.958	434.19
382.184	430.19
382.409	451.19
382.634	435.19
382.86	439.19
383.085	445.19
383.31	438.19
383.535	456.19
383.761	466.19
383.986	462.19
384.211	450.19
384.436	458.19
384.662	470.19
384.887	471.19
385.112	464.19
385.337	472.19
385.562	482.19
385.787	472.19
386.013	485.19
386.238	471.19
386.463	488.19
386.688	477.19
386.913	480.19
387.138	473.19
387.363	481.19
387.588	472.19
387.813	472.19
388.038	469.19
388.263	481.19
388.488	496.19
388.713	476.19
388.938	482.19
389.163	477.19
389.387	465.19
389.612	472.19
389.837	482.19
390.062	475.19
390.287	473.19
390.512	455.19
390.736	455.19
390.961	486.19
391.186	494.19
391.411	508.19
391.636	455.19
391.86	503.19
392.085	502.19
392.31	494.19
392.534	521.19
392.759	495.19
392.984	509.19
393.208	497.19
393.433	484.19
393.658	480.19
393.882	461.19
394.107	477.19
394.331	490.19
394.556	471.19
394.78	479.19
395.005	479.19
395.229	478.19
395.454	487.19
395.678	514.19
395.903	529.19
396.127	535.19
396.352	550.19
396.576	505.19
396.801	515.19
397.025	487.19
397.249	505.19
397.474	517.19
397.698	535.19
397.922	531.19
398.147	549.19
398.371	558.19
398.595	531.19
398.82	529.19
399.044	572.19
399.268	594.19
399.492	644.19
399.717	696.19
399.941	727.19
400.165	736.19
400.389	725.19
400.613	635.19
400.837	605.19
401.062	581.19
401.286	544.19
401.51	565.19
401.734	569.19
401.958	577.19
402.182	548.19
402.406	555.19
402.63	576.19
402.854	571.19
403.078	576.19
403.302	595.19
403.526	591.19
403.75	608.19
403.974	587.19
404.198	589.19
404.422	581.19
404.645	589.19
404.869	585.19
405.093	630.19
405.317	665.19
405.541	679.19
405.765	630.19
405.988	602.19
406.212	617.19
406.436	646.19
406.66	635.19
406.883	635.19
407.107	640.19
407.331	712.19
407.555	774.19
407.778	759.19
408.002	682.19
408.226	649.19
408.449	652.19
408.673	644.19
408.896	671.19
409.12	691.19
409.344	659.19
409.567	609.19
409.791	599.19
410.014	601.19
410.238	582.19
410.461	583.19
410.685	591.19
410.908	601.19
411.132	614.19
411.355	666.19
411.578	640.19
411.802	602.19
412.025	575.19
412.249	599.19
412.472	619.19
412.695	632.19
412.919	637.19
413.142	594.19
413.365	573.19
413.589	565.19
413.812	551.19
414.035	546.19
414.258	552.19
414.482	549.19
414.705	543.19
414.928	545.19
415.151	562.19
415.374	536.19
415.597	527.19
415.821	542.19
416.044	547.19
416.267	541.19
416.49	547.19
416.713	546.19
416.936	527.19
417.159	566.19
417.382	557.19
417.605	540.19
417.828	566.19
418.051	569.19
418.274	583.19
418.497	544.19
418.72	549.19
418.943	525.19
419.166	572.19
419.389	623.19
419.611	594.19
419.834	567.19
420.057	571.19
420.28	594.19
420.503	567.19
420.726	585.19
420.948	591.19
421.171	624.19
421.394	636.19
421.617	573.19
421.839	567.19
422.062	571.19
422.285	562.19
422.507	660.19
422.73	698.19
422.953	685.19
423.175	627.19
423.398	614.19
423.621	618.19
423.843	610.19
424.066	603.19
424.288	601.19
424.511	620.19
424.733	685.19
424.956	765.19
425.178	735.19
425.401	731.19
425.623	730.19
425.846	619.19
426.068	610.19
426.291	593.19
426.513	592.19
426.735	601.19
426.958	643.19
427.18	763.19
427.402	863.19
427.625	974.19
427.847	808.19
428.069	701.19
428.292	637.19
428.514	572.19
428.736	566.19
428.958	560.19
429.181	537.19
429.403	524.19
429.625	550.19
429.847	584.19
430.069	669.19
430.292	647.19
430.514	569.19
430.736	557.19
430.958	549.19
431.18	548.19
431.402	535.19
431.624	504.19
431.846	527.19
432.068	536.19
432.29	539.19
432.512	524.19
432.734	513.19
432.956	540.19
433.178	535.19
433.4	526.19
433.622	518.19
433.844	520.19
434.066	523.19
434.287	529.19
434.509	553.19
434.731	539.19
434.953	543.19
435.175	580.19
435.397	577.19
435.618	587.19
435.84	658.19
436.062	719.19
436.284	804.19
436.505	661.19
436.727	610.19
436.949	584.19
437.17	556.19
437.392	554.19
437.614	552.19
437.835	574.19
438.057	673.19
438.278	785.19
438.5	773.19
438.721	891.19
438.943	834.19
439.165	671.19
439.386	610.19
439.608	621.19
439.829	619.19
440.05	623.19
440.272	664.19
440.493	633.19
440.715	617.19
440.936	592.19
441.158	572.19
441.379	555.19
441.6	595.19
441.822	601.19
442.043	657.19
442.264	712.19
442.486	776.19
442.707	644.19
442.928	617.19
443.149	613.19
443.371	639.19
443.592	677.19
443.813	785.19
444.034	801.19
444.255	701.19
444.476	643.19
444.698	610.19
444.919	639.19
445.14	733.19
445.361	694.19
445.582	661.19
445.803	703.19
446.024	805.19
446.245	797.19
446.466	723.19
446.687	636.19
446.908	600.19
447.129	551.19
447.35	561.19
447.571	526.19
447.792	526.19
448.013	522.19
448.234	566.19
448.455	590.19
448.675	736.19
448.896	861.19
449.117	711.19
449.338	663.19
449.559	793.19
449.779	893.19
450	697.19
450.221	595.19
450.442	542.19
450.662	531.19
450.883	527.19
451.104	561.19
451.324	525.19
451.545	503.19
451.766	488.19
451.986	487.19
452.207	501.19
452.428	499.19
452.648	489.19
452.869	460.19
453.089	509.19
453.31	532.19
453.53	501.19
453.751	502.19
453.971	486.19
454.192	509.19
454.412	521.19
454.633	504.19
454.853	486.19
455.073	480.19
455.294	496.19
455.514	574.19
455.734	546.19
455.955	496.19
456.175	467.19
456.395	468.19
456.616	444.19
456.836	477.19
457.056	459.19
457.276	440.19
457.497	454.19
457.717	450.19
457.937	477.19
458.157	461.19
458.377	496.19
458.598	490.19
458.818	536.19
459.038	613.19
459.258	638.19
459.478	558.19
459.698	519.19
459.918	517.19
460.138	522.19
460.358	550.19
460.578	541.19
460.798	553.19
461.018	560.19
461.238	558.19
461.458	546.19
461.678	549.19
461.898	571.19
462.118	550.19
462.338	556.19
462.558	569.19
462.777	582.19
462.997	598.19
463.217	625.19
463.437	636.19
463.657	614.19
463.876	590.19
464.096	620.19
464.316	595.19
464.536	589.19
464.755	599.19
464.975	589.19
465.195	587.19
465.414	624.19
465.634	587.19
465.854	550.19
466.073	530.19
466.293	521.19
466.512	521.19
466.732	495.19
466.951	511.19
467.171	489.19
467.391	494.19
467.61	509.19
467.829	523.19
468.049	489.19
468.268	497.19
468.488	486.19
468.707	484.19
468.927	511.19
469.146	498.19
469.365	483.19
469.585	504.19
469.804	511.19
470.023	501.19
470.243	521.19
470.462	513.19
470.681	519.19
470.901	521.19
471.12	530.19
471.339	514.19
471.558	510.19
471.777	511.19
471.997	491.19
472.216	501.19
472.435	536.19
472.654	522.19
472.873	493.19
473.092	498.19
473.311	487.19
473.53	505.19
473.749	506.19
473.968	559.19
474.187	643.19
474.406	663.19
474.625	555.19
474.844	487.19
475.063	498.19
475.282	495.19
475.501	501.19
475.72	519.19
475.939	496.19
476.158	530.19
476.377	527.19
476.596	509.19
476.814	518.19
477.033	549.19
477.252	554.19
477.471	536.19
477.69	535.19
477.908	534.19
478.127	549.19
478.346	574.19
478.564	568.19
478.783	594.19
479.002	575.19
479.22	592.19
479.439	597.19
479.658	574.19
479.876	622.19
480.095	609.19
480.313	649.19
480.532	663.19
480.751	637.19
480.969	646.19
481.188	654.19
481.406	669.19
481.624	619.19
481.843	618.19
482.061	598.19
482.28	593.19
482.498	607.19
482.717	578.19
482.935	580.19
483.153	588.19
483.372	607.19
483.59	605.19
483.808	603.19
484.027	601.19
484.245	618.19
484.463	585.19
484.681	591.19
484.9	601.19
485.118	618.19
485.336	599.19
485.554	625.19
485.772	613.19
485.99	633.19
486.209	616.19
486.427	594.19
486.645	635.19
486.863	624.19
487.081	649.19
487.299	626.19
487.517	608.19
487.735	619.19
487.953	623.19
488.171	639.19
488.389	643.19
488.607	643.19
488.825	642.19
489.043	623.19
489.261	608.19
489.479	642.19
489.696	640.19
489.914	650.19
490.132	655.19
490.35	654.19
490.568	663.19
490.786	676.19
491.003	701.19
491.221	699.19
491.439	710.19
491.657	727.19
491.874	715.19
492.092	743.19
492.31	710.19
492.527	732.19
492.745	734.19
492.963	735.19
493.18	699.19
493.398	712.19
493.615	764.19
493.833	738.19
494.05	718.19
494.268	721.19
494.485	736.19
494.703	757.19
494.92	727.19
495.138	737.19
495.355	742.19
495.573	746.19
495.79	755.19
496.008	733.19
496.225	741.19
496.442	726.19
496.66	750.19
496.877	752.19
497.094	752.19
497.312	769.19
497.529	773.19
497.746	781.19
497.963	805.19
498.181	808.19
498.398	830.19
498.615	850.19
498.832	882.19
499.049	892.19
499.267	933.19
499.484	918.19
499.701	978.19
499.918	1037.19
500.135	1113.19
500.352	1187.19
500.569	1189.19
500.786	1208.19
501.003	1195.19
501.22	1106.19
501.437	1083.19
501.654	1068.19
