Data from 1976.PennyLincolnUp.Lamp.En5.5.200Scan.071719.P1.Changed Mount._HRD10591_16-02-38-862.txt Node
Date: Thu Jul 18 16:02:38 EDT 2019
User: cochatt
Spectrometer: HR+D1059
Trigger mode: 1
Integration Time (sec): 1.000000E-1
Scans to average: 1
Electric dark correction enabled: true
Nonlinearity correction enabled: false
Boxcar width: 0
XAxis mode: Wavelengths
Number of Pixels in Spectrum: 2048
>>>>>Begin Spectral Data<<<<<
223.165	-21.88
223.4	-21.88
223.635	-21.88
223.869	-5.88
224.104	-12.88
224.338	-6.88
224.573	-13.88
224.808	-14.88
225.042	-9.88
225.277	15.12
225.511	-6.88
225.746	-12.88
225.98	11.12
226.215	7.12
226.449	10.12
226.683	15.12
226.918	20.12
227.152	27.12
227.387	14.12
227.621	40.12
227.856	24.12
228.09	31.12
228.324	52.12
228.559	47.12
228.793	67.12
229.027	92.12
229.262	91.12
229.496	119.12
229.73	129.12
229.964	138.12
230.199	120.12
230.433	114.12
230.667	117.12
230.901	114.12
231.136	120.12
231.37	101.12
231.604	103.12
231.838	111.12
232.072	113.12
232.306	109.12
232.541	94.12
232.775	106.12
233.009	113.12
233.243	127.12
233.477	120.12
233.711	115.12
233.945	118.12
234.179	104.12
234.413	121.12
234.647	128.12
234.881	132.12
235.115	121.12
235.349	123.12
235.583	133.12
235.817	129.12
236.051	119.12
236.285	131.12
236.519	131.12
236.753	133.12
236.987	138.12
237.221	195.12
237.455	242.12
237.689	201.12
237.922	161.12
238.156	136.12
238.39	139.12
238.624	125.12
238.858	125.12
239.091	133.12
239.325	126.12
239.559	127.12
239.793	122.12
240.027	138.12
240.26	153.12
240.494	146.12
240.728	148.12
240.961	149.12
241.195	144.12
241.429	135.12
241.662	145.12
241.896	143.12
242.13	142.12
242.363	129.12
242.597	149.12
242.83	148.12
243.064	134.12
243.298	154.12
243.531	127.12
243.765	144.12
243.998	140.12
244.232	151.12
244.465	143.12
244.699	162.12
244.932	160.12
245.166	139.12
245.399	153.12
245.633	139.12
245.866	145.12
246.099	153.12
246.333	152.12
246.566	145.12
246.8	158.12
247.033	160.12
247.266	152.12
247.5	156.12
247.733	165.12
247.966	171.12
248.2	173.12
248.433	184.12
248.666	161.12
248.899	192.12
249.133	208.12
249.366	207.12
249.599	200.12
249.832	200.12
250.066	200.12
250.299	181.12
250.532	203.12
250.765	218.12
250.998	228.12
251.231	230.12
251.465	213.12
251.698	212.12
251.931	212.12
252.164	190.12
252.397	207.12
252.63	217.12
252.863	212.12
253.096	231.12
253.329	217.12
253.562	218.12
253.795	219.12
254.028	216.12
254.261	209.12
254.494	252.12
254.727	273.12
254.96	287.12
255.193	288.12
255.426	282.12
255.659	252.12
255.892	253.12
256.124	256.12
256.357	232.12
256.59	239.12
256.823	225.12
257.056	232.12
257.289	225.12
257.521	221.12
257.754	229.12
257.987	226.12
258.22	217.12
258.452	216.12
258.685	203.12
258.918	225.12
259.151	239.12
259.383	238.12
259.616	244.12
259.849	223.12
260.081	269.12
260.314	263.12
260.547	266.12
260.779	272.12
261.012	255.12
261.244	245.12
261.477	222.12
261.71	242.12
261.942	240.12
262.175	246.12
262.407	238.12
262.64	222.12
262.872	244.12
263.105	224.12
263.337	221.12
263.57	232.12
263.802	245.12
264.035	210.12
264.267	223.12
264.499	242.12
264.732	215.12
264.964	229.12
265.197	230.12
265.429	225.12
265.661	225.12
265.894	213.12
266.126	212.12
266.358	224.12
266.591	229.12
266.823	243.12
267.055	272.12
267.287	246.12
267.52	235.12
267.752	253.12
267.984	254.12
268.216	245.12
268.448	265.12
268.681	258.12
268.913	270.12
269.145	281.12
269.377	289.12
269.609	296.12
269.841	288.12
270.073	281.12
270.306	314.12
270.538	346.12
270.77	328.12
271.002	326.12
271.234	326.12
271.466	309.12
271.698	333.12
271.93	345.12
272.162	343.12
272.394	327.12
272.626	357.12
272.858	313.12
273.09	306.12
273.322	305.12
273.553	305.12
273.785	293.12
274.017	290.12
274.249	288.12
274.481	277.12
274.713	309.12
274.945	286.12
275.176	291.12
275.408	280.12
275.64	285.12
275.872	296.12
276.104	286.12
276.335	287.12
276.567	290.12
276.799	296.12
277.031	325.12
277.262	325.12
277.494	330.12
277.726	325.12
277.957	294.12
278.189	301.12
278.421	302.12
278.652	296.12
278.884	290.12
279.115	278.12
279.347	298.12
279.579	302.12
279.81	265.12
280.042	289.12
280.273	290.12
280.505	312.12
280.736	309.12
280.968	288.12
281.199	285.12
281.431	285.12
281.662	297.12
281.894	290.12
282.125	294.12
282.356	322.12
282.588	329.12
282.819	336.12
283.051	314.12
283.282	296.12
283.513	283.12
283.745	313.12
283.976	315.12
284.207	320.12
284.439	303.12
284.67	323.12
284.901	328.12
285.132	327.12
285.364	325.12
285.595	314.12
285.826	298.12
286.057	306.12
286.288	310.12
286.52	302.12
286.751	315.12
286.982	339.12
287.213	321.12
287.444	305.12
287.675	315.12
287.906	329.12
288.138	341.12
288.369	331.12
288.6	343.12
288.831	322.12
289.062	322.12
289.293	341.12
289.524	330.12
289.755	327.12
289.986	303.12
290.217	319.12
290.448	335.12
290.679	325.12
290.91	326.12
291.141	337.12
291.371	333.12
291.602	324.12
291.833	328.12
292.064	321.12
292.295	353.12
292.526	337.12
292.757	321.12
292.987	335.12
293.218	324.12
293.449	331.12
293.68	318.12
293.91	342.12
294.141	307.12
294.372	307.12
294.603	323.12
294.833	322.12
295.064	332.12
295.295	314.12
295.525	323.12
295.756	335.12
295.987	334.12
296.217	365.12
296.448	372.12
296.679	332.12
296.909	321.12
297.14	340.12
297.37	325.12
297.601	329.12
297.831	331.12
298.062	333.12
298.292	326.12
298.523	342.12
298.753	329.12
298.984	356.12
299.214	365.12
299.445	336.12
299.675	349.12
299.905	345.12
300.136	341.12
300.366	343.12
300.597	353.12
300.827	358.12
301.057	362.12
301.288	362.12
301.518	384.12
301.748	371.12
301.979	339.12
302.209	377.12
302.439	365.12
302.669	368.12
302.9	377.12
303.13	370.12
303.36	360.12
303.59	377.12
303.82	367.12
304.051	359.12
304.281	367.12
304.511	371.12
304.741	344.12
304.971	361.12
305.201	366.12
305.431	377.12
305.661	369.12
305.891	355.12
306.121	359.12
306.352	367.12
306.582	370.12
306.812	366.12
307.042	365.12
307.272	365.12
307.502	368.12
307.731	376.12
307.961	367.12
308.191	369.12
308.421	383.12
308.651	372.12
308.881	385.12
309.111	360.12
309.341	373.12
309.571	385.12
309.8	402.12
310.03	373.12
310.26	408.12
310.49	409.12
310.72	423.12
310.949	412.12
311.179	417.12
311.409	397.12
311.639	402.12
311.868	394.12
312.098	407.12
312.328	405.12
312.557	427.12
312.787	435.12
313.017	441.12
313.246	411.12
313.476	401.12
313.706	418.12
313.935	421.12
314.165	418.12
314.394	441.12
314.624	448.12
314.853	424.12
315.083	414.12
315.312	418.12
315.542	408.12
315.771	421.12
316.001	410.12
316.23	413.12
316.46	401.12
316.689	417.12
316.919	409.12
317.148	396.12
317.377	441.12
317.607	417.12
317.836	407.12
318.065	411.12
318.295	414.12
318.524	405.12
318.753	399.12
318.983	401.12
319.212	419.12
319.441	419.12
319.67	426.12
319.9	404.12
320.129	411.12
320.358	415.12
320.587	417.12
320.816	423.12
321.046	418.12
321.275	449.12
321.504	439.12
321.733	430.12
321.962	414.12
322.191	421.12
322.42	447.12
322.649	452.12
322.878	473.12
323.108	458.12
323.337	515.12
323.566	527.12
323.795	534.12
324.024	567.12
324.253	710.12
324.482	968.12
324.71	1420.12
324.939	2212.12
325.168	1925.12
325.397	936.12
325.626	626.12
325.855	550.12
326.084	531.12
326.313	515.12
326.542	518.12
326.77	563.12
326.999	663.12
327.228	892.12
327.457	1323.12
327.686	1675.12
327.914	1118.12
328.143	701.12
328.372	633.12
328.6	593.12
328.829	586.12
329.058	600.12
329.287	603.12
329.515	576.12
329.744	539.12
329.972	533.12
330.201	549.12
330.43	598.12
330.658	618.12
330.887	637.12
331.115	614.12
331.344	569.12
331.572	538.12
331.801	541.12
332.03	525.12
332.258	497.12
332.486	493.12
332.715	512.12
332.943	529.12
333.172	522.12
333.4	519.12
333.629	507.12
333.857	545.12
334.085	551.12
334.314	587.12
334.542	589.12
334.771	581.12
334.999	553.12
335.227	528.12
335.455	483.12
335.684	497.12
335.912	501.12
336.14	480.12
336.369	486.12
336.597	459.12
336.825	505.12
337.053	488.12
337.281	505.12
337.51	479.12
337.738	482.12
337.966	470.12
338.194	485.12
338.422	488.12
338.65	479.12
338.878	463.12
339.106	452.12
339.334	477.12
339.562	478.12
339.79	483.12
340.018	463.12
340.246	445.12
340.474	478.12
340.702	483.12
340.93	488.12
341.158	466.12
341.386	475.12
341.614	478.12
341.842	469.12
342.07	461.12
342.298	473.12
342.526	459.12
342.754	454.12
342.981	439.12
343.209	472.12
343.437	464.12
343.665	467.12
343.893	506.12
344.12	481.12
344.348	484.12
344.576	480.12
344.804	486.12
345.031	487.12
345.259	469.12
345.487	479.12
345.714	474.12
345.942	477.12
346.17	454.12
346.397	459.12
346.625	469.12
346.853	457.12
347.08	455.12
347.308	426.12
347.535	466.12
347.763	466.12
347.99	456.12
348.218	473.12
348.445	438.12
348.673	461.12
348.9	445.12
349.128	451.12
349.355	449.12
349.583	447.12
349.81	434.12
350.037	421.12
350.265	448.12
350.492	442.12
350.72	449.12
350.947	440.12
351.174	446.12
351.402	469.12
351.629	447.12
351.856	459.12
352.083	454.12
352.311	460.12
352.538	459.12
352.765	464.12
352.992	465.12
353.22	450.12
353.447	463.12
353.674	454.12
353.901	443.12
354.128	441.12
354.355	427.12
354.583	448.12
354.81	427.12
355.037	421.12
355.264	432.12
355.491	429.12
355.718	419.12
355.945	413.12
356.172	422.12
356.399	434.12
356.626	433.12
356.853	405.12
357.08	420.12
357.307	410.12
357.534	417.12
357.761	420.12
357.988	437.12
358.215	447.12
358.441	418.12
358.668	411.12
358.895	427.12
359.122	422.12
359.349	433.12
359.576	456.12
359.802	443.12
360.029	474.12
360.256	500.12
360.483	486.12
360.709	445.12
360.936	453.12
361.163	442.12
361.39	473.12
361.616	442.12
361.843	434.12
362.07	447.12
362.296	464.12
362.523	450.12
362.749	454.12
362.976	426.12
363.203	427.12
363.429	435.12
363.656	410.12
363.882	429.12
364.109	439.12
364.335	438.12
364.562	446.12
364.788	431.12
365.015	436.12
365.241	419.12
365.468	452.12
365.694	450.12
365.92	431.12
366.147	418.12
366.373	414.12
366.599	420.12
366.826	442.12
367.052	423.12
367.278	447.12
367.505	418.12
367.731	450.12
367.957	434.12
368.184	431.12
368.41	457.12
368.636	447.12
368.862	443.12
369.089	437.12
369.315	439.12
369.541	441.12
369.767	416.12
369.993	445.12
370.219	430.12
370.445	464.12
370.672	433.12
370.898	434.12
371.124	448.12
371.35	436.12
371.576	438.12
371.802	442.12
372.028	441.12
372.254	442.12
372.48	435.12
372.706	431.12
372.932	454.12
373.158	416.12
373.384	450.12
373.61	460.12
373.835	432.12
374.061	446.12
374.287	453.12
374.513	450.12
374.739	427.12
374.965	461.12
375.191	439.12
375.416	433.12
375.642	459.12
375.868	462.12
376.094	441.12
376.319	446.12
376.545	433.12
376.771	435.12
376.997	420.12
377.222	431.12
377.448	440.12
377.674	452.12
377.899	431.12
378.125	425.12
378.35	445.12
378.576	425.12
378.802	419.12
379.027	412.12
379.253	432.12
379.478	438.12
379.704	429.12
379.929	446.12
380.155	427.12
380.38	425.12
380.606	444.12
380.831	445.12
381.057	443.12
381.282	432.12
381.507	441.12
381.733	438.12
381.958	441.12
382.184	448.12
382.409	434.12
382.634	470.12
382.86	451.12
383.085	460.12
383.31	455.12
383.535	467.12
383.761	449.12
383.986	471.12
384.211	460.12
384.436	464.12
384.662	472.12
384.887	470.12
385.112	484.12
385.337	476.12
385.562	475.12
385.787	501.12
386.013	465.12
386.238	509.12
386.463	505.12
386.688	470.12
386.913	466.12
387.138	496.12
387.363	484.12
387.588	483.12
387.813	497.12
388.038	505.12
388.263	483.12
388.488	473.12
388.713	459.12
388.938	491.12
389.163	484.12
389.387	485.12
389.612	481.12
389.837	494.12
390.062	461.12
390.287	484.12
390.512	489.12
390.736	496.12
390.961	461.12
391.186	485.12
391.411	497.12
391.636	521.12
391.86	511.12
392.085	514.12
392.31	516.12
392.534	506.12
392.759	495.12
392.984	489.12
393.208	511.12
393.433	509.12
393.658	489.12
393.882	515.12
394.107	511.12
394.331	503.12
394.556	481.12
394.78	497.12
395.005	480.12
395.229	494.12
395.454	517.12
395.678	520.12
395.903	506.12
396.127	531.12
396.352	553.12
396.576	516.12
396.801	510.12
397.025	534.12
397.249	508.12
397.474	529.12
397.698	519.12
397.922	534.12
398.147	538.12
398.371	564.12
398.595	543.12
398.82	567.12
399.044	588.12
399.268	613.12
399.492	644.12
399.717	686.12
399.941	724.12
400.165	729.12
400.389	708.12
400.613	668.12
400.837	614.12
401.062	586.12
401.286	574.12
401.51	562.12
401.734	564.12
401.958	593.12
402.182	575.12
402.406	591.12
402.63	588.12
402.854	573.12
403.078	589.12
403.302	613.12
403.526	585.12
403.75	608.12
403.974	586.12
404.198	566.12
404.422	580.12
404.645	624.12
404.869	614.12
405.093	661.12
405.317	683.12
405.541	708.12
405.765	638.12
405.988	643.12
406.212	639.12
406.436	637.12
406.66	663.12
406.883	654.12
407.107	706.12
407.331	698.12
407.555	771.12
407.778	798.12
408.002	728.12
408.226	667.12
408.449	669.12
408.673	661.12
408.896	675.12
409.12	711.12
409.344	699.12
409.567	629.12
409.791	633.12
410.014	579.12
410.238	621.12
410.461	629.12
410.685	605.12
410.908	591.12
411.132	636.12
411.355	681.12
411.578	641.12
411.802	597.12
412.025	611.12
412.249	603.12
412.472	625.12
412.695	669.12
412.919	630.12
413.142	635.12
413.365	607.12
413.589	580.12
413.812	580.12
414.035	553.12
414.258	554.12
414.482	575.12
414.705	569.12
414.928	547.12
415.151	546.12
415.374	546.12
415.597	553.12
415.821	565.12
416.044	549.12
416.267	555.12
416.49	536.12
416.713	547.12
416.936	554.12
417.159	554.12
417.382	567.12
417.605	550.12
417.828	567.12
418.051	595.12
418.274	603.12
418.497	593.12
418.72	579.12
418.943	561.12
419.166	587.12
419.389	618.12
419.611	614.12
419.834	598.12
420.057	610.12
420.28	593.12
420.503	578.12
420.726	582.12
420.948	591.12
421.171	656.12
421.394	681.12
421.617	596.12
421.839	600.12
422.062	581.12
422.285	615.12
422.507	646.12
422.73	719.12
422.953	709.12
423.175	621.12
423.398	615.12
423.621	618.12
423.843	639.12
424.066	624.12
424.288	634.12
424.511	656.12
424.733	687.12
424.956	763.12
425.178	730.12
425.401	765.12
425.623	773.12
425.846	674.12
426.068	635.12
426.291	607.12
426.513	602.12
426.735	621.12
426.958	661.12
427.18	744.12
427.402	854.12
427.625	961.12
427.847	835.12
428.069	730.12
428.292	677.12
428.514	605.12
428.736	589.12
428.958	604.12
429.181	559.12
429.403	573.12
429.625	592.12
429.847	624.12
430.069	706.12
430.292	667.12
430.514	570.12
430.736	565.12
430.958	570.12
431.18	553.12
431.402	534.12
431.624	549.12
431.846	556.12
432.068	541.12
432.29	541.12
432.512	534.12
432.734	548.12
432.956	536.12
433.178	522.12
433.4	550.12
433.622	529.12
433.844	541.12
434.066	537.12
434.287	559.12
434.509	573.12
434.731	576.12
434.953	571.12
435.175	583.12
435.397	616.12
435.618	657.12
435.84	637.12
436.062	751.12
436.284	828.12
436.505	679.12
436.727	617.12
436.949	593.12
437.17	549.12
437.392	564.12
437.614	557.12
437.835	610.12
438.057	701.12
438.278	827.12
438.5	798.12
438.721	885.12
438.943	877.12
439.165	670.12
439.386	596.12
439.608	607.12
439.829	612.12
440.05	651.12
440.272	713.12
440.493	655.12
440.715	614.12
440.936	596.12
441.158	597.12
441.379	569.12
441.6	600.12
441.822	615.12
442.043	666.12
442.264	746.12
442.486	795.12
442.707	703.12
442.928	622.12
443.149	641.12
443.371	667.12
443.592	710.12
443.813	817.12
444.034	877.12
444.255	731.12
444.476	677.12
444.698	643.12
444.919	662.12
445.14	718.12
445.361	693.12
445.582	666.12
445.803	723.12
446.024	826.12
446.245	833.12
446.466	798.12
446.687	668.12
446.908	625.12
447.129	579.12
447.35	591.12
447.571	563.12
447.792	570.12
448.013	565.12
448.234	573.12
448.455	638.12
448.675	753.12
448.896	896.12
449.117	749.12
449.338	699.12
449.559	811.12
449.779	935.12
450	743.12
450.221	615.12
450.442	562.12
450.662	541.12
450.883	527.12
451.104	547.12
451.324	554.12
451.545	539.12
451.766	516.12
451.986	491.12
452.207	492.12
452.428	482.12
452.648	484.12
452.869	504.12
453.089	509.12
453.31	509.12
453.53	490.12
453.751	490.12
453.971	482.12
454.192	500.12
454.412	508.12
454.633	475.12
454.853	485.12
455.073	483.12
455.294	513.12
455.514	585.12
455.734	600.12
455.955	473.12
456.175	474.12
456.395	473.12
456.616	441.12
456.836	479.12
457.056	464.12
457.276	440.12
457.497	482.12
457.717	470.12
457.937	470.12
458.157	488.12
458.377	474.12
458.598	511.12
458.818	577.12
459.038	628.12
459.258	664.12
459.478	577.12
459.698	543.12
459.918	528.12
460.138	570.12
460.358	554.12
460.578	557.12
460.798	553.12
461.018	579.12
461.238	571.12
461.458	541.12
461.678	574.12
461.898	574.12
462.118	561.12
462.338	594.12
462.558	571.12
462.777	590.12
462.997	615.12
463.217	650.12
463.437	645.12
463.657	619.12
463.876	606.12
464.096	600.12
464.316	614.12
464.536	635.12
464.755	623.12
464.975	605.12
465.195	622.12
465.414	687.12
465.634	618.12
465.854	573.12
466.073	559.12
466.293	527.12
466.512	528.12
466.732	507.12
466.951	516.12
467.171	517.12
467.391	513.12
467.61	542.12
467.829	517.12
468.049	539.12
468.268	529.12
468.488	518.12
468.707	502.12
468.927	509.12
469.146	501.12
469.365	518.12
469.585	497.12
469.804	506.12
470.023	528.12
470.243	535.12
470.462	504.12
470.681	538.12
470.901	545.12
471.12	487.12
471.339	530.12
471.558	522.12
471.777	511.12
471.997	503.12
472.216	527.12
472.435	544.12
472.654	524.12
472.873	500.12
473.092	530.12
473.311	519.12
473.53	520.12
473.749	549.12
473.968	545.12
474.187	674.12
474.406	687.12
474.625	596.12
474.844	550.12
475.063	536.12
475.282	507.12
475.501	522.12
475.72	529.12
475.939	527.12
476.158	520.12
476.377	523.12
476.596	537.12
476.814	551.12
477.033	552.12
477.252	545.12
477.471	539.12
477.69	562.12
477.908	579.12
478.127	585.12
478.346	576.12
478.564	588.12
478.783	579.12
479.002	586.12
479.22	611.12
479.439	587.12
479.658	614.12
479.876	619.12
480.095	627.12
480.313	693.12
480.532	663.12
480.751	655.12
480.969	649.12
481.188	699.12
481.406	706.12
481.624	651.12
481.843	609.12
482.061	601.12
482.28	601.12
482.498	611.12
482.717	611.12
482.935	613.12
483.153	615.12
483.372	611.12
483.59	617.12
483.808	592.12
484.027	600.12
484.245	609.12
484.463	617.12
484.681	602.12
484.9	639.12
485.118	628.12
485.336	623.12
485.554	621.12
485.772	633.12
485.99	631.12
486.209	653.12
486.427	642.12
486.645	637.12
486.863	649.12
487.081	647.12
487.299	657.12
487.517	655.12
487.735	622.12
487.953	645.12
488.171	646.12
488.389	649.12
488.607	659.12
488.825	661.12
489.043	634.12
489.261	656.12
489.479	641.12
489.696	652.12
489.914	664.12
490.132	707.12
490.35	658.12
490.568	681.12
490.786	702.12
491.003	703.12
491.221	713.12
491.439	727.12
491.657	745.12
491.874	741.12
492.092	753.12
492.31	772.12
492.527	765.12
492.745	762.12
492.963	767.12
493.18	774.12
493.398	750.12
493.615	767.12
493.833	769.12
494.05	765.12
494.268	787.12
494.485	768.12
494.703	755.12
494.92	761.12
495.138	776.12
495.355	762.12
495.573	743.12
495.79	744.12
496.008	793.12
496.225	772.12
496.442	785.12
496.66	781.12
496.877	786.12
497.094	809.12
497.312	775.12
497.529	809.12
497.746	833.12
497.963	819.12
498.181	836.12
498.398	884.12
498.615	883.12
498.832	919.12
499.049	913.12
499.267	942.12
499.484	998.12
499.701	1057.12
499.918	1085.12
500.135	1177.12
500.352	1213.12
500.569	1245.12
500.786	1242.12
501.003	1215.12
501.22	1169.12
501.437	1096.12
501.654	1037.12
