Data from 1976.PennyLincolnUp.Lamp.En5.5.200Scan.071719.P1.Changed Mount._HRD10591_16-01-23-863.txt Node
Date: Thu Jul 18 16:01:23 EDT 2019
User: cochatt
Spectrometer: HR+D1059
Trigger mode: 1
Integration Time (sec): 1.000000E-1
Scans to average: 1
Electric dark correction enabled: true
Nonlinearity correction enabled: false
Boxcar width: 0
XAxis mode: Wavelengths
Number of Pixels in Spectrum: 2048
>>>>>Begin Spectral Data<<<<<
223.165	-11.06
223.4	-11.06
223.635	-11.06
223.869	-9.06
224.104	-21.06
224.338	-16.06
224.573	-10.06
224.808	-20.06
225.042	-5.06
225.277	0.94
225.511	4.94
225.746	5.94
225.98	9.94
226.215	5.94
226.449	8.94
226.683	5.94
226.918	21.94
227.152	27.94
227.387	38.94
227.621	30.94
227.856	37.94
228.09	52.94
228.324	29.94
228.559	55.94
228.793	67.94
229.027	99.94
229.262	91.94
229.496	111.94
229.73	124.94
229.964	144.94
230.199	118.94
230.433	114.94
230.667	103.94
230.901	110.94
231.136	110.94
231.37	127.94
231.604	111.94
231.838	112.94
232.072	118.94
232.306	126.94
232.541	101.94
232.775	118.94
233.009	114.94
233.243	121.94
233.477	113.94
233.711	135.94
233.945	108.94
234.179	119.94
234.413	111.94
234.647	107.94
234.881	107.94
235.115	131.94
235.349	127.94
235.583	126.94
235.817	116.94
236.051	131.94
236.285	121.94
236.519	126.94
236.753	124.94
236.987	125.94
237.221	149.94
237.455	224.94
237.689	190.94
237.922	152.94
238.156	142.94
238.39	125.94
238.624	121.94
238.858	123.94
239.091	138.94
239.325	120.94
239.559	120.94
239.793	127.94
240.027	118.94
240.26	138.94
240.494	152.94
240.728	156.94
240.961	158.94
241.195	150.94
241.429	154.94
241.662	121.94
241.896	141.94
242.13	132.94
242.363	144.94
242.597	131.94
242.83	149.94
243.064	148.94
243.298	151.94
243.531	164.94
243.765	139.94
243.998	149.94
244.232	134.94
244.465	143.94
244.699	134.94
244.932	145.94
245.166	153.94
245.399	154.94
245.633	144.94
245.866	165.94
246.099	167.94
246.333	160.94
246.566	144.94
246.8	156.94
247.033	152.94
247.266	167.94
247.5	147.94
247.733	171.94
247.966	180.94
248.2	171.94
248.433	158.94
248.666	165.94
248.899	175.94
249.133	192.94
249.366	208.94
249.599	183.94
249.832	182.94
250.066	175.94
250.299	190.94
250.532	193.94
250.765	208.94
250.998	226.94
251.231	211.94
251.465	212.94
251.698	211.94
251.931	200.94
252.164	206.94
252.397	190.94
252.63	199.94
252.863	188.94
253.096	215.94
253.329	220.94
253.562	224.94
253.795	208.94
254.028	236.94
254.261	215.94
254.494	222.94
254.727	254.94
254.96	279.94
255.193	280.94
255.426	233.94
255.659	242.94
255.892	229.94
256.124	242.94
256.357	246.94
256.59	230.94
256.823	219.94
257.056	211.94
257.289	193.94
257.521	210.94
257.754	225.94
257.987	210.94
258.22	224.94
258.452	213.94
258.685	208.94
258.918	211.94
259.151	212.94
259.383	225.94
259.616	234.94
259.849	223.94
260.081	241.94
260.314	265.94
260.547	274.94
260.779	235.94
261.012	258.94
261.244	222.94
261.477	231.94
261.71	223.94
261.942	227.94
262.175	228.94
262.407	217.94
262.64	235.94
262.872	228.94
263.105	231.94
263.337	218.94
263.57	224.94
263.802	232.94
264.035	216.94
264.267	241.94
264.499	206.94
264.732	239.94
264.964	208.94
265.197	219.94
265.429	216.94
265.661	218.94
265.894	225.94
266.126	219.94
266.358	229.94
266.591	227.94
266.823	237.94
267.055	229.94
267.287	242.94
267.52	238.94
267.752	238.94
267.984	245.94
268.216	234.94
268.448	247.94
268.681	246.94
268.913	266.94
269.145	266.94
269.377	274.94
269.609	282.94
269.841	279.94
270.073	282.94
270.306	303.94
270.538	322.94
270.77	326.94
271.002	310.94
271.234	308.94
271.466	306.94
271.698	322.94
271.93	322.94
272.162	337.94
272.394	328.94
272.626	314.94
272.858	301.94
273.09	300.94
273.322	282.94
273.553	283.94
273.785	271.94
274.017	278.94
274.249	282.94
274.481	282.94
274.713	289.94
274.945	289.94
275.176	296.94
275.408	257.94
275.64	289.94
275.872	285.94
276.104	291.94
276.335	287.94
276.567	285.94
276.799	302.94
277.031	309.94
277.262	309.94
277.494	324.94
277.726	325.94
277.957	306.94
278.189	310.94
278.421	289.94
278.652	297.94
278.884	289.94
279.115	297.94
279.347	294.94
279.579	290.94
279.81	284.94
280.042	276.94
280.273	293.94
280.505	284.94
280.736	292.94
280.968	295.94
281.199	260.94
281.431	291.94
281.662	280.94
281.894	289.94
282.125	299.94
282.356	311.94
282.588	312.94
282.819	311.94
283.051	294.94
283.282	283.94
283.513	306.94
283.745	306.94
283.976	297.94
284.207	302.94
284.439	303.94
284.67	312.94
284.901	295.94
285.132	299.94
285.364	289.94
285.595	311.94
285.826	317.94
286.057	289.94
286.288	302.94
286.52	311.94
286.751	315.94
286.982	322.94
287.213	299.94
287.444	307.94
287.675	302.94
287.906	334.94
288.138	323.94
288.369	326.94
288.6	317.94
288.831	325.94
289.062	298.94
289.293	307.94
289.524	309.94
289.755	311.94
289.986	332.94
290.217	323.94
290.448	313.94
290.679	305.94
290.91	303.94
291.141	300.94
291.371	300.94
291.602	307.94
291.833	306.94
292.064	299.94
292.295	314.94
292.526	310.94
292.757	321.94
292.987	287.94
293.218	309.94
293.449	318.94
293.68	317.94
293.91	307.94
294.141	318.94
294.372	300.94
294.603	306.94
294.833	304.94
295.064	311.94
295.295	331.94
295.525	334.94
295.756	313.94
295.987	340.94
296.217	335.94
296.448	347.94
296.679	320.94
296.909	300.94
297.14	324.94
297.37	337.94
297.601	331.94
297.831	311.94
298.062	326.94
298.292	332.94
298.523	306.94
298.753	318.94
298.984	343.94
299.214	335.94
299.445	314.94
299.675	350.94
299.905	338.94
300.136	343.94
300.366	331.94
300.597	334.94
300.827	357.94
301.057	352.94
301.288	364.94
301.518	349.94
301.748	343.94
301.979	346.94
302.209	342.94
302.439	356.94
302.669	373.94
302.9	353.94
303.13	361.94
303.36	354.94
303.59	351.94
303.82	344.94
304.051	368.94
304.281	347.94
304.511	356.94
304.741	342.94
304.971	342.94
305.201	340.94
305.431	351.94
305.661	365.94
305.891	356.94
306.121	372.94
306.352	360.94
306.582	348.94
306.812	350.94
307.042	346.94
307.272	343.94
307.502	358.94
307.731	357.94
307.961	362.94
308.191	342.94
308.421	353.94
308.651	356.94
308.881	353.94
309.111	366.94
309.341	363.94
309.571	363.94
309.8	390.94
310.03	398.94
310.26	393.94
310.49	374.94
310.72	396.94
310.949	388.94
311.179	402.94
311.409	409.94
311.639	390.94
311.868	392.94
312.098	391.94
312.328	390.94
312.557	414.94
312.787	407.94
313.017	405.94
313.246	408.94
313.476	391.94
313.706	387.94
313.935	403.94
314.165	416.94
314.394	428.94
314.624	409.94
314.853	401.94
315.083	395.94
315.312	424.94
315.542	391.94
315.771	402.94
316.001	386.94
316.23	405.94
316.46	391.94
316.689	394.94
316.919	410.94
317.148	428.94
317.377	403.94
317.607	377.94
317.836	394.94
318.065	375.94
318.295	394.94
318.524	400.94
318.753	406.94
318.983	421.94
319.212	389.94
319.441	391.94
319.67	408.94
319.9	401.94
320.129	387.94
320.358	391.94
320.587	409.94
320.816	395.94
321.046	422.94
321.275	422.94
321.504	417.94
321.733	423.94
321.962	428.94
322.191	429.94
322.42	434.94
322.649	463.94
322.878	459.94
323.108	444.94
323.337	479.94
323.566	491.94
323.795	533.94
324.024	555.94
324.253	655.94
324.482	890.94
324.71	1352.94
324.939	2027.94
325.168	1718.94
325.397	894.94
325.626	636.94
325.855	528.94
326.084	512.94
326.313	498.94
326.542	515.94
326.77	550.94
326.999	604.94
327.228	803.94
327.457	1219.94
327.686	1523.94
327.914	982.94
328.143	658.94
328.372	586.94
328.6	553.94
328.829	527.94
329.058	564.94
329.287	570.94
329.515	535.94
329.744	508.94
329.972	529.94
330.201	523.94
330.43	558.94
330.658	567.94
330.887	588.94
331.115	574.94
331.344	523.94
331.572	504.94
331.801	526.94
332.03	504.94
332.258	468.94
332.486	476.94
332.715	478.94
332.943	471.94
333.172	491.94
333.4	495.94
333.629	500.94
333.857	519.94
334.085	538.94
334.314	524.94
334.542	549.94
334.771	581.94
334.999	512.94
335.227	505.94
335.455	501.94
335.684	479.94
335.912	496.94
336.14	496.94
336.369	483.94
336.597	485.94
336.825	484.94
337.053	468.94
337.281	454.94
337.51	466.94
337.738	436.94
337.966	460.94
338.194	449.94
338.422	474.94
338.65	479.94
338.878	475.94
339.106	466.94
339.334	459.94
339.562	439.94
339.79	445.94
340.018	453.94
340.246	471.94
340.474	448.94
340.702	460.94
340.93	466.94
341.158	436.94
341.386	471.94
341.614	459.94
341.842	461.94
342.07	450.94
342.298	446.94
342.526	451.94
342.754	438.94
342.981	436.94
343.209	435.94
343.437	455.94
343.665	472.94
343.893	466.94
344.12	478.94
344.348	466.94
344.576	454.94
344.804	470.94
345.031	481.94
345.259	458.94
345.487	468.94
345.714	459.94
345.942	440.94
346.17	449.94
346.397	420.94
346.625	436.94
346.853	430.94
347.08	434.94
347.308	424.94
347.535	440.94
347.763	442.94
347.99	447.94
348.218	418.94
348.445	434.94
348.673	435.94
348.9	444.94
349.128	425.94
349.355	429.94
349.583	432.94
349.81	417.94
350.037	418.94
350.265	434.94
350.492	420.94
350.72	446.94
350.947	432.94
351.174	434.94
351.402	440.94
351.629	440.94
351.856	431.94
352.083	421.94
352.311	459.94
352.538	449.94
352.765	455.94
352.992	439.94
353.22	428.94
353.447	422.94
353.674	420.94
353.901	428.94
354.128	424.94
354.355	424.94
354.583	416.94
354.81	423.94
355.037	431.94
355.264	418.94
355.491	411.94
355.718	415.94
355.945	394.94
356.172	401.94
356.399	405.94
356.626	412.94
356.853	417.94
357.08	403.94
357.307	405.94
357.534	415.94
357.761	401.94
357.988	399.94
358.215	395.94
358.441	414.94
358.668	410.94
358.895	405.94
359.122	410.94
359.349	419.94
359.576	440.94
359.802	429.94
360.029	469.94
360.256	470.94
360.483	481.94
360.709	459.94
360.936	449.94
361.163	436.94
361.39	446.94
361.616	434.94
361.843	437.94
362.07	428.94
362.296	444.94
362.523	416.94
362.749	439.94
362.976	427.94
363.203	434.94
363.429	420.94
363.656	440.94
363.882	422.94
364.109	401.94
364.335	418.94
364.562	416.94
364.788	411.94
365.015	418.94
365.241	393.94
365.468	414.94
365.694	426.94
365.92	418.94
366.147	415.94
366.373	409.94
366.599	407.94
366.826	420.94
367.052	404.94
367.278	403.94
367.505	415.94
367.731	412.94
367.957	417.94
368.184	435.94
368.41	421.94
368.636	425.94
368.862	414.94
369.089	431.94
369.315	406.94
369.541	418.94
369.767	419.94
369.993	409.94
370.219	414.94
370.445	429.94
370.672	424.94
370.898	421.94
371.124	422.94
371.35	426.94
371.576	423.94
371.802	408.94
372.028	411.94
372.254	419.94
372.48	439.94
372.706	410.94
372.932	426.94
373.158	433.94
373.384	422.94
373.61	424.94
373.835	423.94
374.061	431.94
374.287	420.94
374.513	428.94
374.739	432.94
374.965	446.94
375.191	455.94
375.416	431.94
375.642	426.94
375.868	422.94
376.094	436.94
376.319	426.94
376.545	422.94
376.771	417.94
376.997	414.94
377.222	430.94
377.448	420.94
377.674	431.94
377.899	437.94
378.125	413.94
378.35	428.94
378.576	423.94
378.802	421.94
379.027	407.94
379.253	419.94
379.478	411.94
379.704	414.94
379.929	400.94
380.155	421.94
380.38	424.94
380.606	397.94
380.831	410.94
381.057	418.94
381.282	435.94
381.507	438.94
381.733	430.94
381.958	418.94
382.184	427.94
382.409	436.94
382.634	431.94
382.86	456.94
383.085	443.94
383.31	418.94
383.535	427.94
383.761	442.94
383.986	438.94
384.211	489.94
384.436	456.94
384.662	466.94
384.887	458.94
385.112	435.94
385.337	471.94
385.562	470.94
385.787	464.94
386.013	483.94
386.238	465.94
386.463	495.94
386.688	466.94
386.913	480.94
387.138	456.94
387.363	469.94
387.588	461.94
387.813	445.94
388.038	464.94
388.263	465.94
388.488	459.94
388.713	458.94
388.938	469.94
389.163	477.94
389.387	473.94
389.612	465.94
389.837	461.94
390.062	454.94
390.287	444.94
390.512	468.94
390.736	478.94
390.961	470.94
391.186	487.94
391.411	468.94
391.636	480.94
391.86	514.94
392.085	514.94
392.31	475.94
392.534	506.94
392.759	496.94
392.984	496.94
393.208	477.94
393.433	487.94
393.658	510.94
393.882	483.94
394.107	465.94
394.331	486.94
394.556	471.94
394.78	483.94
395.005	510.94
395.229	506.94
395.454	495.94
395.678	481.94
395.903	522.94
396.127	512.94
396.352	546.94
396.576	520.94
396.801	488.94
397.025	495.94
397.249	507.94
397.474	528.94
397.698	517.94
397.922	537.94
398.147	523.94
398.371	571.94
398.595	531.94
398.82	534.94
399.044	551.94
399.268	606.94
399.492	633.94
399.717	682.94
399.941	660.94
400.165	702.94
400.389	680.94
400.613	623.94
400.837	588.94
401.062	574.94
401.286	542.94
401.51	559.94
401.734	538.94
401.958	568.94
402.182	549.94
402.406	548.94
402.63	567.94
402.854	577.94
403.078	581.94
403.302	569.94
403.526	577.94
403.75	591.94
403.974	585.94
404.198	598.94
404.422	593.94
404.645	571.94
404.869	586.94
405.093	602.94
405.317	635.94
405.541	671.94
405.765	636.94
405.988	622.94
406.212	600.94
406.436	618.94
406.66	649.94
406.883	628.94
407.107	638.94
407.331	697.94
407.555	752.94
407.778	769.94
408.002	702.94
408.226	666.94
408.449	628.94
408.673	634.94
408.896	637.94
409.12	681.94
409.344	705.94
409.567	622.94
409.791	611.94
410.014	570.94
410.238	576.94
410.461	589.94
410.685	578.94
410.908	587.94
411.132	645.94
411.355	649.94
411.578	641.94
411.802	566.94
412.025	558.94
412.249	581.94
412.472	599.94
412.695	641.94
412.919	626.94
413.142	600.94
413.365	560.94
413.589	544.94
413.812	560.94
414.035	559.94
414.258	522.94
414.482	550.94
414.705	538.94
414.928	538.94
415.151	538.94
415.374	559.94
415.597	560.94
415.821	541.94
416.044	526.94
416.267	538.94
416.49	529.94
416.713	506.94
416.936	523.94
417.159	533.94
417.382	565.94
417.605	532.94
417.828	538.94
418.051	569.94
418.274	571.94
418.497	534.94
418.72	547.94
418.943	539.94
419.166	575.94
419.389	607.94
419.611	606.94
419.834	570.94
420.057	576.94
420.28	598.94
420.503	574.94
420.726	556.94
420.948	573.94
421.171	609.94
421.394	634.94
421.617	580.94
421.839	576.94
422.062	567.94
422.285	589.94
422.507	626.94
422.73	691.94
422.953	697.94
423.175	584.94
423.398	565.94
423.621	582.94
423.843	608.94
424.066	588.94
424.288	608.94
424.511	631.94
424.733	683.94
424.956	778.94
425.178	733.94
425.401	724.94
425.623	728.94
425.846	642.94
426.068	599.94
426.291	593.94
426.513	593.94
426.735	614.94
426.958	650.94
427.18	709.94
427.402	872.94
427.625	925.94
427.847	797.94
428.069	695.94
428.292	624.94
428.514	583.94
428.736	548.94
428.958	564.94
429.181	561.94
429.403	548.94
429.625	558.94
429.847	594.94
430.069	666.94
430.292	654.94
430.514	588.94
430.736	548.94
430.958	544.94
431.18	533.94
431.402	536.94
431.624	540.94
431.846	510.94
432.068	506.94
432.29	527.94
432.512	507.94
432.734	532.94
432.956	538.94
433.178	559.94
433.4	555.94
433.622	532.94
433.844	512.94
434.066	510.94
434.287	535.94
434.509	505.94
434.731	549.94
434.953	562.94
435.175	554.94
435.397	585.94
435.618	588.94
435.84	638.94
436.062	735.94
436.284	810.94
436.505	661.94
436.727	596.94
436.949	543.94
437.17	536.94
437.392	549.94
437.614	562.94
437.835	581.94
438.057	674.94
438.278	781.94
438.5	778.94
438.721	852.94
438.943	840.94
439.165	660.94
439.386	609.94
439.608	593.94
439.829	562.94
440.05	628.94
440.272	650.94
440.493	630.94
440.715	558.94
440.936	571.94
441.158	551.94
441.379	540.94
441.6	586.94
441.822	593.94
442.043	656.94
442.264	707.94
442.486	759.94
442.707	630.94
442.928	611.94
443.149	632.94
443.371	642.94
443.592	657.94
443.813	784.94
444.034	856.94
444.255	706.94
444.476	643.94
444.698	629.94
444.919	622.94
445.14	736.94
445.361	679.94
445.582	643.94
445.803	705.94
446.024	807.94
446.245	818.94
446.466	724.94
446.687	616.94
446.908	573.94
447.129	547.94
447.35	552.94
447.571	521.94
447.792	546.94
448.013	533.94
448.234	554.94
448.455	603.94
448.675	722.94
448.896	858.94
449.117	734.94
449.338	690.94
449.559	781.94
449.779	887.94
450	716.94
450.221	572.94
450.442	555.94
450.662	523.94
450.883	513.94
451.104	528.94
451.324	532.94
451.545	512.94
451.766	494.94
451.986	483.94
452.207	492.94
452.428	484.94
452.648	498.94
452.869	473.94
453.089	484.94
453.31	527.94
453.53	480.94
453.751	476.94
453.971	478.94
454.192	499.94
454.412	484.94
454.633	471.94
454.853	475.94
455.073	469.94
455.294	507.94
455.514	565.94
455.734	567.94
455.955	478.94
456.175	467.94
456.395	454.94
456.616	453.94
456.836	464.94
457.056	443.94
457.276	452.94
457.497	480.94
457.717	448.94
457.937	473.94
458.157	470.94
458.377	471.94
458.598	497.94
458.818	529.94
459.038	606.94
459.258	653.94
459.478	564.94
459.698	514.94
459.918	526.94
460.138	506.94
460.358	513.94
460.578	545.94
460.798	559.94
461.018	545.94
461.238	530.94
461.458	530.94
461.678	539.94
461.898	544.94
462.118	558.94
462.338	559.94
462.558	599.94
462.777	571.94
462.997	594.94
463.217	615.94
463.437	611.94
463.657	604.94
463.876	589.94
464.096	576.94
464.316	572.94
464.536	586.94
464.755	597.94
464.975	570.94
465.195	596.94
465.414	648.94
465.634	604.94
465.854	562.94
466.073	532.94
466.293	517.94
466.512	512.94
466.732	491.94
466.951	491.94
467.171	498.94
467.391	518.94
467.61	521.94
467.829	512.94
468.049	521.94
468.268	502.94
468.488	503.94
468.707	481.94
468.927	492.94
469.146	484.94
469.365	494.94
469.585	486.94
469.804	480.94
470.023	503.94
470.243	515.94
470.462	520.94
470.681	547.94
470.901	524.94
471.12	514.94
471.339	502.94
471.558	505.94
471.777	508.94
471.997	492.94
472.216	514.94
472.435	502.94
472.654	508.94
472.873	487.94
473.092	483.94
473.311	494.94
473.53	502.94
473.749	507.94
473.968	546.94
474.187	619.94
474.406	672.94
474.625	570.94
474.844	554.94
475.063	498.94
475.282	516.94
475.501	499.94
475.72	501.94
475.939	524.94
476.158	542.94
476.377	502.94
476.596	512.94
476.814	523.94
477.033	499.94
477.252	534.94
477.471	528.94
477.69	529.94
477.908	523.94
478.127	563.94
478.346	544.94
478.564	574.94
478.783	556.94
479.002	593.94
479.22	596.94
479.439	576.94
479.658	623.94
479.876	614.94
480.095	596.94
480.313	658.94
480.532	627.94
480.751	629.94
480.969	638.94
481.188	667.94
481.406	690.94
481.624	625.94
481.843	594.94
482.061	597.94
482.28	603.94
482.498	578.94
482.717	584.94
482.935	586.94
483.153	597.94
483.372	607.94
483.59	585.94
483.808	591.94
484.027	604.94
484.245	592.94
484.463	593.94
484.681	585.94
484.9	601.94
485.118	609.94
485.336	593.94
485.554	622.94
485.772	579.94
485.99	595.94
486.209	606.94
486.427	599.94
486.645	603.94
486.863	651.94
487.081	636.94
487.299	635.94
487.517	617.94
487.735	606.94
487.953	620.94
488.171	625.94
488.389	634.94
488.607	627.94
488.825	629.94
489.043	630.94
489.261	642.94
489.479	628.94
489.696	634.94
489.914	622.94
490.132	648.94
490.35	647.94
490.568	692.94
490.786	690.94
491.003	694.94
491.221	687.94
491.439	718.94
491.657	715.94
491.874	731.94
492.092	716.94
492.31	737.94
492.527	706.94
492.745	729.94
492.963	746.94
493.18	709.94
493.398	734.94
493.615	720.94
493.833	730.94
494.05	745.94
494.268	746.94
494.485	756.94
494.703	744.94
494.92	740.94
495.138	746.94
495.355	759.94
495.573	761.94
495.79	764.94
496.008	747.94
496.225	741.94
496.442	739.94
496.66	738.94
496.877	736.94
497.094	771.94
497.312	759.94
497.529	766.94
497.746	786.94
497.963	797.94
498.181	816.94
498.398	822.94
498.615	844.94
498.832	873.94
499.049	892.94
499.267	936.94
499.484	966.94
499.701	1006.94
499.918	1046.94
500.135	1112.94
500.352	1166.94
500.569	1229.94
500.786	1188.94
501.003	1210.94
501.22	1143.94
501.437	1095.94
501.654	1033.94
