Data from 1976.PennyLincolnUp.Lamp.En5.5.200Scan.071719.P1.Changed Mount._HRD10591_16-00-59-861.txt Node
Date: Thu Jul 18 16:00:59 EDT 2019
User: cochatt
Spectrometer: HR+D1059
Trigger mode: 1
Integration Time (sec): 1.000000E-1
Scans to average: 1
Electric dark correction enabled: true
Nonlinearity correction enabled: false
Boxcar width: 0
XAxis mode: Wavelengths
Number of Pixels in Spectrum: 2048
>>>>>Begin Spectral Data<<<<<
223.165	-12.31
223.4	-12.31
223.635	-12.31
223.869	-14.31
224.104	-26.31
224.338	-14.31
224.573	-26.31
224.808	-20.31
225.042	-1.31
225.277	-1.31
225.511	-8.31
225.746	17.69
225.98	5.69
226.215	12.69
226.449	15.69
226.683	19.69
226.918	23.69
227.152	29.69
227.387	14.69
227.621	43.69
227.856	45.69
228.09	41.69
228.324	51.69
228.559	48.69
228.793	56.69
229.027	98.69
229.262	97.69
229.496	100.69
229.73	132.69
229.964	154.69
230.199	115.69
230.433	119.69
230.667	115.69
230.901	105.69
231.136	117.69
231.37	112.69
231.604	107.69
231.838	108.69
232.072	101.69
232.306	110.69
232.541	115.69
232.775	112.69
233.009	102.69
233.243	103.69
233.477	109.69
233.711	122.69
233.945	112.69
234.179	136.69
234.413	121.69
234.647	107.69
234.881	119.69
235.115	110.69
235.349	108.69
235.583	118.69
235.817	122.69
236.051	138.69
236.285	107.69
236.519	131.69
236.753	121.69
236.987	148.69
237.221	190.69
237.455	212.69
237.689	196.69
237.922	154.69
238.156	149.69
238.39	137.69
238.624	112.69
238.858	139.69
239.091	117.69
239.325	130.69
239.559	123.69
239.793	127.69
240.027	125.69
240.26	143.69
240.494	156.69
240.728	157.69
240.961	163.69
241.195	154.69
241.429	135.69
241.662	140.69
241.896	148.69
242.13	137.69
242.363	135.69
242.597	149.69
242.83	162.69
243.064	146.69
243.298	140.69
243.531	145.69
243.765	148.69
243.998	144.69
244.232	145.69
244.465	156.69
244.699	150.69
244.932	145.69
245.166	152.69
245.399	163.69
245.633	137.69
245.866	149.69
246.099	153.69
246.333	160.69
246.566	148.69
246.8	170.69
247.033	170.69
247.266	162.69
247.5	156.69
247.733	158.69
247.966	167.69
248.2	182.69
248.433	162.69
248.666	173.69
248.899	183.69
249.133	213.69
249.366	201.69
249.599	190.69
249.832	185.69
250.066	194.69
250.299	179.69
250.532	189.69
250.765	214.69
250.998	218.69
251.231	231.69
251.465	231.69
251.698	223.69
251.931	198.69
252.164	184.69
252.397	210.69
252.63	199.69
252.863	210.69
253.096	209.69
253.329	218.69
253.562	219.69
253.795	218.69
254.028	233.69
254.261	202.69
254.494	234.69
254.727	263.69
254.96	272.69
255.193	277.69
255.426	239.69
255.659	204.69
255.892	258.69
256.124	236.69
256.357	244.69
256.59	258.69
256.823	213.69
257.056	211.69
257.289	210.69
257.521	201.69
257.754	211.69
257.987	220.69
258.22	203.69
258.452	223.69
258.685	197.69
258.918	206.69
259.151	228.69
259.383	229.69
259.616	216.69
259.849	219.69
260.081	236.69
260.314	237.69
260.547	275.69
260.779	240.69
261.012	242.69
261.244	243.69
261.477	219.69
261.71	220.69
261.942	212.69
262.175	225.69
262.407	213.69
262.64	233.69
262.872	223.69
263.105	216.69
263.337	205.69
263.57	224.69
263.802	216.69
264.035	213.69
264.267	214.69
264.499	221.69
264.732	216.69
264.964	220.69
265.197	201.69
265.429	204.69
265.661	228.69
265.894	218.69
266.126	222.69
266.358	230.69
266.591	213.69
266.823	245.69
267.055	227.69
267.287	225.69
267.52	243.69
267.752	229.69
267.984	250.69
268.216	256.69
268.448	238.69
268.681	228.69
268.913	245.69
269.145	248.69
269.377	284.69
269.609	293.69
269.841	276.69
270.073	281.69
270.306	284.69
270.538	311.69
270.77	310.69
271.002	311.69
271.234	289.69
271.466	314.69
271.698	317.69
271.93	337.69
272.162	330.69
272.394	323.69
272.626	323.69
272.858	280.69
273.09	293.69
273.322	270.69
273.553	267.69
273.785	272.69
274.017	270.69
274.249	274.69
274.481	278.69
274.713	278.69
274.945	284.69
275.176	279.69
275.408	284.69
275.64	266.69
275.872	276.69
276.104	263.69
276.335	294.69
276.567	266.69
276.799	301.69
277.031	302.69
277.262	320.69
277.494	344.69
277.726	305.69
277.957	303.69
278.189	286.69
278.421	293.69
278.652	290.69
278.884	275.69
279.115	264.69
279.347	279.69
279.579	280.69
279.81	266.69
280.042	259.69
280.273	284.69
280.505	296.69
280.736	277.69
280.968	284.69
281.199	289.69
281.431	275.69
281.662	307.69
281.894	294.69
282.125	294.69
282.356	285.69
282.588	330.69
282.819	313.69
283.051	296.69
283.282	280.69
283.513	279.69
283.745	302.69
283.976	302.69
284.207	306.69
284.439	322.69
284.67	293.69
284.901	296.69
285.132	293.69
285.364	291.69
285.595	293.69
285.826	308.69
286.057	305.69
286.288	299.69
286.52	291.69
286.751	301.69
286.982	312.69
287.213	318.69
287.444	297.69
287.675	312.69
287.906	323.69
288.138	337.69
288.369	335.69
288.6	317.69
288.831	322.69
289.062	327.69
289.293	306.69
289.524	304.69
289.755	317.69
289.986	315.69
290.217	283.69
290.448	321.69
290.679	304.69
290.91	307.69
291.141	320.69
291.371	309.69
291.602	302.69
291.833	305.69
292.064	298.69
292.295	312.69
292.526	309.69
292.757	297.69
292.987	312.69
293.218	293.69
293.449	304.69
293.68	310.69
293.91	316.69
294.141	330.69
294.372	314.69
294.603	318.69
294.833	312.69
295.064	330.69
295.295	334.69
295.525	318.69
295.756	305.69
295.987	322.69
296.217	332.69
296.448	342.69
296.679	338.69
296.909	297.69
297.14	301.69
297.37	308.69
297.601	336.69
297.831	331.69
298.062	328.69
298.292	324.69
298.523	322.69
298.753	341.69
298.984	318.69
299.214	337.69
299.445	331.69
299.675	346.69
299.905	328.69
300.136	324.69
300.366	324.69
300.597	334.69
300.827	332.69
301.057	353.69
301.288	334.69
301.518	341.69
301.748	357.69
301.979	340.69
302.209	351.69
302.439	336.69
302.669	351.69
302.9	338.69
303.13	345.69
303.36	367.69
303.59	364.69
303.82	372.69
304.051	371.69
304.281	358.69
304.511	348.69
304.741	340.69
304.971	335.69
305.201	333.69
305.431	349.69
305.661	342.69
305.891	340.69
306.121	355.69
306.352	361.69
306.582	368.69
306.812	346.69
307.042	361.69
307.272	340.69
307.502	343.69
307.731	353.69
307.961	346.69
308.191	345.69
308.421	330.69
308.651	354.69
308.881	358.69
309.111	370.69
309.341	374.69
309.571	381.69
309.8	380.69
310.03	378.69
310.26	376.69
310.49	376.69
310.72	379.69
310.949	402.69
311.179	396.69
311.409	404.69
311.639	386.69
311.868	384.69
312.098	400.69
312.328	387.69
312.557	395.69
312.787	417.69
313.017	413.69
313.246	374.69
313.476	385.69
313.706	390.69
313.935	378.69
314.165	400.69
314.394	427.69
314.624	420.69
314.853	406.69
315.083	412.69
315.312	406.69
315.542	401.69
315.771	397.69
316.001	400.69
316.23	380.69
316.46	380.69
316.689	407.69
316.919	384.69
317.148	412.69
317.377	390.69
317.607	388.69
317.836	398.69
318.065	390.69
318.295	422.69
318.524	395.69
318.753	412.69
318.983	398.69
319.212	386.69
319.441	398.69
319.67	404.69
319.9	397.69
320.129	401.69
320.358	388.69
320.587	378.69
320.816	430.69
321.046	415.69
321.275	423.69
321.504	405.69
321.733	418.69
321.962	407.69
322.191	443.69
322.42	432.69
322.649	444.69
322.878	457.69
323.108	448.69
323.337	460.69
323.566	492.69
323.795	500.69
324.024	563.69
324.253	650.69
324.482	873.69
324.71	1336.69
324.939	1916.69
325.168	1685.69
325.397	878.69
325.626	609.69
325.855	522.69
326.084	477.69
326.313	457.69
326.542	486.69
326.77	553.69
326.999	586.69
327.228	803.69
327.457	1179.69
327.686	1482.69
327.914	966.69
328.143	650.69
328.372	578.69
328.6	554.69
328.829	520.69
329.058	557.69
329.287	538.69
329.515	539.69
329.744	506.69
329.972	482.69
330.201	524.69
330.43	551.69
330.658	573.69
330.887	585.69
331.115	560.69
331.344	521.69
331.572	501.69
331.801	493.69
332.03	518.69
332.258	478.69
332.486	482.69
332.715	474.69
332.943	475.69
333.172	472.69
333.4	468.69
333.629	490.69
333.857	515.69
334.085	522.69
334.314	520.69
334.542	540.69
334.771	573.69
334.999	510.69
335.227	513.69
335.455	499.69
335.684	481.69
335.912	475.69
336.14	471.69
336.369	460.69
336.597	486.69
336.825	493.69
337.053	453.69
337.281	460.69
337.51	476.69
337.738	468.69
337.966	468.69
338.194	449.69
338.422	479.69
338.65	470.69
338.878	468.69
339.106	474.69
339.334	439.69
339.562	460.69
339.79	451.69
340.018	466.69
340.246	449.69
340.474	435.69
340.702	405.69
340.93	440.69
341.158	450.69
341.386	440.69
341.614	455.69
341.842	453.69
342.07	436.69
342.298	445.69
342.526	436.69
342.754	437.69
342.981	450.69
343.209	444.69
343.437	438.69
343.665	447.69
343.893	480.69
344.12	474.69
344.348	489.69
344.576	475.69
344.804	441.69
345.031	466.69
345.259	458.69
345.487	456.69
345.714	456.69
345.942	433.69
346.17	430.69
346.397	419.69
346.625	436.69
346.853	441.69
347.08	434.69
347.308	420.69
347.535	430.69
347.763	430.69
347.99	441.69
348.218	454.69
348.445	442.69
348.673	421.69
348.9	422.69
349.128	416.69
349.355	389.69
349.583	440.69
349.81	412.69
350.037	416.69
350.265	430.69
350.492	412.69
350.72	408.69
350.947	410.69
351.174	434.69
351.402	420.69
351.629	446.69
351.856	433.69
352.083	440.69
352.311	435.69
352.538	439.69
352.765	440.69
352.992	433.69
353.22	423.69
353.447	412.69
353.674	418.69
353.901	425.69
354.128	423.69
354.355	406.69
354.583	398.69
354.81	418.69
355.037	402.69
355.264	402.69
355.491	414.69
355.718	403.69
355.945	422.69
356.172	382.69
356.399	414.69
356.626	410.69
356.853	385.69
357.08	386.69
357.307	408.69
357.534	414.69
357.761	385.69
357.988	394.69
358.215	397.69
358.441	402.69
358.668	446.69
358.895	429.69
359.122	398.69
359.349	432.69
359.576	428.69
359.802	462.69
360.029	462.69
360.256	487.69
360.483	455.69
360.709	408.69
360.936	441.69
361.163	424.69
361.39	430.69
361.616	442.69
361.843	427.69
362.07	415.69
362.296	397.69
362.523	417.69
362.749	417.69
362.976	436.69
363.203	412.69
363.429	396.69
363.656	411.69
363.882	399.69
364.109	419.69
364.335	413.69
364.562	409.69
364.788	400.69
365.015	424.69
365.241	412.69
365.468	415.69
365.694	401.69
365.92	423.69
366.147	397.69
366.373	417.69
366.599	404.69
366.826	407.69
367.052	426.69
367.278	418.69
367.505	415.69
367.731	439.69
367.957	420.69
368.184	423.69
368.41	431.69
368.636	417.69
368.862	430.69
369.089	419.69
369.315	424.69
369.541	438.69
369.767	425.69
369.993	414.69
370.219	405.69
370.445	412.69
370.672	438.69
370.898	414.69
371.124	444.69
371.35	413.69
371.576	438.69
371.802	408.69
372.028	414.69
372.254	418.69
372.48	437.69
372.706	432.69
372.932	428.69
373.158	424.69
373.384	444.69
373.61	421.69
373.835	414.69
374.061	393.69
374.287	412.69
374.513	440.69
374.739	438.69
374.965	440.69
375.191	431.69
375.416	459.69
375.642	424.69
375.868	430.69
376.094	424.69
376.319	429.69
376.545	445.69
376.771	426.69
376.997	411.69
377.222	424.69
377.448	408.69
377.674	426.69
377.899	397.69
378.125	422.69
378.35	407.69
378.576	416.69
378.802	411.69
379.027	424.69
379.253	423.69
379.478	424.69
379.704	405.69
379.929	399.69
380.155	431.69
380.38	410.69
380.606	445.69
380.831	430.69
381.057	443.69
381.282	438.69
381.507	436.69
381.733	409.69
381.958	428.69
382.184	411.69
382.409	402.69
382.634	444.69
382.86	439.69
383.085	413.69
383.31	456.69
383.535	453.69
383.761	434.69
383.986	456.69
384.211	430.69
384.436	452.69
384.662	432.69
384.887	460.69
385.112	453.69
385.337	440.69
385.562	458.69
385.787	480.69
386.013	480.69
386.238	472.69
386.463	468.69
386.688	468.69
386.913	459.69
387.138	469.69
387.363	476.69
387.588	481.69
387.813	473.69
388.038	461.69
388.263	468.69
388.488	498.69
388.713	443.69
388.938	444.69
389.163	475.69
389.387	458.69
389.612	453.69
389.837	471.69
390.062	460.69
390.287	457.69
390.512	470.69
390.736	460.69
390.961	485.69
391.186	458.69
391.411	470.69
391.636	483.69
391.86	489.69
392.085	501.69
392.31	514.69
392.534	488.69
392.759	497.69
392.984	490.69
393.208	480.69
393.433	476.69
393.658	473.69
393.882	497.69
394.107	477.69
394.331	478.69
394.556	468.69
394.78	474.69
395.005	494.69
395.229	481.69
395.454	476.69
395.678	488.69
395.903	488.69
396.127	531.69
396.352	526.69
396.576	475.69
396.801	500.69
397.025	501.69
397.249	493.69
397.474	511.69
397.698	491.69
397.922	514.69
398.147	552.69
398.371	538.69
398.595	515.69
398.82	548.69
399.044	565.69
399.268	598.69
399.492	631.69
399.717	654.69
399.941	696.69
400.165	700.69
400.389	682.69
400.613	619.69
400.837	587.69
401.062	567.69
401.286	560.69
401.51	546.69
401.734	530.69
401.958	546.69
402.182	540.69
402.406	550.69
402.63	561.69
402.854	557.69
403.078	552.69
403.302	588.69
403.526	580.69
403.75	580.69
403.974	587.69
404.198	557.69
404.422	575.69
404.645	578.69
404.869	579.69
405.093	627.69
405.317	645.69
405.541	670.69
405.765	644.69
405.988	619.69
406.212	626.69
406.436	628.69
406.66	622.69
406.883	609.69
407.107	646.69
407.331	686.69
407.555	741.69
407.778	754.69
408.002	696.69
408.226	617.69
408.449	634.69
408.673	617.69
408.896	675.69
409.12	676.69
409.344	634.69
409.567	585.69
409.791	580.69
410.014	566.69
410.238	581.69
410.461	580.69
410.685	555.69
410.908	584.69
411.132	599.69
411.355	630.69
411.578	620.69
411.802	585.69
412.025	569.69
412.249	590.69
412.472	603.69
412.695	625.69
412.919	619.69
413.142	556.69
413.365	548.69
413.589	564.69
413.812	556.69
414.035	544.69
414.258	532.69
414.482	549.69
414.705	541.69
414.928	532.69
415.151	542.69
415.374	544.69
415.597	520.69
415.821	515.69
416.044	553.69
416.267	541.69
416.49	548.69
416.713	530.69
416.936	542.69
417.159	518.69
417.382	548.69
417.605	534.69
417.828	548.69
418.051	568.69
418.274	566.69
418.497	517.69
418.72	528.69
418.943	538.69
419.166	572.69
419.389	596.69
419.611	585.69
419.834	554.69
420.057	566.69
420.28	550.69
420.503	552.69
420.726	583.69
420.948	566.69
421.171	612.69
421.394	648.69
421.617	570.69
421.839	581.69
422.062	562.69
422.285	560.69
422.507	642.69
422.73	715.69
422.953	670.69
423.175	612.69
423.398	590.69
423.621	584.69
423.843	587.69
424.066	618.69
424.288	600.69
424.511	625.69
424.733	667.69
424.956	744.69
425.178	706.69
425.401	705.69
425.623	714.69
425.846	619.69
426.068	585.69
426.291	568.69
426.513	578.69
426.735	594.69
426.958	628.69
427.18	686.69
427.402	869.69
427.625	903.69
427.847	788.69
428.069	702.69
428.292	619.69
428.514	572.69
428.736	543.69
428.958	548.69
429.181	533.69
429.403	546.69
429.625	548.69
429.847	570.69
430.069	643.69
430.292	653.69
430.514	566.69
430.736	532.69
430.958	544.69
431.18	514.69
431.402	536.69
431.624	525.69
431.846	513.69
432.068	528.69
432.29	521.69
432.512	509.69
432.734	541.69
432.956	504.69
433.178	530.69
433.4	515.69
433.622	526.69
433.844	522.69
434.066	529.69
434.287	530.69
434.509	533.69
434.731	537.69
434.953	559.69
435.175	553.69
435.397	582.69
435.618	591.69
435.84	626.69
436.062	735.69
436.284	790.69
436.505	654.69
436.727	583.69
436.949	562.69
437.17	529.69
437.392	545.69
437.614	537.69
437.835	570.69
438.057	659.69
438.278	756.69
438.5	766.69
438.721	844.69
438.943	796.69
439.165	643.69
439.386	595.69
439.608	597.69
439.829	555.69
440.05	594.69
440.272	644.69
440.493	606.69
440.715	566.69
440.936	553.69
441.158	533.69
441.379	537.69
441.6	591.69
441.822	600.69
442.043	640.69
442.264	685.69
442.486	760.69
442.707	676.69
442.928	610.69
443.149	606.69
443.371	625.69
443.592	692.69
443.813	749.69
444.034	844.69
444.255	708.69
444.476	626.69
444.698	618.69
444.919	616.69
445.14	724.69
445.361	680.69
445.582	628.69
445.803	690.69
446.024	769.69
446.245	782.69
446.466	706.69
446.687	616.69
446.908	572.69
447.129	535.69
447.35	533.69
447.571	552.69
447.792	549.69
448.013	540.69
448.234	569.69
448.455	587.69
448.675	705.69
448.896	864.69
449.117	702.69
449.338	658.69
449.559	749.69
449.779	887.69
450	692.69
450.221	580.69
450.442	550.69
450.662	542.69
450.883	510.69
451.104	540.69
451.324	521.69
451.545	497.69
451.766	474.69
451.986	463.69
452.207	481.69
452.428	484.69
452.648	449.69
452.869	471.69
453.089	484.69
453.31	486.69
453.53	460.69
453.751	461.69
453.971	474.69
454.192	498.69
454.412	487.69
454.633	481.69
454.853	491.69
455.073	464.69
455.294	496.69
455.514	569.69
455.734	529.69
455.955	492.69
456.175	445.69
456.395	457.69
456.616	461.69
456.836	448.69
457.056	441.69
457.276	425.69
457.497	452.69
457.717	441.69
457.937	454.69
458.157	477.69
458.377	475.69
458.598	476.69
458.818	514.69
459.038	578.69
459.258	630.69
459.478	537.69
459.698	494.69
459.918	498.69
460.138	524.69
460.358	518.69
460.578	531.69
460.798	538.69
461.018	544.69
461.238	538.69
461.458	544.69
461.678	546.69
461.898	547.69
462.118	521.69
462.338	564.69
462.558	556.69
462.777	572.69
462.997	597.69
463.217	597.69
463.437	610.69
463.657	588.69
463.876	612.69
464.096	582.69
464.316	564.69
464.536	604.69
464.755	586.69
464.975	586.69
465.195	579.69
465.414	644.69
465.634	578.69
465.854	551.69
466.073	514.69
466.293	504.69
466.512	508.69
466.732	497.69
466.951	493.69
467.171	508.69
467.391	471.69
467.61	510.69
467.829	512.69
468.049	499.69
468.268	512.69
468.488	491.69
468.707	464.69
468.927	492.69
469.146	477.69
469.365	488.69
469.585	462.69
469.804	497.69
470.023	508.69
470.243	527.69
470.462	503.69
470.681	521.69
470.901	510.69
471.12	506.69
471.339	485.69
471.558	500.69
471.777	498.69
471.997	489.69
472.216	496.69
472.435	536.69
472.654	520.69
472.873	510.69
473.092	489.69
473.311	501.69
473.53	496.69
473.749	490.69
473.968	528.69
474.187	646.69
474.406	662.69
474.625	563.69
474.844	510.69
475.063	506.69
475.282	483.69
475.501	488.69
475.72	518.69
475.939	502.69
476.158	493.69
476.377	524.69
476.596	504.69
476.814	518.69
477.033	527.69
477.252	524.69
477.471	536.69
477.69	524.69
477.908	558.69
478.127	571.69
478.346	564.69
478.564	573.69
478.783	573.69
479.002	577.69
479.22	560.69
479.439	596.69
479.658	607.69
479.876	562.69
480.095	598.69
480.313	644.69
480.532	639.69
480.751	601.69
480.969	613.69
481.188	667.69
481.406	700.69
481.624	581.69
481.843	588.69
482.061	567.69
482.28	587.69
482.498	591.69
482.717	585.69
482.935	574.69
483.153	579.69
483.372	562.69
483.59	568.69
483.808	571.69
484.027	595.69
484.245	577.69
484.463	590.69
484.681	591.69
484.9	597.69
485.118	604.69
485.336	597.69
485.554	611.69
485.772	594.69
485.99	610.69
486.209	616.69
486.427	596.69
486.645	606.69
486.863	625.69
487.081	614.69
487.299	637.69
487.517	638.69
487.735	629.69
487.953	606.69
488.171	611.69
488.389	615.69
488.607	632.69
488.825	626.69
489.043	643.69
489.261	646.69
489.479	625.69
489.696	636.69
489.914	635.69
490.132	653.69
490.35	668.69
490.568	621.69
490.786	658.69
491.003	658.69
491.221	665.69
491.439	683.69
491.657	692.69
491.874	698.69
492.092	713.69
492.31	689.69
492.527	723.69
492.745	701.69
492.963	719.69
493.18	730.69
493.398	703.69
493.615	728.69
493.833	731.69
494.05	746.69
494.268	738.69
494.485	744.69
494.703	735.69
494.92	710.69
495.138	736.69
495.355	717.69
495.573	744.69
495.79	751.69
496.008	742.69
496.225	741.69
496.442	746.69
496.66	755.69
496.877	760.69
497.094	736.69
497.312	745.69
497.529	779.69
497.746	763.69
497.963	790.69
498.181	814.69
498.398	821.69
498.615	836.69
498.832	857.69
499.049	898.69
499.267	896.69
499.484	950.69
499.701	1002.69
499.918	1007.69
500.135	1095.69
500.352	1144.69
500.569	1156.69
500.786	1138.69
501.003	1172.69
501.22	1092.69
501.437	1066.69
501.654	1025.69
