Data from 1976.PennyLincolnUp.Lamp.En5.5.200Scan.071719.P1.Changed Mount._HRD10591_16-00-03-861.txt Node
Date: Thu Jul 18 16:00:03 EDT 2019
User: cochatt
Spectrometer: HR+D1059
Trigger mode: 1
Integration Time (sec): 1.000000E-1
Scans to average: 1
Electric dark correction enabled: true
Nonlinearity correction enabled: false
Boxcar width: 0
XAxis mode: Wavelengths
Number of Pixels in Spectrum: 2048
>>>>>Begin Spectral Data<<<<<
223.165	-20.69
223.4	-20.69
223.635	-20.69
223.869	-5.69
224.104	-25.69
224.338	0.31
224.573	-18.69
224.808	-2.69
225.042	4.31
225.277	-10.69
225.511	0.31
225.746	-1.69
225.98	12.31
226.215	1.31
226.449	7.31
226.683	13.31
226.918	22.31
227.152	24.31
227.387	33.31
227.621	30.31
227.856	40.31
228.09	28.31
228.324	53.31
228.559	66.31
228.793	80.31
229.027	94.31
229.262	97.31
229.496	101.31
229.73	128.31
229.964	128.31
230.199	120.31
230.433	118.31
230.667	105.31
230.901	96.31
231.136	106.31
231.37	99.31
231.604	107.31
231.838	120.31
232.072	103.31
232.306	108.31
232.541	92.31
232.775	114.31
233.009	114.31
233.243	113.31
233.477	109.31
233.711	118.31
233.945	106.31
234.179	117.31
234.413	103.31
234.647	117.31
234.881	116.31
235.115	109.31
235.349	118.31
235.583	130.31
235.817	119.31
236.051	134.31
236.285	117.31
236.519	117.31
236.753	132.31
236.987	138.31
237.221	163.31
237.455	215.31
237.689	173.31
237.922	137.31
238.156	138.31
238.39	136.31
238.624	132.31
238.858	120.31
239.091	130.31
239.325	138.31
239.559	127.31
239.793	123.31
240.027	116.31
240.26	130.31
240.494	152.31
240.728	149.31
240.961	135.31
241.195	138.31
241.429	141.31
241.662	154.31
241.896	118.31
242.13	113.31
242.363	125.31
242.597	140.31
242.83	142.31
243.064	135.31
243.298	141.31
243.531	138.31
243.765	141.31
243.998	136.31
244.232	135.31
244.465	154.31
244.699	149.31
244.932	152.31
245.166	139.31
245.399	150.31
245.633	150.31
245.866	131.31
246.099	141.31
246.333	140.31
246.566	164.31
246.8	154.31
247.033	169.31
247.266	147.31
247.5	166.31
247.733	161.31
247.966	176.31
248.2	173.31
248.433	178.31
248.666	189.31
248.899	192.31
249.133	200.31
249.366	186.31
249.599	184.31
249.832	192.31
250.066	188.31
250.299	182.31
250.532	181.31
250.765	204.31
250.998	222.31
251.231	214.31
251.465	212.31
251.698	206.31
251.931	201.31
252.164	191.31
252.397	190.31
252.63	203.31
252.863	207.31
253.096	217.31
253.329	228.31
253.562	223.31
253.795	218.31
254.028	215.31
254.261	218.31
254.494	217.31
254.727	259.31
254.96	270.31
255.193	286.31
255.426	249.31
255.659	225.31
255.892	231.31
256.124	237.31
256.357	233.31
256.59	205.31
256.823	214.31
257.056	211.31
257.289	202.31
257.521	218.31
257.754	207.31
257.987	199.31
258.22	213.31
258.452	200.31
258.685	217.31
258.918	211.31
259.151	209.31
259.383	221.31
259.616	217.31
259.849	213.31
260.081	248.31
260.314	260.31
260.547	248.31
260.779	240.31
261.012	230.31
261.244	213.31
261.477	234.31
261.71	237.31
261.942	235.31
262.175	222.31
262.407	227.31
262.64	210.31
262.872	213.31
263.105	210.31
263.337	221.31
263.57	227.31
263.802	205.31
264.035	213.31
264.267	229.31
264.499	222.31
264.732	201.31
264.964	212.31
265.197	211.31
265.429	225.31
265.661	223.31
265.894	220.31
266.126	228.31
266.358	224.31
266.591	215.31
266.823	224.31
267.055	233.31
267.287	235.31
267.52	246.31
267.752	236.31
267.984	225.31
268.216	232.31
268.448	219.31
268.681	242.31
268.913	237.31
269.145	274.31
269.377	258.31
269.609	270.31
269.841	291.31
270.073	269.31
270.306	297.31
270.538	298.31
270.77	310.31
271.002	272.31
271.234	265.31
271.466	310.31
271.698	308.31
271.93	306.31
272.162	305.31
272.394	300.31
272.626	295.31
272.858	293.31
273.09	289.31
273.322	267.31
273.553	276.31
273.785	271.31
274.017	277.31
274.249	258.31
274.481	274.31
274.713	271.31
274.945	261.31
275.176	261.31
275.408	266.31
275.64	269.31
275.872	265.31
276.104	283.31
276.335	278.31
276.567	282.31
276.799	299.31
277.031	311.31
277.262	324.31
277.494	329.31
277.726	300.31
277.957	266.31
278.189	289.31
278.421	293.31
278.652	285.31
278.884	269.31
279.115	270.31
279.347	277.31
279.579	287.31
279.81	281.31
280.042	273.31
280.273	276.31
280.505	285.31
280.736	266.31
280.968	274.31
281.199	280.31
281.431	264.31
281.662	263.31
281.894	278.31
282.125	280.31
282.356	285.31
282.588	292.31
282.819	313.31
283.051	279.31
283.282	301.31
283.513	286.31
283.745	280.31
283.976	288.31
284.207	282.31
284.439	307.31
284.67	295.31
284.901	282.31
285.132	285.31
285.364	275.31
285.595	302.31
285.826	304.31
286.057	300.31
286.288	286.31
286.52	278.31
286.751	286.31
286.982	295.31
287.213	296.31
287.444	299.31
287.675	291.31
287.906	284.31
288.138	299.31
288.369	309.31
288.6	306.31
288.831	307.31
289.062	287.31
289.293	287.31
289.524	298.31
289.755	291.31
289.986	312.31
290.217	320.31
290.448	294.31
290.679	308.31
290.91	310.31
291.141	285.31
291.371	295.31
291.602	322.31
291.833	298.31
292.064	307.31
292.295	300.31
292.526	306.31
292.757	297.31
292.987	292.31
293.218	290.31
293.449	290.31
293.68	297.31
293.91	319.31
294.141	293.31
294.372	308.31
294.603	318.31
294.833	323.31
295.064	302.31
295.295	313.31
295.525	326.31
295.756	308.31
295.987	308.31
296.217	339.31
296.448	343.31
296.679	318.31
296.909	317.31
297.14	300.31
297.37	311.31
297.601	325.31
297.831	331.31
298.062	312.31
298.292	310.31
298.523	328.31
298.753	295.31
298.984	316.31
299.214	323.31
299.445	304.31
299.675	329.31
299.905	327.31
300.136	329.31
300.366	321.31
300.597	329.31
300.827	333.31
301.057	329.31
301.288	333.31
301.518	345.31
301.748	334.31
301.979	339.31
302.209	344.31
302.439	348.31
302.669	353.31
302.9	316.31
303.13	338.31
303.36	331.31
303.59	346.31
303.82	342.31
304.051	345.31
304.281	326.31
304.511	333.31
304.741	338.31
304.971	338.31
305.201	340.31
305.431	338.31
305.661	357.31
305.891	346.31
306.121	335.31
306.352	308.31
306.582	368.31
306.812	341.31
307.042	345.31
307.272	357.31
307.502	337.31
307.731	332.31
307.961	331.31
308.191	353.31
308.421	348.31
308.651	338.31
308.881	319.31
309.111	332.31
309.341	349.31
309.571	368.31
309.8	340.31
310.03	368.31
310.26	363.31
310.49	369.31
310.72	388.31
310.949	386.31
311.179	400.31
311.409	366.31
311.639	356.31
311.868	372.31
312.098	369.31
312.328	381.31
312.557	416.31
312.787	390.31
313.017	396.31
313.246	387.31
313.476	374.31
313.706	372.31
313.935	406.31
314.165	396.31
314.394	392.31
314.624	406.31
314.853	393.31
315.083	380.31
315.312	384.31
315.542	376.31
315.771	371.31
316.001	383.31
316.23	378.31
316.46	362.31
316.689	394.31
316.919	377.31
317.148	404.31
317.377	400.31
317.607	386.31
317.836	374.31
318.065	394.31
318.295	409.31
318.524	376.31
318.753	382.31
318.983	391.31
319.212	376.31
319.441	390.31
319.67	380.31
319.9	381.31
320.129	387.31
320.358	388.31
320.587	366.31
320.816	374.31
321.046	386.31
321.275	391.31
321.504	395.31
321.733	398.31
321.962	398.31
322.191	414.31
322.42	411.31
322.649	422.31
322.878	425.31
323.108	433.31
323.337	439.31
323.566	447.31
323.795	484.31
324.024	507.31
324.253	609.31
324.482	800.31
324.71	1254.31
324.939	1816.31
325.168	1569.31
325.397	812.31
325.626	586.31
325.855	487.31
326.084	464.31
326.313	459.31
326.542	474.31
326.77	516.31
326.999	585.31
327.228	766.31
327.457	1117.31
327.686	1370.31
327.914	920.31
328.143	620.31
328.372	537.31
328.6	527.31
328.829	515.31
329.058	517.31
329.287	534.31
329.515	502.31
329.744	483.31
329.972	486.31
330.201	508.31
330.43	506.31
330.658	523.31
330.887	548.31
331.115	564.31
331.344	492.31
331.572	472.31
331.801	473.31
332.03	465.31
332.258	456.31
332.486	454.31
332.715	439.31
332.943	472.31
333.172	468.31
333.4	460.31
333.629	490.31
333.857	500.31
334.085	494.31
334.314	506.31
334.542	504.31
334.771	517.31
334.999	507.31
335.227	480.31
335.455	474.31
335.684	457.31
335.912	443.31
336.14	448.31
336.369	461.31
336.597	470.31
336.825	462.31
337.053	442.31
337.281	437.31
337.51	429.31
337.738	447.31
337.966	453.31
338.194	451.31
338.422	458.31
338.65	432.31
338.878	439.31
339.106	440.31
339.334	448.31
339.562	435.31
339.79	402.31
340.018	437.31
340.246	445.31
340.474	424.31
340.702	444.31
340.93	415.31
341.158	420.31
341.386	438.31
341.614	433.31
341.842	444.31
342.07	443.31
342.298	418.31
342.526	428.31
342.754	436.31
342.981	410.31
343.209	416.31
343.437	436.31
343.665	442.31
343.893	466.31
344.12	467.31
344.348	434.31
344.576	450.31
344.804	446.31
345.031	449.31
345.259	457.31
345.487	449.31
345.714	442.31
345.942	415.31
346.17	436.31
346.397	428.31
346.625	406.31
346.853	429.31
347.08	411.31
347.308	420.31
347.535	410.31
347.763	435.31
347.99	431.31
348.218	433.31
348.445	429.31
348.673	424.31
348.9	409.31
349.128	403.31
349.355	405.31
349.583	412.31
349.81	393.31
350.037	413.31
350.265	399.31
350.492	418.31
350.72	408.31
350.947	403.31
351.174	420.31
351.402	425.31
351.629	438.31
351.856	426.31
352.083	428.31
352.311	431.31
352.538	428.31
352.765	427.31
352.992	433.31
353.22	438.31
353.447	404.31
353.674	424.31
353.901	388.31
354.128	384.31
354.355	392.31
354.583	386.31
354.81	391.31
355.037	387.31
355.264	406.31
355.491	390.31
355.718	382.31
355.945	383.31
356.172	401.31
356.399	397.31
356.626	382.31
356.853	408.31
357.08	394.31
357.307	398.31
357.534	393.31
357.761	386.31
357.988	396.31
358.215	397.31
358.441	410.31
358.668	419.31
358.895	408.31
359.122	414.31
359.349	412.31
359.576	407.31
359.802	437.31
360.029	432.31
360.256	461.31
360.483	412.31
360.709	405.31
360.936	418.31
361.163	419.31
361.39	422.31
361.616	404.31
361.843	411.31
362.07	439.31
362.296	434.31
362.523	421.31
362.749	397.31
362.976	405.31
363.203	411.31
363.429	408.31
363.656	403.31
363.882	403.31
364.109	389.31
364.335	410.31
364.562	380.31
364.788	396.31
365.015	400.31
365.241	410.31
365.468	401.31
365.694	398.31
365.92	385.31
366.147	389.31
366.373	386.31
366.599	413.31
366.826	404.31
367.052	391.31
367.278	382.31
367.505	411.31
367.731	413.31
367.957	406.31
368.184	391.31
368.41	416.31
368.636	418.31
368.862	418.31
369.089	422.31
369.315	408.31
369.541	411.31
369.767	414.31
369.993	406.31
370.219	416.31
370.445	386.31
370.672	424.31
370.898	418.31
371.124	413.31
371.35	418.31
371.576	414.31
371.802	389.31
372.028	402.31
372.254	391.31
372.48	400.31
372.706	412.31
372.932	422.31
373.158	418.31
373.384	419.31
373.61	407.31
373.835	404.31
374.061	416.31
374.287	416.31
374.513	424.31
374.739	423.31
374.965	417.31
375.191	416.31
375.416	421.31
375.642	407.31
375.868	431.31
376.094	414.31
376.319	405.31
376.545	413.31
376.771	396.31
376.997	415.31
377.222	401.31
377.448	409.31
377.674	421.31
377.899	395.31
378.125	403.31
378.35	389.31
378.576	390.31
378.802	407.31
379.027	397.31
379.253	410.31
379.478	412.31
379.704	424.31
379.929	412.31
380.155	404.31
380.38	412.31
380.606	402.31
380.831	396.31
381.057	427.31
381.282	403.31
381.507	415.31
381.733	428.31
381.958	413.31
382.184	438.31
382.409	432.31
382.634	417.31
382.86	429.31
383.085	420.31
383.31	428.31
383.535	417.31
383.761	442.31
383.986	462.31
384.211	442.31
384.436	438.31
384.662	443.31
384.887	458.31
385.112	430.31
385.337	430.31
385.562	446.31
385.787	459.31
386.013	464.31
386.238	448.31
386.463	469.31
386.688	467.31
386.913	484.31
387.138	457.31
387.363	446.31
387.588	458.31
387.813	450.31
388.038	462.31
388.263	448.31
388.488	459.31
388.713	473.31
388.938	451.31
389.163	468.31
389.387	460.31
389.612	454.31
389.837	441.31
390.062	462.31
390.287	443.31
390.512	460.31
390.736	457.31
390.961	461.31
391.186	467.31
391.411	448.31
391.636	458.31
391.86	488.31
392.085	472.31
392.31	481.31
392.534	502.31
392.759	475.31
392.984	470.31
393.208	456.31
393.433	457.31
393.658	479.31
393.882	455.31
394.107	463.31
394.331	468.31
394.556	471.31
394.78	463.31
395.005	461.31
395.229	471.31
395.454	490.31
395.678	487.31
395.903	474.31
396.127	492.31
396.352	502.31
396.576	488.31
396.801	485.31
397.025	477.31
397.249	483.31
397.474	488.31
397.698	499.31
397.922	515.31
398.147	515.31
398.371	517.31
398.595	511.31
398.82	514.31
399.044	550.31
399.268	570.31
399.492	594.31
399.717	661.31
399.941	668.31
400.165	672.31
400.389	678.31
400.613	611.31
400.837	563.31
401.062	564.31
401.286	552.31
401.51	536.31
401.734	525.31
401.958	527.31
402.182	541.31
402.406	558.31
402.63	554.31
402.854	567.31
403.078	537.31
403.302	549.31
403.526	573.31
403.75	563.31
403.974	554.31
404.198	554.31
404.422	570.31
404.645	584.31
404.869	554.31
405.093	615.31
405.317	621.31
405.541	658.31
405.765	613.31
405.988	559.31
406.212	604.31
406.436	596.31
406.66	610.31
406.883	593.31
407.107	621.31
407.331	630.31
407.555	731.31
407.778	723.31
408.002	674.31
408.226	636.31
408.449	590.31
408.673	604.31
408.896	627.31
409.12	674.31
409.344	624.31
409.567	573.31
409.791	572.31
410.014	554.31
410.238	559.31
410.461	546.31
410.685	564.31
410.908	571.31
411.132	594.31
411.355	640.31
411.578	583.31
411.802	557.31
412.025	547.31
412.249	545.31
412.472	582.31
412.695	625.31
412.919	597.31
413.142	547.31
413.365	556.31
413.589	542.31
413.812	530.31
414.035	535.31
414.258	489.31
414.482	524.31
414.705	509.31
414.928	524.31
415.151	530.31
415.374	518.31
415.597	525.31
415.821	516.31
416.044	515.31
416.267	546.31
416.49	526.31
416.713	482.31
416.936	525.31
417.159	526.31
417.382	517.31
417.605	530.31
417.828	518.31
418.051	557.31
418.274	541.31
418.497	510.31
418.72	521.31
418.943	511.31
419.166	533.31
419.389	574.31
419.611	568.31
419.834	537.31
420.057	549.31
420.28	570.31
420.503	552.31
420.726	519.31
420.948	537.31
421.171	586.31
421.394	635.31
421.617	562.31
421.839	538.31
422.062	539.31
422.285	557.31
422.507	632.31
422.73	652.31
422.953	634.31
423.175	579.31
423.398	554.31
423.621	551.31
423.843	584.31
424.066	578.31
424.288	585.31
424.511	572.31
424.733	636.31
424.956	719.31
425.178	722.31
425.401	674.31
425.623	701.31
425.846	616.31
426.068	560.31
426.291	580.31
426.513	555.31
426.735	578.31
426.958	592.31
427.18	685.31
427.402	801.31
427.625	867.31
427.847	776.31
428.069	660.31
428.292	612.31
428.514	557.31
428.736	527.31
428.958	539.31
429.181	509.31
429.403	517.31
429.625	533.31
429.847	548.31
430.069	604.31
430.292	613.31
430.514	534.31
430.736	520.31
430.958	520.31
431.18	496.31
431.402	489.31
431.624	484.31
431.846	494.31
432.068	507.31
432.29	500.31
432.512	504.31
432.734	505.31
432.956	522.31
433.178	495.31
433.4	513.31
433.622	499.31
433.844	519.31
434.066	524.31
434.287	488.31
434.509	502.31
434.731	519.31
434.953	493.31
435.175	545.31
435.397	563.31
435.618	580.31
435.84	624.31
436.062	672.31
436.284	757.31
436.505	642.31
436.727	581.31
436.949	548.31
437.17	520.31
437.392	521.31
437.614	531.31
437.835	542.31
438.057	628.31
438.278	737.31
438.5	717.31
438.721	836.31
438.943	808.31
439.165	633.31
439.386	572.31
439.608	565.31
439.829	564.31
440.05	583.31
440.272	649.31
440.493	567.31
440.715	548.31
440.936	549.31
441.158	541.31
441.379	519.31
441.6	550.31
441.822	566.31
442.043	605.31
442.264	665.31
442.486	713.31
442.707	624.31
442.928	562.31
443.149	583.31
443.371	612.31
443.592	641.31
443.813	728.31
444.034	792.31
444.255	678.31
444.476	607.31
444.698	619.31
444.919	591.31
445.14	721.31
445.361	643.31
445.582	612.31
445.803	690.31
446.024	765.31
446.245	756.31
446.466	702.31
446.687	597.31
446.908	564.31
447.129	538.31
447.35	515.31
447.571	535.31
447.792	494.31
448.013	555.31
448.234	534.31
448.455	589.31
448.675	656.31
448.896	841.31
449.117	682.31
449.338	633.31
449.559	737.31
449.779	830.31
450	670.31
450.221	574.31
450.442	518.31
450.662	496.31
450.883	500.31
451.104	499.31
451.324	474.31
451.545	477.31
451.766	477.31
451.986	480.31
452.207	463.31
452.428	481.31
452.648	458.31
452.869	459.31
453.089	466.31
453.31	480.31
453.53	473.31
453.751	475.31
453.971	469.31
454.192	473.31
454.412	466.31
454.633	460.31
454.853	443.31
455.073	436.31
455.294	466.31
455.514	536.31
455.734	519.31
455.955	445.31
456.175	456.31
456.395	438.31
456.616	442.31
456.836	443.31
457.056	448.31
457.276	434.31
457.497	451.31
457.717	438.31
457.937	427.31
458.157	447.31
458.377	442.31
458.598	466.31
458.818	500.31
459.038	585.31
459.258	602.31
459.478	532.31
459.698	481.31
459.918	507.31
460.138	491.31
460.358	512.31
460.578	489.31
460.798	532.31
461.018	539.31
461.238	503.31
461.458	498.31
461.678	494.31
461.898	520.31
462.118	521.31
462.338	562.31
462.558	534.31
462.777	565.31
462.997	583.31
463.217	574.31
463.437	588.31
463.657	593.31
463.876	564.31
464.096	563.31
464.316	578.31
464.536	562.31
464.755	556.31
464.975	560.31
465.195	582.31
465.414	583.31
465.634	565.31
465.854	534.31
466.073	515.31
466.293	501.31
466.512	507.31
466.732	465.31
466.951	496.31
467.171	475.31
467.391	501.31
467.61	503.31
467.829	516.31
468.049	480.31
468.268	489.31
468.488	465.31
468.707	460.31
468.927	475.31
469.146	485.31
469.365	468.31
469.585	481.31
469.804	488.31
470.023	475.31
470.243	486.31
470.462	489.31
470.681	501.31
470.901	508.31
471.12	478.31
471.339	464.31
471.558	454.31
471.777	474.31
471.997	488.31
472.216	469.31
472.435	508.31
472.654	487.31
472.873	472.31
473.092	466.31
473.311	482.31
473.53	455.31
473.749	498.31
473.968	530.31
474.187	593.31
474.406	638.31
474.625	496.31
474.844	498.31
475.063	486.31
475.282	474.31
475.501	482.31
475.72	487.31
475.939	510.31
476.158	518.31
476.377	508.31
476.596	487.31
476.814	514.31
477.033	499.31
477.252	516.31
477.471	502.31
477.69	545.31
477.908	540.31
478.127	537.31
478.346	534.31
478.564	541.31
478.783	555.31
479.002	553.31
479.22	590.31
479.439	571.31
479.658	556.31
479.876	577.31
480.095	600.31
480.313	615.31
480.532	630.31
480.751	614.31
480.969	596.31
481.188	618.31
481.406	618.31
481.624	594.31
481.843	576.31
482.061	576.31
482.28	564.31
482.498	560.31
482.717	561.31
482.935	577.31
483.153	567.31
483.372	570.31
483.59	564.31
483.808	542.31
484.027	550.31
484.245	578.31
484.463	568.31
484.681	580.31
484.9	590.31
485.118	568.31
485.336	580.31
485.554	581.31
485.772	579.31
485.99	573.31
486.209	570.31
486.427	572.31
486.645	562.31
486.863	596.31
487.081	579.31
487.299	608.31
487.517	619.31
487.735	595.31
487.953	606.31
488.171	610.31
488.389	591.31
488.607	608.31
488.825	603.31
489.043	592.31
489.261	605.31
489.479	615.31
489.696	607.31
489.914	631.31
490.132	619.31
490.35	636.31
490.568	640.31
490.786	628.31
491.003	639.31
491.221	660.31
491.439	669.31
491.657	678.31
491.874	665.31
492.092	674.31
492.31	702.31
492.527	694.31
492.745	678.31
492.963	700.31
493.18	693.31
493.398	686.31
493.615	686.31
493.833	715.31
494.05	716.31
494.268	703.31
494.485	699.31
494.703	708.31
494.92	726.31
495.138	706.31
495.355	697.31
495.573	705.31
495.79	711.31
496.008	726.31
496.225	713.31
496.442	725.31
496.66	710.31
496.877	716.31
497.094	724.31
497.312	744.31
497.529	729.31
497.746	741.31
497.963	772.31
498.181	762.31
498.398	790.31
498.615	800.31
498.832	834.31
499.049	821.31
499.267	877.31
499.484	903.31
499.701	986.31
499.918	975.31
500.135	1037.31
500.352	1089.31
500.569	1130.31
500.786	1133.31
501.003	1100.31
501.22	1085.31
501.437	1028.31
501.654	964.31
501.871	944.31
