Data from 1976.PennyLincolnUp.Lamp.En5.5.200Scan.071719.P1.Changed Mount._HRD10591_16-00-28-861.txt Node
Date: Thu Jul 18 16:00:28 EDT 2019
User: cochatt
Spectrometer: HR+D1059
Trigger mode: 1
Integration Time (sec): 1.000000E-1
Scans to average: 1
Electric dark correction enabled: true
Nonlinearity correction enabled: false
Boxcar width: 0
XAxis mode: Wavelengths
Number of Pixels in Spectrum: 2048
>>>>>Begin Spectral Data<<<<<
223.165	-5.62
223.4	-5.62
223.635	-5.62
223.869	-9.62
224.104	-24.62
224.338	-23.62
224.573	-23.62
224.808	-8.62
225.042	4.38
225.277	4.38
225.511	15.38
225.746	9.38
225.98	4.38
226.215	3.38
226.449	12.38
226.683	11.38
226.918	12.38
227.152	18.38
227.387	39.38
227.621	34.38
227.856	53.38
228.09	43.38
228.324	60.38
228.559	70.38
228.793	62.38
229.027	96.38
229.262	103.38
229.496	122.38
229.73	139.38
229.964	150.38
230.199	132.38
230.433	115.38
230.667	109.38
230.901	123.38
231.136	103.38
231.37	115.38
231.604	119.38
231.838	110.38
232.072	122.38
232.306	104.38
232.541	115.38
232.775	106.38
233.009	122.38
233.243	127.38
233.477	108.38
233.711	124.38
233.945	123.38
234.179	120.38
234.413	117.38
234.647	126.38
234.881	126.38
235.115	131.38
235.349	134.38
235.583	118.38
235.817	130.38
236.051	123.38
236.285	133.38
236.519	119.38
236.753	122.38
236.987	154.38
237.221	172.38
237.455	214.38
237.689	186.38
237.922	153.38
238.156	134.38
238.39	138.38
238.624	136.38
238.858	142.38
239.091	130.38
239.325	120.38
239.559	133.38
239.793	126.38
240.027	143.38
240.26	149.38
240.494	166.38
240.728	151.38
240.961	141.38
241.195	149.38
241.429	161.38
241.662	146.38
241.896	148.38
242.13	143.38
242.363	146.38
242.597	136.38
242.83	146.38
243.064	143.38
243.298	142.38
243.531	137.38
243.765	142.38
243.998	153.38
244.232	157.38
244.465	159.38
244.699	147.38
244.932	155.38
245.166	132.38
245.399	157.38
245.633	156.38
245.866	158.38
246.099	142.38
246.333	147.38
246.566	163.38
246.8	159.38
247.033	170.38
247.266	156.38
247.5	174.38
247.733	175.38
247.966	175.38
248.2	184.38
248.433	166.38
248.666	170.38
248.899	179.38
249.133	210.38
249.366	198.38
249.599	194.38
249.832	195.38
250.066	181.38
250.299	176.38
250.532	191.38
250.765	202.38
250.998	208.38
251.231	225.38
251.465	207.38
251.698	212.38
251.931	202.38
252.164	203.38
252.397	196.38
252.63	207.38
252.863	202.38
253.096	210.38
253.329	254.38
253.562	223.38
253.795	226.38
254.028	235.38
254.261	217.38
254.494	231.38
254.727	252.38
254.96	276.38
255.193	269.38
255.426	253.38
255.659	240.38
255.892	255.38
256.124	252.38
256.357	231.38
256.59	227.38
256.823	211.38
257.056	206.38
257.289	226.38
257.521	207.38
257.754	216.38
257.987	227.38
258.22	217.38
258.452	221.38
258.685	217.38
258.918	209.38
259.151	215.38
259.383	231.38
259.616	211.38
259.849	212.38
260.081	242.38
260.314	261.38
260.547	267.38
260.779	255.38
261.012	242.38
261.244	236.38
261.477	228.38
261.71	238.38
261.942	236.38
262.175	231.38
262.407	229.38
262.64	207.38
262.872	210.38
263.105	233.38
263.337	210.38
263.57	215.38
263.802	217.38
264.035	219.38
264.267	230.38
264.499	214.38
264.732	217.38
264.964	204.38
265.197	227.38
265.429	206.38
265.661	230.38
265.894	227.38
266.126	232.38
266.358	227.38
266.591	222.38
266.823	234.38
267.055	226.38
267.287	229.38
267.52	227.38
267.752	227.38
267.984	226.38
268.216	242.38
268.448	251.38
268.681	253.38
268.913	259.38
269.145	266.38
269.377	280.38
269.609	288.38
269.841	272.38
270.073	280.38
270.306	292.38
270.538	309.38
270.77	327.38
271.002	307.38
271.234	310.38
271.466	313.38
271.698	308.38
271.93	332.38
272.162	330.38
272.394	328.38
272.626	332.38
272.858	315.38
273.09	290.38
273.322	292.38
273.553	281.38
273.785	283.38
274.017	281.38
274.249	279.38
274.481	279.38
274.713	250.38
274.945	260.38
275.176	262.38
275.408	287.38
275.64	281.38
275.872	285.38
276.104	275.38
276.335	281.38
276.567	270.38
276.799	282.38
277.031	322.38
277.262	305.38
277.494	338.38
277.726	332.38
277.957	299.38
278.189	302.38
278.421	292.38
278.652	280.38
278.884	277.38
279.115	290.38
279.347	287.38
279.579	290.38
279.81	278.38
280.042	279.38
280.273	282.38
280.505	295.38
280.736	298.38
280.968	288.38
281.199	289.38
281.431	270.38
281.662	292.38
281.894	301.38
282.125	294.38
282.356	295.38
282.588	321.38
282.819	312.38
283.051	304.38
283.282	312.38
283.513	290.38
283.745	313.38
283.976	304.38
284.207	299.38
284.439	289.38
284.67	294.38
284.901	291.38
285.132	291.38
285.364	285.38
285.595	287.38
285.826	295.38
286.057	310.38
286.288	292.38
286.52	296.38
286.751	298.38
286.982	314.38
287.213	310.38
287.444	304.38
287.675	332.38
287.906	322.38
288.138	323.38
288.369	345.38
288.6	321.38
288.831	321.38
289.062	324.38
289.293	286.38
289.524	306.38
289.755	315.38
289.986	308.38
290.217	317.38
290.448	326.38
290.679	312.38
290.91	299.38
291.141	308.38
291.371	308.38
291.602	315.38
291.833	311.38
292.064	317.38
292.295	304.38
292.526	307.38
292.757	300.38
292.987	304.38
293.218	319.38
293.449	348.38
293.68	318.38
293.91	306.38
294.141	323.38
294.372	312.38
294.603	329.38
294.833	320.38
295.064	307.38
295.295	298.38
295.525	323.38
295.756	301.38
295.987	331.38
296.217	362.38
296.448	353.38
296.679	320.38
296.909	331.38
297.14	322.38
297.37	312.38
297.601	330.38
297.831	326.38
298.062	340.38
298.292	339.38
298.523	333.38
298.753	324.38
298.984	335.38
299.214	335.38
299.445	349.38
299.675	344.38
299.905	335.38
300.136	340.38
300.366	329.38
300.597	337.38
300.827	320.38
301.057	340.38
301.288	339.38
301.518	352.38
301.748	365.38
301.979	346.38
302.209	361.38
302.439	358.38
302.669	348.38
302.9	358.38
303.13	354.38
303.36	354.38
303.59	358.38
303.82	372.38
304.051	348.38
304.281	352.38
304.511	356.38
304.741	338.38
304.971	343.38
305.201	335.38
305.431	354.38
305.661	368.38
305.891	347.38
306.121	347.38
306.352	365.38
306.582	360.38
306.812	367.38
307.042	354.38
307.272	369.38
307.502	361.38
307.731	377.38
307.961	329.38
308.191	346.38
308.421	342.38
308.651	350.38
308.881	363.38
309.111	362.38
309.341	363.38
309.571	359.38
309.8	365.38
310.03	364.38
310.26	361.38
310.49	378.38
310.72	394.38
310.949	412.38
311.179	403.38
311.409	390.38
311.639	384.38
311.868	384.38
312.098	397.38
312.328	401.38
312.557	390.38
312.787	425.38
313.017	400.38
313.246	410.38
313.476	405.38
313.706	401.38
313.935	421.38
314.165	417.38
314.394	398.38
314.624	406.38
314.853	400.38
315.083	408.38
315.312	383.38
315.542	402.38
315.771	382.38
316.001	378.38
316.23	376.38
316.46	396.38
316.689	401.38
316.919	400.38
317.148	387.38
317.377	409.38
317.607	409.38
317.836	407.38
318.065	386.38
318.295	394.38
318.524	400.38
318.753	389.38
318.983	390.38
319.212	400.38
319.441	407.38
319.67	406.38
319.9	410.38
320.129	394.38
320.358	403.38
320.587	403.38
320.816	393.38
321.046	406.38
321.275	413.38
321.504	398.38
321.733	414.38
321.962	408.38
322.191	427.38
322.42	427.38
322.649	436.38
322.878	458.38
323.108	454.38
323.337	482.38
323.566	488.38
323.795	510.38
324.024	524.38
324.253	592.38
324.482	818.38
324.71	1261.38
324.939	1814.38
325.168	1596.38
325.397	834.38
325.626	588.38
325.855	517.38
326.084	494.38
326.313	471.38
326.542	460.38
326.77	506.38
326.999	564.38
327.228	774.38
327.457	1149.38
327.686	1398.38
327.914	954.38
328.143	649.38
328.372	574.38
328.6	549.38
328.829	526.38
329.058	549.38
329.287	562.38
329.515	532.38
329.744	516.38
329.972	500.38
330.201	514.38
330.43	556.38
330.658	566.38
330.887	570.38
331.115	557.38
331.344	511.38
331.572	511.38
331.801	504.38
332.03	490.38
332.258	479.38
332.486	476.38
332.715	482.38
332.943	480.38
333.172	490.38
333.4	494.38
333.629	488.38
333.857	493.38
334.085	528.38
334.314	534.38
334.542	550.38
334.771	554.38
334.999	524.38
335.227	483.38
335.455	494.38
335.684	471.38
335.912	474.38
336.14	467.38
336.369	454.38
336.597	465.38
336.825	473.38
337.053	459.38
337.281	471.38
337.51	464.38
337.738	462.38
337.966	467.38
338.194	463.38
338.422	474.38
338.65	453.38
338.878	458.38
339.106	450.38
339.334	453.38
339.562	446.38
339.79	426.38
340.018	450.38
340.246	457.38
340.474	459.38
340.702	449.38
340.93	453.38
341.158	449.38
341.386	433.38
341.614	436.38
341.842	470.38
342.07	460.38
342.298	431.38
342.526	435.38
342.754	432.38
342.981	432.38
343.209	448.38
343.437	456.38
343.665	470.38
343.893	468.38
344.12	469.38
344.348	466.38
344.576	471.38
344.804	462.38
345.031	455.38
345.259	451.38
345.487	445.38
345.714	459.38
345.942	457.38
346.17	442.38
346.397	430.38
346.625	435.38
346.853	410.38
347.08	430.38
347.308	444.38
347.535	447.38
347.763	454.38
347.99	439.38
348.218	422.38
348.445	440.38
348.673	429.38
348.9	427.38
349.128	447.38
349.355	428.38
349.583	436.38
349.81	416.38
350.037	430.38
350.265	419.38
350.492	434.38
350.72	420.38
350.947	441.38
351.174	451.38
351.402	440.38
351.629	435.38
351.856	422.38
352.083	436.38
352.311	449.38
352.538	458.38
352.765	446.38
352.992	442.38
353.22	426.38
353.447	425.38
353.674	434.38
353.901	413.38
354.128	423.38
354.355	407.38
354.583	428.38
354.81	410.38
355.037	416.38
355.264	402.38
355.491	398.38
355.718	403.38
355.945	385.38
356.172	422.38
356.399	413.38
356.626	386.38
356.853	418.38
357.08	391.38
357.307	430.38
357.534	402.38
357.761	410.38
357.988	415.38
358.215	415.38
358.441	409.38
358.668	416.38
358.895	402.38
359.122	419.38
359.349	425.38
359.576	438.38
359.802	434.38
360.029	470.38
360.256	476.38
360.483	449.38
360.709	435.38
360.936	415.38
361.163	428.38
361.39	440.38
361.616	441.38
361.843	453.38
362.07	416.38
362.296	426.38
362.523	435.38
362.749	440.38
362.976	427.38
363.203	396.38
363.429	417.38
363.656	404.38
363.882	418.38
364.109	420.38
364.335	413.38
364.562	403.38
364.788	403.38
365.015	391.38
365.241	427.38
365.468	424.38
365.694	422.38
365.92	403.38
366.147	396.38
366.373	420.38
366.599	418.38
366.826	416.38
367.052	415.38
367.278	415.38
367.505	417.38
367.731	403.38
367.957	401.38
368.184	408.38
368.41	438.38
368.636	435.38
368.862	431.38
369.089	425.38
369.315	435.38
369.541	427.38
369.767	422.38
369.993	403.38
370.219	430.38
370.445	410.38
370.672	411.38
370.898	424.38
371.124	425.38
371.35	411.38
371.576	413.38
371.802	426.38
372.028	411.38
372.254	430.38
372.48	428.38
372.706	427.38
372.932	446.38
373.158	428.38
373.384	431.38
373.61	444.38
373.835	435.38
374.061	425.38
374.287	448.38
374.513	446.38
374.739	426.38
374.965	445.38
375.191	450.38
375.416	448.38
375.642	445.38
375.868	413.38
376.094	426.38
376.319	404.38
376.545	423.38
376.771	420.38
376.997	414.38
377.222	420.38
377.448	422.38
377.674	417.38
377.899	430.38
378.125	412.38
378.35	423.38
378.576	412.38
378.802	402.38
379.027	446.38
379.253	447.38
379.478	416.38
379.704	435.38
379.929	421.38
380.155	433.38
380.38	434.38
380.606	441.38
380.831	422.38
381.057	426.38
381.282	415.38
381.507	433.38
381.733	426.38
381.958	456.38
382.184	442.38
382.409	441.38
382.634	439.38
382.86	448.38
383.085	430.38
383.31	418.38
383.535	438.38
383.761	448.38
383.986	443.38
384.211	442.38
384.436	459.38
384.662	465.38
384.887	466.38
385.112	458.38
385.337	456.38
385.562	451.38
385.787	459.38
386.013	475.38
386.238	498.38
386.463	486.38
386.688	490.38
386.913	475.38
387.138	460.38
387.363	467.38
387.588	470.38
387.813	485.38
388.038	481.38
388.263	483.38
388.488	477.38
388.713	468.38
388.938	464.38
389.163	482.38
389.387	471.38
389.612	453.38
389.837	463.38
390.062	476.38
390.287	487.38
390.512	459.38
390.736	474.38
390.961	461.38
391.186	474.38
391.411	489.38
391.636	477.38
391.86	479.38
392.085	481.38
392.31	484.38
392.534	491.38
392.759	484.38
392.984	464.38
393.208	465.38
393.433	468.38
393.658	472.38
393.882	473.38
394.107	473.38
394.331	479.38
394.556	471.38
394.78	461.38
395.005	489.38
395.229	483.38
395.454	503.38
395.678	517.38
395.903	517.38
396.127	495.38
396.352	534.38
396.576	488.38
396.801	503.38
397.025	496.38
397.249	502.38
397.474	510.38
397.698	527.38
397.922	528.38
398.147	507.38
398.371	538.38
398.595	527.38
398.82	534.38
399.044	582.38
399.268	568.38
399.492	618.38
399.717	673.38
399.941	688.38
400.165	696.38
400.389	686.38
400.613	599.38
400.837	577.38
401.062	556.38
401.286	513.38
401.51	539.38
401.734	541.38
401.958	546.38
402.182	552.38
402.406	545.38
402.63	546.38
402.854	552.38
403.078	550.38
403.302	583.38
403.526	564.38
403.75	578.38
403.974	577.38
404.198	593.38
404.422	579.38
404.645	585.38
404.869	571.38
405.093	595.38
405.317	641.38
405.541	676.38
405.765	617.38
405.988	597.38
406.212	601.38
406.436	616.38
406.66	632.38
406.883	619.38
407.107	610.38
407.331	683.38
407.555	771.38
407.778	760.38
408.002	658.38
408.226	639.38
408.449	642.38
408.673	616.38
408.896	654.38
409.12	705.38
409.344	669.38
409.567	578.38
409.791	589.38
410.014	550.38
410.238	574.38
410.461	552.38
410.685	579.38
410.908	618.38
411.132	620.38
411.355	640.38
411.578	605.38
411.802	598.38
412.025	569.38
412.249	565.38
412.472	617.38
412.695	642.38
412.919	603.38
413.142	576.38
413.365	550.38
413.589	558.38
413.812	558.38
414.035	537.38
414.258	544.38
414.482	528.38
414.705	553.38
414.928	538.38
415.151	553.38
415.374	533.38
415.597	550.38
415.821	530.38
416.044	542.38
416.267	542.38
416.49	530.38
416.713	551.38
416.936	521.38
417.159	531.38
417.382	542.38
417.605	553.38
417.828	561.38
418.051	579.38
418.274	573.38
418.497	544.38
418.72	544.38
418.943	507.38
419.166	542.38
419.389	580.38
419.611	604.38
419.834	556.38
420.057	552.38
420.28	569.38
420.503	551.38
420.726	553.38
420.948	587.38
421.171	598.38
421.394	628.38
421.617	566.38
421.839	577.38
422.062	555.38
422.285	594.38
422.507	626.38
422.73	698.38
422.953	659.38
423.175	613.38
423.398	586.38
423.621	589.38
423.843	605.38
424.066	612.38
424.288	573.38
424.511	605.38
424.733	667.38
424.956	740.38
425.178	708.38
425.401	708.38
425.623	729.38
425.846	625.38
426.068	607.38
426.291	571.38
426.513	590.38
426.735	591.38
426.958	604.38
427.18	715.38
427.402	872.38
427.625	936.38
427.847	763.38
428.069	668.38
428.292	615.38
428.514	578.38
428.736	547.38
428.958	564.38
429.181	544.38
429.403	541.38
429.625	544.38
429.847	566.38
430.069	646.38
430.292	639.38
430.514	547.38
430.736	539.38
430.958	541.38
431.18	509.38
431.402	528.38
431.624	482.38
431.846	518.38
432.068	524.38
432.29	520.38
432.512	508.38
432.734	512.38
432.956	519.38
433.178	498.38
433.4	533.38
433.622	528.38
433.844	532.38
434.066	513.38
434.287	514.38
434.509	530.38
434.731	541.38
434.953	576.38
435.175	584.38
435.397	586.38
435.618	583.38
435.84	623.38
436.062	694.38
436.284	775.38
436.505	647.38
436.727	594.38
436.949	566.38
437.17	558.38
437.392	510.38
437.614	556.38
437.835	570.38
438.057	657.38
438.278	759.38
438.5	752.38
438.721	849.38
438.943	786.38
439.165	638.38
439.386	596.38
439.608	606.38
439.829	580.38
440.05	596.38
440.272	638.38
440.493	605.38
440.715	578.38
440.936	564.38
441.158	544.38
441.379	582.38
441.6	569.38
441.822	608.38
442.043	634.38
442.264	720.38
442.486	762.38
442.707	630.38
442.928	581.38
443.149	571.38
443.371	593.38
443.592	655.38
443.813	747.38
444.034	810.38
444.255	664.38
444.476	640.38
444.698	617.38
444.919	598.38
445.14	741.38
445.361	675.38
445.582	656.38
445.803	674.38
446.024	748.38
446.245	810.38
446.466	699.38
446.687	611.38
446.908	582.38
447.129	553.38
447.35	551.38
447.571	538.38
447.792	524.38
448.013	525.38
448.234	564.38
448.455	572.38
448.675	694.38
448.896	810.38
449.117	691.38
449.338	659.38
449.559	753.38
449.779	862.38
450	698.38
450.221	579.38
450.442	520.38
450.662	545.38
450.883	512.38
451.104	540.38
451.324	522.38
451.545	491.38
451.766	488.38
451.986	469.38
452.207	463.38
452.428	460.38
452.648	475.38
452.869	488.38
453.089	498.38
453.31	490.38
453.53	498.38
453.751	481.38
453.971	507.38
454.192	508.38
454.412	489.38
454.633	470.38
454.853	472.38
455.073	471.38
455.294	514.38
455.514	565.38
455.734	529.38
455.955	462.38
456.175	448.38
456.395	440.38
456.616	456.38
456.836	468.38
457.056	444.38
457.276	440.38
457.497	465.38
457.717	432.38
457.937	462.38
458.157	469.38
458.377	455.38
458.598	479.38
458.818	530.38
459.038	579.38
459.258	644.38
459.478	543.38
459.698	550.38
459.918	514.38
460.138	532.38
460.358	541.38
460.578	539.38
460.798	515.38
461.018	523.38
461.238	525.38
461.458	543.38
461.678	522.38
461.898	566.38
462.118	553.38
462.338	548.38
462.558	564.38
462.777	584.38
462.997	604.38
463.217	622.38
463.437	612.38
463.657	605.38
463.876	581.38
464.096	591.38
464.316	608.38
464.536	583.38
464.755	602.38
464.975	577.38
465.195	590.38
465.414	642.38
465.634	598.38
465.854	558.38
466.073	516.38
466.293	512.38
466.512	501.38
466.732	498.38
466.951	495.38
467.171	483.38
467.391	510.38
467.61	492.38
467.829	507.38
468.049	493.38
468.268	472.38
468.488	495.38
468.707	490.38
468.927	463.38
469.146	486.38
469.365	504.38
469.585	474.38
469.804	491.38
470.023	503.38
470.243	515.38
470.462	519.38
470.681	521.38
470.901	512.38
471.12	498.38
471.339	485.38
471.558	492.38
471.777	497.38
471.997	492.38
472.216	499.38
472.435	521.38
472.654	501.38
472.873	474.38
473.092	506.38
473.311	499.38
473.53	492.38
473.749	514.38
473.968	548.38
474.187	626.38
474.406	649.38
474.625	559.38
474.844	513.38
475.063	505.38
475.282	510.38
475.501	509.38
475.72	506.38
475.939	510.38
476.158	542.38
476.377	515.38
476.596	504.38
476.814	520.38
477.033	497.38
477.252	521.38
477.471	536.38
477.69	540.38
477.908	529.38
478.127	542.38
478.346	550.38
478.564	558.38
478.783	579.38
479.002	572.38
479.22	568.38
479.439	592.38
479.658	577.38
479.876	580.38
480.095	596.38
480.313	648.38
480.532	644.38
480.751	616.38
480.969	629.38
481.188	688.38
481.406	668.38
481.624	648.38
481.843	585.38
482.061	596.38
482.28	598.38
482.498	571.38
482.717	573.38
482.935	586.38
483.153	563.38
483.372	558.38
483.59	564.38
483.808	572.38
484.027	590.38
484.245	600.38
484.463	598.38
484.681	603.38
484.9	609.38
485.118	601.38
485.336	610.38
485.554	607.38
485.772	578.38
485.99	592.38
486.209	617.38
486.427	591.38
486.645	586.38
486.863	640.38
487.081	599.38
487.299	636.38
487.517	607.38
487.735	624.38
487.953	617.38
488.171	625.38
488.389	641.38
488.607	607.38
488.825	623.38
489.043	623.38
489.261	647.38
489.479	600.38
489.696	622.38
489.914	613.38
490.132	633.38
490.35	635.38
490.568	660.38
490.786	654.38
491.003	663.38
491.221	674.38
491.439	699.38
491.657	673.38
491.874	714.38
492.092	692.38
492.31	706.38
492.527	702.38
492.745	729.38
492.963	728.38
493.18	723.38
493.398	726.38
493.615	750.38
493.833	734.38
494.05	724.38
494.268	720.38
494.485	741.38
494.703	723.38
494.92	742.38
495.138	707.38
495.355	728.38
495.573	729.38
495.79	707.38
496.008	747.38
496.225	740.38
496.442	742.38
496.66	738.38
496.877	737.38
497.094	728.38
497.312	730.38
497.529	761.38
497.746	777.38
497.963	781.38
498.181	803.38
498.398	814.38
498.615	828.38
498.832	853.38
499.049	884.38
499.267	892.38
499.484	952.38
499.701	956.38
499.918	1032.38
500.135	1104.38
500.352	1153.38
500.569	1194.38
500.786	1182.38
501.003	1155.38
501.22	1119.38
501.437	1056.38
501.654	996.38
