Data from 1976.PennyLincolnUp.Lamp.En5.5.200Scan.071719.P1.Changed Mount._HRD10591_16-00-38-861.txt Node
Date: Thu Jul 18 16:00:38 EDT 2019
User: cochatt
Spectrometer: HR+D1059
Trigger mode: 1
Integration Time (sec): 1.000000E-1
Scans to average: 1
Electric dark correction enabled: true
Nonlinearity correction enabled: false
Boxcar width: 0
XAxis mode: Wavelengths
Number of Pixels in Spectrum: 2048
>>>>>Begin Spectral Data<<<<<
223.165	-18.06
223.4	-18.06
223.635	-18.06
223.869	-17.06
224.104	-29.06
224.338	-27.06
224.573	-9.06
224.808	-18.06
225.042	-8.06
225.277	-3.06
225.511	-8.06
225.746	1.94
225.98	14.94
226.215	9.94
226.449	16.94
226.683	29.94
226.918	22.94
227.152	40.94
227.387	30.94
227.621	33.94
227.856	48.94
228.09	36.94
228.324	36.94
228.559	52.94
228.793	75.94
229.027	95.94
229.262	98.94
229.496	106.94
229.73	124.94
229.964	151.94
230.199	127.94
230.433	109.94
230.667	122.94
230.901	113.94
231.136	99.94
231.37	112.94
231.604	114.94
231.838	103.94
232.072	109.94
232.306	111.94
232.541	119.94
232.775	112.94
233.009	113.94
233.243	125.94
233.477	123.94
233.711	118.94
233.945	107.94
234.179	121.94
234.413	119.94
234.647	108.94
234.881	113.94
235.115	131.94
235.349	118.94
235.583	117.94
235.817	124.94
236.051	120.94
236.285	120.94
236.519	134.94
236.753	106.94
236.987	131.94
237.221	178.94
237.455	239.94
237.689	179.94
237.922	149.94
238.156	129.94
238.39	138.94
238.624	124.94
238.858	130.94
239.091	127.94
239.325	137.94
239.559	127.94
239.793	134.94
240.027	131.94
240.26	142.94
240.494	165.94
240.728	155.94
240.961	149.94
241.195	123.94
241.429	145.94
241.662	131.94
241.896	132.94
242.13	135.94
242.363	131.94
242.597	136.94
242.83	140.94
243.064	140.94
243.298	135.94
243.531	138.94
243.765	140.94
243.998	142.94
244.232	153.94
244.465	148.94
244.699	152.94
244.932	147.94
245.166	147.94
245.399	149.94
245.633	132.94
245.866	146.94
246.099	159.94
246.333	149.94
246.566	155.94
246.8	149.94
247.033	164.94
247.266	172.94
247.5	156.94
247.733	164.94
247.966	162.94
248.2	158.94
248.433	163.94
248.666	175.94
248.899	189.94
249.133	194.94
249.366	187.94
249.599	196.94
249.832	169.94
250.066	172.94
250.299	169.94
250.532	200.94
250.765	199.94
250.998	204.94
251.231	227.94
251.465	208.94
251.698	204.94
251.931	209.94
252.164	208.94
252.397	195.94
252.63	193.94
252.863	193.94
253.096	214.94
253.329	233.94
253.562	235.94
253.795	219.94
254.028	225.94
254.261	211.94
254.494	203.94
254.727	251.94
254.96	271.94
255.193	265.94
255.426	243.94
255.659	225.94
255.892	231.94
256.124	246.94
256.357	257.94
256.59	241.94
256.823	232.94
257.056	207.94
257.289	208.94
257.521	203.94
257.754	212.94
257.987	197.94
258.22	212.94
258.452	212.94
258.685	211.94
258.918	209.94
259.151	227.94
259.383	212.94
259.616	222.94
259.849	236.94
260.081	241.94
260.314	258.94
260.547	263.94
260.779	257.94
261.012	224.94
261.244	232.94
261.477	246.94
261.71	223.94
261.942	229.94
262.175	233.94
262.407	230.94
262.64	226.94
262.872	220.94
263.105	195.94
263.337	225.94
263.57	232.94
263.802	209.94
264.035	217.94
264.267	205.94
264.499	231.94
264.732	223.94
264.964	212.94
265.197	225.94
265.429	224.94
265.661	218.94
265.894	233.94
266.126	220.94
266.358	227.94
266.591	231.94
266.823	242.94
267.055	239.94
267.287	244.94
267.52	229.94
267.752	231.94
267.984	241.94
268.216	245.94
268.448	248.94
268.681	259.94
268.913	273.94
269.145	264.94
269.377	269.94
269.609	270.94
269.841	273.94
270.073	274.94
270.306	295.94
270.538	323.94
270.77	340.94
271.002	291.94
271.234	296.94
271.466	295.94
271.698	306.94
271.93	321.94
272.162	334.94
272.394	322.94
272.626	319.94
272.858	292.94
273.09	303.94
273.322	274.94
273.553	260.94
273.785	260.94
274.017	274.94
274.249	282.94
274.481	288.94
274.713	287.94
274.945	284.94
275.176	284.94
275.408	292.94
275.64	282.94
275.872	269.94
276.104	269.94
276.335	277.94
276.567	290.94
276.799	322.94
277.031	311.94
277.262	328.94
277.494	319.94
277.726	319.94
277.957	298.94
278.189	287.94
278.421	263.94
278.652	288.94
278.884	300.94
279.115	278.94
279.347	279.94
279.579	283.94
279.81	270.94
280.042	290.94
280.273	282.94
280.505	276.94
280.736	292.94
280.968	264.94
281.199	282.94
281.431	274.94
281.662	290.94
281.894	287.94
282.125	287.94
282.356	312.94
282.588	315.94
282.819	316.94
283.051	287.94
283.282	278.94
283.513	296.94
283.745	281.94
283.976	290.94
284.207	305.94
284.439	296.94
284.67	305.94
284.901	285.94
285.132	306.94
285.364	277.94
285.595	312.94
285.826	298.94
286.057	307.94
286.288	289.94
286.52	296.94
286.751	297.94
286.982	305.94
287.213	297.94
287.444	315.94
287.675	316.94
287.906	300.94
288.138	329.94
288.369	313.94
288.6	320.94
288.831	312.94
289.062	326.94
289.293	322.94
289.524	324.94
289.755	299.94
289.986	317.94
290.217	294.94
290.448	291.94
290.679	307.94
290.91	316.94
291.141	319.94
291.371	325.94
291.602	320.94
291.833	303.94
292.064	312.94
292.295	317.94
292.526	304.94
292.757	324.94
292.987	309.94
293.218	312.94
293.449	314.94
293.68	314.94
293.91	324.94
294.141	313.94
294.372	305.94
294.603	315.94
294.833	319.94
295.064	316.94
295.295	308.94
295.525	310.94
295.756	313.94
295.987	339.94
296.217	348.94
296.448	329.94
296.679	323.94
296.909	299.94
297.14	315.94
297.37	329.94
297.601	331.94
297.831	313.94
298.062	328.94
298.292	331.94
298.523	317.94
298.753	345.94
298.984	328.94
299.214	320.94
299.445	345.94
299.675	333.94
299.905	340.94
300.136	340.94
300.366	331.94
300.597	320.94
300.827	328.94
301.057	344.94
301.288	341.94
301.518	353.94
301.748	343.94
301.979	340.94
302.209	363.94
302.439	335.94
302.669	358.94
302.9	355.94
303.13	331.94
303.36	360.94
303.59	345.94
303.82	370.94
304.051	357.94
304.281	350.94
304.511	343.94
304.741	369.94
304.971	346.94
305.201	343.94
305.431	354.94
305.661	348.94
305.891	328.94
306.121	361.94
306.352	357.94
306.582	359.94
306.812	349.94
307.042	336.94
307.272	364.94
307.502	359.94
307.731	369.94
307.961	367.94
308.191	341.94
308.421	334.94
308.651	349.94
308.881	388.94
309.111	356.94
309.341	351.94
309.571	383.94
309.8	388.94
310.03	393.94
310.26	396.94
310.49	393.94
310.72	394.94
310.949	396.94
311.179	418.94
311.409	387.94
311.639	407.94
311.868	405.94
312.098	409.94
312.328	415.94
312.557	408.94
312.787	433.94
313.017	401.94
313.246	409.94
313.476	411.94
313.706	388.94
313.935	403.94
314.165	403.94
314.394	424.94
314.624	416.94
314.853	399.94
315.083	376.94
315.312	384.94
315.542	409.94
315.771	374.94
316.001	377.94
316.23	416.94
316.46	404.94
316.689	375.94
316.919	417.94
317.148	409.94
317.377	419.94
317.607	404.94
317.836	403.94
318.065	410.94
318.295	398.94
318.524	387.94
318.753	378.94
318.983	385.94
319.212	389.94
319.441	403.94
319.67	412.94
319.9	388.94
320.129	407.94
320.358	411.94
320.587	398.94
320.816	406.94
321.046	417.94
321.275	425.94
321.504	433.94
321.733	416.94
321.962	408.94
322.191	425.94
322.42	416.94
322.649	436.94
322.878	439.94
323.108	443.94
323.337	468.94
323.566	479.94
323.795	500.94
324.024	556.94
324.253	619.94
324.482	867.94
324.71	1318.94
324.939	1894.94
325.168	1625.94
325.397	839.94
325.626	572.94
325.855	531.94
326.084	478.94
326.313	485.94
326.542	496.94
326.77	516.94
326.999	616.94
327.228	772.94
327.457	1171.94
327.686	1461.94
327.914	1002.94
328.143	691.94
328.372	594.94
328.6	585.94
328.829	556.94
329.058	537.94
329.287	557.94
329.515	527.94
329.744	524.94
329.972	520.94
330.201	519.94
330.43	544.94
330.658	565.94
330.887	575.94
331.115	564.94
331.344	507.94
331.572	459.94
331.801	485.94
332.03	475.94
332.258	481.94
332.486	481.94
332.715	468.94
332.943	500.94
333.172	477.94
333.4	479.94
333.629	511.94
333.857	495.94
334.085	529.94
334.314	516.94
334.542	563.94
334.771	566.94
334.999	538.94
335.227	505.94
335.455	507.94
335.684	505.94
335.912	495.94
336.14	473.94
336.369	480.94
336.597	486.94
336.825	472.94
337.053	482.94
337.281	461.94
337.51	443.94
337.738	469.94
337.966	464.94
338.194	449.94
338.422	474.94
338.65	469.94
338.878	452.94
339.106	461.94
339.334	463.94
339.562	427.94
339.79	446.94
340.018	471.94
340.246	453.94
340.474	448.94
340.702	453.94
340.93	448.94
341.158	446.94
341.386	462.94
341.614	472.94
341.842	439.94
342.07	450.94
342.298	451.94
342.526	401.94
342.754	444.94
342.981	416.94
343.209	439.94
343.437	453.94
343.665	467.94
343.893	446.94
344.12	469.94
344.348	485.94
344.576	459.94
344.804	482.94
345.031	459.94
345.259	480.94
345.487	447.94
345.714	451.94
345.942	420.94
346.17	445.94
346.397	427.94
346.625	448.94
346.853	421.94
347.08	422.94
347.308	452.94
347.535	437.94
347.763	440.94
347.99	433.94
348.218	434.94
348.445	449.94
348.673	415.94
348.9	439.94
349.128	427.94
349.355	411.94
349.583	435.94
349.81	423.94
350.037	411.94
350.265	424.94
350.492	405.94
350.72	414.94
350.947	432.94
351.174	419.94
351.402	427.94
351.629	436.94
351.856	431.94
352.083	428.94
352.311	441.94
352.538	454.94
352.765	435.94
352.992	424.94
353.22	423.94
353.447	428.94
353.674	426.94
353.901	422.94
354.128	413.94
354.355	420.94
354.583	411.94
354.81	424.94
355.037	405.94
355.264	403.94
355.491	401.94
355.718	382.94
355.945	412.94
356.172	400.94
356.399	403.94
356.626	404.94
356.853	413.94
357.08	412.94
357.307	401.94
357.534	410.94
357.761	412.94
357.988	401.94
358.215	407.94
358.441	412.94
358.668	421.94
358.895	417.94
359.122	411.94
359.349	425.94
359.576	439.94
359.802	456.94
360.029	455.94
360.256	447.94
360.483	453.94
360.709	416.94
360.936	435.94
361.163	421.94
361.39	426.94
361.616	448.94
361.843	440.94
362.07	440.94
362.296	429.94
362.523	449.94
362.749	425.94
362.976	422.94
363.203	441.94
363.429	421.94
363.656	395.94
363.882	408.94
364.109	424.94
364.335	381.94
364.562	423.94
364.788	405.94
365.015	417.94
365.241	425.94
365.468	424.94
365.694	407.94
365.92	428.94
366.147	432.94
366.373	407.94
366.599	413.94
366.826	401.94
367.052	412.94
367.278	395.94
367.505	408.94
367.731	417.94
367.957	425.94
368.184	401.94
368.41	410.94
368.636	411.94
368.862	420.94
369.089	444.94
369.315	411.94
369.541	415.94
369.767	424.94
369.993	415.94
370.219	417.94
370.445	410.94
370.672	398.94
370.898	427.94
371.124	419.94
371.35	416.94
371.576	422.94
371.802	424.94
372.028	440.94
372.254	441.94
372.48	397.94
372.706	407.94
372.932	425.94
373.158	419.94
373.384	422.94
373.61	433.94
373.835	429.94
374.061	445.94
374.287	437.94
374.513	444.94
374.739	448.94
374.965	441.94
375.191	446.94
375.416	424.94
375.642	433.94
375.868	438.94
376.094	445.94
376.319	437.94
376.545	427.94
376.771	439.94
376.997	413.94
377.222	403.94
377.448	419.94
377.674	410.94
377.899	412.94
378.125	427.94
378.35	419.94
378.576	416.94
378.802	393.94
379.027	435.94
379.253	415.94
379.478	416.94
379.704	420.94
379.929	421.94
380.155	415.94
380.38	402.94
380.606	437.94
380.831	441.94
381.057	433.94
381.282	425.94
381.507	429.94
381.733	427.94
381.958	418.94
382.184	444.94
382.409	437.94
382.634	422.94
382.86	458.94
383.085	447.94
383.31	461.94
383.535	442.94
383.761	457.94
383.986	451.94
384.211	445.94
384.436	451.94
384.662	453.94
384.887	470.94
385.112	459.94
385.337	454.94
385.562	464.94
385.787	479.94
386.013	479.94
386.238	462.94
386.463	469.94
386.688	475.94
386.913	459.94
387.138	486.94
387.363	490.94
387.588	451.94
387.813	492.94
388.038	470.94
388.263	476.94
388.488	468.94
388.713	484.94
388.938	448.94
389.163	471.94
389.387	484.94
389.612	457.94
389.837	471.94
390.062	461.94
390.287	459.94
390.512	480.94
390.736	478.94
390.961	487.94
391.186	467.94
391.411	472.94
391.636	469.94
391.86	487.94
392.085	456.94
392.31	485.94
392.534	482.94
392.759	490.94
392.984	476.94
393.208	466.94
393.433	468.94
393.658	464.94
393.882	471.94
394.107	484.94
394.331	479.94
394.556	451.94
394.78	485.94
395.005	467.94
395.229	453.94
395.454	497.94
395.678	496.94
395.903	504.94
396.127	525.94
396.352	534.94
396.576	495.94
396.801	483.94
397.025	496.94
397.249	488.94
397.474	513.94
397.698	513.94
397.922	519.94
398.147	524.94
398.371	571.94
398.595	544.94
398.82	571.94
399.044	569.94
399.268	581.94
399.492	611.94
399.717	654.94
399.941	685.94
400.165	701.94
400.389	689.94
400.613	629.94
400.837	577.94
401.062	551.94
401.286	549.94
401.51	567.94
401.734	562.94
401.958	570.94
402.182	553.94
402.406	541.94
402.63	555.94
402.854	572.94
403.078	541.94
403.302	572.94
403.526	577.94
403.75	565.94
403.974	586.94
404.198	580.94
404.422	584.94
404.645	578.94
404.869	577.94
405.093	630.94
405.317	647.94
405.541	684.94
405.765	615.94
405.988	594.94
406.212	622.94
406.436	599.94
406.66	632.94
406.883	629.94
407.107	646.94
407.331	693.94
407.555	761.94
407.778	746.94
408.002	680.94
408.226	630.94
408.449	614.94
408.673	633.94
408.896	644.94
409.12	685.94
409.344	639.94
409.567	624.94
409.791	584.94
410.014	586.94
410.238	578.94
410.461	564.94
410.685	575.94
410.908	576.94
411.132	635.94
411.355	644.94
411.578	633.94
411.802	582.94
412.025	553.94
412.249	589.94
412.472	608.94
412.695	610.94
412.919	617.94
413.142	567.94
413.365	539.94
413.589	564.94
413.812	540.94
414.035	523.94
414.258	565.94
414.482	545.94
414.705	530.94
414.928	533.94
415.151	535.94
415.374	552.94
415.597	529.94
415.821	564.94
416.044	518.94
416.267	541.94
416.49	537.94
416.713	536.94
416.936	547.94
417.159	538.94
417.382	534.94
417.605	528.94
417.828	542.94
418.051	560.94
418.274	560.94
418.497	541.94
418.72	531.94
418.943	538.94
419.166	560.94
419.389	585.94
419.611	564.94
419.834	568.94
420.057	575.94
420.28	578.94
420.503	562.94
420.726	575.94
420.948	575.94
421.171	584.94
421.394	641.94
421.617	596.94
421.839	560.94
422.062	564.94
422.285	561.94
422.507	617.94
422.73	710.94
422.953	695.94
423.175	603.94
423.398	591.94
423.621	586.94
423.843	595.94
424.066	599.94
424.288	591.94
424.511	603.94
424.733	668.94
424.956	767.94
425.178	696.94
425.401	717.94
425.623	739.94
425.846	639.94
426.068	577.94
426.291	577.94
426.513	567.94
426.735	578.94
426.958	616.94
427.18	709.94
427.402	847.94
427.625	907.94
427.847	781.94
428.069	691.94
428.292	631.94
428.514	583.94
428.736	575.94
428.958	548.94
429.181	548.94
429.403	560.94
429.625	541.94
429.847	574.94
430.069	659.94
430.292	652.94
430.514	559.94
430.736	543.94
430.958	535.94
431.18	518.94
431.402	527.94
431.624	514.94
431.846	496.94
432.068	492.94
432.29	503.94
432.512	538.94
432.734	529.94
432.956	545.94
433.178	518.94
433.4	523.94
433.622	531.94
433.844	546.94
434.066	515.94
434.287	509.94
434.509	532.94
434.731	535.94
434.953	552.94
435.175	564.94
435.397	595.94
435.618	589.94
435.84	601.94
436.062	710.94
436.284	756.94
436.505	667.94
436.727	609.94
436.949	570.94
437.17	544.94
437.392	540.94
437.614	552.94
437.835	577.94
438.057	650.94
438.278	774.94
438.5	748.94
438.721	861.94
438.943	810.94
439.165	643.94
439.386	610.94
439.608	593.94
439.829	566.94
440.05	623.94
440.272	637.94
440.493	630.94
440.715	556.94
440.936	557.94
441.158	540.94
441.379	553.94
441.6	548.94
441.822	593.94
442.043	625.94
442.264	709.94
442.486	745.94
442.707	626.94
442.928	583.94
443.149	609.94
443.371	650.94
443.592	640.94
443.813	767.94
444.034	826.94
444.255	692.94
444.476	623.94
444.698	631.94
444.919	609.94
445.14	732.94
445.361	665.94
445.582	645.94
445.803	672.94
446.024	779.94
446.245	777.94
446.466	713.94
446.687	630.94
446.908	584.94
447.129	567.94
447.35	544.94
447.571	547.94
447.792	517.94
448.013	525.94
448.234	544.94
448.455	608.94
448.675	721.94
448.896	832.94
449.117	708.94
449.338	634.94
449.559	757.94
449.779	887.94
450	709.94
450.221	586.94
450.442	529.94
450.662	514.94
450.883	529.94
451.104	529.94
451.324	512.94
451.545	507.94
451.766	490.94
451.986	486.94
452.207	501.94
452.428	463.94
452.648	477.94
452.869	477.94
453.089	479.94
453.31	480.94
453.53	482.94
453.751	489.94
453.971	473.94
454.192	508.94
454.412	495.94
454.633	466.94
454.853	451.94
455.073	449.94
455.294	497.94
455.514	567.94
455.734	549.94
455.955	458.94
456.175	458.94
456.395	443.94
456.616	459.94
456.836	458.94
457.056	462.94
457.276	457.94
457.497	439.94
457.717	452.94
457.937	463.94
458.157	460.94
458.377	466.94
458.598	497.94
458.818	525.94
459.038	604.94
459.258	623.94
459.478	552.94
459.698	505.94
459.918	529.94
460.138	521.94
460.358	549.94
460.578	531.94
460.798	540.94
461.018	573.94
461.238	556.94
461.458	557.94
461.678	565.94
461.898	534.94
462.118	536.94
462.338	540.94
462.558	550.94
462.777	579.94
462.997	606.94
463.217	609.94
463.437	597.94
463.657	565.94
463.876	561.94
464.096	594.94
464.316	581.94
464.536	581.94
464.755	585.94
464.975	575.94
465.195	586.94
465.414	617.94
465.634	570.94
465.854	534.94
466.073	536.94
466.293	521.94
466.512	504.94
466.732	491.94
466.951	482.94
467.171	472.94
467.391	487.94
467.61	495.94
467.829	521.94
468.049	491.94
468.268	499.94
468.488	484.94
468.707	499.94
468.927	479.94
469.146	473.94
469.365	490.94
469.585	483.94
469.804	487.94
470.023	491.94
470.243	495.94
470.462	492.94
470.681	519.94
470.901	515.94
471.12	510.94
471.339	480.94
471.558	519.94
471.777	481.94
471.997	485.94
472.216	516.94
472.435	521.94
472.654	535.94
472.873	473.94
473.092	492.94
473.311	489.94
473.53	493.94
473.749	526.94
473.968	543.94
474.187	632.94
474.406	657.94
474.625	555.94
474.844	503.94
475.063	511.94
475.282	510.94
475.501	496.94
475.72	501.94
475.939	512.94
476.158	495.94
476.377	506.94
476.596	516.94
476.814	515.94
477.033	528.94
477.252	514.94
477.471	535.94
477.69	545.94
477.908	524.94
478.127	563.94
478.346	551.94
478.564	559.94
478.783	548.94
479.002	591.94
479.22	557.94
479.439	569.94
479.658	587.94
479.876	607.94
480.095	609.94
480.313	649.94
480.532	625.94
480.751	629.94
480.969	635.94
481.188	645.94
481.406	669.94
481.624	640.94
481.843	614.94
482.061	596.94
482.28	590.94
482.498	585.94
482.717	591.94
482.935	588.94
483.153	579.94
483.372	577.94
483.59	579.94
483.808	578.94
484.027	572.94
484.245	600.94
484.463	576.94
484.681	587.94
484.9	579.94
485.118	575.94
485.336	597.94
485.554	599.94
485.772	590.94
485.99	586.94
486.209	601.94
486.427	588.94
486.645	602.94
486.863	623.94
487.081	635.94
487.299	608.94
487.517	600.94
487.735	598.94
487.953	614.94
488.171	636.94
488.389	625.94
488.607	641.94
488.825	624.94
489.043	611.94
489.261	620.94
489.479	632.94
489.696	627.94
489.914	647.94
490.132	648.94
490.35	626.94
490.568	659.94
490.786	649.94
491.003	663.94
491.221	693.94
491.439	677.94
491.657	716.94
491.874	674.94
492.092	709.94
492.31	728.94
492.527	714.94
492.745	717.94
492.963	723.94
493.18	723.94
493.398	715.94
493.615	726.94
493.833	736.94
494.05	703.94
494.268	739.94
494.485	723.94
494.703	711.94
494.92	743.94
495.138	694.94
495.355	725.94
495.573	732.94
495.79	746.94
496.008	729.94
496.225	738.94
496.442	707.94
496.66	739.94
496.877	706.94
497.094	745.94
497.312	769.94
497.529	781.94
497.746	782.94
497.963	775.94
498.181	812.94
498.398	813.94
498.615	849.94
498.832	895.94
499.049	893.94
499.267	892.94
499.484	955.94
499.701	973.94
499.918	1054.94
500.135	1120.94
500.352	1141.94
500.569	1197.94
500.786	1175.94
501.003	1154.94
501.22	1101.94
501.437	1055.94
501.654	1057.94
