Data from 1976.PennyLincolnUp.Lamp.En5.5.200Scan.071719.P1.Changed Mount._HRD10591_16-01-07-861.txt Node
Date: Thu Jul 18 16:01:07 EDT 2019
User: cochatt
Spectrometer: HR+D1059
Trigger mode: 1
Integration Time (sec): 1.000000E-1
Scans to average: 1
Electric dark correction enabled: true
Nonlinearity correction enabled: false
Boxcar width: 0
XAxis mode: Wavelengths
Number of Pixels in Spectrum: 2048
>>>>>Begin Spectral Data<<<<<
223.165	-24.12
223.4	-24.12
223.635	-24.12
223.869	-30.12
224.104	-16.12
224.338	-16.12
224.573	-11.12
224.808	-10.12
225.042	-13.12
225.277	-1.12
225.511	-2.12
225.746	-3.12
225.98	12.88
226.215	23.88
226.449	9.88
226.683	21.88
226.918	28.88
227.152	29.88
227.387	39.88
227.621	37.88
227.856	54.88
228.09	52.88
228.324	42.88
228.559	49.88
228.793	68.88
229.027	88.88
229.262	105.88
229.496	125.88
229.73	126.88
229.964	157.88
230.199	127.88
230.433	106.88
230.667	105.88
230.901	121.88
231.136	100.88
231.37	107.88
231.604	109.88
231.838	112.88
232.072	120.88
232.306	108.88
232.541	122.88
232.775	125.88
233.009	117.88
233.243	120.88
233.477	111.88
233.711	115.88
233.945	125.88
234.179	129.88
234.413	129.88
234.647	132.88
234.881	118.88
235.115	124.88
235.349	119.88
235.583	124.88
235.817	133.88
236.051	125.88
236.285	122.88
236.519	121.88
236.753	136.88
236.987	135.88
237.221	181.88
237.455	227.88
237.689	196.88
237.922	133.88
238.156	138.88
238.39	124.88
238.624	117.88
238.858	129.88
239.091	129.88
239.325	135.88
239.559	135.88
239.793	125.88
240.027	143.88
240.26	147.88
240.494	151.88
240.728	152.88
240.961	157.88
241.195	146.88
241.429	138.88
241.662	134.88
241.896	133.88
242.13	136.88
242.363	138.88
242.597	146.88
242.83	142.88
243.064	149.88
243.298	129.88
243.531	145.88
243.765	143.88
243.998	140.88
244.232	141.88
244.465	150.88
244.699	158.88
244.932	152.88
245.166	148.88
245.399	149.88
245.633	159.88
245.866	144.88
246.099	165.88
246.333	169.88
246.566	148.88
246.8	148.88
247.033	152.88
247.266	171.88
247.5	165.88
247.733	179.88
247.966	165.88
248.2	179.88
248.433	177.88
248.666	183.88
248.899	211.88
249.133	194.88
249.366	216.88
249.599	190.88
249.832	195.88
250.066	206.88
250.299	191.88
250.532	218.88
250.765	210.88
250.998	244.88
251.231	232.88
251.465	218.88
251.698	213.88
251.931	201.88
252.164	214.88
252.397	205.88
252.63	210.88
252.863	206.88
253.096	218.88
253.329	242.88
253.562	246.88
253.795	227.88
254.028	224.88
254.261	238.88
254.494	243.88
254.727	245.88
254.96	256.88
255.193	272.88
255.426	274.88
255.659	237.88
255.892	231.88
256.124	226.88
256.357	237.88
256.59	218.88
256.823	216.88
257.056	211.88
257.289	216.88
257.521	228.88
257.754	224.88
257.987	223.88
258.22	222.88
258.452	217.88
258.685	216.88
258.918	198.88
259.151	212.88
259.383	219.88
259.616	228.88
259.849	242.88
260.081	261.88
260.314	259.88
260.547	250.88
260.779	251.88
261.012	255.88
261.244	252.88
261.477	245.88
261.71	238.88
261.942	219.88
262.175	238.88
262.407	258.88
262.64	241.88
262.872	217.88
263.105	227.88
263.337	229.88
263.57	235.88
263.802	229.88
264.035	224.88
264.267	227.88
264.499	237.88
264.732	234.88
264.964	232.88
265.197	231.88
265.429	226.88
265.661	233.88
265.894	222.88
266.126	226.88
266.358	222.88
266.591	236.88
266.823	247.88
267.055	244.88
267.287	250.88
267.52	229.88
267.752	231.88
267.984	237.88
268.216	251.88
268.448	255.88
268.681	248.88
268.913	263.88
269.145	284.88
269.377	297.88
269.609	289.88
269.841	270.88
270.073	277.88
270.306	311.88
270.538	322.88
270.77	322.88
271.002	323.88
271.234	309.88
271.466	322.88
271.698	318.88
271.93	339.88
272.162	328.88
272.394	332.88
272.626	333.88
272.858	291.88
273.09	295.88
273.322	297.88
273.553	292.88
273.785	289.88
274.017	270.88
274.249	291.88
274.481	292.88
274.713	282.88
274.945	284.88
275.176	296.88
275.408	283.88
275.64	292.88
275.872	284.88
276.104	299.88
276.335	293.88
276.567	299.88
276.799	299.88
277.031	331.88
277.262	334.88
277.494	345.88
277.726	313.88
277.957	310.88
278.189	311.88
278.421	281.88
278.652	285.88
278.884	290.88
279.115	301.88
279.347	282.88
279.579	285.88
279.81	291.88
280.042	281.88
280.273	282.88
280.505	287.88
280.736	287.88
280.968	284.88
281.199	283.88
281.431	284.88
281.662	298.88
281.894	290.88
282.125	294.88
282.356	308.88
282.588	314.88
282.819	319.88
283.051	311.88
283.282	299.88
283.513	298.88
283.745	294.88
283.976	310.88
284.207	307.88
284.439	299.88
284.67	309.88
284.901	303.88
285.132	315.88
285.364	289.88
285.595	294.88
285.826	297.88
286.057	301.88
286.288	310.88
286.52	322.88
286.751	317.88
286.982	321.88
287.213	301.88
287.444	321.88
287.675	318.88
287.906	311.88
288.138	318.88
288.369	335.88
288.6	335.88
288.831	334.88
289.062	332.88
289.293	317.88
289.524	323.88
289.755	322.88
289.986	317.88
290.217	303.88
290.448	319.88
290.679	321.88
290.91	302.88
291.141	306.88
291.371	322.88
291.602	313.88
291.833	316.88
292.064	319.88
292.295	305.88
292.526	308.88
292.757	335.88
292.987	319.88
293.218	305.88
293.449	318.88
293.68	317.88
293.91	328.88
294.141	319.88
294.372	315.88
294.603	324.88
294.833	343.88
295.064	313.88
295.295	315.88
295.525	314.88
295.756	325.88
295.987	335.88
296.217	342.88
296.448	363.88
296.679	330.88
296.909	323.88
297.14	326.88
297.37	336.88
297.601	325.88
297.831	314.88
298.062	333.88
298.292	331.88
298.523	329.88
298.753	341.88
298.984	348.88
299.214	346.88
299.445	330.88
299.675	330.88
299.905	338.88
300.136	356.88
300.366	333.88
300.597	346.88
300.827	357.88
301.057	346.88
301.288	349.88
301.518	341.88
301.748	355.88
301.979	358.88
302.209	342.88
302.439	346.88
302.669	364.88
302.9	348.88
303.13	365.88
303.36	354.88
303.59	348.88
303.82	371.88
304.051	356.88
304.281	382.88
304.511	338.88
304.741	364.88
304.971	354.88
305.201	353.88
305.431	359.88
305.661	346.88
305.891	351.88
306.121	364.88
306.352	372.88
306.582	357.88
306.812	360.88
307.042	378.88
307.272	362.88
307.502	358.88
307.731	355.88
307.961	357.88
308.191	338.88
308.421	348.88
308.651	353.88
308.881	369.88
309.111	371.88
309.341	358.88
309.571	371.88
309.8	372.88
310.03	403.88
310.26	399.88
310.49	392.88
310.72	409.88
310.949	427.88
311.179	402.88
311.409	379.88
311.639	382.88
311.868	383.88
312.098	382.88
312.328	392.88
312.557	418.88
312.787	441.88
313.017	423.88
313.246	385.88
313.476	393.88
313.706	398.88
313.935	426.88
314.165	411.88
314.394	405.88
314.624	419.88
314.853	398.88
315.083	422.88
315.312	391.88
315.542	397.88
315.771	390.88
316.001	400.88
316.23	398.88
316.46	383.88
316.689	395.88
316.919	405.88
317.148	421.88
317.377	419.88
317.607	394.88
317.836	412.88
318.065	396.88
318.295	398.88
318.524	380.88
318.753	387.88
318.983	389.88
319.212	402.88
319.441	380.88
319.67	405.88
319.9	409.88
320.129	399.88
320.358	411.88
320.587	421.88
320.816	413.88
321.046	417.88
321.275	418.88
321.504	415.88
321.733	424.88
321.962	421.88
322.191	434.88
322.42	419.88
322.649	446.88
322.878	456.88
323.108	472.88
323.337	462.88
323.566	505.88
323.795	523.88
324.024	542.88
324.253	662.88
324.482	886.88
324.71	1349.88
324.939	1970.88
325.168	1729.88
325.397	843.88
325.626	610.88
325.855	546.88
326.084	507.88
326.313	486.88
326.542	512.88
326.77	513.88
326.999	613.88
327.228	789.88
327.457	1195.88
327.686	1481.88
327.914	964.88
328.143	669.88
328.372	612.88
328.6	555.88
328.829	556.88
329.058	505.88
329.287	565.88
329.515	544.88
329.744	509.88
329.972	518.88
330.201	525.88
330.43	557.88
330.658	585.88
330.887	581.88
331.115	595.88
331.344	522.88
331.572	500.88
331.801	489.88
332.03	505.88
332.258	486.88
332.486	453.88
332.715	481.88
332.943	480.88
333.172	490.88
333.4	498.88
333.629	498.88
333.857	527.88
334.085	526.88
334.314	527.88
334.542	586.88
334.771	581.88
334.999	532.88
335.227	509.88
335.455	496.88
335.684	492.88
335.912	484.88
336.14	475.88
336.369	472.88
336.597	486.88
336.825	501.88
337.053	465.88
337.281	463.88
337.51	454.88
337.738	454.88
337.966	489.88
338.194	487.88
338.422	473.88
338.65	467.88
338.878	473.88
339.106	461.88
339.334	450.88
339.562	465.88
339.79	446.88
340.018	447.88
340.246	460.88
340.474	468.88
340.702	463.88
340.93	454.88
341.158	445.88
341.386	458.88
341.614	464.88
341.842	458.88
342.07	450.88
342.298	446.88
342.526	451.88
342.754	445.88
342.981	449.88
343.209	429.88
343.437	469.88
343.665	451.88
343.893	471.88
344.12	485.88
344.348	462.88
344.576	457.88
344.804	488.88
345.031	457.88
345.259	450.88
345.487	445.88
345.714	466.88
345.942	457.88
346.17	446.88
346.397	437.88
346.625	448.88
346.853	459.88
347.08	431.88
347.308	421.88
347.535	427.88
347.763	438.88
347.99	471.88
348.218	455.88
348.445	457.88
348.673	443.88
348.9	443.88
349.128	440.88
349.355	450.88
349.583	413.88
349.81	429.88
350.037	423.88
350.265	420.88
350.492	432.88
350.72	423.88
350.947	431.88
351.174	442.88
351.402	449.88
351.629	459.88
351.856	417.88
352.083	453.88
352.311	453.88
352.538	454.88
352.765	451.88
352.992	452.88
353.22	441.88
353.447	445.88
353.674	427.88
353.901	437.88
354.128	413.88
354.355	418.88
354.583	409.88
354.81	413.88
355.037	418.88
355.264	416.88
355.491	403.88
355.718	429.88
355.945	430.88
356.172	394.88
356.399	409.88
356.626	406.88
356.853	410.88
357.08	402.88
357.307	412.88
357.534	403.88
357.761	428.88
357.988	411.88
358.215	413.88
358.441	405.88
358.668	410.88
358.895	414.88
359.122	421.88
359.349	428.88
359.576	440.88
359.802	428.88
360.029	461.88
360.256	465.88
360.483	457.88
360.709	441.88
360.936	451.88
361.163	420.88
361.39	428.88
361.616	439.88
361.843	422.88
362.07	422.88
362.296	427.88
362.523	427.88
362.749	426.88
362.976	429.88
363.203	435.88
363.429	403.88
363.656	418.88
363.882	411.88
364.109	397.88
364.335	412.88
364.562	407.88
364.788	428.88
365.015	431.88
365.241	419.88
365.468	406.88
365.694	412.88
365.92	436.88
366.147	432.88
366.373	419.88
366.599	414.88
366.826	413.88
367.052	410.88
367.278	417.88
367.505	419.88
367.731	417.88
367.957	414.88
368.184	398.88
368.41	438.88
368.636	441.88
368.862	435.88
369.089	462.88
369.315	415.88
369.541	425.88
369.767	414.88
369.993	425.88
370.219	421.88
370.445	419.88
370.672	389.88
370.898	404.88
371.124	421.88
371.35	423.88
371.576	441.88
371.802	419.88
372.028	424.88
372.254	421.88
372.48	424.88
372.706	441.88
372.932	449.88
373.158	435.88
373.384	442.88
373.61	436.88
373.835	407.88
374.061	431.88
374.287	448.88
374.513	441.88
374.739	451.88
374.965	441.88
375.191	441.88
375.416	451.88
375.642	413.88
375.868	422.88
376.094	423.88
376.319	424.88
376.545	437.88
376.771	431.88
376.997	410.88
377.222	428.88
377.448	429.88
377.674	441.88
377.899	423.88
378.125	434.88
378.35	417.88
378.576	413.88
378.802	413.88
379.027	411.88
379.253	438.88
379.478	421.88
379.704	435.88
379.929	411.88
380.155	430.88
380.38	438.88
380.606	434.88
380.831	420.88
381.057	445.88
381.282	419.88
381.507	449.88
381.733	430.88
381.958	427.88
382.184	441.88
382.409	434.88
382.634	438.88
382.86	442.88
383.085	427.88
383.31	435.88
383.535	436.88
383.761	427.88
383.986	451.88
384.211	463.88
384.436	460.88
384.662	439.88
384.887	461.88
385.112	471.88
385.337	466.88
385.562	450.88
385.787	474.88
386.013	461.88
386.238	489.88
386.463	483.88
386.688	474.88
386.913	443.88
387.138	474.88
387.363	458.88
387.588	489.88
387.813	484.88
388.038	466.88
388.263	468.88
388.488	478.88
388.713	462.88
388.938	472.88
389.163	467.88
389.387	479.88
389.612	473.88
389.837	475.88
390.062	500.88
390.287	461.88
390.512	474.88
390.736	466.88
390.961	458.88
391.186	480.88
391.411	469.88
391.636	486.88
391.86	500.88
392.085	486.88
392.31	493.88
392.534	507.88
392.759	496.88
392.984	473.88
393.208	485.88
393.433	471.88
393.658	503.88
393.882	457.88
394.107	486.88
394.331	477.88
394.556	469.88
394.78	478.88
395.005	475.88
395.229	490.88
395.454	489.88
395.678	493.88
395.903	497.88
396.127	526.88
396.352	511.88
396.576	492.88
396.801	492.88
397.025	500.88
397.249	519.88
397.474	513.88
397.698	513.88
397.922	538.88
398.147	563.88
398.371	556.88
398.595	528.88
398.82	534.88
399.044	552.88
399.268	596.88
399.492	626.88
399.717	669.88
399.941	693.88
400.165	715.88
400.389	689.88
400.613	639.88
400.837	585.88
401.062	577.88
401.286	575.88
401.51	561.88
401.734	546.88
401.958	548.88
402.182	577.88
402.406	569.88
402.63	584.88
402.854	578.88
403.078	572.88
403.302	569.88
403.526	581.88
403.75	573.88
403.974	568.88
404.198	571.88
404.422	569.88
404.645	601.88
404.869	604.88
405.093	617.88
405.317	666.88
405.541	701.88
405.765	621.88
405.988	585.88
406.212	609.88
406.436	622.88
406.66	641.88
406.883	618.88
407.107	639.88
407.331	693.88
407.555	765.88
407.778	727.88
408.002	677.88
408.226	637.88
408.449	609.88
408.673	633.88
408.896	662.88
409.12	706.88
409.344	661.88
409.567	591.88
409.791	607.88
410.014	568.88
410.238	563.88
410.461	565.88
410.685	578.88
410.908	604.88
411.132	625.88
411.355	673.88
411.578	619.88
411.802	579.88
412.025	581.88
412.249	589.88
412.472	587.88
412.695	646.88
412.919	621.88
413.142	576.88
413.365	559.88
413.589	556.88
413.812	572.88
414.035	547.88
414.258	548.88
414.482	545.88
414.705	550.88
414.928	558.88
415.151	535.88
415.374	549.88
415.597	531.88
415.821	515.88
416.044	554.88
416.267	525.88
416.49	515.88
416.713	536.88
416.936	515.88
417.159	528.88
417.382	526.88
417.605	542.88
417.828	543.88
418.051	565.88
418.274	559.88
418.497	552.88
418.72	541.88
418.943	551.88
419.166	563.88
419.389	602.88
419.611	583.88
419.834	575.88
420.057	585.88
420.28	558.88
420.503	588.88
420.726	573.88
420.948	580.88
421.171	619.88
421.394	640.88
421.617	581.88
421.839	585.88
422.062	554.88
422.285	587.88
422.507	631.88
422.73	729.88
422.953	705.88
423.175	628.88
423.398	597.88
423.621	586.88
423.843	616.88
424.066	631.88
424.288	589.88
424.511	613.88
424.733	699.88
424.956	750.88
425.178	718.88
425.401	709.88
425.623	748.88
425.846	661.88
426.068	588.88
426.291	566.88
426.513	604.88
426.735	601.88
426.958	628.88
427.18	717.88
427.402	859.88
427.625	973.88
427.847	798.88
428.069	699.88
428.292	627.88
428.514	610.88
428.736	571.88
428.958	572.88
429.181	563.88
429.403	545.88
429.625	569.88
429.847	586.88
430.069	658.88
430.292	655.88
430.514	551.88
430.736	545.88
430.958	555.88
431.18	525.88
431.402	545.88
431.624	534.88
431.846	524.88
432.068	524.88
432.29	529.88
432.512	522.88
432.734	546.88
432.956	518.88
433.178	534.88
433.4	550.88
433.622	535.88
433.844	526.88
434.066	527.88
434.287	531.88
434.509	514.88
434.731	538.88
434.953	554.88
435.175	563.88
435.397	596.88
435.618	569.88
435.84	631.88
436.062	695.88
436.284	793.88
436.505	639.88
436.727	592.88
436.949	567.88
437.17	535.88
437.392	552.88
437.614	567.88
437.835	596.88
438.057	699.88
438.278	790.88
438.5	789.88
438.721	844.88
438.943	859.88
439.165	670.88
439.386	609.88
439.608	618.88
439.829	604.88
440.05	609.88
440.272	650.88
440.493	640.88
440.715	599.88
440.936	587.88
441.158	558.88
441.379	566.88
441.6	572.88
441.822	583.88
442.043	621.88
442.264	724.88
442.486	748.88
442.707	628.88
442.928	629.88
443.149	620.88
443.371	635.88
443.592	653.88
443.813	795.88
444.034	848.88
444.255	706.88
444.476	631.88
444.698	629.88
444.919	610.88
445.14	741.88
445.361	695.88
445.582	661.88
445.803	704.88
446.024	789.88
446.245	803.88
446.466	714.88
446.687	641.88
446.908	606.88
447.129	571.88
447.35	541.88
447.571	529.88
447.792	546.88
448.013	537.88
448.234	565.88
448.455	593.88
448.675	703.88
448.896	842.88
449.117	701.88
449.338	679.88
449.559	791.88
449.779	857.88
450	717.88
450.221	599.88
450.442	569.88
450.662	529.88
450.883	522.88
451.104	537.88
451.324	518.88
451.545	494.88
451.766	499.88
451.986	467.88
452.207	476.88
452.428	472.88
452.648	485.88
452.869	486.88
453.089	489.88
453.31	500.88
453.53	484.88
453.751	475.88
453.971	492.88
454.192	468.88
454.412	478.88
454.633	493.88
454.853	474.88
455.073	477.88
455.294	515.88
455.514	546.88
455.734	553.88
455.955	488.88
456.175	466.88
456.395	451.88
456.616	450.88
456.836	422.88
457.056	452.88
457.276	445.88
457.497	478.88
457.717	463.88
457.937	458.88
458.157	475.88
458.377	478.88
458.598	470.88
458.818	536.88
459.038	608.88
459.258	633.88
459.478	549.88
459.698	550.88
459.918	549.88
460.138	513.88
460.358	535.88
460.578	565.88
460.798	558.88
461.018	542.88
461.238	577.88
461.458	547.88
461.678	550.88
461.898	531.88
462.118	556.88
462.338	537.88
462.558	562.88
462.777	555.88
462.997	575.88
463.217	635.88
463.437	627.88
463.657	623.88
463.876	591.88
464.096	593.88
464.316	605.88
464.536	593.88
464.755	575.88
464.975	588.88
465.195	597.88
465.414	674.88
465.634	592.88
465.854	543.88
466.073	552.88
466.293	521.88
466.512	529.88
466.732	514.88
466.951	513.88
467.171	489.88
467.391	501.88
467.61	513.88
467.829	513.88
468.049	497.88
468.268	500.88
468.488	489.88
468.707	496.88
468.927	490.88
469.146	456.88
469.365	494.88
469.585	487.88
469.804	487.88
470.023	539.88
470.243	499.88
470.462	521.88
470.681	532.88
470.901	530.88
471.12	514.88
471.339	495.88
471.558	513.88
471.777	503.88
471.997	488.88
472.216	509.88
472.435	547.88
472.654	537.88
472.873	509.88
473.092	499.88
473.311	479.88
473.53	500.88
473.749	491.88
473.968	541.88
474.187	650.88
474.406	669.88
474.625	554.88
474.844	533.88
475.063	518.88
475.282	498.88
475.501	498.88
475.72	532.88
475.939	514.88
476.158	519.88
476.377	524.88
476.596	502.88
476.814	528.88
477.033	543.88
477.252	550.88
477.471	533.88
477.69	556.88
477.908	570.88
478.127	551.88
478.346	541.88
478.564	582.88
478.783	579.88
479.002	562.88
479.22	574.88
479.439	590.88
479.658	601.88
479.876	632.88
480.095	618.88
480.313	643.88
480.532	654.88
480.751	643.88
480.969	649.88
481.188	643.88
481.406	681.88
481.624	618.88
481.843	610.88
482.061	592.88
482.28	618.88
482.498	597.88
482.717	569.88
482.935	597.88
483.153	581.88
483.372	593.88
483.59	589.88
483.808	583.88
484.027	600.88
484.245	588.88
484.463	583.88
484.681	587.88
484.9	599.88
485.118	603.88
485.336	589.88
485.554	606.88
485.772	606.88
485.99	606.88
486.209	623.88
486.427	637.88
486.645	604.88
486.863	627.88
487.081	616.88
487.299	617.88
487.517	634.88
487.735	611.88
487.953	631.88
488.171	635.88
488.389	620.88
488.607	641.88
488.825	633.88
489.043	598.88
489.261	630.88
489.479	653.88
489.696	650.88
489.914	665.88
490.132	659.88
490.35	646.88
490.568	655.88
490.786	670.88
491.003	664.88
491.221	707.88
491.439	674.88
491.657	711.88
491.874	728.88
492.092	719.88
492.31	718.88
492.527	729.88
492.745	725.88
492.963	729.88
493.18	727.88
493.398	713.88
493.615	728.88
493.833	744.88
494.05	722.88
494.268	759.88
494.485	745.88
494.703	725.88
494.92	745.88
495.138	754.88
495.355	749.88
495.573	753.88
495.79	742.88
496.008	758.88
496.225	749.88
496.442	742.88
496.66	739.88
496.877	742.88
497.094	732.88
497.312	769.88
497.529	783.88
497.746	789.88
497.963	790.88
498.181	835.88
498.398	830.88
498.615	852.88
498.832	892.88
499.049	898.88
499.267	918.88
499.484	969.88
499.701	968.88
499.918	1024.88
500.135	1136.88
500.352	1190.88
500.569	1223.88
500.786	1218.88
501.003	1181.88
501.22	1127.88
501.437	1078.88
501.654	1029.88
