Data from 1976.PennyLincolnUp.Lamp.En5.5.200Scan.071719.P1.Changed Mount._HRD10591_16-00-09-861.txt Node
Date: Thu Jul 18 16:00:09 EDT 2019
User: cochatt
Spectrometer: HR+D1059
Trigger mode: 1
Integration Time (sec): 1.000000E-1
Scans to average: 1
Electric dark correction enabled: true
Nonlinearity correction enabled: false
Boxcar width: 0
XAxis mode: Wavelengths
Number of Pixels in Spectrum: 2048
>>>>>Begin Spectral Data<<<<<
223.165	-27.62
223.4	-27.62
223.635	-27.62
223.869	-13.62
224.104	-9.62
224.338	-8.62
224.573	-13.62
224.808	-20.62
225.042	-18.62
225.277	-4.62
225.511	2.38
225.746	8.38
225.98	2.38
226.215	17.38
226.449	11.38
226.683	19.38
226.918	22.38
227.152	33.38
227.387	33.38
227.621	53.38
227.856	37.38
228.09	45.38
228.324	47.38
228.559	68.38
228.793	74.38
229.027	90.38
229.262	83.38
229.496	109.38
229.73	123.38
229.964	137.38
230.199	122.38
230.433	115.38
230.667	115.38
230.901	94.38
231.136	105.38
231.37	109.38
231.604	114.38
231.838	126.38
232.072	114.38
232.306	109.38
232.541	104.38
232.775	119.38
233.009	113.38
233.243	125.38
233.477	110.38
233.711	99.38
233.945	116.38
234.179	107.38
234.413	116.38
234.647	115.38
234.881	104.38
235.115	123.38
235.349	122.38
235.583	122.38
235.817	119.38
236.051	126.38
236.285	120.38
236.519	116.38
236.753	125.38
236.987	124.38
237.221	181.38
237.455	206.38
237.689	178.38
237.922	134.38
238.156	124.38
238.39	141.38
238.624	131.38
238.858	136.38
239.091	131.38
239.325	127.38
239.559	134.38
239.793	113.38
240.027	131.38
240.26	149.38
240.494	165.38
240.728	147.38
240.961	143.38
241.195	138.38
241.429	133.38
241.662	139.38
241.896	140.38
242.13	146.38
242.363	129.38
242.597	119.38
242.83	127.38
243.064	134.38
243.298	145.38
243.531	155.38
243.765	135.38
243.998	134.38
244.232	138.38
244.465	136.38
244.699	140.38
244.932	133.38
245.166	142.38
245.399	134.38
245.633	146.38
245.866	144.38
246.099	125.38
246.333	144.38
246.566	150.38
246.8	162.38
247.033	173.38
247.266	175.38
247.5	149.38
247.733	173.38
247.966	173.38
248.2	164.38
248.433	162.38
248.666	192.38
248.899	178.38
249.133	179.38
249.366	202.38
249.599	177.38
249.832	179.38
250.066	190.38
250.299	176.38
250.532	182.38
250.765	204.38
250.998	221.38
251.231	229.38
251.465	217.38
251.698	205.38
251.931	197.38
252.164	186.38
252.397	195.38
252.63	206.38
252.863	195.38
253.096	208.38
253.329	227.38
253.562	210.38
253.795	207.38
254.028	225.38
254.261	214.38
254.494	213.38
254.727	260.38
254.96	265.38
255.193	264.38
255.426	249.38
255.659	218.38
255.892	220.38
256.124	221.38
256.357	236.38
256.59	224.38
256.823	212.38
257.056	209.38
257.289	216.38
257.521	216.38
257.754	222.38
257.987	197.38
258.22	216.38
258.452	213.38
258.685	226.38
258.918	224.38
259.151	231.38
259.383	223.38
259.616	217.38
259.849	217.38
260.081	238.38
260.314	236.38
260.547	275.38
260.779	241.38
261.012	221.38
261.244	228.38
261.477	219.38
261.71	222.38
261.942	222.38
262.175	223.38
262.407	221.38
262.64	220.38
262.872	210.38
263.105	204.38
263.337	213.38
263.57	224.38
263.802	202.38
264.035	226.38
264.267	218.38
264.499	205.38
264.732	212.38
264.964	216.38
265.197	219.38
265.429	218.38
265.661	234.38
265.894	217.38
266.126	228.38
266.358	219.38
266.591	229.38
266.823	224.38
267.055	228.38
267.287	256.38
267.52	220.38
267.752	225.38
267.984	244.38
268.216	226.38
268.448	257.38
268.681	260.38
268.913	245.38
269.145	254.38
269.377	268.38
269.609	284.38
269.841	261.38
270.073	274.38
270.306	291.38
270.538	311.38
270.77	308.38
271.002	311.38
271.234	306.38
271.466	281.38
271.698	314.38
271.93	317.38
272.162	319.38
272.394	318.38
272.626	296.38
272.858	291.38
273.09	293.38
273.322	268.38
273.553	284.38
273.785	274.38
274.017	276.38
274.249	286.38
274.481	265.38
274.713	263.38
274.945	278.38
275.176	281.38
275.408	268.38
275.64	277.38
275.872	264.38
276.104	279.38
276.335	283.38
276.567	282.38
276.799	285.38
277.031	282.38
277.262	321.38
277.494	309.38
277.726	314.38
277.957	280.38
278.189	290.38
278.421	282.38
278.652	287.38
278.884	277.38
279.115	280.38
279.347	270.38
279.579	269.38
279.81	272.38
280.042	279.38
280.273	292.38
280.505	269.38
280.736	276.38
280.968	269.38
281.199	277.38
281.431	285.38
281.662	287.38
281.894	286.38
282.125	265.38
282.356	300.38
282.588	298.38
282.819	302.38
283.051	296.38
283.282	281.38
283.513	264.38
283.745	284.38
283.976	307.38
284.207	301.38
284.439	302.38
284.67	291.38
284.901	289.38
285.132	286.38
285.364	287.38
285.595	278.38
285.826	287.38
286.057	308.38
286.288	295.38
286.52	305.38
286.751	290.38
286.982	307.38
287.213	309.38
287.444	311.38
287.675	319.38
287.906	302.38
288.138	306.38
288.369	318.38
288.6	309.38
288.831	327.38
289.062	323.38
289.293	310.38
289.524	298.38
289.755	301.38
289.986	323.38
290.217	290.38
290.448	302.38
290.679	302.38
290.91	301.38
291.141	309.38
291.371	285.38
291.602	293.38
291.833	300.38
292.064	305.38
292.295	314.38
292.526	311.38
292.757	302.38
292.987	287.38
293.218	313.38
293.449	295.38
293.68	305.38
293.91	334.38
294.141	307.38
294.372	289.38
294.603	305.38
294.833	316.38
295.064	306.38
295.295	316.38
295.525	304.38
295.756	338.38
295.987	331.38
296.217	329.38
296.448	327.38
296.679	314.38
296.909	313.38
297.14	339.38
297.37	334.38
297.601	319.38
297.831	300.38
298.062	314.38
298.292	325.38
298.523	314.38
298.753	322.38
298.984	316.38
299.214	329.38
299.445	327.38
299.675	318.38
299.905	321.38
300.136	337.38
300.366	324.38
300.597	337.38
300.827	327.38
301.057	346.38
301.288	349.38
301.518	331.38
301.748	339.38
301.979	337.38
302.209	352.38
302.439	350.38
302.669	337.38
302.9	342.38
303.13	343.38
303.36	362.38
303.59	369.38
303.82	349.38
304.051	346.38
304.281	328.38
304.511	347.38
304.741	341.38
304.971	342.38
305.201	343.38
305.431	363.38
305.661	336.38
305.891	345.38
306.121	333.38
306.352	347.38
306.582	343.38
306.812	354.38
307.042	362.38
307.272	354.38
307.502	340.38
307.731	343.38
307.961	358.38
308.191	351.38
308.421	346.38
308.651	344.38
308.881	333.38
309.111	346.38
309.341	355.38
309.571	362.38
309.8	366.38
310.03	371.38
310.26	354.38
310.49	348.38
310.72	389.38
310.949	405.38
311.179	392.38
311.409	351.38
311.639	389.38
311.868	373.38
312.098	358.38
312.328	363.38
312.557	383.38
312.787	414.38
313.017	407.38
313.246	376.38
313.476	386.38
313.706	378.38
313.935	398.38
314.165	403.38
314.394	411.38
314.624	395.38
314.853	391.38
315.083	384.38
315.312	377.38
315.542	383.38
315.771	386.38
316.001	370.38
316.23	384.38
316.46	384.38
316.689	388.38
316.919	395.38
317.148	401.38
317.377	373.38
317.607	394.38
317.836	393.38
318.065	385.38
318.295	387.38
318.524	411.38
318.753	391.38
318.983	381.38
319.212	392.38
319.441	374.38
319.67	388.38
319.9	392.38
320.129	386.38
320.358	384.38
320.587	387.38
320.816	391.38
321.046	403.38
321.275	405.38
321.504	406.38
321.733	394.38
321.962	379.38
322.191	405.38
322.42	419.38
322.649	429.38
322.878	445.38
323.108	452.38
323.337	445.38
323.566	465.38
323.795	493.38
324.024	501.38
324.253	578.38
324.482	816.38
324.71	1207.38
324.939	1803.38
325.168	1593.38
325.397	811.38
325.626	551.38
325.855	496.38
326.084	483.38
326.313	437.38
326.542	469.38
326.77	533.38
326.999	607.38
327.228	777.38
327.457	1150.38
327.686	1397.38
327.914	906.38
328.143	635.38
328.372	549.38
328.6	527.38
328.829	487.38
329.058	513.38
329.287	527.38
329.515	506.38
329.744	505.38
329.972	478.38
330.201	492.38
330.43	521.38
330.658	543.38
330.887	549.38
331.115	547.38
331.344	516.38
331.572	502.38
331.801	490.38
332.03	491.38
332.258	474.38
332.486	470.38
332.715	476.38
332.943	473.38
333.172	458.38
333.4	476.38
333.629	482.38
333.857	489.38
334.085	498.38
334.314	515.38
334.542	528.38
334.771	541.38
334.999	481.38
335.227	475.38
335.455	458.38
335.684	466.38
335.912	499.38
336.14	465.38
336.369	462.38
336.597	458.38
336.825	476.38
337.053	472.38
337.281	462.38
337.51	448.38
337.738	446.38
337.966	459.38
338.194	451.38
338.422	461.38
338.65	451.38
338.878	454.38
339.106	435.38
339.334	463.38
339.562	444.38
339.79	446.38
340.018	424.38
340.246	422.38
340.474	421.38
340.702	426.38
340.93	442.38
341.158	425.38
341.386	425.38
341.614	438.38
341.842	415.38
342.07	429.38
342.298	435.38
342.526	409.38
342.754	422.38
342.981	425.38
343.209	429.38
343.437	420.38
343.665	445.38
343.893	443.38
344.12	463.38
344.348	466.38
344.576	448.38
344.804	454.38
345.031	443.38
345.259	440.38
345.487	447.38
345.714	454.38
345.942	432.38
346.17	420.38
346.397	429.38
346.625	414.38
346.853	404.38
347.08	410.38
347.308	433.38
347.535	428.38
347.763	430.38
347.99	410.38
348.218	419.38
348.445	447.38
348.673	435.38
348.9	420.38
349.128	425.38
349.355	423.38
349.583	408.38
349.81	419.38
350.037	394.38
350.265	394.38
350.492	392.38
350.72	412.38
350.947	418.38
351.174	427.38
351.402	425.38
351.629	442.38
351.856	418.38
352.083	423.38
352.311	414.38
352.538	433.38
352.765	425.38
352.992	410.38
353.22	424.38
353.447	407.38
353.674	413.38
353.901	411.38
354.128	407.38
354.355	391.38
354.583	401.38
354.81	397.38
355.037	408.38
355.264	391.38
355.491	388.38
355.718	400.38
355.945	371.38
356.172	421.38
356.399	396.38
356.626	392.38
356.853	409.38
357.08	403.38
357.307	396.38
357.534	409.38
357.761	374.38
357.988	403.38
358.215	387.38
358.441	414.38
358.668	381.38
358.895	396.38
359.122	397.38
359.349	407.38
359.576	413.38
359.802	425.38
360.029	444.38
360.256	453.38
360.483	463.38
360.709	435.38
360.936	425.38
361.163	414.38
361.39	412.38
361.616	412.38
361.843	436.38
362.07	425.38
362.296	424.38
362.523	422.38
362.749	411.38
362.976	419.38
363.203	411.38
363.429	398.38
363.656	419.38
363.882	406.38
364.109	394.38
364.335	424.38
364.562	413.38
364.788	399.38
365.015	395.38
365.241	396.38
365.468	441.38
365.694	418.38
365.92	417.38
366.147	430.38
366.373	400.38
366.599	395.38
366.826	397.38
367.052	393.38
367.278	410.38
367.505	409.38
367.731	408.38
367.957	399.38
368.184	396.38
368.41	417.38
368.636	412.38
368.862	421.38
369.089	399.38
369.315	411.38
369.541	413.38
369.767	390.38
369.993	411.38
370.219	400.38
370.445	402.38
370.672	382.38
370.898	428.38
371.124	419.38
371.35	425.38
371.576	425.38
371.802	397.38
372.028	397.38
372.254	394.38
372.48	408.38
372.706	402.38
372.932	416.38
373.158	412.38
373.384	415.38
373.61	419.38
373.835	405.38
374.061	405.38
374.287	408.38
374.513	408.38
374.739	432.38
374.965	447.38
375.191	435.38
375.416	428.38
375.642	421.38
375.868	419.38
376.094	415.38
376.319	428.38
376.545	414.38
376.771	419.38
376.997	409.38
377.222	413.38
377.448	402.38
377.674	397.38
377.899	389.38
378.125	398.38
378.35	408.38
378.576	383.38
378.802	409.38
379.027	410.38
379.253	431.38
379.478	427.38
379.704	412.38
379.929	393.38
380.155	414.38
380.38	404.38
380.606	424.38
380.831	399.38
381.057	399.38
381.282	377.38
381.507	414.38
381.733	427.38
381.958	421.38
382.184	444.38
382.409	445.38
382.634	427.38
382.86	423.38
383.085	425.38
383.31	449.38
383.535	429.38
383.761	427.38
383.986	442.38
384.211	443.38
384.436	452.38
384.662	451.38
384.887	449.38
385.112	444.38
385.337	452.38
385.562	445.38
385.787	462.38
386.013	459.38
386.238	469.38
386.463	487.38
386.688	455.38
386.913	449.38
387.138	458.38
387.363	429.38
387.588	457.38
387.813	474.38
388.038	467.38
388.263	478.38
388.488	478.38
388.713	462.38
388.938	452.38
389.163	467.38
389.387	460.38
389.612	444.38
389.837	456.38
390.062	451.38
390.287	465.38
390.512	443.38
390.736	462.38
390.961	461.38
391.186	478.38
391.411	463.38
391.636	470.38
391.86	473.38
392.085	475.38
392.31	492.38
392.534	476.38
392.759	479.38
392.984	475.38
393.208	474.38
393.433	453.38
393.658	475.38
393.882	461.38
394.107	457.38
394.331	470.38
394.556	461.38
394.78	467.38
395.005	461.38
395.229	470.38
395.454	485.38
395.678	493.38
395.903	495.38
396.127	490.38
396.352	517.38
396.576	507.38
396.801	468.38
397.025	477.38
397.249	482.38
397.474	478.38
397.698	495.38
397.922	520.38
398.147	521.38
398.371	520.38
398.595	505.38
398.82	537.38
399.044	570.38
399.268	569.38
399.492	602.38
399.717	639.38
399.941	677.38
400.165	685.38
400.389	680.38
400.613	598.38
400.837	573.38
401.062	570.38
401.286	546.38
401.51	525.38
401.734	541.38
401.958	535.38
402.182	546.38
402.406	552.38
402.63	537.38
402.854	554.38
403.078	549.38
403.302	556.38
403.526	567.38
403.75	575.38
403.974	572.38
404.198	558.38
404.422	563.38
404.645	579.38
404.869	563.38
405.093	577.38
405.317	626.38
405.541	667.38
405.765	607.38
405.988	571.38
406.212	585.38
406.436	609.38
406.66	624.38
406.883	614.38
407.107	641.38
407.331	678.38
407.555	731.38
407.778	718.38
408.002	651.38
408.226	632.38
408.449	639.38
408.673	600.38
408.896	630.38
409.12	670.38
409.344	672.38
409.567	579.38
409.791	570.38
410.014	554.38
410.238	545.38
410.461	558.38
410.685	583.38
410.908	569.38
411.132	604.38
411.355	643.38
411.578	610.38
411.802	549.38
412.025	566.38
412.249	554.38
412.472	565.38
412.695	633.38
412.919	606.38
413.142	568.38
413.365	550.38
413.589	549.38
413.812	541.38
414.035	518.38
414.258	525.38
414.482	519.38
414.705	541.38
414.928	509.38
415.151	516.38
415.374	514.38
415.597	539.38
415.821	523.38
416.044	517.38
416.267	528.38
416.49	513.38
416.713	529.38
416.936	507.38
417.159	510.38
417.382	527.38
417.605	526.38
417.828	532.38
418.051	543.38
418.274	568.38
418.497	520.38
418.72	526.38
418.943	529.38
419.166	542.38
419.389	590.38
419.611	571.38
419.834	558.38
420.057	559.38
420.28	547.38
420.503	558.38
420.726	541.38
420.948	555.38
421.171	593.38
421.394	633.38
421.617	537.38
421.839	553.38
422.062	556.38
422.285	558.38
422.507	613.38
422.73	687.38
422.953	653.38
423.175	596.38
423.398	578.38
423.621	553.38
423.843	581.38
424.066	591.38
424.288	583.38
424.511	582.38
424.733	649.38
424.956	719.38
425.178	691.38
425.401	675.38
425.623	706.38
425.846	597.38
426.068	577.38
426.291	575.38
426.513	567.38
426.735	571.38
426.958	604.38
427.18	679.38
427.402	800.38
427.625	887.38
427.847	750.38
428.069	664.38
428.292	604.38
428.514	573.38
428.736	551.38
428.958	510.38
429.181	536.38
429.403	512.38
429.625	521.38
429.847	569.38
430.069	628.38
430.292	613.38
430.514	550.38
430.736	533.38
430.958	519.38
431.18	493.38
431.402	520.38
431.624	493.38
431.846	482.38
432.068	483.38
432.29	488.38
432.512	503.38
432.734	527.38
432.956	493.38
433.178	525.38
433.4	511.38
433.622	528.38
433.844	503.38
434.066	495.38
434.287	494.38
434.509	509.38
434.731	524.38
434.953	537.38
435.175	523.38
435.397	566.38
435.618	584.38
435.84	613.38
436.062	713.38
436.284	742.38
436.505	628.38
436.727	577.38
436.949	540.38
437.17	535.38
437.392	527.38
437.614	522.38
437.835	545.38
438.057	641.38
438.278	763.38
438.5	745.38
438.721	812.38
438.943	797.38
439.165	615.38
439.386	570.38
439.608	599.38
439.829	558.38
440.05	585.38
440.272	637.38
440.493	605.38
440.715	555.38
440.936	527.38
441.158	508.38
441.379	531.38
441.6	563.38
441.822	573.38
442.043	619.38
442.264	691.38
442.486	735.38
442.707	619.38
442.928	577.38
443.149	582.38
443.371	598.38
443.592	637.38
443.813	727.38
444.034	834.38
444.255	671.38
444.476	611.38
444.698	601.38
444.919	593.38
445.14	722.38
445.361	669.38
445.582	623.38
445.803	666.38
446.024	757.38
446.245	777.38
446.466	684.38
446.687	625.38
446.908	555.38
447.129	542.38
447.35	519.38
447.571	524.38
447.792	519.38
448.013	541.38
448.234	517.38
448.455	579.38
448.675	709.38
448.896	821.38
449.117	667.38
449.338	652.38
449.559	741.38
449.779	882.38
450	659.38
450.221	583.38
450.442	528.38
450.662	533.38
450.883	502.38
451.104	511.38
451.324	517.38
451.545	493.38
451.766	471.38
451.986	461.38
452.207	462.38
452.428	469.38
452.648	477.38
452.869	476.38
453.089	480.38
453.31	471.38
453.53	465.38
453.751	465.38
453.971	467.38
454.192	484.38
454.412	493.38
454.633	454.38
454.853	480.38
455.073	455.38
455.294	493.38
455.514	539.38
455.734	517.38
455.955	460.38
456.175	447.38
456.395	441.38
456.616	426.38
456.836	467.38
457.056	451.38
457.276	417.38
457.497	446.38
457.717	423.38
457.937	446.38
458.157	476.38
458.377	455.38
458.598	476.38
458.818	525.38
459.038	583.38
459.258	638.38
459.478	537.38
459.698	516.38
459.918	500.38
460.138	517.38
460.358	511.38
460.578	521.38
460.798	533.38
461.018	529.38
461.238	514.38
461.458	521.38
461.678	507.38
461.898	541.38
462.118	536.38
462.338	542.38
462.558	555.38
462.777	561.38
462.997	580.38
463.217	585.38
463.437	619.38
463.657	563.38
463.876	555.38
464.096	572.38
464.316	555.38
464.536	590.38
464.755	587.38
464.975	584.38
465.195	583.38
465.414	626.38
465.634	553.38
465.854	510.38
466.073	521.38
466.293	505.38
466.512	476.38
466.732	494.38
466.951	500.38
467.171	502.38
467.391	491.38
467.61	490.38
467.829	499.38
468.049	502.38
468.268	471.38
468.488	456.38
468.707	457.38
468.927	463.38
469.146	473.38
469.365	469.38
469.585	452.38
469.804	488.38
470.023	503.38
470.243	480.38
470.462	505.38
470.681	533.38
470.901	493.38
471.12	497.38
471.339	473.38
471.558	481.38
471.777	515.38
471.997	465.38
472.216	477.38
472.435	507.38
472.654	499.38
472.873	497.38
473.092	452.38
473.311	503.38
473.53	486.38
473.749	504.38
473.968	508.38
474.187	613.38
474.406	615.38
474.625	541.38
474.844	492.38
475.063	481.38
475.282	487.38
475.501	494.38
475.72	497.38
475.939	485.38
476.158	498.38
476.377	509.38
476.596	511.38
476.814	503.38
477.033	512.38
477.252	512.38
477.471	519.38
477.69	528.38
477.908	551.38
478.127	548.38
478.346	543.38
478.564	539.38
478.783	572.38
479.002	550.38
479.22	537.38
479.439	574.38
479.658	577.38
479.876	584.38
480.095	590.38
480.313	628.38
480.532	624.38
480.751	614.38
480.969	589.38
481.188	626.38
481.406	667.38
481.624	619.38
481.843	597.38
482.061	566.38
482.28	573.38
482.498	570.38
482.717	551.38
482.935	567.38
483.153	544.38
483.372	563.38
483.59	564.38
483.808	573.38
484.027	571.38
484.245	574.38
484.463	568.38
484.681	573.38
484.9	567.38
485.118	585.38
485.336	571.38
485.554	574.38
485.772	577.38
485.99	565.38
486.209	583.38
486.427	610.38
486.645	609.38
486.863	623.38
487.081	613.38
487.299	611.38
487.517	575.38
487.735	604.38
487.953	607.38
488.171	606.38
488.389	590.38
488.607	597.38
488.825	600.38
489.043	596.38
489.261	615.38
489.479	617.38
489.696	625.38
489.914	618.38
490.132	637.38
490.35	645.38
490.568	651.38
490.786	654.38
491.003	653.38
491.221	654.38
491.439	664.38
491.657	704.38
491.874	655.38
492.092	689.38
492.31	686.38
492.527	699.38
492.745	684.38
492.963	681.38
493.18	693.38
493.398	689.38
493.615	728.38
493.833	707.38
494.05	719.38
494.268	719.38
494.485	730.38
494.703	705.38
494.92	722.38
495.138	700.38
495.355	727.38
495.573	717.38
495.79	713.38
496.008	726.38
496.225	719.38
496.442	714.38
496.66	727.38
496.877	713.38
497.094	727.38
497.312	741.38
497.529	759.38
497.746	741.38
497.963	762.38
498.181	784.38
498.398	812.38
498.615	822.38
498.832	842.38
499.049	882.38
499.267	908.38
499.484	934.38
499.701	1013.38
499.918	993.38
500.135	1123.38
500.352	1119.38
500.569	1157.38
500.786	1159.38
501.003	1139.38
501.22	1097.38
501.437	1011.38
501.654	960.38
