Data from 1976.PennyLincolnUp.Lamp.En5.5.200Scan.071719.P1.Changed Mount._HRD10591_16-00-58-861.txt Node
Date: Thu Jul 18 16:00:58 EDT 2019
User: cochatt
Spectrometer: HR+D1059
Trigger mode: 1
Integration Time (sec): 1.000000E-1
Scans to average: 1
Electric dark correction enabled: true
Nonlinearity correction enabled: false
Boxcar width: 0
XAxis mode: Wavelengths
Number of Pixels in Spectrum: 2048
>>>>>Begin Spectral Data<<<<<
223.165	-15.75
223.4	-15.75
223.635	-15.75
223.869	-20.75
224.104	-21.75
224.338	-8.75
224.573	-18.75
224.808	-7.75
225.042	2.25
225.277	-3.75
225.511	-6.75
225.746	4.25
225.98	19.25
226.215	10.25
226.449	15.25
226.683	24.25
226.918	18.25
227.152	10.25
227.387	25.25
227.621	22.25
227.856	51.25
228.09	46.25
228.324	46.25
228.559	62.25
228.793	74.25
229.027	90.25
229.262	99.25
229.496	112.25
229.73	110.25
229.964	148.25
230.199	120.25
230.433	112.25
230.667	120.25
230.901	119.25
231.136	105.25
231.37	118.25
231.604	116.25
231.838	106.25
232.072	116.25
232.306	116.25
232.541	116.25
232.775	101.25
233.009	117.25
233.243	108.25
233.477	122.25
233.711	118.25
233.945	118.25
234.179	125.25
234.413	120.25
234.647	123.25
234.881	123.25
235.115	120.25
235.349	138.25
235.583	130.25
235.817	122.25
236.051	120.25
236.285	131.25
236.519	123.25
236.753	132.25
236.987	131.25
237.221	178.25
237.455	243.25
237.689	171.25
237.922	148.25
238.156	136.25
238.39	121.25
238.624	138.25
238.858	138.25
239.091	125.25
239.325	134.25
239.559	125.25
239.793	119.25
240.027	120.25
240.26	132.25
240.494	154.25
240.728	159.25
240.961	157.25
241.195	150.25
241.429	146.25
241.662	142.25
241.896	147.25
242.13	145.25
242.363	134.25
242.597	136.25
242.83	150.25
243.064	128.25
243.298	143.25
243.531	133.25
243.765	136.25
243.998	154.25
244.232	140.25
244.465	141.25
244.699	129.25
244.932	150.25
245.166	138.25
245.399	151.25
245.633	147.25
245.866	132.25
246.099	161.25
246.333	149.25
246.566	138.25
246.8	150.25
247.033	164.25
247.266	148.25
247.5	163.25
247.733	168.25
247.966	184.25
248.2	172.25
248.433	160.25
248.666	172.25
248.899	182.25
249.133	181.25
249.366	193.25
249.599	196.25
249.832	189.25
250.066	198.25
250.299	195.25
250.532	201.25
250.765	198.25
250.998	220.25
251.231	224.25
251.465	224.25
251.698	213.25
251.931	201.25
252.164	215.25
252.397	196.25
252.63	201.25
252.863	218.25
253.096	208.25
253.329	207.25
253.562	216.25
253.795	212.25
254.028	219.25
254.261	207.25
254.494	233.25
254.727	275.25
254.96	271.25
255.193	264.25
255.426	258.25
255.659	235.25
255.892	219.25
256.124	243.25
256.357	225.25
256.59	217.25
256.823	224.25
257.056	212.25
257.289	235.25
257.521	210.25
257.754	216.25
257.987	217.25
258.22	219.25
258.452	215.25
258.685	211.25
258.918	205.25
259.151	219.25
259.383	219.25
259.616	224.25
259.849	230.25
260.081	244.25
260.314	260.25
260.547	258.25
260.779	274.25
261.012	223.25
261.244	229.25
261.477	239.25
261.71	223.25
261.942	229.25
262.175	260.25
262.407	222.25
262.64	229.25
262.872	221.25
263.105	222.25
263.337	234.25
263.57	213.25
263.802	230.25
264.035	236.25
264.267	221.25
264.499	214.25
264.732	238.25
264.964	216.25
265.197	216.25
265.429	213.25
265.661	225.25
265.894	228.25
266.126	230.25
266.358	220.25
266.591	240.25
266.823	231.25
267.055	241.25
267.287	236.25
267.52	242.25
267.752	237.25
267.984	242.25
268.216	233.25
268.448	232.25
268.681	243.25
268.913	258.25
269.145	269.25
269.377	280.25
269.609	288.25
269.841	285.25
270.073	282.25
270.306	297.25
270.538	320.25
270.77	320.25
271.002	323.25
271.234	308.25
271.466	306.25
271.698	309.25
271.93	330.25
272.162	333.25
272.394	325.25
272.626	283.25
272.858	289.25
273.09	289.25
273.322	277.25
273.553	281.25
273.785	275.25
274.017	292.25
274.249	280.25
274.481	273.25
274.713	274.25
274.945	292.25
275.176	270.25
275.408	272.25
275.64	275.25
275.872	268.25
276.104	308.25
276.335	275.25
276.567	279.25
276.799	290.25
277.031	302.25
277.262	322.25
277.494	317.25
277.726	299.25
277.957	301.25
278.189	285.25
278.421	279.25
278.652	286.25
278.884	287.25
279.115	277.25
279.347	265.25
279.579	294.25
279.81	272.25
280.042	288.25
280.273	296.25
280.505	278.25
280.736	304.25
280.968	275.25
281.199	285.25
281.431	301.25
281.662	289.25
281.894	271.25
282.125	290.25
282.356	304.25
282.588	314.25
282.819	316.25
283.051	301.25
283.282	285.25
283.513	287.25
283.745	300.25
283.976	293.25
284.207	297.25
284.439	299.25
284.67	309.25
284.901	298.25
285.132	309.25
285.364	305.25
285.595	289.25
285.826	299.25
286.057	305.25
286.288	300.25
286.52	292.25
286.751	311.25
286.982	322.25
287.213	285.25
287.444	280.25
287.675	311.25
287.906	329.25
288.138	329.25
288.369	342.25
288.6	333.25
288.831	305.25
289.062	325.25
289.293	302.25
289.524	312.25
289.755	313.25
289.986	297.25
290.217	322.25
290.448	322.25
290.679	313.25
290.91	308.25
291.141	309.25
291.371	315.25
291.602	311.25
291.833	311.25
292.064	313.25
292.295	307.25
292.526	304.25
292.757	324.25
292.987	298.25
293.218	315.25
293.449	328.25
293.68	323.25
293.91	313.25
294.141	320.25
294.372	320.25
294.603	316.25
294.833	326.25
295.064	302.25
295.295	310.25
295.525	310.25
295.756	310.25
295.987	321.25
296.217	331.25
296.448	325.25
296.679	327.25
296.909	297.25
297.14	319.25
297.37	301.25
297.601	314.25
297.831	311.25
298.062	312.25
298.292	331.25
298.523	310.25
298.753	330.25
298.984	312.25
299.214	342.25
299.445	340.25
299.675	346.25
299.905	333.25
300.136	334.25
300.366	323.25
300.597	332.25
300.827	333.25
301.057	352.25
301.288	346.25
301.518	340.25
301.748	349.25
301.979	356.25
302.209	352.25
302.439	357.25
302.669	356.25
302.9	339.25
303.13	344.25
303.36	344.25
303.59	352.25
303.82	340.25
304.051	361.25
304.281	338.25
304.511	346.25
304.741	363.25
304.971	349.25
305.201	348.25
305.431	343.25
305.661	349.25
305.891	337.25
306.121	353.25
306.352	352.25
306.582	338.25
306.812	350.25
307.042	355.25
307.272	336.25
307.502	358.25
307.731	347.25
307.961	348.25
308.191	347.25
308.421	353.25
308.651	343.25
308.881	362.25
309.111	370.25
309.341	350.25
309.571	378.25
309.8	378.25
310.03	381.25
310.26	378.25
310.49	385.25
310.72	383.25
310.949	389.25
311.179	404.25
311.409	390.25
311.639	380.25
311.868	378.25
312.098	395.25
312.328	386.25
312.557	388.25
312.787	417.25
313.017	419.25
313.246	421.25
313.476	390.25
313.706	388.25
313.935	406.25
314.165	397.25
314.394	405.25
314.624	404.25
314.853	394.25
315.083	387.25
315.312	399.25
315.542	393.25
315.771	396.25
316.001	397.25
316.23	398.25
316.46	399.25
316.689	406.25
316.919	408.25
317.148	420.25
317.377	376.25
317.607	386.25
317.836	379.25
318.065	397.25
318.295	420.25
318.524	415.25
318.753	380.25
318.983	387.25
319.212	390.25
319.441	406.25
319.67	400.25
319.9	396.25
320.129	392.25
320.358	404.25
320.587	405.25
320.816	425.25
321.046	423.25
321.275	425.25
321.504	409.25
321.733	409.25
321.962	420.25
322.191	433.25
322.42	434.25
322.649	421.25
322.878	456.25
323.108	448.25
323.337	475.25
323.566	483.25
323.795	513.25
324.024	523.25
324.253	630.25
324.482	900.25
324.71	1296.25
324.939	1903.25
325.168	1676.25
325.397	867.25
325.626	618.25
325.855	522.25
326.084	478.25
326.313	486.25
326.542	470.25
326.77	525.25
326.999	609.25
327.228	768.25
327.457	1199.25
327.686	1418.25
327.914	957.25
328.143	658.25
328.372	574.25
328.6	566.25
328.829	531.25
329.058	560.25
329.287	540.25
329.515	521.25
329.744	524.25
329.972	505.25
330.201	507.25
330.43	540.25
330.658	553.25
330.887	575.25
331.115	579.25
331.344	505.25
331.572	494.25
331.801	518.25
332.03	501.25
332.258	470.25
332.486	466.25
332.715	493.25
332.943	474.25
333.172	474.25
333.4	498.25
333.629	514.25
333.857	504.25
334.085	505.25
334.314	531.25
334.542	530.25
334.771	552.25
334.999	533.25
335.227	497.25
335.455	472.25
335.684	467.25
335.912	472.25
336.14	493.25
336.369	457.25
336.597	493.25
336.825	479.25
337.053	478.25
337.281	468.25
337.51	451.25
337.738	467.25
337.966	461.25
338.194	446.25
338.422	454.25
338.65	451.25
338.878	469.25
339.106	436.25
339.334	436.25
339.562	460.25
339.79	446.25
340.018	436.25
340.246	431.25
340.474	458.25
340.702	453.25
340.93	463.25
341.158	425.25
341.386	444.25
341.614	457.25
341.842	453.25
342.07	453.25
342.298	454.25
342.526	429.25
342.754	438.25
342.981	409.25
343.209	432.25
343.437	443.25
343.665	436.25
343.893	479.25
344.12	473.25
344.348	462.25
344.576	463.25
344.804	467.25
345.031	461.25
345.259	464.25
345.487	451.25
345.714	445.25
345.942	456.25
346.17	434.25
346.397	419.25
346.625	419.25
346.853	433.25
347.08	423.25
347.308	417.25
347.535	440.25
347.763	422.25
347.99	427.25
348.218	419.25
348.445	441.25
348.673	434.25
348.9	417.25
349.128	429.25
349.355	414.25
349.583	418.25
349.81	418.25
350.037	412.25
350.265	419.25
350.492	413.25
350.72	420.25
350.947	417.25
351.174	434.25
351.402	428.25
351.629	422.25
351.856	408.25
352.083	416.25
352.311	445.25
352.538	443.25
352.765	422.25
352.992	437.25
353.22	435.25
353.447	409.25
353.674	428.25
353.901	409.25
354.128	402.25
354.355	399.25
354.583	418.25
354.81	411.25
355.037	404.25
355.264	409.25
355.491	402.25
355.718	395.25
355.945	411.25
356.172	409.25
356.399	415.25
356.626	394.25
356.853	381.25
357.08	419.25
357.307	416.25
357.534	394.25
357.761	410.25
357.988	393.25
358.215	397.25
358.441	405.25
358.668	393.25
358.895	411.25
359.122	381.25
359.349	405.25
359.576	437.25
359.802	436.25
360.029	450.25
360.256	479.25
360.483	454.25
360.709	446.25
360.936	430.25
361.163	424.25
361.39	440.25
361.616	441.25
361.843	413.25
362.07	411.25
362.296	412.25
362.523	417.25
362.749	422.25
362.976	416.25
363.203	410.25
363.429	420.25
363.656	425.25
363.882	418.25
364.109	424.25
364.335	412.25
364.562	404.25
364.788	406.25
365.015	427.25
365.241	399.25
365.468	421.25
365.694	408.25
365.92	420.25
366.147	422.25
366.373	411.25
366.599	405.25
366.826	393.25
367.052	386.25
367.278	408.25
367.505	413.25
367.731	433.25
367.957	440.25
368.184	437.25
368.41	420.25
368.636	430.25
368.862	426.25
369.089	412.25
369.315	443.25
369.541	404.25
369.767	390.25
369.993	413.25
370.219	392.25
370.445	410.25
370.672	402.25
370.898	406.25
371.124	414.25
371.35	457.25
371.576	416.25
371.802	423.25
372.028	405.25
372.254	418.25
372.48	412.25
372.706	429.25
372.932	435.25
373.158	416.25
373.384	418.25
373.61	428.25
373.835	399.25
374.061	432.25
374.287	435.25
374.513	426.25
374.739	417.25
374.965	432.25
375.191	432.25
375.416	400.25
375.642	424.25
375.868	420.25
376.094	410.25
376.319	410.25
376.545	407.25
376.771	412.25
376.997	410.25
377.222	412.25
377.448	405.25
377.674	402.25
377.899	403.25
378.125	400.25
378.35	421.25
378.576	422.25
378.802	419.25
379.027	415.25
379.253	420.25
379.478	413.25
379.704	399.25
379.929	425.25
380.155	419.25
380.38	409.25
380.606	420.25
380.831	425.25
381.057	438.25
381.282	412.25
381.507	419.25
381.733	424.25
381.958	402.25
382.184	452.25
382.409	410.25
382.634	434.25
382.86	423.25
383.085	444.25
383.31	430.25
383.535	444.25
383.761	461.25
383.986	435.25
384.211	445.25
384.436	462.25
384.662	453.25
384.887	433.25
385.112	446.25
385.337	446.25
385.562	455.25
385.787	464.25
386.013	476.25
386.238	458.25
386.463	474.25
386.688	485.25
386.913	473.25
387.138	476.25
387.363	449.25
387.588	468.25
387.813	459.25
388.038	472.25
388.263	455.25
388.488	452.25
388.713	467.25
388.938	477.25
389.163	466.25
389.387	477.25
389.612	464.25
389.837	461.25
390.062	450.25
390.287	456.25
390.512	466.25
390.736	457.25
390.961	454.25
391.186	475.25
391.411	466.25
391.636	489.25
391.86	468.25
392.085	508.25
392.31	481.25
392.534	485.25
392.759	491.25
392.984	462.25
393.208	459.25
393.433	453.25
393.658	477.25
393.882	487.25
394.107	488.25
394.331	475.25
394.556	475.25
394.78	493.25
395.005	489.25
395.229	475.25
395.454	485.25
395.678	488.25
395.903	496.25
396.127	514.25
396.352	517.25
396.576	493.25
396.801	490.25
397.025	491.25
397.249	489.25
397.474	522.25
397.698	498.25
397.922	503.25
398.147	532.25
398.371	542.25
398.595	518.25
398.82	548.25
399.044	554.25
399.268	576.25
399.492	614.25
399.717	646.25
399.941	684.25
400.165	676.25
400.389	662.25
400.613	616.25
400.837	554.25
401.062	565.25
401.286	571.25
401.51	550.25
401.734	536.25
401.958	532.25
402.182	530.25
402.406	554.25
402.63	553.25
402.854	558.25
403.078	548.25
403.302	553.25
403.526	571.25
403.75	586.25
403.974	562.25
404.198	568.25
404.422	550.25
404.645	574.25
404.869	581.25
405.093	603.25
405.317	648.25
405.541	666.25
405.765	623.25
405.988	596.25
406.212	570.25
406.436	598.25
406.66	622.25
406.883	613.25
407.107	648.25
407.331	682.25
407.555	746.25
407.778	729.25
408.002	669.25
408.226	618.25
408.449	622.25
408.673	616.25
408.896	658.25
409.12	673.25
409.344	661.25
409.567	597.25
409.791	590.25
410.014	564.25
410.238	575.25
410.461	554.25
410.685	588.25
410.908	582.25
411.132	610.25
411.355	636.25
411.578	601.25
411.802	561.25
412.025	557.25
412.249	564.25
412.472	580.25
412.695	626.25
412.919	620.25
413.142	574.25
413.365	530.25
413.589	549.25
413.812	541.25
414.035	521.25
414.258	521.25
414.482	532.25
414.705	531.25
414.928	526.25
415.151	521.25
415.374	516.25
415.597	532.25
415.821	546.25
416.044	525.25
416.267	534.25
416.49	512.25
416.713	528.25
416.936	539.25
417.159	516.25
417.382	509.25
417.605	544.25
417.828	543.25
418.051	564.25
418.274	545.25
418.497	513.25
418.72	523.25
418.943	538.25
419.166	544.25
419.389	598.25
419.611	562.25
419.834	567.25
420.057	566.25
420.28	581.25
420.503	571.25
420.726	580.25
420.948	579.25
421.171	604.25
421.394	640.25
421.617	553.25
421.839	557.25
422.062	566.25
422.285	580.25
422.507	630.25
422.73	710.25
422.953	638.25
423.175	611.25
423.398	577.25
423.621	556.25
423.843	606.25
424.066	615.25
424.288	587.25
424.511	603.25
424.733	673.25
424.956	722.25
425.178	712.25
425.401	691.25
425.623	713.25
425.846	598.25
426.068	586.25
426.291	585.25
426.513	572.25
426.735	602.25
426.958	629.25
427.18	690.25
427.402	827.25
427.625	892.25
427.847	770.25
428.069	710.25
428.292	604.25
428.514	568.25
428.736	554.25
428.958	518.25
429.181	512.25
429.403	526.25
429.625	521.25
429.847	567.25
430.069	632.25
430.292	638.25
430.514	556.25
430.736	541.25
430.958	518.25
431.18	527.25
431.402	528.25
431.624	493.25
431.846	491.25
432.068	505.25
432.29	491.25
432.512	510.25
432.734	506.25
432.956	534.25
433.178	520.25
433.4	526.25
433.622	522.25
433.844	513.25
434.066	504.25
434.287	516.25
434.509	545.25
434.731	536.25
434.953	542.25
435.175	551.25
435.397	595.25
435.618	578.25
435.84	604.25
436.062	718.25
436.284	795.25
436.505	644.25
436.727	598.25
436.949	545.25
437.17	535.25
437.392	532.25
437.614	525.25
437.835	580.25
438.057	649.25
438.278	774.25
438.5	779.25
438.721	828.25
438.943	795.25
439.165	626.25
439.386	588.25
439.608	581.25
439.829	573.25
440.05	596.25
440.272	627.25
440.493	603.25
440.715	569.25
440.936	536.25
441.158	532.25
441.379	546.25
441.6	585.25
441.822	568.25
442.043	621.25
442.264	662.25
442.486	739.25
442.707	628.25
442.928	584.25
443.149	591.25
443.371	608.25
443.592	649.25
443.813	753.25
444.034	802.25
444.255	691.25
444.476	633.25
444.698	620.25
444.919	608.25
445.14	728.25
445.361	683.25
445.582	632.25
445.803	661.25
446.024	795.25
446.245	789.25
446.466	704.25
446.687	607.25
446.908	596.25
447.129	522.25
447.35	525.25
447.571	534.25
447.792	532.25
448.013	529.25
448.234	551.25
448.455	569.25
448.675	698.25
448.896	837.25
449.117	696.25
449.338	658.25
449.559	747.25
449.779	847.25
450	681.25
450.221	588.25
450.442	514.25
450.662	526.25
450.883	512.25
451.104	540.25
451.324	555.25
451.545	494.25
451.766	476.25
451.986	485.25
452.207	477.25
452.428	488.25
452.648	499.25
452.869	478.25
453.089	485.25
453.31	501.25
453.53	475.25
453.751	478.25
453.971	468.25
454.192	484.25
454.412	484.25
454.633	454.25
454.853	437.25
455.073	472.25
455.294	487.25
455.514	561.25
455.734	557.25
455.955	484.25
456.175	455.25
456.395	443.25
456.616	428.25
456.836	443.25
457.056	448.25
457.276	434.25
457.497	445.25
457.717	456.25
457.937	438.25
458.157	433.25
458.377	463.25
458.598	492.25
458.818	528.25
459.038	622.25
459.258	618.25
459.478	553.25
459.698	514.25
459.918	526.25
460.138	529.25
460.358	523.25
460.578	517.25
460.798	539.25
461.018	529.25
461.238	506.25
461.458	533.25
461.678	525.25
461.898	536.25
462.118	534.25
462.338	557.25
462.558	573.25
462.777	563.25
462.997	580.25
463.217	608.25
463.437	605.25
463.657	580.25
463.876	589.25
464.096	589.25
464.316	582.25
464.536	597.25
464.755	568.25
464.975	562.25
465.195	590.25
465.414	632.25
465.634	568.25
465.854	545.25
466.073	541.25
466.293	503.25
466.512	515.25
466.732	476.25
466.951	484.25
467.171	488.25
467.391	507.25
467.61	523.25
467.829	486.25
468.049	506.25
468.268	478.25
468.488	495.25
468.707	470.25
468.927	459.25
469.146	477.25
469.365	486.25
469.585	473.25
469.804	490.25
470.023	520.25
470.243	494.25
470.462	500.25
470.681	479.25
470.901	508.25
471.12	495.25
471.339	496.25
471.558	518.25
471.777	517.25
471.997	488.25
472.216	496.25
472.435	520.25
472.654	517.25
472.873	498.25
473.092	470.25
473.311	509.25
473.53	507.25
473.749	493.25
473.968	549.25
474.187	617.25
474.406	667.25
474.625	534.25
474.844	528.25
475.063	503.25
475.282	504.25
475.501	500.25
475.72	514.25
475.939	502.25
476.158	509.25
476.377	500.25
476.596	518.25
476.814	510.25
477.033	515.25
477.252	534.25
477.471	514.25
477.69	501.25
477.908	524.25
478.127	542.25
478.346	534.25
478.564	565.25
478.783	591.25
479.002	579.25
479.22	576.25
479.439	590.25
479.658	595.25
479.876	589.25
480.095	594.25
480.313	623.25
480.532	633.25
480.751	601.25
480.969	632.25
481.188	648.25
481.406	675.25
481.624	640.25
481.843	594.25
482.061	596.25
482.28	570.25
482.498	580.25
482.717	553.25
482.935	579.25
483.153	566.25
483.372	579.25
483.59	576.25
483.808	568.25
484.027	549.25
484.245	589.25
484.463	570.25
484.681	587.25
484.9	599.25
485.118	587.25
485.336	575.25
485.554	585.25
485.772	610.25
485.99	584.25
486.209	598.25
486.427	593.25
486.645	613.25
486.863	618.25
487.081	601.25
487.299	629.25
487.517	608.25
487.735	616.25
487.953	605.25
488.171	609.25
488.389	613.25
488.607	604.25
488.825	648.25
489.043	634.25
489.261	609.25
489.479	629.25
489.696	617.25
489.914	638.25
490.132	635.25
490.35	658.25
490.568	624.25
490.786	673.25
491.003	651.25
491.221	676.25
491.439	692.25
491.657	718.25
491.874	705.25
492.092	696.25
492.31	707.25
492.527	715.25
492.745	701.25
492.963	682.25
493.18	712.25
493.398	717.25
493.615	738.25
493.833	728.25
494.05	714.25
494.268	726.25
494.485	712.25
494.703	720.25
494.92	699.25
495.138	702.25
495.355	745.25
495.573	708.25
495.79	713.25
496.008	726.25
496.225	732.25
496.442	736.25
496.66	723.25
496.877	725.25
497.094	748.25
497.312	729.25
497.529	756.25
497.746	766.25
497.963	787.25
498.181	797.25
498.398	813.25
498.615	826.25
498.832	828.25
499.049	844.25
499.267	879.25
499.484	920.25
499.701	970.25
499.918	1029.25
500.135	1074.25
500.352	1174.25
500.569	1176.25
500.786	1142.25
501.003	1123.25
501.22	1096.25
501.437	1060.25
501.654	1003.25
