Data from 1976.PennyLincolnUp.Lamp.En5.5.200Scan.071719.P1.Changed Mount._HRD10591_15-59-53-860.txt Node
Date: Thu Jul 18 15:59:53 EDT 2019
User: cochatt
Spectrometer: HR+D1059
Trigger mode: 1
Integration Time (sec): 1.000000E-1
Scans to average: 1
Electric dark correction enabled: true
Nonlinearity correction enabled: false
Boxcar width: 0
XAxis mode: Wavelengths
Number of Pixels in Spectrum: 2048
>>>>>Begin Spectral Data<<<<<
223.165	-12.5
223.4	-12.5
223.635	-12.5
223.869	-7.5
224.104	-12.5
224.338	-21.5
224.573	-17.5
224.808	-14.5
225.042	-16.5
225.277	6.5
225.511	-6.5
225.746	3.5
225.98	4.5
226.215	3.5
226.449	17.5
226.683	24.5
226.918	20.5
227.152	28.5
227.387	24.5
227.621	44.5
227.856	41.5
228.09	43.5
228.324	40.5
228.559	50.5
228.793	55.5
229.027	100.5
229.262	107.5
229.496	101.5
229.73	123.5
229.964	149.5
230.199	135.5
230.433	111.5
230.667	116.5
230.901	113.5
231.136	99.5
231.37	116.5
231.604	122.5
231.838	135.5
232.072	129.5
232.306	118.5
232.541	115.5
232.775	110.5
233.009	123.5
233.243	108.5
233.477	127.5
233.711	105.5
233.945	116.5
234.179	112.5
234.413	108.5
234.647	126.5
234.881	115.5
235.115	105.5
235.349	109.5
235.583	134.5
235.817	131.5
236.051	129.5
236.285	130.5
236.519	131.5
236.753	134.5
236.987	149.5
237.221	173.5
237.455	223.5
237.689	171.5
237.922	151.5
238.156	137.5
238.39	135.5
238.624	145.5
238.858	118.5
239.091	133.5
239.325	125.5
239.559	128.5
239.793	122.5
240.027	127.5
240.26	147.5
240.494	158.5
240.728	158.5
240.961	160.5
241.195	156.5
241.429	133.5
241.662	131.5
241.896	133.5
242.13	140.5
242.363	130.5
242.597	121.5
242.83	143.5
243.064	136.5
243.298	132.5
243.531	158.5
243.765	139.5
243.998	159.5
244.232	154.5
244.465	147.5
244.699	154.5
244.932	139.5
245.166	141.5
245.399	160.5
245.633	151.5
245.866	140.5
246.099	159.5
246.333	160.5
246.566	155.5
246.8	143.5
247.033	160.5
247.266	168.5
247.5	167.5
247.733	182.5
247.966	181.5
248.2	173.5
248.433	176.5
248.666	186.5
248.899	185.5
249.133	186.5
249.366	198.5
249.599	187.5
249.832	177.5
250.066	181.5
250.299	177.5
250.532	199.5
250.765	211.5
250.998	230.5
251.231	211.5
251.465	232.5
251.698	191.5
251.931	188.5
252.164	196.5
252.397	184.5
252.63	180.5
252.863	214.5
253.096	206.5
253.329	197.5
253.562	211.5
253.795	205.5
254.028	222.5
254.261	211.5
254.494	222.5
254.727	239.5
254.96	250.5
255.193	248.5
255.426	222.5
255.659	223.5
255.892	223.5
256.124	240.5
256.357	224.5
256.59	223.5
256.823	217.5
257.056	201.5
257.289	199.5
257.521	205.5
257.754	206.5
257.987	205.5
258.22	205.5
258.452	190.5
258.685	195.5
258.918	199.5
259.151	203.5
259.383	205.5
259.616	208.5
259.849	212.5
260.081	219.5
260.314	250.5
260.547	258.5
260.779	257.5
261.012	243.5
261.244	226.5
261.477	217.5
261.71	200.5
261.942	216.5
262.175	218.5
262.407	214.5
262.64	213.5
262.872	224.5
263.105	200.5
263.337	226.5
263.57	199.5
263.802	221.5
264.035	223.5
264.267	210.5
264.499	203.5
264.732	216.5
264.964	220.5
265.197	213.5
265.429	229.5
265.661	220.5
265.894	211.5
266.126	218.5
266.358	215.5
266.591	230.5
266.823	221.5
267.055	230.5
267.287	232.5
267.52	222.5
267.752	207.5
267.984	234.5
268.216	225.5
268.448	238.5
268.681	229.5
268.913	260.5
269.145	252.5
269.377	267.5
269.609	253.5
269.841	268.5
270.073	259.5
270.306	280.5
270.538	317.5
270.77	309.5
271.002	295.5
271.234	269.5
271.466	278.5
271.698	292.5
271.93	288.5
272.162	315.5
272.394	304.5
272.626	289.5
272.858	292.5
273.09	266.5
273.322	265.5
273.553	267.5
273.785	276.5
274.017	253.5
274.249	274.5
274.481	262.5
274.713	261.5
274.945	262.5
275.176	254.5
275.408	256.5
275.64	267.5
275.872	286.5
276.104	262.5
276.335	259.5
276.567	274.5
276.799	287.5
277.031	288.5
277.262	303.5
277.494	310.5
277.726	283.5
277.957	286.5
278.189	285.5
278.421	279.5
278.652	273.5
278.884	287.5
279.115	269.5
279.347	299.5
279.579	277.5
279.81	280.5
280.042	265.5
280.273	259.5
280.505	274.5
280.736	273.5
280.968	281.5
281.199	257.5
281.431	271.5
281.662	269.5
281.894	290.5
282.125	289.5
282.356	299.5
282.588	317.5
282.819	315.5
283.051	288.5
283.282	274.5
283.513	288.5
283.745	287.5
283.976	289.5
284.207	315.5
284.439	287.5
284.67	284.5
284.901	308.5
285.132	278.5
285.364	295.5
285.595	273.5
285.826	281.5
286.057	290.5
286.288	293.5
286.52	296.5
286.751	298.5
286.982	299.5
287.213	284.5
287.444	293.5
287.675	303.5
287.906	289.5
288.138	321.5
288.369	312.5
288.6	332.5
288.831	319.5
289.062	309.5
289.293	294.5
289.524	311.5
289.755	310.5
289.986	283.5
290.217	299.5
290.448	312.5
290.679	303.5
290.91	293.5
291.141	299.5
291.371	317.5
291.602	315.5
291.833	304.5
292.064	300.5
292.295	309.5
292.526	294.5
292.757	298.5
292.987	304.5
293.218	293.5
293.449	324.5
293.68	312.5
293.91	300.5
294.141	292.5
294.372	302.5
294.603	309.5
294.833	303.5
295.064	310.5
295.295	317.5
295.525	319.5
295.756	326.5
295.987	319.5
296.217	347.5
296.448	327.5
296.679	317.5
296.909	308.5
297.14	304.5
297.37	305.5
297.601	309.5
297.831	321.5
298.062	332.5
298.292	298.5
298.523	315.5
298.753	316.5
298.984	311.5
299.214	312.5
299.445	325.5
299.675	319.5
299.905	320.5
300.136	330.5
300.366	335.5
300.597	323.5
300.827	321.5
301.057	340.5
301.288	337.5
301.518	347.5
301.748	315.5
301.979	342.5
302.209	328.5
302.439	337.5
302.669	333.5
302.9	333.5
303.13	325.5
303.36	336.5
303.59	328.5
303.82	316.5
304.051	350.5
304.281	321.5
304.511	333.5
304.741	349.5
304.971	356.5
305.201	349.5
305.431	337.5
305.661	339.5
305.891	334.5
306.121	339.5
306.352	339.5
306.582	351.5
306.812	368.5
307.042	333.5
307.272	330.5
307.502	336.5
307.731	332.5
307.961	343.5
308.191	335.5
308.421	349.5
308.651	354.5
308.881	333.5
309.111	351.5
309.341	350.5
309.571	346.5
309.8	354.5
310.03	359.5
310.26	373.5
310.49	373.5
310.72	394.5
310.949	393.5
311.179	379.5
311.409	358.5
311.639	376.5
311.868	365.5
312.098	371.5
312.328	384.5
312.557	382.5
312.787	377.5
313.017	399.5
313.246	398.5
313.476	385.5
313.706	389.5
313.935	377.5
314.165	391.5
314.394	406.5
314.624	398.5
314.853	395.5
315.083	374.5
315.312	362.5
315.542	369.5
315.771	387.5
316.001	379.5
316.23	373.5
316.46	358.5
316.689	363.5
316.919	371.5
317.148	385.5
317.377	371.5
317.607	381.5
317.836	383.5
318.065	367.5
318.295	379.5
318.524	373.5
318.753	393.5
318.983	374.5
319.212	386.5
319.441	389.5
319.67	387.5
319.9	381.5
320.129	380.5
320.358	395.5
320.587	361.5
320.816	387.5
321.046	400.5
321.275	397.5
321.504	376.5
321.733	389.5
321.962	410.5
322.191	402.5
322.42	412.5
322.649	424.5
322.878	416.5
323.108	420.5
323.337	441.5
323.566	453.5
323.795	472.5
324.024	484.5
324.253	589.5
324.482	792.5
324.71	1164.5
324.939	1699.5
325.168	1477.5
325.397	763.5
325.626	561.5
325.855	472.5
326.084	457.5
326.313	433.5
326.542	450.5
326.77	487.5
326.999	551.5
327.228	745.5
327.457	1080.5
327.686	1303.5
327.914	884.5
328.143	579.5
328.372	537.5
328.6	513.5
328.829	496.5
329.058	509.5
329.287	516.5
329.515	478.5
329.744	459.5
329.972	452.5
330.201	487.5
330.43	501.5
330.658	515.5
330.887	539.5
331.115	528.5
331.344	477.5
331.572	469.5
331.801	459.5
332.03	464.5
332.258	483.5
332.486	470.5
332.715	449.5
332.943	458.5
333.172	463.5
333.4	462.5
333.629	461.5
333.857	490.5
334.085	520.5
334.314	519.5
334.542	505.5
334.771	520.5
334.999	493.5
335.227	492.5
335.455	472.5
335.684	461.5
335.912	459.5
336.14	450.5
336.369	438.5
336.597	477.5
336.825	451.5
337.053	459.5
337.281	422.5
337.51	449.5
337.738	428.5
337.966	445.5
338.194	447.5
338.422	439.5
338.65	450.5
338.878	445.5
339.106	455.5
339.334	418.5
339.562	424.5
339.79	435.5
340.018	415.5
340.246	429.5
340.474	442.5
340.702	429.5
340.93	432.5
341.158	403.5
341.386	437.5
341.614	430.5
341.842	451.5
342.07	412.5
342.298	420.5
342.526	433.5
342.754	422.5
342.981	418.5
343.209	398.5
343.437	422.5
343.665	423.5
343.893	455.5
344.12	475.5
344.348	449.5
344.576	456.5
344.804	438.5
345.031	440.5
345.259	449.5
345.487	419.5
345.714	432.5
345.942	424.5
346.17	424.5
346.397	416.5
346.625	410.5
346.853	407.5
347.08	411.5
347.308	425.5
347.535	425.5
347.763	422.5
347.99	413.5
348.218	408.5
348.445	429.5
348.673	433.5
348.9	412.5
349.128	394.5
349.355	411.5
349.583	395.5
349.81	385.5
350.037	421.5
350.265	421.5
350.492	397.5
350.72	392.5
350.947	400.5
351.174	412.5
351.402	397.5
351.629	427.5
351.856	392.5
352.083	400.5
352.311	411.5
352.538	425.5
352.765	415.5
352.992	412.5
353.22	427.5
353.447	407.5
353.674	388.5
353.901	387.5
354.128	394.5
354.355	391.5
354.583	398.5
354.81	400.5
355.037	398.5
355.264	369.5
355.491	389.5
355.718	373.5
355.945	396.5
356.172	375.5
356.399	375.5
356.626	397.5
356.853	404.5
357.08	384.5
357.307	411.5
357.534	404.5
357.761	391.5
357.988	387.5
358.215	390.5
358.441	389.5
358.668	407.5
358.895	397.5
359.122	392.5
359.349	411.5
359.576	413.5
359.802	397.5
360.029	469.5
360.256	444.5
360.483	444.5
360.709	408.5
360.936	407.5
361.163	414.5
361.39	400.5
361.616	406.5
361.843	401.5
362.07	428.5
362.296	411.5
362.523	405.5
362.749	416.5
362.976	416.5
363.203	396.5
363.429	399.5
363.656	393.5
363.882	394.5
364.109	406.5
364.335	408.5
364.562	398.5
364.788	385.5
365.015	397.5
365.241	399.5
365.468	420.5
365.694	395.5
365.92	395.5
366.147	396.5
366.373	398.5
366.599	408.5
366.826	408.5
367.052	404.5
367.278	381.5
367.505	393.5
367.731	388.5
367.957	392.5
368.184	399.5
368.41	415.5
368.636	410.5
368.862	409.5
369.089	389.5
369.315	394.5
369.541	397.5
369.767	396.5
369.993	380.5
370.219	397.5
370.445	387.5
370.672	417.5
370.898	406.5
371.124	402.5
371.35	399.5
371.576	396.5
371.802	408.5
372.028	404.5
372.254	398.5
372.48	403.5
372.706	401.5
372.932	412.5
373.158	417.5
373.384	408.5
373.61	407.5
373.835	413.5
374.061	413.5
374.287	408.5
374.513	403.5
374.739	420.5
374.965	416.5
375.191	419.5
375.416	420.5
375.642	406.5
375.868	416.5
376.094	404.5
376.319	399.5
376.545	393.5
376.771	387.5
376.997	404.5
377.222	409.5
377.448	414.5
377.674	399.5
377.899	393.5
378.125	395.5
378.35	381.5
378.576	394.5
378.802	383.5
379.027	421.5
379.253	415.5
379.478	396.5
379.704	396.5
379.929	395.5
380.155	400.5
380.38	427.5
380.606	408.5
380.831	399.5
381.057	410.5
381.282	404.5
381.507	418.5
381.733	421.5
381.958	413.5
382.184	419.5
382.409	424.5
382.634	439.5
382.86	430.5
383.085	425.5
383.31	428.5
383.535	419.5
383.761	439.5
383.986	452.5
384.211	432.5
384.436	451.5
384.662	436.5
384.887	438.5
385.112	440.5
385.337	444.5
385.562	468.5
385.787	443.5
386.013	447.5
386.238	457.5
386.463	455.5
386.688	440.5
386.913	446.5
387.138	451.5
387.363	457.5
387.588	447.5
387.813	443.5
388.038	463.5
388.263	463.5
388.488	463.5
388.713	451.5
388.938	471.5
389.163	426.5
389.387	453.5
389.612	438.5
389.837	469.5
390.062	443.5
390.287	447.5
390.512	459.5
390.736	459.5
390.961	476.5
391.186	472.5
391.411	448.5
391.636	464.5
391.86	477.5
392.085	496.5
392.31	473.5
392.534	487.5
392.759	455.5
392.984	454.5
393.208	456.5
393.433	477.5
393.658	471.5
393.882	453.5
394.107	447.5
394.331	444.5
394.556	462.5
394.78	475.5
395.005	473.5
395.229	463.5
395.454	477.5
395.678	464.5
395.903	475.5
396.127	528.5
396.352	491.5
396.576	475.5
396.801	470.5
397.025	476.5
397.249	489.5
397.474	481.5
397.698	514.5
397.922	517.5
398.147	525.5
398.371	528.5
398.595	521.5
398.82	513.5
399.044	532.5
399.268	569.5
399.492	595.5
399.717	621.5
399.941	649.5
400.165	661.5
400.389	683.5
400.613	615.5
400.837	578.5
401.062	546.5
401.286	510.5
401.51	559.5
401.734	517.5
401.958	526.5
402.182	516.5
402.406	542.5
402.63	525.5
402.854	550.5
403.078	560.5
403.302	547.5
403.526	549.5
403.75	574.5
403.974	560.5
404.198	548.5
404.422	533.5
404.645	547.5
404.869	546.5
405.093	576.5
405.317	632.5
405.541	669.5
405.765	601.5
405.988	589.5
406.212	574.5
406.436	575.5
406.66	609.5
406.883	604.5
407.107	624.5
407.331	638.5
407.555	711.5
407.778	726.5
408.002	635.5
408.226	600.5
408.449	595.5
408.673	589.5
408.896	612.5
409.12	652.5
409.344	616.5
409.567	563.5
409.791	569.5
410.014	527.5
410.238	532.5
410.461	545.5
410.685	563.5
410.908	561.5
411.132	593.5
411.355	631.5
411.578	608.5
411.802	560.5
412.025	537.5
412.249	554.5
412.472	549.5
412.695	604.5
412.919	604.5
413.142	564.5
413.365	557.5
413.589	526.5
413.812	511.5
414.035	509.5
414.258	515.5
414.482	522.5
414.705	551.5
414.928	513.5
415.151	505.5
415.374	505.5
415.597	529.5
415.821	515.5
416.044	512.5
416.267	493.5
416.49	503.5
416.713	498.5
416.936	506.5
417.159	500.5
417.382	529.5
417.605	543.5
417.828	532.5
418.051	556.5
418.274	525.5
418.497	529.5
418.72	505.5
418.943	530.5
419.166	537.5
419.389	578.5
419.611	563.5
419.834	522.5
420.057	562.5
420.28	553.5
420.503	510.5
420.726	544.5
420.948	569.5
421.171	595.5
421.394	616.5
421.617	554.5
421.839	518.5
422.062	527.5
422.285	542.5
422.507	610.5
422.73	688.5
422.953	661.5
423.175	575.5
423.398	557.5
423.621	537.5
423.843	578.5
424.066	583.5
424.288	581.5
424.511	567.5
424.733	640.5
424.956	704.5
425.178	684.5
425.401	665.5
425.623	715.5
425.846	639.5
426.068	563.5
426.291	573.5
426.513	563.5
426.735	581.5
426.958	603.5
427.18	651.5
427.402	797.5
427.625	856.5
427.847	731.5
428.069	629.5
428.292	577.5
428.514	568.5
428.736	542.5
428.958	516.5
429.181	517.5
429.403	490.5
429.625	521.5
429.847	569.5
430.069	607.5
430.292	618.5
430.514	540.5
430.736	541.5
430.958	523.5
431.18	505.5
431.402	474.5
431.624	494.5
431.846	506.5
432.068	472.5
432.29	489.5
432.512	494.5
432.734	489.5
432.956	481.5
433.178	494.5
433.4	500.5
433.622	474.5
433.844	497.5
434.066	510.5
434.287	503.5
434.509	512.5
434.731	509.5
434.953	524.5
435.175	539.5
435.397	577.5
435.618	580.5
435.84	593.5
436.062	676.5
436.284	736.5
436.505	610.5
436.727	563.5
436.949	547.5
437.17	517.5
437.392	526.5
437.614	535.5
437.835	551.5
438.057	654.5
438.278	724.5
438.5	729.5
438.721	823.5
438.943	777.5
439.165	617.5
439.386	575.5
439.608	539.5
439.829	565.5
440.05	586.5
440.272	590.5
440.493	581.5
440.715	527.5
440.936	537.5
441.158	566.5
441.379	528.5
441.6	543.5
441.822	548.5
442.043	574.5
442.264	677.5
442.486	721.5
442.707	606.5
442.928	585.5
443.149	573.5
443.371	590.5
443.592	635.5
443.813	763.5
444.034	781.5
444.255	649.5
444.476	599.5
444.698	595.5
444.919	604.5
445.14	724.5
445.361	641.5
445.582	614.5
445.803	634.5
446.024	750.5
446.245	731.5
446.466	672.5
446.687	568.5
446.908	567.5
447.129	531.5
447.35	518.5
447.571	537.5
447.792	515.5
448.013	515.5
448.234	516.5
448.455	570.5
448.675	668.5
448.896	761.5
449.117	665.5
449.338	608.5
449.559	730.5
449.779	840.5
450	667.5
450.221	548.5
450.442	507.5
450.662	510.5
450.883	495.5
451.104	484.5
451.324	478.5
451.545	478.5
451.766	455.5
451.986	470.5
452.207	450.5
452.428	433.5
452.648	454.5
452.869	465.5
453.089	470.5
453.31	451.5
453.53	460.5
453.751	455.5
453.971	452.5
454.192	477.5
454.412	443.5
454.633	449.5
454.853	456.5
455.073	449.5
455.294	476.5
455.514	536.5
455.734	509.5
455.955	460.5
456.175	439.5
456.395	409.5
456.616	447.5
456.836	454.5
457.056	451.5
457.276	440.5
457.497	425.5
457.717	443.5
457.937	436.5
458.157	442.5
458.377	473.5
458.598	457.5
458.818	509.5
459.038	576.5
459.258	595.5
459.478	529.5
459.698	494.5
459.918	507.5
460.138	479.5
460.358	522.5
460.578	508.5
460.798	512.5
461.018	541.5
461.238	545.5
461.458	528.5
461.678	502.5
461.898	505.5
462.118	490.5
462.338	549.5
462.558	533.5
462.777	548.5
462.997	569.5
463.217	587.5
463.437	583.5
463.657	577.5
463.876	599.5
464.096	565.5
464.316	551.5
464.536	572.5
464.755	565.5
464.975	558.5
465.195	559.5
465.414	608.5
465.634	556.5
465.854	515.5
466.073	492.5
466.293	479.5
466.512	476.5
466.732	495.5
466.951	464.5
467.171	463.5
467.391	459.5
467.61	475.5
467.829	471.5
468.049	488.5
468.268	465.5
468.488	464.5
468.707	462.5
468.927	477.5
469.146	461.5
469.365	466.5
469.585	461.5
469.804	481.5
470.023	473.5
470.243	492.5
470.462	490.5
470.681	495.5
470.901	499.5
471.12	491.5
471.339	460.5
471.558	484.5
471.777	478.5
471.997	475.5
472.216	509.5
472.435	481.5
472.654	481.5
472.873	470.5
473.092	477.5
473.311	467.5
473.53	463.5
473.749	459.5
473.968	521.5
474.187	589.5
474.406	608.5
474.625	532.5
474.844	502.5
475.063	483.5
475.282	459.5
475.501	493.5
475.72	475.5
475.939	490.5
476.158	499.5
476.377	504.5
476.596	494.5
476.814	507.5
477.033	521.5
477.252	517.5
477.471	529.5
477.69	507.5
477.908	530.5
478.127	512.5
478.346	518.5
478.564	548.5
478.783	532.5
479.002	568.5
479.22	571.5
479.439	559.5
479.658	583.5
479.876	571.5
480.095	584.5
480.313	607.5
480.532	598.5
480.751	608.5
480.969	597.5
481.188	644.5
481.406	665.5
481.624	611.5
481.843	565.5
482.061	556.5
482.28	570.5
482.498	558.5
482.717	541.5
482.935	544.5
483.153	573.5
483.372	538.5
483.59	552.5
483.808	558.5
484.027	557.5
484.245	560.5
484.463	569.5
484.681	569.5
484.9	558.5
485.118	582.5
485.336	573.5
485.554	585.5
485.772	559.5
485.99	572.5
486.209	569.5
486.427	566.5
486.645	594.5
486.863	592.5
487.081	601.5
487.299	579.5
487.517	591.5
487.735	591.5
487.953	606.5
488.171	591.5
488.389	589.5
488.607	604.5
488.825	589.5
489.043	620.5
489.261	573.5
489.479	608.5
489.696	609.5
489.914	626.5
490.132	621.5
490.35	617.5
490.568	614.5
490.786	635.5
491.003	657.5
491.221	622.5
491.439	635.5
491.657	675.5
491.874	685.5
492.092	663.5
492.31	695.5
492.527	692.5
492.745	664.5
492.963	654.5
493.18	654.5
493.398	670.5
493.615	676.5
493.833	692.5
494.05	726.5
494.268	674.5
494.485	693.5
494.703	683.5
494.92	693.5
495.138	684.5
495.355	721.5
495.573	686.5
495.79	703.5
496.008	699.5
496.225	687.5
496.442	704.5
496.66	710.5
496.877	702.5
497.094	705.5
497.312	720.5
497.529	732.5
497.746	734.5
497.963	741.5
498.181	773.5
498.398	775.5
498.615	787.5
498.832	830.5
499.049	834.5
499.267	862.5
499.484	911.5
499.701	949.5
499.918	1001.5
500.135	1040.5
500.352	1107.5
500.569	1134.5
500.786	1139.5
501.003	1118.5
501.22	1056.5
501.437	1006.5
501.654	981.5
501.871	938.5
502.088	907.5
502.305	852.5
502.522	844.5
502.739	827.5
502.956	792.5
503.172	776.5
503.389	755.5
503.606	747.5
503.823	720.5
504.04	733.5
504.256	726.5
504.473	725.5
504.69	726.5
504.907	697.5
505.123	724.5
505.34	689.5
505.557	671.5
505.773	672.5
505.99	646.5
506.207	663.5
506.423	675.5
506.64	660.5
506.856	631.5
507.073	643.5
507.289	642.5
507.506	638.5
507.722	627.5
507.939	655.5
508.155	640.5
508.372	614.5
508.588	611.5
508.805	610.5
509.021	612.5
509.238	607.5
509.454	604.5
509.67	619.5
509.887	629.5
510.103	615.5
510.319	613.5
510.536	694.5
510.752	930.5
510.968	797.5
511.184	633.5
511.401	577.5
511.617	575.5
511.833	566.5
512.049	563.5
512.265	567.5
512.481	559.5
512.698	598.5
512.914	585.5
513.13	566.5
513.346	593.5
513.562	581.5
513.778	551.5
513.994	578.5
514.21	583.5
514.426	592.5
514.642	614.5
514.858	631.5
515.074	661.5
515.29	721.5
515.506	911.5
515.721	815.5
515.937	653.5
516.153	615.5
516.369	590.5
516.585	606.5
516.801	611.5
517.016	596.5
517.232	616.5
517.448	653.5
517.664	633.5
517.879	630.5
518.095	623.5
518.311	600.5
518.527	627.5
518.742	623.5
518.958	587.5
519.173	616.5
519.389	582.5
519.605	592.5
