Data from 1976.PennyLincolnUp.Lamp.En5.5.200Scan.071719.P1.Changed Mount._HRD10591_16-00-08-861.txt Node
Date: Thu Jul 18 16:00:08 EDT 2019
User: cochatt
Spectrometer: HR+D1059
Trigger mode: 1
Integration Time (sec): 1.000000E-1
Scans to average: 1
Electric dark correction enabled: true
Nonlinearity correction enabled: false
Boxcar width: 0
XAxis mode: Wavelengths
Number of Pixels in Spectrum: 2048
>>>>>Begin Spectral Data<<<<<
223.165	-25.31
223.4	-25.31
223.635	-25.31
223.869	-21.31
224.104	-22.31
224.338	-12.31
224.573	-7.31
224.808	-9.31
225.042	2.69
225.277	-5.31
225.511	-9.31
225.746	3.69
225.98	-0.31
226.215	2.69
226.449	12.69
226.683	23.69
226.918	24.69
227.152	42.69
227.387	34.69
227.621	28.69
227.856	44.69
228.09	42.69
228.324	50.69
228.559	42.69
228.793	70.69
229.027	94.69
229.262	98.69
229.496	117.69
229.73	114.69
229.964	136.69
230.199	107.69
230.433	120.69
230.667	110.69
230.901	118.69
231.136	108.69
231.37	99.69
231.604	105.69
231.838	129.69
232.072	100.69
232.306	112.69
232.541	112.69
232.775	86.69
233.009	109.69
233.243	97.69
233.477	119.69
233.711	116.69
233.945	118.69
234.179	120.69
234.413	119.69
234.647	106.69
234.881	108.69
235.115	125.69
235.349	118.69
235.583	117.69
235.817	124.69
236.051	125.69
236.285	127.69
236.519	119.69
236.753	121.69
236.987	124.69
237.221	164.69
237.455	211.69
237.689	168.69
237.922	150.69
238.156	132.69
238.39	132.69
238.624	116.69
238.858	130.69
239.091	113.69
239.325	123.69
239.559	128.69
239.793	115.69
240.027	131.69
240.26	122.69
240.494	150.69
240.728	142.69
240.961	157.69
241.195	140.69
241.429	143.69
241.662	119.69
241.896	132.69
242.13	131.69
242.363	133.69
242.597	143.69
242.83	134.69
243.064	130.69
243.298	142.69
243.531	137.69
243.765	141.69
243.998	142.69
244.232	146.69
244.465	147.69
244.699	137.69
244.932	131.69
245.166	155.69
245.399	140.69
245.633	148.69
245.866	147.69
246.099	143.69
246.333	134.69
246.566	147.69
246.8	165.69
247.033	152.69
247.266	150.69
247.5	160.69
247.733	167.69
247.966	165.69
248.2	168.69
248.433	152.69
248.666	183.69
248.899	175.69
249.133	201.69
249.366	202.69
249.599	183.69
249.832	184.69
250.066	187.69
250.299	183.69
250.532	193.69
250.765	206.69
250.998	221.69
251.231	217.69
251.465	200.69
251.698	204.69
251.931	172.69
252.164	194.69
252.397	192.69
252.63	202.69
252.863	200.69
253.096	197.69
253.329	228.69
253.562	209.69
253.795	205.69
254.028	204.69
254.261	201.69
254.494	204.69
254.727	255.69
254.96	259.69
255.193	258.69
255.426	250.69
255.659	224.69
255.892	219.69
256.124	227.69
256.357	236.69
256.59	219.69
256.823	206.69
257.056	210.69
257.289	204.69
257.521	210.69
257.754	204.69
257.987	199.69
258.22	202.69
258.452	205.69
258.685	218.69
258.918	212.69
259.151	217.69
259.383	218.69
259.616	226.69
259.849	228.69
260.081	223.69
260.314	243.69
260.547	261.69
260.779	224.69
261.012	212.69
261.244	224.69
261.477	211.69
261.71	218.69
261.942	218.69
262.175	215.69
262.407	236.69
262.64	211.69
262.872	203.69
263.105	214.69
263.337	214.69
263.57	208.69
263.802	224.69
264.035	207.69
264.267	219.69
264.499	223.69
264.732	212.69
264.964	211.69
265.197	209.69
265.429	228.69
265.661	230.69
265.894	232.69
266.126	224.69
266.358	218.69
266.591	225.69
266.823	225.69
267.055	233.69
267.287	229.69
267.52	220.69
267.752	223.69
267.984	229.69
268.216	236.69
268.448	224.69
268.681	232.69
268.913	232.69
269.145	239.69
269.377	277.69
269.609	276.69
269.841	248.69
270.073	266.69
270.306	247.69
270.538	292.69
270.77	319.69
271.002	274.69
271.234	286.69
271.466	262.69
271.698	308.69
271.93	314.69
272.162	322.69
272.394	280.69
272.626	276.69
272.858	276.69
273.09	271.69
273.322	268.69
273.553	275.69
273.785	255.69
274.017	265.69
274.249	270.69
274.481	252.69
274.713	259.69
274.945	272.69
275.176	256.69
275.408	259.69
275.64	255.69
275.872	250.69
276.104	277.69
276.335	272.69
276.567	273.69
276.799	288.69
277.031	301.69
277.262	316.69
277.494	298.69
277.726	314.69
277.957	268.69
278.189	277.69
278.421	276.69
278.652	280.69
278.884	264.69
279.115	269.69
279.347	275.69
279.579	273.69
279.81	271.69
280.042	276.69
280.273	270.69
280.505	270.69
280.736	288.69
280.968	290.69
281.199	258.69
281.431	288.69
281.662	278.69
281.894	267.69
282.125	284.69
282.356	297.69
282.588	281.69
282.819	300.69
283.051	288.69
283.282	275.69
283.513	284.69
283.745	285.69
283.976	298.69
284.207	300.69
284.439	259.69
284.67	287.69
284.901	275.69
285.132	299.69
285.364	254.69
285.595	280.69
285.826	291.69
286.057	284.69
286.288	293.69
286.52	291.69
286.751	286.69
286.982	282.69
287.213	292.69
287.444	291.69
287.675	288.69
287.906	310.69
288.138	314.69
288.369	307.69
288.6	315.69
288.831	304.69
289.062	298.69
289.293	287.69
289.524	287.69
289.755	293.69
289.986	306.69
290.217	284.69
290.448	313.69
290.679	298.69
290.91	298.69
291.141	308.69
291.371	306.69
291.602	286.69
291.833	291.69
292.064	304.69
292.295	295.69
292.526	316.69
292.757	297.69
292.987	303.69
293.218	308.69
293.449	314.69
293.68	318.69
293.91	293.69
294.141	300.69
294.372	304.69
294.603	283.69
294.833	301.69
295.064	302.69
295.295	290.69
295.525	278.69
295.756	292.69
295.987	318.69
296.217	324.69
296.448	324.69
296.679	309.69
296.909	307.69
297.14	316.69
297.37	306.69
297.601	307.69
297.831	319.69
298.062	320.69
298.292	315.69
298.523	302.69
298.753	328.69
298.984	329.69
299.214	314.69
299.445	314.69
299.675	308.69
299.905	336.69
300.136	323.69
300.366	310.69
300.597	314.69
300.827	304.69
301.057	326.69
301.288	339.69
301.518	326.69
301.748	316.69
301.979	336.69
302.209	335.69
302.439	326.69
302.669	338.69
302.9	333.69
303.13	340.69
303.36	315.69
303.59	297.69
303.82	324.69
304.051	341.69
304.281	345.69
304.511	331.69
304.741	347.69
304.971	340.69
305.201	338.69
305.431	339.69
305.661	327.69
305.891	323.69
306.121	337.69
306.352	344.69
306.582	336.69
306.812	330.69
307.042	344.69
307.272	352.69
307.502	352.69
307.731	353.69
307.961	346.69
308.191	338.69
308.421	341.69
308.651	331.69
308.881	340.69
309.111	336.69
309.341	341.69
309.571	354.69
309.8	370.69
310.03	362.69
310.26	350.69
310.49	346.69
310.72	382.69
310.949	368.69
311.179	384.69
311.409	349.69
311.639	375.69
311.868	364.69
312.098	356.69
312.328	375.69
312.557	362.69
312.787	384.69
313.017	379.69
313.246	372.69
313.476	383.69
313.706	382.69
313.935	370.69
314.165	363.69
314.394	376.69
314.624	378.69
314.853	364.69
315.083	364.69
315.312	376.69
315.542	379.69
315.771	358.69
316.001	374.69
316.23	371.69
316.46	389.69
316.689	387.69
316.919	380.69
317.148	403.69
317.377	398.69
317.607	400.69
317.836	379.69
318.065	363.69
318.295	375.69
318.524	388.69
318.753	379.69
318.983	372.69
319.212	373.69
319.441	381.69
319.67	396.69
319.9	386.69
320.129	357.69
320.358	358.69
320.587	390.69
320.816	387.69
321.046	385.69
321.275	381.69
321.504	399.69
321.733	371.69
321.962	397.69
322.191	384.69
322.42	414.69
322.649	415.69
322.878	417.69
323.108	417.69
323.337	440.69
323.566	445.69
323.795	486.69
324.024	510.69
324.253	583.69
324.482	764.69
324.71	1146.69
324.939	1725.69
325.168	1471.69
325.397	765.69
325.626	562.69
325.855	474.69
326.084	452.69
326.313	439.69
326.542	463.69
326.77	481.69
326.999	547.69
327.228	723.69
327.457	1069.69
327.686	1276.69
327.914	854.69
328.143	576.69
328.372	519.69
328.6	521.69
328.829	494.69
329.058	504.69
329.287	491.69
329.515	503.69
329.744	461.69
329.972	471.69
330.201	480.69
330.43	492.69
330.658	517.69
330.887	529.69
331.115	510.69
331.344	482.69
331.572	467.69
331.801	473.69
332.03	463.69
332.258	450.69
332.486	464.69
332.715	451.69
332.943	448.69
333.172	461.69
333.4	459.69
333.629	474.69
333.857	490.69
334.085	500.69
334.314	514.69
334.542	504.69
334.771	523.69
334.999	483.69
335.227	472.69
335.455	472.69
335.684	454.69
335.912	461.69
336.14	450.69
336.369	434.69
336.597	455.69
336.825	448.69
337.053	451.69
337.281	431.69
337.51	444.69
337.738	434.69
337.966	427.69
338.194	439.69
338.422	434.69
338.65	425.69
338.878	419.69
339.106	432.69
339.334	445.69
339.562	428.69
339.79	454.69
340.018	420.69
340.246	434.69
340.474	423.69
340.702	430.69
340.93	414.69
341.158	425.69
341.386	434.69
341.614	448.69
341.842	434.69
342.07	427.69
342.298	426.69
342.526	402.69
342.754	407.69
342.981	419.69
343.209	419.69
343.437	421.69
343.665	440.69
343.893	446.69
344.12	479.69
344.348	446.69
344.576	450.69
344.804	448.69
345.031	445.69
345.259	462.69
345.487	427.69
345.714	428.69
345.942	414.69
346.17	424.69
346.397	412.69
346.625	414.69
346.853	418.69
347.08	425.69
347.308	418.69
347.535	421.69
347.763	428.69
347.99	436.69
348.218	419.69
348.445	434.69
348.673	408.69
348.9	415.69
349.128	406.69
349.355	404.69
349.583	403.69
349.81	398.69
350.037	386.69
350.265	405.69
350.492	392.69
350.72	431.69
350.947	410.69
351.174	396.69
351.402	415.69
351.629	382.69
351.856	396.69
352.083	390.69
352.311	405.69
352.538	414.69
352.765	409.69
352.992	414.69
353.22	404.69
353.447	402.69
353.674	420.69
353.901	406.69
354.128	409.69
354.355	416.69
354.583	392.69
354.81	396.69
355.037	395.69
355.264	390.69
355.491	402.69
355.718	377.69
355.945	388.69
356.172	394.69
356.399	381.69
356.626	379.69
356.853	393.69
357.08	401.69
357.307	393.69
357.534	380.69
357.761	408.69
357.988	412.69
358.215	387.69
358.441	389.69
358.668	391.69
358.895	390.69
359.122	396.69
359.349	406.69
359.576	429.69
359.802	416.69
360.029	435.69
360.256	450.69
360.483	449.69
360.709	418.69
360.936	414.69
361.163	400.69
361.39	404.69
361.616	402.69
361.843	401.69
362.07	418.69
362.296	400.69
362.523	405.69
362.749	394.69
362.976	414.69
363.203	405.69
363.429	388.69
363.656	401.69
363.882	390.69
364.109	405.69
364.335	406.69
364.562	404.69
364.788	398.69
365.015	390.69
365.241	411.69
365.468	398.69
365.694	386.69
365.92	412.69
366.147	393.69
366.373	393.69
366.599	399.69
366.826	375.69
367.052	376.69
367.278	391.69
367.505	394.69
367.731	406.69
367.957	388.69
368.184	424.69
368.41	408.69
368.636	406.69
368.862	437.69
369.089	413.69
369.315	400.69
369.541	408.69
369.767	394.69
369.993	393.69
370.219	406.69
370.445	403.69
370.672	389.69
370.898	380.69
371.124	388.69
371.35	400.69
371.576	393.69
371.802	400.69
372.028	396.69
372.254	408.69
372.48	429.69
372.706	410.69
372.932	422.69
373.158	419.69
373.384	410.69
373.61	411.69
373.835	390.69
374.061	392.69
374.287	419.69
374.513	420.69
374.739	412.69
374.965	430.69
375.191	421.69
375.416	412.69
375.642	414.69
375.868	402.69
376.094	391.69
376.319	401.69
376.545	386.69
376.771	400.69
376.997	393.69
377.222	414.69
377.448	397.69
377.674	392.69
377.899	394.69
378.125	379.69
378.35	390.69
378.576	401.69
378.802	385.69
379.027	410.69
379.253	394.69
379.478	398.69
379.704	409.69
379.929	399.69
380.155	392.69
380.38	420.69
380.606	388.69
380.831	400.69
381.057	418.69
381.282	411.69
381.507	405.69
381.733	386.69
381.958	402.69
382.184	401.69
382.409	416.69
382.634	414.69
382.86	419.69
383.085	409.69
383.31	412.69
383.535	415.69
383.761	431.69
383.986	417.69
384.211	424.69
384.436	451.69
384.662	443.69
384.887	452.69
385.112	438.69
385.337	449.69
385.562	444.69
385.787	445.69
386.013	458.69
386.238	481.69
386.463	459.69
386.688	430.69
386.913	424.69
387.138	418.69
387.363	458.69
387.588	454.69
387.813	436.69
388.038	446.69
388.263	443.69
388.488	440.69
388.713	452.69
388.938	463.69
389.163	480.69
389.387	468.69
389.612	461.69
389.837	437.69
390.062	443.69
390.287	449.69
390.512	425.69
390.736	457.69
390.961	463.69
391.186	469.69
391.411	457.69
391.636	466.69
391.86	450.69
392.085	460.69
392.31	482.69
392.534	473.69
392.759	484.69
392.984	464.69
393.208	448.69
393.433	461.69
393.658	454.69
393.882	447.69
394.107	471.69
394.331	462.69
394.556	458.69
394.78	453.69
395.005	464.69
395.229	464.69
395.454	464.69
395.678	477.69
395.903	506.69
396.127	488.69
396.352	516.69
396.576	483.69
396.801	483.69
397.025	490.69
397.249	463.69
397.474	510.69
397.698	491.69
397.922	524.69
398.147	516.69
398.371	511.69
398.595	518.69
398.82	513.69
399.044	543.69
399.268	544.69
399.492	598.69
399.717	667.69
399.941	655.69
400.165	663.69
400.389	664.69
400.613	623.69
400.837	555.69
401.062	546.69
401.286	536.69
401.51	524.69
401.734	535.69
401.958	519.69
402.182	521.69
402.406	515.69
402.63	554.69
402.854	550.69
403.078	560.69
403.302	555.69
403.526	570.69
403.75	564.69
403.974	554.69
404.198	552.69
404.422	560.69
404.645	557.69
404.869	542.69
405.093	567.69
405.317	636.69
405.541	656.69
405.765	582.69
405.988	560.69
406.212	579.69
406.436	568.69
406.66	597.69
406.883	573.69
407.107	602.69
407.331	654.69
407.555	730.69
407.778	680.69
408.002	653.69
408.226	614.69
408.449	605.69
408.673	588.69
408.896	602.69
409.12	667.69
409.344	626.69
409.567	585.69
409.791	574.69
410.014	550.69
410.238	534.69
410.461	519.69
410.685	544.69
410.908	588.69
411.132	585.69
411.355	616.69
411.578	606.69
411.802	543.69
412.025	543.69
412.249	550.69
412.472	580.69
412.695	628.69
412.919	612.69
413.142	536.69
413.365	528.69
413.589	519.69
413.812	528.69
414.035	511.69
414.258	513.69
414.482	504.69
414.705	511.69
414.928	526.69
415.151	511.69
415.374	499.69
415.597	490.69
415.821	519.69
416.044	500.69
416.267	506.69
416.49	509.69
416.713	485.69
416.936	500.69
417.159	526.69
417.382	536.69
417.605	495.69
417.828	515.69
418.051	554.69
418.274	527.69
418.497	522.69
418.72	511.69
418.943	505.69
419.166	532.69
419.389	549.69
419.611	558.69
419.834	536.69
420.057	563.69
420.28	534.69
420.503	518.69
420.726	536.69
420.948	538.69
421.171	582.69
421.394	587.69
421.617	532.69
421.839	544.69
422.062	539.69
422.285	531.69
422.507	593.69
422.73	662.69
422.953	631.69
423.175	578.69
423.398	568.69
423.621	552.69
423.843	542.69
424.066	580.69
424.288	560.69
424.511	584.69
424.733	638.69
424.956	711.69
425.178	656.69
425.401	654.69
425.623	682.69
425.846	620.69
426.068	559.69
426.291	537.69
426.513	554.69
426.735	582.69
426.958	584.69
427.18	680.69
427.402	793.69
427.625	852.69
427.847	732.69
428.069	638.69
428.292	583.69
428.514	546.69
428.736	524.69
428.958	533.69
429.181	511.69
429.403	502.69
429.625	524.69
429.847	548.69
430.069	623.69
430.292	596.69
430.514	534.69
430.736	503.69
430.958	525.69
431.18	490.69
431.402	500.69
431.624	499.69
431.846	498.69
432.068	486.69
432.29	505.69
432.512	474.69
432.734	523.69
432.956	512.69
433.178	507.69
433.4	504.69
433.622	488.69
433.844	494.69
434.066	477.69
434.287	500.69
434.509	499.69
434.731	520.69
434.953	534.69
435.175	528.69
435.397	562.69
435.618	556.69
435.84	593.69
436.062	668.69
436.284	748.69
436.505	613.69
436.727	558.69
436.949	517.69
437.17	495.69
437.392	502.69
437.614	540.69
437.835	542.69
438.057	631.69
438.278	706.69
438.5	731.69
438.721	794.69
438.943	767.69
439.165	619.69
439.386	546.69
439.608	551.69
439.829	568.69
440.05	576.69
440.272	623.69
440.493	583.69
440.715	523.69
440.936	526.69
441.158	508.69
441.379	525.69
441.6	555.69
441.822	551.69
442.043	602.69
442.264	648.69
442.486	690.69
442.707	603.69
442.928	578.69
443.149	562.69
443.371	579.69
443.592	629.69
443.813	707.69
444.034	767.69
444.255	656.69
444.476	596.69
444.698	592.69
444.919	581.69
445.14	722.69
445.361	622.69
445.582	588.69
445.803	648.69
446.024	720.69
446.245	717.69
446.466	686.69
446.687	605.69
446.908	557.69
447.129	528.69
447.35	525.69
447.571	514.69
447.792	494.69
448.013	500.69
448.234	524.69
448.455	575.69
448.675	666.69
448.896	780.69
449.117	665.69
449.338	615.69
449.559	751.69
449.779	791.69
450	648.69
450.221	550.69
450.442	490.69
450.662	487.69
450.883	473.69
451.104	502.69
451.324	497.69
451.545	483.69
451.766	480.69
451.986	431.69
452.207	450.69
452.428	446.69
452.648	440.69
452.869	460.69
453.089	452.69
453.31	457.69
453.53	442.69
453.751	452.69
453.971	457.69
454.192	459.69
454.412	454.69
454.633	442.69
454.853	446.69
455.073	445.69
455.294	463.69
455.514	533.69
455.734	520.69
455.955	442.69
456.175	420.69
456.395	433.69
456.616	406.69
456.836	437.69
457.056	422.69
457.276	415.69
457.497	415.69
457.717	442.69
457.937	431.69
458.157	436.69
458.377	440.69
458.598	456.69
458.818	494.69
459.038	549.69
459.258	575.69
459.478	508.69
459.698	508.69
459.918	489.69
460.138	526.69
460.358	494.69
460.578	504.69
460.798	509.69
461.018	503.69
461.238	494.69
461.458	512.69
461.678	522.69
461.898	503.69
462.118	541.69
462.338	546.69
462.558	542.69
462.777	553.69
462.997	576.69
463.217	585.69
463.437	589.69
463.657	560.69
463.876	560.69
464.096	535.69
464.316	551.69
464.536	566.69
464.755	566.69
464.975	538.69
465.195	556.69
465.414	583.69
465.634	567.69
465.854	524.69
466.073	498.69
466.293	477.69
466.512	473.69
466.732	461.69
466.951	451.69
467.171	489.69
467.391	469.69
467.61	486.69
467.829	483.69
468.049	491.69
468.268	472.69
468.488	447.69
468.707	447.69
468.927	467.69
469.146	474.69
469.365	459.69
469.585	463.69
469.804	473.69
470.023	461.69
470.243	501.69
470.462	472.69
470.681	478.69
470.901	486.69
471.12	491.69
471.339	477.69
471.558	495.69
471.777	492.69
471.997	482.69
472.216	484.69
472.435	478.69
472.654	493.69
472.873	475.69
473.092	470.69
473.311	463.69
473.53	474.69
473.749	482.69
473.968	489.69
474.187	596.69
474.406	632.69
474.625	521.69
474.844	483.69
475.063	498.69
475.282	465.69
475.501	467.69
475.72	496.69
475.939	476.69
476.158	484.69
476.377	490.69
476.596	494.69
476.814	498.69
477.033	498.69
477.252	521.69
477.471	526.69
477.69	506.69
477.908	537.69
478.127	520.69
478.346	530.69
478.564	521.69
478.783	535.69
479.002	546.69
479.22	535.69
479.439	550.69
479.658	564.69
479.876	581.69
480.095	575.69
480.313	602.69
480.532	600.69
480.751	598.69
480.969	597.69
481.188	618.69
481.406	642.69
481.624	598.69
481.843	562.69
482.061	574.69
482.28	581.69
482.498	574.69
482.717	546.69
482.935	529.69
483.153	556.69
483.372	534.69
483.59	550.69
483.808	555.69
484.027	538.69
484.245	549.69
484.463	550.69
484.681	551.69
484.9	559.69
485.118	579.69
485.336	578.69
485.554	577.69
485.772	582.69
485.99	585.69
486.209	575.69
486.427	562.69
486.645	570.69
486.863	591.69
487.081	620.69
487.299	583.69
487.517	571.69
487.735	582.69
487.953	600.69
488.171	599.69
488.389	603.69
488.607	592.69
488.825	585.69
489.043	584.69
489.261	566.69
489.479	578.69
489.696	595.69
489.914	590.69
490.132	614.69
490.35	621.69
490.568	626.69
490.786	628.69
491.003	635.69
491.221	650.69
491.439	664.69
491.657	650.69
491.874	661.69
492.092	668.69
492.31	670.69
492.527	651.69
492.745	690.69
492.963	686.69
493.18	694.69
493.398	686.69
493.615	670.69
493.833	692.69
494.05	690.69
494.268	700.69
494.485	692.69
494.703	712.69
494.92	683.69
495.138	697.69
495.355	692.69
495.573	697.69
495.79	690.69
496.008	704.69
496.225	681.69
496.442	687.69
496.66	697.69
496.877	714.69
497.094	703.69
497.312	730.69
497.529	720.69
497.746	730.69
497.963	734.69
498.181	793.69
498.398	764.69
498.615	797.69
498.832	798.69
499.049	858.69
499.267	869.69
499.484	922.69
499.701	930.69
499.918	975.69
500.135	1040.69
500.352	1097.69
500.569	1150.69
500.786	1154.69
501.003	1114.69
501.22	1075.69
501.437	1022.69
501.654	956.69
