Data from 1976.PennyLincolnUp.Lamp.En5.5.200Scan.071719.P1.Changed Mount._HRD10591_16-00-50-861.txt Node
Date: Thu Jul 18 16:00:50 EDT 2019
User: cochatt
Spectrometer: HR+D1059
Trigger mode: 1
Integration Time (sec): 1.000000E-1
Scans to average: 1
Electric dark correction enabled: true
Nonlinearity correction enabled: false
Boxcar width: 0
XAxis mode: Wavelengths
Number of Pixels in Spectrum: 2048
>>>>>Begin Spectral Data<<<<<
223.165	-18.88
223.4	-18.88
223.635	-18.88
223.869	-20.88
224.104	-8.88
224.338	-18.88
224.573	-15.88
224.808	-7.88
225.042	-4.88
225.277	-6.88
225.511	-7.88
225.746	-5.88
225.98	9.12
226.215	17.12
226.449	23.12
226.683	8.12
226.918	25.12
227.152	34.12
227.387	34.12
227.621	35.12
227.856	46.12
228.09	43.12
228.324	45.12
228.559	55.12
228.793	74.12
229.027	110.12
229.262	105.12
229.496	124.12
229.73	140.12
229.964	158.12
230.199	129.12
230.433	114.12
230.667	125.12
230.901	132.12
231.136	116.12
231.37	114.12
231.604	128.12
231.838	123.12
232.072	104.12
232.306	128.12
232.541	93.12
232.775	115.12
233.009	129.12
233.243	129.12
233.477	130.12
233.711	121.12
233.945	117.12
234.179	129.12
234.413	119.12
234.647	127.12
234.881	121.12
235.115	120.12
235.349	123.12
235.583	119.12
235.817	136.12
236.051	138.12
236.285	146.12
236.519	122.12
236.753	127.12
236.987	147.12
237.221	183.12
237.455	231.12
237.689	174.12
237.922	149.12
238.156	159.12
238.39	137.12
238.624	134.12
238.858	148.12
239.091	129.12
239.325	126.12
239.559	134.12
239.793	118.12
240.027	141.12
240.26	147.12
240.494	157.12
240.728	166.12
240.961	160.12
241.195	146.12
241.429	167.12
241.662	164.12
241.896	149.12
242.13	152.12
242.363	123.12
242.597	143.12
242.83	148.12
243.064	146.12
243.298	151.12
243.531	141.12
243.765	154.12
243.998	148.12
244.232	130.12
244.465	141.12
244.699	155.12
244.932	154.12
245.166	142.12
245.399	156.12
245.633	159.12
245.866	154.12
246.099	162.12
246.333	160.12
246.566	146.12
246.8	153.12
247.033	156.12
247.266	166.12
247.5	192.12
247.733	186.12
247.966	182.12
248.2	174.12
248.433	180.12
248.666	183.12
248.899	198.12
249.133	194.12
249.366	214.12
249.599	209.12
249.832	182.12
250.066	186.12
250.299	185.12
250.532	192.12
250.765	215.12
250.998	209.12
251.231	211.12
251.465	220.12
251.698	210.12
251.931	212.12
252.164	218.12
252.397	232.12
252.63	206.12
252.863	234.12
253.096	219.12
253.329	226.12
253.562	237.12
253.795	227.12
254.028	220.12
254.261	235.12
254.494	242.12
254.727	253.12
254.96	299.12
255.193	265.12
255.426	237.12
255.659	231.12
255.892	231.12
256.124	233.12
256.357	211.12
256.59	227.12
256.823	211.12
257.056	225.12
257.289	208.12
257.521	223.12
257.754	222.12
257.987	216.12
258.22	226.12
258.452	215.12
258.685	236.12
258.918	217.12
259.151	225.12
259.383	233.12
259.616	239.12
259.849	240.12
260.081	246.12
260.314	264.12
260.547	270.12
260.779	259.12
261.012	263.12
261.244	242.12
261.477	222.12
261.71	226.12
261.942	224.12
262.175	258.12
262.407	248.12
262.64	241.12
262.872	231.12
263.105	224.12
263.337	219.12
263.57	222.12
263.802	247.12
264.035	228.12
264.267	227.12
264.499	228.12
264.732	243.12
264.964	231.12
265.197	233.12
265.429	221.12
265.661	230.12
265.894	223.12
266.126	250.12
266.358	240.12
266.591	244.12
266.823	250.12
267.055	251.12
267.287	255.12
267.52	252.12
267.752	255.12
267.984	261.12
268.216	232.12
268.448	265.12
268.681	250.12
268.913	279.12
269.145	272.12
269.377	299.12
269.609	291.12
269.841	273.12
270.073	291.12
270.306	314.12
270.538	342.12
270.77	327.12
271.002	318.12
271.234	301.12
271.466	315.12
271.698	321.12
271.93	342.12
272.162	355.12
272.394	331.12
272.626	326.12
272.858	303.12
273.09	296.12
273.322	294.12
273.553	290.12
273.785	285.12
274.017	279.12
274.249	285.12
274.481	274.12
274.713	294.12
274.945	281.12
275.176	298.12
275.408	297.12
275.64	295.12
275.872	281.12
276.104	295.12
276.335	294.12
276.567	289.12
276.799	296.12
277.031	329.12
277.262	328.12
277.494	346.12
277.726	303.12
277.957	307.12
278.189	301.12
278.421	288.12
278.652	294.12
278.884	296.12
279.115	286.12
279.347	288.12
279.579	283.12
279.81	284.12
280.042	291.12
280.273	276.12
280.505	309.12
280.736	296.12
280.968	290.12
281.199	267.12
281.431	307.12
281.662	296.12
281.894	282.12
282.125	295.12
282.356	308.12
282.588	326.12
282.819	317.12
283.051	319.12
283.282	298.12
283.513	305.12
283.745	295.12
283.976	299.12
284.207	313.12
284.439	312.12
284.67	312.12
284.901	313.12
285.132	303.12
285.364	292.12
285.595	290.12
285.826	290.12
286.057	313.12
286.288	320.12
286.52	311.12
286.751	287.12
286.982	318.12
287.213	328.12
287.444	320.12
287.675	324.12
287.906	349.12
288.138	327.12
288.369	324.12
288.6	324.12
288.831	320.12
289.062	319.12
289.293	312.12
289.524	328.12
289.755	324.12
289.986	316.12
290.217	319.12
290.448	318.12
290.679	312.12
290.91	323.12
291.141	323.12
291.371	318.12
291.602	334.12
291.833	325.12
292.064	309.12
292.295	317.12
292.526	314.12
292.757	322.12
292.987	305.12
293.218	321.12
293.449	314.12
293.68	331.12
293.91	307.12
294.141	318.12
294.372	313.12
294.603	339.12
294.833	326.12
295.064	306.12
295.295	314.12
295.525	320.12
295.756	337.12
295.987	347.12
296.217	329.12
296.448	356.12
296.679	340.12
296.909	319.12
297.14	321.12
297.37	337.12
297.601	326.12
297.831	313.12
298.062	333.12
298.292	329.12
298.523	330.12
298.753	331.12
298.984	334.12
299.214	347.12
299.445	319.12
299.675	320.12
299.905	343.12
300.136	356.12
300.366	336.12
300.597	318.12
300.827	346.12
301.057	359.12
301.288	357.12
301.518	345.12
301.748	342.12
301.979	357.12
302.209	368.12
302.439	376.12
302.669	344.12
302.9	348.12
303.13	355.12
303.36	340.12
303.59	366.12
303.82	384.12
304.051	353.12
304.281	376.12
304.511	361.12
304.741	356.12
304.971	376.12
305.201	371.12
305.431	363.12
305.661	354.12
305.891	360.12
306.121	359.12
306.352	365.12
306.582	363.12
306.812	360.12
307.042	365.12
307.272	360.12
307.502	348.12
307.731	363.12
307.961	378.12
308.191	355.12
308.421	352.12
308.651	384.12
308.881	366.12
309.111	356.12
309.341	364.12
309.571	366.12
309.8	382.12
310.03	389.12
310.26	392.12
310.49	408.12
310.72	402.12
310.949	422.12
311.179	419.12
311.409	414.12
311.639	403.12
311.868	419.12
312.098	424.12
312.328	392.12
312.557	412.12
312.787	412.12
313.017	415.12
313.246	387.12
313.476	371.12
313.706	398.12
313.935	419.12
314.165	407.12
314.394	412.12
314.624	405.12
314.853	411.12
315.083	389.12
315.312	404.12
315.542	398.12
315.771	428.12
316.001	402.12
316.23	410.12
316.46	401.12
316.689	400.12
316.919	411.12
317.148	433.12
317.377	427.12
317.607	396.12
317.836	396.12
318.065	414.12
318.295	397.12
318.524	398.12
318.753	407.12
318.983	386.12
319.212	394.12
319.441	420.12
319.67	408.12
319.9	399.12
320.129	400.12
320.358	420.12
320.587	408.12
320.816	420.12
321.046	407.12
321.275	432.12
321.504	385.12
321.733	414.12
321.962	393.12
322.191	410.12
322.42	455.12
322.649	455.12
322.878	473.12
323.108	461.12
323.337	493.12
323.566	496.12
323.795	520.12
324.024	542.12
324.253	625.12
324.482	876.12
324.71	1327.12
324.939	1953.12
325.168	1670.12
325.397	849.12
325.626	633.12
325.855	525.12
326.084	492.12
326.313	484.12
326.542	483.12
326.77	507.12
326.999	601.12
327.228	813.12
327.457	1198.12
327.686	1463.12
327.914	995.12
328.143	662.12
328.372	579.12
328.6	540.12
328.829	554.12
329.058	562.12
329.287	550.12
329.515	532.12
329.744	505.12
329.972	508.12
330.201	520.12
330.43	552.12
330.658	569.12
330.887	611.12
331.115	582.12
331.344	526.12
331.572	493.12
331.801	527.12
332.03	515.12
332.258	511.12
332.486	488.12
332.715	498.12
332.943	503.12
333.172	488.12
333.4	494.12
333.629	492.12
333.857	517.12
334.085	528.12
334.314	515.12
334.542	561.12
334.771	570.12
334.999	530.12
335.227	524.12
335.455	507.12
335.684	506.12
335.912	478.12
336.14	487.12
336.369	470.12
336.597	512.12
336.825	487.12
337.053	477.12
337.281	467.12
337.51	464.12
337.738	503.12
337.966	473.12
338.194	467.12
338.422	484.12
338.65	472.12
338.878	460.12
339.106	459.12
339.334	461.12
339.562	446.12
339.79	455.12
340.018	472.12
340.246	466.12
340.474	441.12
340.702	492.12
340.93	477.12
341.158	478.12
341.386	452.12
341.614	462.12
341.842	450.12
342.07	451.12
342.298	446.12
342.526	450.12
342.754	445.12
342.981	435.12
343.209	452.12
343.437	466.12
343.665	460.12
343.893	455.12
344.12	488.12
344.348	477.12
344.576	478.12
344.804	461.12
345.031	460.12
345.259	460.12
345.487	452.12
345.714	449.12
345.942	463.12
346.17	460.12
346.397	424.12
346.625	450.12
346.853	435.12
347.08	442.12
347.308	446.12
347.535	447.12
347.763	455.12
347.99	457.12
348.218	446.12
348.445	446.12
348.673	447.12
348.9	432.12
349.128	460.12
349.355	417.12
349.583	434.12
349.81	417.12
350.037	420.12
350.265	426.12
350.492	433.12
350.72	431.12
350.947	431.12
351.174	428.12
351.402	459.12
351.629	424.12
351.856	427.12
352.083	454.12
352.311	452.12
352.538	456.12
352.765	455.12
352.992	438.12
353.22	439.12
353.447	418.12
353.674	426.12
353.901	435.12
354.128	430.12
354.355	403.12
354.583	413.12
354.81	404.12
355.037	426.12
355.264	432.12
355.491	409.12
355.718	394.12
355.945	402.12
356.172	411.12
356.399	426.12
356.626	417.12
356.853	424.12
357.08	416.12
357.307	424.12
357.534	407.12
357.761	415.12
357.988	411.12
358.215	404.12
358.441	423.12
358.668	410.12
358.895	421.12
359.122	429.12
359.349	426.12
359.576	441.12
359.802	473.12
360.029	456.12
360.256	480.12
360.483	458.12
360.709	420.12
360.936	438.12
361.163	432.12
361.39	424.12
361.616	435.12
361.843	438.12
362.07	418.12
362.296	443.12
362.523	404.12
362.749	423.12
362.976	439.12
363.203	435.12
363.429	403.12
363.656	424.12
363.882	408.12
364.109	429.12
364.335	404.12
364.562	404.12
364.788	435.12
365.015	453.12
365.241	421.12
365.468	435.12
365.694	442.12
365.92	416.12
366.147	427.12
366.373	419.12
366.599	404.12
366.826	410.12
367.052	416.12
367.278	421.12
367.505	430.12
367.731	422.12
367.957	431.12
368.184	419.12
368.41	426.12
368.636	450.12
368.862	442.12
369.089	435.12
369.315	431.12
369.541	408.12
369.767	405.12
369.993	417.12
370.219	426.12
370.445	421.12
370.672	414.12
370.898	435.12
371.124	410.12
371.35	432.12
371.576	419.12
371.802	441.12
372.028	432.12
372.254	410.12
372.48	433.12
372.706	426.12
372.932	439.12
373.158	448.12
373.384	434.12
373.61	412.12
373.835	431.12
374.061	455.12
374.287	438.12
374.513	417.12
374.739	425.12
374.965	434.12
375.191	449.12
375.416	449.12
375.642	445.12
375.868	438.12
376.094	436.12
376.319	430.12
376.545	411.12
376.771	416.12
376.997	416.12
377.222	444.12
377.448	430.12
377.674	414.12
377.899	423.12
378.125	422.12
378.35	411.12
378.576	425.12
378.802	414.12
379.027	422.12
379.253	431.12
379.478	420.12
379.704	407.12
379.929	430.12
380.155	412.12
380.38	431.12
380.606	423.12
380.831	443.12
381.057	422.12
381.282	418.12
381.507	438.12
381.733	432.12
381.958	426.12
382.184	426.12
382.409	457.12
382.634	423.12
382.86	424.12
383.085	463.12
383.31	460.12
383.535	433.12
383.761	444.12
383.986	459.12
384.211	447.12
384.436	465.12
384.662	461.12
384.887	461.12
385.112	465.12
385.337	451.12
385.562	465.12
385.787	461.12
386.013	488.12
386.238	479.12
386.463	495.12
386.688	490.12
386.913	479.12
387.138	476.12
387.363	483.12
387.588	473.12
387.813	472.12
388.038	483.12
388.263	470.12
388.488	491.12
388.713	488.12
388.938	476.12
389.163	456.12
389.387	474.12
389.612	481.12
389.837	489.12
390.062	482.12
390.287	465.12
390.512	473.12
390.736	463.12
390.961	478.12
391.186	472.12
391.411	488.12
391.636	492.12
391.86	492.12
392.085	503.12
392.31	494.12
392.534	488.12
392.759	497.12
392.984	479.12
393.208	491.12
393.433	487.12
393.658	476.12
393.882	485.12
394.107	484.12
394.331	468.12
394.556	507.12
394.78	507.12
395.005	484.12
395.229	490.12
395.454	490.12
395.678	521.12
395.903	520.12
396.127	522.12
396.352	532.12
396.576	504.12
396.801	497.12
397.025	514.12
397.249	512.12
397.474	486.12
397.698	532.12
397.922	534.12
398.147	526.12
398.371	561.12
398.595	560.12
398.82	540.12
399.044	562.12
399.268	580.12
399.492	634.12
399.717	658.12
399.941	700.12
400.165	703.12
400.389	699.12
400.613	621.12
400.837	560.12
401.062	572.12
401.286	576.12
401.51	575.12
401.734	570.12
401.958	549.12
402.182	560.12
402.406	567.12
402.63	560.12
402.854	565.12
403.078	549.12
403.302	556.12
403.526	606.12
403.75	584.12
403.974	592.12
404.198	586.12
404.422	569.12
404.645	575.12
404.869	596.12
405.093	611.12
405.317	644.12
405.541	697.12
405.765	615.12
405.988	598.12
406.212	618.12
406.436	609.12
406.66	659.12
406.883	634.12
407.107	638.12
407.331	673.12
407.555	765.12
407.778	774.12
408.002	705.12
408.226	641.12
408.449	641.12
408.673	623.12
408.896	650.12
409.12	670.12
409.344	670.12
409.567	617.12
409.791	576.12
410.014	607.12
410.238	589.12
410.461	570.12
410.685	582.12
410.908	579.12
411.132	636.12
411.355	671.12
411.578	638.12
411.802	580.12
412.025	570.12
412.249	577.12
412.472	598.12
412.695	630.12
412.919	634.12
413.142	591.12
413.365	578.12
413.589	547.12
413.812	541.12
414.035	560.12
414.258	542.12
414.482	555.12
414.705	564.12
414.928	536.12
415.151	541.12
415.374	540.12
415.597	562.12
415.821	549.12
416.044	546.12
416.267	540.12
416.49	530.12
416.713	524.12
416.936	530.12
417.159	544.12
417.382	567.12
417.605	560.12
417.828	573.12
418.051	592.12
418.274	545.12
418.497	550.12
418.72	558.12
418.943	529.12
419.166	554.12
419.389	589.12
419.611	593.12
419.834	577.12
420.057	570.12
420.28	575.12
420.503	567.12
420.726	575.12
420.948	578.12
421.171	601.12
421.394	642.12
421.617	604.12
421.839	582.12
422.062	559.12
422.285	584.12
422.507	619.12
422.73	706.12
422.953	706.12
423.175	625.12
423.398	595.12
423.621	591.12
423.843	597.12
424.066	621.12
424.288	617.12
424.511	640.12
424.733	661.12
424.956	744.12
425.178	696.12
425.401	694.12
425.623	730.12
425.846	622.12
426.068	593.12
426.291	596.12
426.513	598.12
426.735	614.12
426.958	635.12
427.18	736.12
427.402	833.12
427.625	919.12
427.847	788.12
428.069	710.12
428.292	609.12
428.514	596.12
428.736	553.12
428.958	554.12
429.181	529.12
429.403	535.12
429.625	544.12
429.847	581.12
430.069	657.12
430.292	656.12
430.514	572.12
430.736	545.12
430.958	542.12
431.18	534.12
431.402	511.12
431.624	525.12
431.846	526.12
432.068	524.12
432.29	516.12
432.512	520.12
432.734	547.12
432.956	540.12
433.178	547.12
433.4	542.12
433.622	510.12
433.844	503.12
434.066	532.12
434.287	520.12
434.509	536.12
434.731	557.12
434.953	548.12
435.175	587.12
435.397	579.12
435.618	592.12
435.84	633.12
436.062	712.12
436.284	818.12
436.505	674.12
436.727	590.12
436.949	570.12
437.17	550.12
437.392	543.12
437.614	548.12
437.835	573.12
438.057	674.12
438.278	783.12
438.5	803.12
438.721	851.12
438.943	830.12
439.165	652.12
439.386	611.12
439.608	597.12
439.829	594.12
440.05	627.12
440.272	670.12
440.493	619.12
440.715	588.12
440.936	581.12
441.158	582.12
441.379	575.12
441.6	547.12
441.822	587.12
442.043	636.12
442.264	717.12
442.486	784.12
442.707	666.12
442.928	633.12
443.149	634.12
443.371	616.12
443.592	660.12
443.813	803.12
444.034	858.12
444.255	712.12
444.476	645.12
444.698	611.12
444.919	607.12
445.14	746.12
445.361	682.12
445.582	641.12
445.803	691.12
446.024	820.12
446.245	811.12
446.466	747.12
446.687	638.12
446.908	599.12
447.129	568.12
447.35	535.12
447.571	528.12
447.792	534.12
448.013	560.12
448.234	562.12
448.455	614.12
448.675	702.12
448.896	825.12
449.117	704.12
449.338	661.12
449.559	754.12
449.779	888.12
450	694.12
450.221	596.12
450.442	556.12
450.662	530.12
450.883	524.12
451.104	556.12
451.324	538.12
451.545	526.12
451.766	486.12
451.986	482.12
452.207	466.12
452.428	473.12
452.648	478.12
452.869	496.12
453.089	467.12
453.31	483.12
453.53	471.12
453.751	480.12
453.971	503.12
454.192	524.12
454.412	477.12
454.633	480.12
454.853	468.12
455.073	492.12
455.294	506.12
455.514	568.12
455.734	557.12
455.955	507.12
456.175	467.12
456.395	490.12
456.616	444.12
456.836	463.12
457.056	462.12
457.276	456.12
457.497	457.12
457.717	461.12
457.937	465.12
458.157	464.12
458.377	453.12
458.598	484.12
458.818	579.12
459.038	605.12
459.258	632.12
459.478	581.12
459.698	542.12
459.918	520.12
460.138	536.12
460.358	531.12
460.578	530.12
460.798	555.12
461.018	551.12
461.238	538.12
461.458	535.12
461.678	532.12
461.898	554.12
462.118	561.12
462.338	557.12
462.558	572.12
462.777	563.12
462.997	609.12
463.217	625.12
463.437	618.12
463.657	630.12
463.876	601.12
464.096	604.12
464.316	568.12
464.536	612.12
464.755	598.12
464.975	582.12
465.195	606.12
465.414	632.12
465.634	590.12
465.854	557.12
466.073	535.12
466.293	528.12
466.512	494.12
466.732	512.12
466.951	504.12
467.171	506.12
467.391	513.12
467.61	539.12
467.829	527.12
468.049	508.12
468.268	506.12
468.488	495.12
468.707	506.12
468.927	484.12
469.146	488.12
469.365	494.12
469.585	497.12
469.804	506.12
470.023	530.12
470.243	521.12
470.462	514.12
470.681	513.12
470.901	512.12
471.12	520.12
471.339	493.12
471.558	511.12
471.777	513.12
471.997	505.12
472.216	508.12
472.435	532.12
472.654	525.12
472.873	512.12
473.092	491.12
473.311	490.12
473.53	499.12
473.749	516.12
473.968	539.12
474.187	618.12
474.406	668.12
474.625	559.12
474.844	524.12
475.063	495.12
475.282	499.12
475.501	503.12
475.72	537.12
475.939	501.12
476.158	513.12
476.377	540.12
476.596	536.12
476.814	523.12
477.033	531.12
477.252	533.12
477.471	532.12
477.69	536.12
477.908	563.12
478.127	561.12
478.346	558.12
478.564	556.12
478.783	566.12
479.002	592.12
479.22	597.12
479.439	590.12
479.658	606.12
479.876	616.12
480.095	602.12
480.313	625.12
480.532	628.12
480.751	601.12
480.969	630.12
481.188	660.12
481.406	700.12
481.624	641.12
481.843	611.12
482.061	588.12
482.28	572.12
482.498	559.12
482.717	591.12
482.935	586.12
483.153	592.12
483.372	591.12
483.59	609.12
483.808	574.12
484.027	575.12
484.245	614.12
484.463	602.12
484.681	606.12
484.9	597.12
485.118	599.12
485.336	597.12
485.554	609.12
485.772	600.12
485.99	613.12
486.209	630.12
486.427	648.12
486.645	627.12
486.863	610.12
487.081	637.12
487.299	578.12
487.517	652.12
487.735	643.12
487.953	632.12
488.171	625.12
488.389	648.12
488.607	630.12
488.825	618.12
489.043	636.12
489.261	628.12
489.479	621.12
489.696	653.12
489.914	657.12
490.132	638.12
490.35	628.12
490.568	651.12
490.786	689.12
491.003	682.12
491.221	679.12
491.439	691.12
491.657	734.12
491.874	727.12
492.092	736.12
492.31	721.12
492.527	716.12
492.745	723.12
492.963	715.12
493.18	729.12
493.398	739.12
493.615	733.12
493.833	736.12
494.05	751.12
494.268	751.12
494.485	751.12
494.703	721.12
494.92	745.12
495.138	750.12
495.355	746.12
495.573	763.12
495.79	739.12
496.008	755.12
496.225	735.12
496.442	731.12
496.66	736.12
496.877	760.12
497.094	754.12
497.312	761.12
497.529	787.12
497.746	803.12
497.963	783.12
498.181	826.12
498.398	834.12
498.615	829.12
498.832	857.12
499.049	882.12
499.267	911.12
499.484	950.12
499.701	989.12
499.918	1055.12
500.135	1117.12
500.352	1153.12
500.569	1192.12
500.786	1172.12
501.003	1166.12
501.22	1131.12
501.437	1071.12
501.654	1056.12
