Data from 1976.PennyLincolnUp.Lamp.En5.5.200Scan.071719.P1.Changed Mount._HRD10591_15-59-43-860.txt Node
Date: Thu Jul 18 15:59:43 EDT 2019
User: cochatt
Spectrometer: HR+D1059
Trigger mode: 1
Integration Time (sec): 1.000000E-1
Scans to average: 1
Electric dark correction enabled: true
Nonlinearity correction enabled: false
Boxcar width: 0
XAxis mode: Wavelengths
Number of Pixels in Spectrum: 2048
>>>>>Begin Spectral Data<<<<<
223.165	-21.44
223.4	-21.44
223.635	-21.44
223.869	-16.44
224.104	-17.44
224.338	-4.44
224.573	-15.44
224.808	-16.44
225.042	-3.44
225.277	0.56
225.511	0.56
225.746	-2.44
225.98	6.56
226.215	4.56
226.449	21.56
226.683	23.56
226.918	12.56
227.152	27.56
227.387	34.56
227.621	41.56
227.856	43.56
228.09	31.56
228.324	50.56
228.559	68.56
228.793	49.56
229.027	80.56
229.262	84.56
229.496	91.56
229.73	108.56
229.964	126.56
230.199	118.56
230.433	116.56
230.667	110.56
230.901	98.56
231.136	102.56
231.37	99.56
231.604	94.56
231.838	105.56
232.072	100.56
232.306	103.56
232.541	104.56
232.775	121.56
233.009	102.56
233.243	113.56
233.477	110.56
233.711	102.56
233.945	118.56
234.179	102.56
234.413	116.56
234.647	125.56
234.881	126.56
235.115	104.56
235.349	114.56
235.583	120.56
235.817	125.56
236.051	114.56
236.285	117.56
236.519	95.56
236.753	122.56
236.987	142.56
237.221	170.56
237.455	187.56
237.689	165.56
237.922	132.56
238.156	121.56
238.39	113.56
238.624	120.56
238.858	128.56
239.091	143.56
239.325	95.56
239.559	110.56
239.793	124.56
240.027	124.56
240.26	131.56
240.494	139.56
240.728	144.56
240.961	137.56
241.195	134.56
241.429	135.56
241.662	124.56
241.896	124.56
242.13	127.56
242.363	130.56
242.597	120.56
242.83	138.56
243.064	131.56
243.298	118.56
243.531	148.56
243.765	117.56
243.998	138.56
244.232	141.56
244.465	131.56
244.699	136.56
244.932	140.56
245.166	139.56
245.399	145.56
245.633	132.56
245.866	144.56
246.099	126.56
246.333	154.56
246.566	146.56
246.8	155.56
247.033	136.56
247.266	159.56
247.5	166.56
247.733	143.56
247.966	162.56
248.2	168.56
248.433	169.56
248.666	174.56
248.899	161.56
249.133	187.56
249.366	188.56
249.599	173.56
249.832	174.56
250.066	165.56
250.299	166.56
250.532	181.56
250.765	178.56
250.998	188.56
251.231	211.56
251.465	215.56
251.698	192.56
251.931	190.56
252.164	184.56
252.397	176.56
252.63	188.56
252.863	195.56
253.096	187.56
253.329	210.56
253.562	202.56
253.795	199.56
254.028	200.56
254.261	190.56
254.494	198.56
254.727	207.56
254.96	247.56
255.193	239.56
255.426	210.56
255.659	198.56
255.892	226.56
256.124	211.56
256.357	217.56
256.59	198.56
256.823	203.56
257.056	189.56
257.289	196.56
257.521	186.56
257.754	194.56
257.987	198.56
258.22	204.56
258.452	187.56
258.685	183.56
258.918	189.56
259.151	202.56
259.383	211.56
259.616	204.56
259.849	217.56
260.081	235.56
260.314	225.56
260.547	231.56
260.779	226.56
261.012	223.56
261.244	224.56
261.477	216.56
261.71	214.56
261.942	220.56
262.175	228.56
262.407	231.56
262.64	193.56
262.872	200.56
263.105	190.56
263.337	210.56
263.57	205.56
263.802	195.56
264.035	187.56
264.267	214.56
264.499	203.56
264.732	200.56
264.964	196.56
265.197	205.56
265.429	220.56
265.661	201.56
265.894	213.56
266.126	208.56
266.358	215.56
266.591	211.56
266.823	215.56
267.055	210.56
267.287	221.56
267.52	218.56
267.752	206.56
267.984	223.56
268.216	225.56
268.448	220.56
268.681	221.56
268.913	245.56
269.145	242.56
269.377	270.56
269.609	259.56
269.841	242.56
270.073	255.56
270.306	284.56
270.538	281.56
270.77	264.56
271.002	294.56
271.234	264.56
271.466	265.56
271.698	301.56
271.93	286.56
272.162	278.56
272.394	284.56
272.626	276.56
272.858	266.56
273.09	256.56
273.322	272.56
273.553	247.56
273.785	245.56
274.017	260.56
274.249	262.56
274.481	265.56
274.713	266.56
274.945	256.56
275.176	246.56
275.408	257.56
275.64	248.56
275.872	242.56
276.104	262.56
276.335	252.56
276.567	258.56
276.799	272.56
277.031	286.56
277.262	302.56
277.494	295.56
277.726	299.56
277.957	273.56
278.189	265.56
278.421	258.56
278.652	257.56
278.884	246.56
279.115	267.56
279.347	269.56
279.579	262.56
279.81	269.56
280.042	272.56
280.273	257.56
280.505	270.56
280.736	259.56
280.968	259.56
281.199	282.56
281.431	258.56
281.662	277.56
281.894	262.56
282.125	263.56
282.356	285.56
282.588	286.56
282.819	292.56
283.051	265.56
283.282	284.56
283.513	290.56
283.745	274.56
283.976	295.56
284.207	296.56
284.439	279.56
284.67	277.56
284.901	282.56
285.132	287.56
285.364	274.56
285.595	274.56
285.826	275.56
286.057	283.56
286.288	290.56
286.52	280.56
286.751	286.56
286.982	286.56
287.213	289.56
287.444	282.56
287.675	281.56
287.906	289.56
288.138	303.56
288.369	298.56
288.6	299.56
288.831	308.56
289.062	277.56
289.293	299.56
289.524	307.56
289.755	293.56
289.986	294.56
290.217	291.56
290.448	285.56
290.679	284.56
290.91	293.56
291.141	291.56
291.371	299.56
291.602	281.56
291.833	285.56
292.064	286.56
292.295	276.56
292.526	303.56
292.757	305.56
292.987	286.56
293.218	302.56
293.449	291.56
293.68	288.56
293.91	277.56
294.141	304.56
294.372	289.56
294.603	303.56
294.833	302.56
295.064	276.56
295.295	290.56
295.525	298.56
295.756	297.56
295.987	305.56
296.217	291.56
296.448	294.56
296.679	293.56
296.909	304.56
297.14	300.56
297.37	306.56
297.601	296.56
297.831	306.56
298.062	310.56
298.292	307.56
298.523	311.56
298.753	317.56
298.984	299.56
299.214	326.56
299.445	291.56
299.675	312.56
299.905	324.56
300.136	330.56
300.366	320.56
300.597	296.56
300.827	313.56
301.057	328.56
301.288	338.56
301.518	318.56
301.748	312.56
301.979	326.56
302.209	318.56
302.439	320.56
302.669	327.56
302.9	308.56
303.13	327.56
303.36	336.56
303.59	330.56
303.82	331.56
304.051	326.56
304.281	335.56
304.511	347.56
304.741	326.56
304.971	338.56
305.201	335.56
305.431	328.56
305.661	332.56
305.891	300.56
306.121	320.56
306.352	330.56
306.582	325.56
306.812	322.56
307.042	326.56
307.272	328.56
307.502	322.56
307.731	332.56
307.961	321.56
308.191	332.56
308.421	332.56
308.651	340.56
308.881	345.56
309.111	330.56
309.341	351.56
309.571	351.56
309.8	350.56
310.03	353.56
310.26	362.56
310.49	350.56
310.72	363.56
310.949	374.56
311.179	397.56
311.409	372.56
311.639	363.56
311.868	373.56
312.098	360.56
312.328	359.56
312.557	379.56
312.787	368.56
313.017	376.56
313.246	371.56
313.476	362.56
313.706	380.56
313.935	374.56
314.165	367.56
314.394	368.56
314.624	361.56
314.853	390.56
315.083	368.56
315.312	356.56
315.542	367.56
315.771	344.56
316.001	361.56
316.23	360.56
316.46	339.56
316.689	355.56
316.919	369.56
317.148	374.56
317.377	388.56
317.607	378.56
317.836	371.56
318.065	357.56
318.295	351.56
318.524	372.56
318.753	371.56
318.983	379.56
319.212	368.56
319.441	382.56
319.67	382.56
319.9	360.56
320.129	366.56
320.358	362.56
320.587	373.56
320.816	371.56
321.046	390.56
321.275	386.56
321.504	357.56
321.733	358.56
321.962	372.56
322.191	386.56
322.42	393.56
322.649	391.56
322.878	428.56
323.108	388.56
323.337	425.56
323.566	448.56
323.795	444.56
324.024	488.56
324.253	535.56
324.482	713.56
324.71	1091.56
324.939	1609.56
325.168	1390.56
325.397	714.56
325.626	510.56
325.855	446.56
326.084	439.56
326.313	424.56
326.542	441.56
326.77	481.56
326.999	536.56
327.228	690.56
327.457	991.56
327.686	1205.56
327.914	831.56
328.143	555.56
328.372	518.56
328.6	491.56
328.829	487.56
329.058	497.56
329.287	460.56
329.515	468.56
329.744	454.56
329.972	457.56
330.201	472.56
330.43	483.56
330.658	496.56
330.887	532.56
331.115	482.56
331.344	458.56
331.572	451.56
331.801	444.56
332.03	451.56
332.258	445.56
332.486	439.56
332.715	421.56
332.943	416.56
333.172	438.56
333.4	457.56
333.629	443.56
333.857	473.56
334.085	471.56
334.314	482.56
334.542	494.56
334.771	490.56
334.999	495.56
335.227	446.56
335.455	460.56
335.684	447.56
335.912	430.56
336.14	441.56
336.369	442.56
336.597	442.56
336.825	422.56
337.053	431.56
337.281	433.56
337.51	433.56
337.738	447.56
337.966	411.56
338.194	426.56
338.422	420.56
338.65	426.56
338.878	404.56
339.106	432.56
339.334	412.56
339.562	396.56
339.79	423.56
340.018	403.56
340.246	415.56
340.474	428.56
340.702	413.56
340.93	418.56
341.158	408.56
341.386	418.56
341.614	434.56
341.842	418.56
342.07	422.56
342.298	395.56
342.526	441.56
342.754	415.56
342.981	422.56
343.209	407.56
343.437	421.56
343.665	418.56
343.893	425.56
344.12	431.56
344.348	454.56
344.576	451.56
344.804	430.56
345.031	439.56
345.259	430.56
345.487	438.56
345.714	423.56
345.942	415.56
346.17	401.56
346.397	405.56
346.625	404.56
346.853	384.56
347.08	406.56
347.308	401.56
347.535	396.56
347.763	414.56
347.99	400.56
348.218	401.56
348.445	414.56
348.673	394.56
348.9	384.56
349.128	401.56
349.355	402.56
349.583	383.56
349.81	377.56
350.037	390.56
350.265	379.56
350.492	384.56
350.72	370.56
350.947	393.56
351.174	396.56
351.402	416.56
351.629	418.56
351.856	412.56
352.083	425.56
352.311	422.56
352.538	405.56
352.765	412.56
352.992	390.56
353.22	404.56
353.447	392.56
353.674	382.56
353.901	381.56
354.128	397.56
354.355	395.56
354.583	373.56
354.81	384.56
355.037	377.56
355.264	373.56
355.491	384.56
355.718	377.56
355.945	378.56
356.172	377.56
356.399	378.56
356.626	391.56
356.853	385.56
357.08	382.56
357.307	371.56
357.534	386.56
357.761	382.56
357.988	391.56
358.215	391.56
358.441	373.56
358.668	399.56
358.895	374.56
359.122	369.56
359.349	391.56
359.576	402.56
359.802	410.56
360.029	423.56
360.256	439.56
360.483	425.56
360.709	392.56
360.936	405.56
361.163	394.56
361.39	410.56
361.616	397.56
361.843	393.56
362.07	400.56
362.296	398.56
362.523	410.56
362.749	402.56
362.976	397.56
363.203	407.56
363.429	386.56
363.656	388.56
363.882	384.56
364.109	376.56
364.335	387.56
364.562	400.56
364.788	393.56
365.015	390.56
365.241	384.56
365.468	368.56
365.694	382.56
365.92	397.56
366.147	383.56
366.373	381.56
366.599	374.56
366.826	400.56
367.052	383.56
367.278	380.56
367.505	379.56
367.731	374.56
367.957	382.56
368.184	402.56
368.41	394.56
368.636	406.56
368.862	393.56
369.089	391.56
369.315	398.56
369.541	373.56
369.767	400.56
369.993	380.56
370.219	380.56
370.445	383.56
370.672	414.56
370.898	392.56
371.124	388.56
371.35	387.56
371.576	388.56
371.802	376.56
372.028	380.56
372.254	389.56
372.48	390.56
372.706	410.56
372.932	401.56
373.158	405.56
373.384	411.56
373.61	416.56
373.835	394.56
374.061	400.56
374.287	394.56
374.513	406.56
374.739	412.56
374.965	403.56
375.191	409.56
375.416	400.56
375.642	396.56
375.868	423.56
376.094	408.56
376.319	390.56
376.545	410.56
376.771	409.56
376.997	409.56
377.222	389.56
377.448	372.56
377.674	377.56
377.899	401.56
378.125	403.56
378.35	378.56
378.576	377.56
378.802	394.56
379.027	385.56
379.253	407.56
379.478	392.56
379.704	416.56
379.929	405.56
380.155	410.56
380.38	389.56
380.606	393.56
380.831	388.56
381.057	403.56
381.282	399.56
381.507	395.56
381.733	406.56
381.958	398.56
382.184	390.56
382.409	403.56
382.634	418.56
382.86	427.56
383.085	430.56
383.31	408.56
383.535	433.56
383.761	418.56
383.986	416.56
384.211	420.56
384.436	408.56
384.662	400.56
384.887	448.56
385.112	452.56
385.337	442.56
385.562	447.56
385.787	444.56
386.013	456.56
386.238	450.56
386.463	444.56
386.688	450.56
386.913	447.56
387.138	448.56
387.363	439.56
387.588	436.56
387.813	436.56
388.038	435.56
388.263	456.56
388.488	449.56
388.713	446.56
388.938	442.56
389.163	434.56
389.387	418.56
389.612	424.56
389.837	446.56
390.062	447.56
390.287	411.56
390.512	441.56
390.736	439.56
390.961	441.56
391.186	432.56
391.411	456.56
391.636	460.56
391.86	468.56
392.085	491.56
392.31	469.56
392.534	465.56
392.759	448.56
392.984	443.56
393.208	457.56
393.433	467.56
393.658	456.56
393.882	436.56
394.107	446.56
394.331	445.56
394.556	465.56
394.78	448.56
395.005	455.56
395.229	434.56
395.454	452.56
395.678	475.56
395.903	464.56
396.127	473.56
396.352	478.56
396.576	466.56
396.801	481.56
397.025	472.56
397.249	465.56
397.474	477.56
397.698	470.56
397.922	487.56
398.147	521.56
398.371	516.56
398.595	496.56
398.82	512.56
399.044	527.56
399.268	549.56
399.492	584.56
399.717	614.56
399.941	661.56
400.165	666.56
400.389	671.56
400.613	604.56
400.837	555.56
401.062	555.56
401.286	534.56
401.51	516.56
401.734	522.56
401.958	527.56
402.182	544.56
402.406	547.56
402.63	537.56
402.854	546.56
403.078	518.56
403.302	533.56
403.526	537.56
403.75	546.56
403.974	538.56
404.198	553.56
404.422	547.56
404.645	525.56
404.869	565.56
405.093	555.56
405.317	602.56
405.541	650.56
405.765	600.56
405.988	536.56
406.212	567.56
406.436	568.56
406.66	555.56
406.883	555.56
407.107	594.56
407.331	632.56
407.555	689.56
407.778	699.56
408.002	656.56
408.226	612.56
408.449	597.56
408.673	590.56
408.896	599.56
409.12	641.56
409.344	608.56
409.567	557.56
409.791	566.56
410.014	536.56
410.238	540.56
410.461	536.56
410.685	545.56
410.908	548.56
411.132	570.56
411.355	620.56
411.578	583.56
411.802	551.56
412.025	543.56
412.249	542.56
412.472	569.56
412.695	600.56
412.919	571.56
413.142	540.56
413.365	534.56
413.589	524.56
413.812	512.56
414.035	502.56
414.258	506.56
414.482	483.56
414.705	483.56
414.928	514.56
415.151	507.56
415.374	499.56
415.597	502.56
415.821	520.56
416.044	501.56
416.267	498.56
416.49	506.56
416.713	510.56
416.936	514.56
417.159	497.56
417.382	502.56
417.605	512.56
417.828	528.56
418.051	518.56
418.274	525.56
418.497	497.56
418.72	495.56
418.943	523.56
419.166	547.56
419.389	556.56
419.611	567.56
419.834	541.56
420.057	529.56
420.28	532.56
420.503	520.56
420.726	520.56
420.948	538.56
421.171	560.56
421.394	576.56
421.617	530.56
421.839	509.56
422.062	518.56
422.285	533.56
422.507	554.56
422.73	650.56
422.953	600.56
423.175	574.56
423.398	533.56
423.621	516.56
423.843	544.56
424.066	537.56
424.288	532.56
424.511	563.56
424.733	619.56
424.956	716.56
425.178	659.56
425.401	658.56
425.623	673.56
425.846	584.56
426.068	528.56
426.291	534.56
426.513	564.56
426.735	546.56
426.958	556.56
427.18	646.56
427.402	753.56
427.625	852.56
427.847	719.56
428.069	635.56
428.292	551.56
428.514	524.56
428.736	512.56
428.958	523.56
429.181	498.56
429.403	497.56
429.625	491.56
429.847	522.56
430.069	576.56
430.292	583.56
430.514	530.56
430.736	505.56
430.958	515.56
431.18	484.56
431.402	459.56
431.624	480.56
431.846	489.56
432.068	486.56
432.29	485.56
432.512	482.56
432.734	496.56
432.956	498.56
433.178	495.56
433.4	487.56
433.622	479.56
433.844	478.56
434.066	490.56
434.287	495.56
434.509	498.56
434.731	511.56
434.953	502.56
435.175	523.56
435.397	528.56
435.618	540.56
435.84	564.56
436.062	651.56
436.284	725.56
436.505	586.56
436.727	566.56
436.949	517.56
437.17	525.56
437.392	495.56
437.614	496.56
437.835	537.56
438.057	588.56
438.278	713.56
438.5	699.56
438.721	777.56
438.943	752.56
439.165	579.56
439.386	530.56
439.608	538.56
439.829	543.56
440.05	541.56
440.272	591.56
440.493	559.56
440.715	539.56
440.936	516.56
441.158	523.56
441.379	494.56
441.6	537.56
441.822	543.56
442.043	588.56
442.264	651.56
442.486	688.56
442.707	568.56
442.928	545.56
443.149	564.56
443.371	554.56
443.592	594.56
443.813	689.56
444.034	747.56
444.255	633.56
444.476	551.56
444.698	586.56
444.919	586.56
445.14	682.56
445.361	628.56
445.582	585.56
445.803	626.56
446.024	726.56
446.245	739.56
446.466	652.56
446.687	576.56
446.908	531.56
447.129	517.56
447.35	530.56
447.571	510.56
447.792	471.56
448.013	501.56
448.234	502.56
448.455	529.56
448.675	648.56
448.896	762.56
449.117	636.56
449.338	576.56
449.559	717.56
449.779	806.56
450	643.56
450.221	561.56
450.442	487.56
450.662	483.56
450.883	485.56
451.104	459.56
451.324	464.56
451.545	464.56
451.766	444.56
451.986	441.56
452.207	442.56
452.428	418.56
452.648	427.56
452.869	423.56
453.089	440.56
453.31	451.56
453.53	457.56
453.751	440.56
453.971	432.56
454.192	424.56
454.412	445.56
454.633	452.56
454.853	449.56
455.073	450.56
455.294	473.56
455.514	504.56
455.734	485.56
455.955	460.56
456.175	437.56
456.395	432.56
456.616	390.56
456.836	432.56
457.056	427.56
457.276	408.56
457.497	419.56
457.717	405.56
457.937	434.56
458.157	432.56
458.377	434.56
458.598	454.56
458.818	476.56
459.038	535.56
459.258	579.56
459.478	506.56
459.698	468.56
459.918	495.56
460.138	479.56
460.358	492.56
460.578	519.56
460.798	520.56
461.018	520.56
461.238	511.56
461.458	519.56
461.678	513.56
461.898	509.56
462.118	495.56
462.338	512.56
462.558	532.56
462.777	553.56
462.997	554.56
463.217	558.56
463.437	566.56
463.657	559.56
463.876	549.56
464.096	556.56
464.316	524.56
464.536	537.56
464.755	561.56
464.975	538.56
465.195	565.56
465.414	584.56
465.634	545.56
465.854	523.56
466.073	495.56
466.293	483.56
466.512	491.56
466.732	484.56
466.951	466.56
467.171	446.56
467.391	478.56
467.61	492.56
467.829	453.56
468.049	452.56
468.268	466.56
468.488	468.56
468.707	444.56
468.927	459.56
469.146	458.56
469.365	454.56
469.585	438.56
469.804	473.56
470.023	460.56
470.243	484.56
470.462	468.56
470.681	502.56
470.901	472.56
471.12	462.56
471.339	475.56
471.558	482.56
471.777	458.56
471.997	454.56
472.216	478.56
472.435	497.56
472.654	489.56
472.873	449.56
473.092	455.56
473.311	444.56
473.53	465.56
473.749	439.56
473.968	490.56
474.187	573.56
474.406	582.56
474.625	519.56
474.844	487.56
475.063	484.56
475.282	471.56
475.501	467.56
475.72	453.56
475.939	474.56
476.158	494.56
476.377	492.56
476.596	496.56
476.814	486.56
477.033	490.56
477.252	486.56
477.471	502.56
477.69	508.56
477.908	519.56
478.127	515.56
478.346	500.56
478.564	522.56
478.783	499.56
479.002	545.56
479.22	529.56
479.439	546.56
479.658	538.56
479.876	551.56
480.095	553.56
480.313	610.56
480.532	591.56
480.751	579.56
480.969	548.56
481.188	597.56
481.406	607.56
481.624	587.56
481.843	563.56
482.061	564.56
482.28	530.56
482.498	523.56
482.717	528.56
482.935	546.56
483.153	548.56
483.372	545.56
483.59	555.56
483.808	517.56
484.027	546.56
484.245	537.56
484.463	546.56
484.681	570.56
484.9	568.56
485.118	545.56
485.336	556.56
485.554	553.56
485.772	548.56
485.99	570.56
486.209	574.56
486.427	560.56
486.645	590.56
486.863	593.56
487.081	578.56
487.299	559.56
487.517	592.56
487.735	594.56
487.953	570.56
488.171	589.56
488.389	600.56
488.607	604.56
488.825	593.56
489.043	585.56
489.261	569.56
489.479	586.56
489.696	573.56
489.914	574.56
490.132	575.56
490.35	579.56
490.568	597.56
490.786	624.56
491.003	604.56
491.221	625.56
491.439	642.56
491.657	627.56
491.874	642.56
492.092	651.56
492.31	651.56
492.527	651.56
492.745	665.56
492.963	656.56
493.18	644.56
493.398	646.56
493.615	663.56
493.833	710.56
494.05	676.56
494.268	646.56
494.485	673.56
494.703	667.56
494.92	677.56
495.138	666.56
495.355	680.56
495.573	658.56
495.79	648.56
496.008	688.56
496.225	666.56
496.442	699.56
496.66	716.56
496.877	679.56
497.094	670.56
497.312	663.56
497.529	714.56
497.746	739.56
497.963	722.56
498.181	707.56
498.398	762.56
498.615	795.56
498.832	806.56
499.049	814.56
499.267	862.56
499.484	901.56
499.701	938.56
499.918	963.56
500.135	1014.56
500.352	1092.56
500.569	1114.56
500.786	1115.56
501.003	1110.56
501.22	1055.56
501.437	992.56
501.654	949.56
501.871	927.56
