Data from 1976.PennyLincolnUp.Lamp.En5.5.200Scan.071719.P1.Changed Mount._HRD10591_16-02-10-862.txt Node
Date: Thu Jul 18 16:02:10 EDT 2019
User: cochatt
Spectrometer: HR+D1059
Trigger mode: 1
Integration Time (sec): 1.000000E-1
Scans to average: 1
Electric dark correction enabled: true
Nonlinearity correction enabled: false
Boxcar width: 0
XAxis mode: Wavelengths
Number of Pixels in Spectrum: 2048
>>>>>Begin Spectral Data<<<<<
223.165	-2.62
223.4	-2.62
223.635	-2.62
223.869	-14.62
224.104	-11.62
224.338	2.38
224.573	-22.62
224.808	-23.62
225.042	-17.62
225.277	-14.62
225.511	-13.62
225.746	14.38
225.98	-1.62
226.215	17.38
226.449	24.38
226.683	15.38
226.918	33.38
227.152	15.38
227.387	31.38
227.621	29.38
227.856	56.38
228.09	52.38
228.324	37.38
228.559	59.38
228.793	71.38
229.027	88.38
229.262	93.38
229.496	103.38
229.73	133.38
229.964	142.38
230.199	140.38
230.433	115.38
230.667	100.38
230.901	108.38
231.136	100.38
231.37	116.38
231.604	109.38
231.838	109.38
232.072	118.38
232.306	136.38
232.541	126.38
232.775	112.38
233.009	118.38
233.243	128.38
233.477	117.38
233.711	126.38
233.945	130.38
234.179	112.38
234.413	115.38
234.647	120.38
234.881	130.38
235.115	138.38
235.349	115.38
235.583	114.38
235.817	123.38
236.051	115.38
236.285	126.38
236.519	138.38
236.753	127.38
236.987	134.38
237.221	183.38
237.455	234.38
237.689	192.38
237.922	141.38
238.156	144.38
238.39	123.38
238.624	140.38
238.858	134.38
239.091	142.38
239.325	126.38
239.559	122.38
239.793	136.38
240.027	126.38
240.26	161.38
240.494	163.38
240.728	159.38
240.961	144.38
241.195	144.38
241.429	134.38
241.662	144.38
241.896	129.38
242.13	145.38
242.363	136.38
242.597	112.38
242.83	146.38
243.064	158.38
243.298	133.38
243.531	144.38
243.765	148.38
243.998	157.38
244.232	154.38
244.465	148.38
244.699	150.38
244.932	159.38
245.166	153.38
245.399	152.38
245.633	156.38
245.866	180.38
246.099	152.38
246.333	151.38
246.566	176.38
246.8	155.38
247.033	153.38
247.266	162.38
247.5	165.38
247.733	171.38
247.966	169.38
248.2	180.38
248.433	175.38
248.666	174.38
248.899	207.38
249.133	202.38
249.366	210.38
249.599	200.38
249.832	193.38
250.066	181.38
250.299	182.38
250.532	200.38
250.765	218.38
250.998	212.38
251.231	229.38
251.465	206.38
251.698	220.38
251.931	206.38
252.164	198.38
252.397	198.38
252.63	198.38
252.863	216.38
253.096	205.38
253.329	230.38
253.562	231.38
253.795	234.38
254.028	227.38
254.261	213.38
254.494	230.38
254.727	270.38
254.96	301.38
255.193	276.38
255.426	258.38
255.659	235.38
255.892	243.38
256.124	235.38
256.357	246.38
256.59	226.38
256.823	214.38
257.056	215.38
257.289	204.38
257.521	221.38
257.754	209.38
257.987	225.38
258.22	219.38
258.452	230.38
258.685	228.38
258.918	208.38
259.151	220.38
259.383	225.38
259.616	233.38
259.849	256.38
260.081	249.38
260.314	255.38
260.547	267.38
260.779	268.38
261.012	237.38
261.244	231.38
261.477	234.38
261.71	227.38
261.942	239.38
262.175	238.38
262.407	223.38
262.64	222.38
262.872	214.38
263.105	224.38
263.337	205.38
263.57	222.38
263.802	219.38
264.035	225.38
264.267	217.38
264.499	224.38
264.732	225.38
264.964	214.38
265.197	236.38
265.429	244.38
265.661	216.38
265.894	236.38
266.126	227.38
266.358	223.38
266.591	222.38
266.823	223.38
267.055	245.38
267.287	247.38
267.52	227.38
267.752	254.38
267.984	244.38
268.216	256.38
268.448	242.38
268.681	247.38
268.913	271.38
269.145	279.38
269.377	283.38
269.609	293.38
269.841	280.38
270.073	282.38
270.306	312.38
270.538	323.38
270.77	316.38
271.002	321.38
271.234	312.38
271.466	323.38
271.698	330.38
271.93	325.38
272.162	322.38
272.394	341.38
272.626	312.38
272.858	289.38
273.09	298.38
273.322	287.38
273.553	295.38
273.785	287.38
274.017	282.38
274.249	284.38
274.481	287.38
274.713	301.38
274.945	286.38
275.176	270.38
275.408	287.38
275.64	306.38
275.872	291.38
276.104	304.38
276.335	290.38
276.567	290.38
276.799	299.38
277.031	333.38
277.262	328.38
277.494	336.38
277.726	311.38
277.957	322.38
278.189	324.38
278.421	316.38
278.652	298.38
278.884	303.38
279.115	294.38
279.347	302.38
279.579	307.38
279.81	288.38
280.042	304.38
280.273	310.38
280.505	289.38
280.736	291.38
280.968	288.38
281.199	299.38
281.431	282.38
281.662	287.38
281.894	279.38
282.125	302.38
282.356	306.38
282.588	318.38
282.819	323.38
283.051	291.38
283.282	298.38
283.513	308.38
283.745	299.38
283.976	294.38
284.207	303.38
284.439	320.38
284.67	319.38
284.901	306.38
285.132	328.38
285.364	312.38
285.595	314.38
285.826	301.38
286.057	301.38
286.288	294.38
286.52	317.38
286.751	316.38
286.982	317.38
287.213	277.38
287.444	320.38
287.675	318.38
287.906	334.38
288.138	330.38
288.369	323.38
288.6	327.38
288.831	336.38
289.062	314.38
289.293	330.38
289.524	318.38
289.755	297.38
289.986	323.38
290.217	330.38
290.448	328.38
290.679	324.38
290.91	320.38
291.141	326.38
291.371	307.38
291.602	304.38
291.833	342.38
292.064	317.38
292.295	306.38
292.526	333.38
292.757	326.38
292.987	308.38
293.218	306.38
293.449	308.38
293.68	318.38
293.91	352.38
294.141	318.38
294.372	304.38
294.603	322.38
294.833	334.38
295.064	323.38
295.295	320.38
295.525	325.38
295.756	319.38
295.987	334.38
296.217	352.38
296.448	351.38
296.679	348.38
296.909	313.38
297.14	310.38
297.37	328.38
297.601	330.38
297.831	328.38
298.062	343.38
298.292	319.38
298.523	322.38
298.753	326.38
298.984	320.38
299.214	324.38
299.445	352.38
299.675	340.38
299.905	347.38
300.136	348.38
300.366	334.38
300.597	322.38
300.827	373.38
301.057	371.38
301.288	360.38
301.518	360.38
301.748	355.38
301.979	370.38
302.209	344.38
302.439	360.38
302.669	344.38
302.9	350.38
303.13	351.38
303.36	360.38
303.59	371.38
303.82	378.38
304.051	356.38
304.281	362.38
304.511	367.38
304.741	354.38
304.971	357.38
305.201	344.38
305.431	347.38
305.661	343.38
305.891	354.38
306.121	355.38
306.352	380.38
306.582	364.38
306.812	359.38
307.042	360.38
307.272	356.38
307.502	341.38
307.731	354.38
307.961	362.38
308.191	346.38
308.421	371.38
308.651	371.38
308.881	371.38
309.111	367.38
309.341	379.38
309.571	363.38
309.8	392.38
310.03	382.38
310.26	379.38
310.49	393.38
310.72	404.38
310.949	415.38
311.179	415.38
311.409	400.38
311.639	405.38
311.868	412.38
312.098	407.38
312.328	412.38
312.557	405.38
312.787	436.38
313.017	434.38
313.246	422.38
313.476	412.38
313.706	412.38
313.935	407.38
314.165	411.38
314.394	434.38
314.624	412.38
314.853	407.38
315.083	410.38
315.312	394.38
315.542	399.38
315.771	401.38
316.001	394.38
316.23	392.38
316.46	395.38
316.689	389.38
316.919	415.38
317.148	422.38
317.377	428.38
317.607	440.38
317.836	413.38
318.065	422.38
318.295	406.38
318.524	404.38
318.753	404.38
318.983	409.38
319.212	406.38
319.441	432.38
319.67	420.38
319.9	397.38
320.129	404.38
320.358	412.38
320.587	416.38
320.816	413.38
321.046	443.38
321.275	423.38
321.504	426.38
321.733	413.38
321.962	411.38
322.191	427.38
322.42	463.38
322.649	465.38
322.878	446.38
323.108	471.38
323.337	484.38
323.566	497.38
323.795	536.38
324.024	550.38
324.253	642.38
324.482	893.38
324.71	1372.38
324.939	2064.38
325.168	1778.38
325.397	898.38
325.626	617.38
325.855	538.38
326.084	505.38
326.313	513.38
326.542	511.38
326.77	556.38
326.999	617.38
327.228	830.38
327.457	1242.38
327.686	1536.38
327.914	1010.38
328.143	702.38
328.372	596.38
328.6	570.38
328.829	563.38
329.058	587.38
329.287	555.38
329.515	554.38
329.744	512.38
329.972	523.38
330.201	547.38
330.43	584.38
330.658	582.38
330.887	598.38
331.115	599.38
331.344	527.38
331.572	503.38
331.801	501.38
332.03	537.38
332.258	492.38
332.486	510.38
332.715	498.38
332.943	500.38
333.172	514.38
333.4	522.38
333.629	524.38
333.857	531.38
334.085	537.38
334.314	565.38
334.542	562.38
334.771	575.38
334.999	539.38
335.227	505.38
335.455	498.38
335.684	502.38
335.912	523.38
336.14	492.38
336.369	486.38
336.597	494.38
336.825	497.38
337.053	495.38
337.281	476.38
337.51	476.38
337.738	471.38
337.966	491.38
338.194	483.38
338.422	475.38
338.65	470.38
338.878	464.38
339.106	475.38
339.334	470.38
339.562	463.38
339.79	454.38
340.018	474.38
340.246	478.38
340.474	471.38
340.702	462.38
340.93	457.38
341.158	449.38
341.386	472.38
341.614	482.38
341.842	452.38
342.07	447.38
342.298	451.38
342.526	450.38
342.754	443.38
342.981	452.38
343.209	471.38
343.437	462.38
343.665	470.38
343.893	480.38
344.12	491.38
344.348	503.38
344.576	483.38
344.804	474.38
345.031	466.38
345.259	502.38
345.487	470.38
345.714	458.38
345.942	445.38
346.17	435.38
346.397	424.38
346.625	451.38
346.853	427.38
347.08	439.38
347.308	442.38
347.535	424.38
347.763	443.38
347.99	442.38
348.218	439.38
348.445	454.38
348.673	450.38
348.9	451.38
349.128	457.38
349.355	426.38
349.583	437.38
349.81	442.38
350.037	432.38
350.265	422.38
350.492	424.38
350.72	434.38
350.947	441.38
351.174	451.38
351.402	436.38
351.629	437.38
351.856	451.38
352.083	454.38
352.311	452.38
352.538	462.38
352.765	451.38
352.992	432.38
353.22	450.38
353.447	446.38
353.674	442.38
353.901	429.38
354.128	420.38
354.355	433.38
354.583	418.38
354.81	416.38
355.037	418.38
355.264	427.38
355.491	398.38
355.718	419.38
355.945	424.38
356.172	407.38
356.399	404.38
356.626	422.38
356.853	417.38
357.08	423.38
357.307	397.38
357.534	421.38
357.761	406.38
357.988	422.38
358.215	423.38
358.441	430.38
358.668	414.38
358.895	405.38
359.122	418.38
359.349	435.38
359.576	428.38
359.802	465.38
360.029	493.38
360.256	494.38
360.483	487.38
360.709	431.38
360.936	434.38
361.163	450.38
361.39	453.38
361.616	471.38
361.843	446.38
362.07	438.38
362.296	448.38
362.523	422.38
362.749	434.38
362.976	438.38
363.203	425.38
363.429	411.38
363.656	414.38
363.882	436.38
364.109	419.38
364.335	419.38
364.562	434.38
364.788	414.38
365.015	408.38
365.241	416.38
365.468	431.38
365.694	455.38
365.92	410.38
366.147	424.38
366.373	417.38
366.599	428.38
366.826	423.38
367.052	408.38
367.278	434.38
367.505	420.38
367.731	422.38
367.957	415.38
368.184	430.38
368.41	433.38
368.636	425.38
368.862	444.38
369.089	421.38
369.315	428.38
369.541	423.38
369.767	412.38
369.993	417.38
370.219	426.38
370.445	410.38
370.672	418.38
370.898	446.38
371.124	398.38
371.35	432.38
371.576	436.38
371.802	449.38
372.028	429.38
372.254	431.38
372.48	413.38
372.706	440.38
372.932	422.38
373.158	441.38
373.384	449.38
373.61	456.38
373.835	442.38
374.061	446.38
374.287	429.38
374.513	436.38
374.739	432.38
374.965	431.38
375.191	434.38
375.416	426.38
375.642	408.38
375.868	445.38
376.094	437.38
376.319	425.38
376.545	419.38
376.771	426.38
376.997	404.38
377.222	431.38
377.448	420.38
377.674	413.38
377.899	432.38
378.125	414.38
378.35	426.38
378.576	419.38
378.802	416.38
379.027	432.38
379.253	438.38
379.478	418.38
379.704	434.38
379.929	440.38
380.155	425.38
380.38	445.38
380.606	416.38
380.831	425.38
381.057	431.38
381.282	446.38
381.507	448.38
381.733	430.38
381.958	436.38
382.184	435.38
382.409	452.38
382.634	448.38
382.86	420.38
383.085	459.38
383.31	431.38
383.535	449.38
383.761	446.38
383.986	471.38
384.211	465.38
384.436	472.38
384.662	477.38
384.887	498.38
385.112	468.38
385.337	477.38
385.562	460.38
385.787	493.38
386.013	480.38
386.238	487.38
386.463	475.38
386.688	475.38
386.913	491.38
387.138	471.38
387.363	487.38
387.588	485.38
387.813	487.38
388.038	470.38
388.263	479.38
388.488	466.38
388.713	483.38
388.938	486.38
389.163	463.38
389.387	500.38
389.612	459.38
389.837	475.38
390.062	492.38
390.287	489.38
390.512	475.38
390.736	460.38
390.961	491.38
391.186	492.38
391.411	502.38
391.636	493.38
391.86	482.38
392.085	509.38
392.31	502.38
392.534	503.38
392.759	510.38
392.984	488.38
393.208	464.38
393.433	493.38
393.658	490.38
393.882	493.38
394.107	456.38
394.331	472.38
394.556	486.38
394.78	478.38
395.005	482.38
395.229	499.38
395.454	495.38
395.678	508.38
395.903	513.38
396.127	526.38
396.352	544.38
396.576	523.38
396.801	496.38
397.025	502.38
397.249	512.38
397.474	529.38
397.698	514.38
397.922	549.38
398.147	538.38
398.371	551.38
398.595	572.38
398.82	557.38
399.044	566.38
399.268	580.38
399.492	637.38
399.717	672.38
399.941	697.38
400.165	726.38
400.389	710.38
400.613	610.38
400.837	605.38
401.062	574.38
401.286	564.38
401.51	551.38
401.734	552.38
401.958	554.38
402.182	559.38
402.406	590.38
402.63	562.38
402.854	557.38
403.078	584.38
403.302	603.38
403.526	583.38
403.75	568.38
403.974	584.38
404.198	591.38
404.422	610.38
404.645	585.38
404.869	599.38
405.093	622.38
405.317	669.38
405.541	707.38
405.765	626.38
405.988	613.38
406.212	621.38
406.436	613.38
406.66	625.38
406.883	642.38
407.107	646.38
407.331	710.38
407.555	770.38
407.778	769.38
408.002	707.38
408.226	623.38
408.449	611.38
408.673	609.38
408.896	669.38
409.12	709.38
409.344	680.38
409.567	589.38
409.791	582.38
410.014	597.38
410.238	614.38
410.461	587.38
410.685	604.38
410.908	610.38
411.132	636.38
411.355	662.38
411.578	640.38
411.802	587.38
412.025	607.38
412.249	602.38
412.472	617.38
412.695	663.38
412.919	640.38
413.142	588.38
413.365	581.38
413.589	580.38
413.812	563.38
414.035	571.38
414.258	551.38
414.482	557.38
414.705	554.38
414.928	540.38
415.151	537.38
415.374	536.38
415.597	535.38
415.821	543.38
416.044	550.38
416.267	554.38
416.49	550.38
416.713	551.38
416.936	558.38
417.159	544.38
417.382	546.38
417.605	572.38
417.828	554.38
418.051	582.38
418.274	588.38
418.497	556.38
418.72	555.38
418.943	552.38
419.166	595.38
419.389	598.38
419.611	579.38
419.834	580.38
420.057	578.38
420.28	591.38
420.503	588.38
420.726	574.38
420.948	594.38
421.171	620.38
421.394	674.38
421.617	612.38
421.839	583.38
422.062	577.38
422.285	595.38
422.507	647.38
422.73	734.38
422.953	690.38
423.175	638.38
423.398	585.38
423.621	596.38
423.843	628.38
424.066	627.38
424.288	601.38
424.511	627.38
424.733	668.38
424.956	761.38
425.178	720.38
425.401	720.38
425.623	760.38
425.846	662.38
426.068	596.38
426.291	591.38
426.513	589.38
426.735	602.38
426.958	662.38
427.18	733.38
427.402	896.38
427.625	960.38
427.847	800.38
428.069	710.38
428.292	658.38
428.514	594.38
428.736	582.38
428.958	553.38
429.181	559.38
429.403	534.38
429.625	546.38
429.847	600.38
430.069	662.38
430.292	640.38
430.514	568.38
430.736	555.38
430.958	556.38
431.18	528.38
431.402	534.38
431.624	511.38
431.846	538.38
432.068	524.38
432.29	535.38
432.512	529.38
432.734	545.38
432.956	553.38
433.178	554.38
433.4	548.38
433.622	551.38
433.844	550.38
434.066	544.38
434.287	526.38
434.509	543.38
434.731	566.38
434.953	571.38
435.175	568.38
435.397	583.38
435.618	594.38
435.84	631.38
436.062	725.38
436.284	809.38
436.505	674.38
436.727	611.38
436.949	553.38
437.17	546.38
437.392	544.38
437.614	568.38
437.835	582.38
438.057	699.38
438.278	792.38
438.5	785.38
438.721	866.38
438.943	842.38
439.165	673.38
439.386	626.38
439.608	590.38
439.829	572.38
440.05	627.38
440.272	676.38
440.493	616.38
440.715	576.38
440.936	566.38
441.158	553.38
441.379	556.38
441.6	592.38
441.822	584.38
442.043	653.38
442.264	729.38
442.486	769.38
442.707	652.38
442.928	595.38
443.149	616.38
443.371	642.38
443.592	685.38
443.813	797.38
444.034	840.38
444.255	704.38
444.476	650.38
444.698	638.38
444.919	614.38
445.14	708.38
445.361	683.38
445.582	651.38
445.803	683.38
446.024	827.38
446.245	809.38
446.466	728.38
446.687	647.38
446.908	586.38
447.129	574.38
447.35	576.38
447.571	536.38
447.792	540.38
448.013	528.38
448.234	573.38
448.455	630.38
448.675	722.38
448.896	856.38
449.117	703.38
449.338	660.38
449.559	788.38
449.779	899.38
450	730.38
450.221	588.38
450.442	557.38
450.662	551.38
450.883	530.38
451.104	581.38
451.324	567.38
451.545	518.38
451.766	515.38
451.986	492.38
452.207	485.38
452.428	482.38
452.648	469.38
452.869	495.38
453.089	478.38
453.31	489.38
453.53	491.38
453.751	484.38
453.971	479.38
454.192	520.38
454.412	502.38
454.633	500.38
454.853	501.38
455.073	477.38
455.294	504.38
455.514	578.38
455.734	570.38
455.955	498.38
456.175	466.38
456.395	462.38
456.616	454.38
456.836	457.38
457.056	478.38
457.276	452.38
457.497	463.38
457.717	459.38
457.937	458.38
458.157	457.38
458.377	483.38
458.598	503.38
458.818	559.38
459.038	607.38
459.258	633.38
459.478	589.38
459.698	535.38
459.918	524.38
460.138	529.38
460.358	540.38
460.578	544.38
460.798	551.38
461.018	553.38
461.238	548.38
461.458	566.38
461.678	546.38
461.898	560.38
462.118	547.38
462.338	554.38
462.558	593.38
462.777	597.38
462.997	591.38
463.217	619.38
463.437	630.38
463.657	600.38
463.876	596.38
464.096	596.38
464.316	591.38
464.536	603.38
464.755	606.38
464.975	596.38
465.195	611.38
465.414	651.38
465.634	598.38
465.854	560.38
466.073	567.38
466.293	531.38
466.512	521.38
466.732	502.38
466.951	486.38
467.171	499.38
467.391	500.38
467.61	520.38
467.829	514.38
468.049	518.38
468.268	520.38
468.488	515.38
468.707	490.38
468.927	507.38
469.146	484.38
469.365	487.38
469.585	484.38
469.804	518.38
470.023	494.38
470.243	509.38
470.462	518.38
470.681	562.38
470.901	535.38
471.12	520.38
471.339	519.38
471.558	514.38
471.777	536.38
471.997	508.38
472.216	528.38
472.435	543.38
472.654	534.38
472.873	499.38
473.092	510.38
473.311	492.38
473.53	500.38
473.749	485.38
473.968	553.38
474.187	670.38
474.406	681.38
474.625	572.38
474.844	518.38
475.063	519.38
475.282	515.38
475.501	510.38
475.72	495.38
475.939	523.38
476.158	508.38
476.377	520.38
476.596	504.38
476.814	510.38
477.033	537.38
477.252	586.38
477.471	574.38
477.69	550.38
477.908	585.38
478.127	543.38
478.346	564.38
478.564	586.38
478.783	592.38
479.002	591.38
479.22	602.38
479.439	605.38
479.658	623.38
479.876	613.38
480.095	622.38
480.313	652.38
480.532	639.38
480.751	604.38
480.969	630.38
481.188	685.38
481.406	691.38
481.624	650.38
481.843	593.38
482.061	599.38
482.28	630.38
482.498	596.38
482.717	585.38
482.935	590.38
483.153	594.38
483.372	603.38
483.59	603.38
483.808	603.38
484.027	600.38
484.245	598.38
484.463	582.38
484.681	609.38
484.9	589.38
485.118	592.38
485.336	601.38
485.554	614.38
485.772	608.38
485.99	624.38
486.209	626.38
486.427	627.38
486.645	616.38
486.863	652.38
487.081	639.38
487.299	609.38
487.517	621.38
487.735	623.38
487.953	634.38
488.171	631.38
488.389	619.38
488.607	674.38
488.825	639.38
489.043	622.38
489.261	642.38
489.479	633.38
489.696	636.38
489.914	666.38
490.132	672.38
490.35	650.38
490.568	681.38
490.786	664.38
491.003	711.38
491.221	713.38
491.439	712.38
491.657	710.38
491.874	730.38
492.092	747.38
492.31	714.38
492.527	746.38
492.745	735.38
492.963	737.38
493.18	742.38
493.398	749.38
493.615	790.38
493.833	760.38
494.05	740.38
494.268	748.38
494.485	725.38
494.703	754.38
494.92	764.38
495.138	762.38
495.355	755.38
495.573	736.38
495.79	767.38
496.008	760.38
496.225	748.38
496.442	765.38
496.66	750.38
496.877	772.38
497.094	735.38
497.312	760.38
497.529	792.38
497.746	781.38
497.963	811.38
498.181	827.38
498.398	843.38
498.615	872.38
498.832	872.38
499.049	910.38
499.267	943.38
499.484	974.38
499.701	990.38
499.918	1042.38
500.135	1118.38
500.352	1163.38
500.569	1222.38
500.786	1182.38
501.003	1189.38
501.22	1133.38
501.437	1098.38
501.654	1066.38
