Data from 1976.PennyLincolnUp.Lamp.En5.5.200Scan.071719.P1.Changed Mount._HRD10591_16-00-54-861.txt Node
Date: Thu Jul 18 16:00:54 EDT 2019
User: cochatt
Spectrometer: HR+D1059
Trigger mode: 1
Integration Time (sec): 1.000000E-1
Scans to average: 1
Electric dark correction enabled: true
Nonlinearity correction enabled: false
Boxcar width: 0
XAxis mode: Wavelengths
Number of Pixels in Spectrum: 2048
>>>>>Begin Spectral Data<<<<<
223.165	-18.12
223.4	-18.12
223.635	-18.12
223.869	-17.12
224.104	-23.12
224.338	-17.12
224.573	-10.12
224.808	-17.12
225.042	-11.12
225.277	-3.12
225.511	5.88
225.746	8.88
225.98	11.88
226.215	2.88
226.449	11.88
226.683	20.88
226.918	32.88
227.152	21.88
227.387	28.88
227.621	39.88
227.856	41.88
228.09	50.88
228.324	56.88
228.559	52.88
228.793	62.88
229.027	96.88
229.262	108.88
229.496	90.88
229.73	140.88
229.964	159.88
230.199	125.88
230.433	116.88
230.667	114.88
230.901	121.88
231.136	99.88
231.37	121.88
231.604	114.88
231.838	112.88
232.072	118.88
232.306	122.88
232.541	113.88
232.775	109.88
233.009	105.88
233.243	122.88
233.477	119.88
233.711	124.88
233.945	114.88
234.179	110.88
234.413	118.88
234.647	116.88
234.881	116.88
235.115	106.88
235.349	130.88
235.583	141.88
235.817	113.88
236.051	124.88
236.285	126.88
236.519	130.88
236.753	132.88
236.987	130.88
237.221	176.88
237.455	224.88
237.689	167.88
237.922	141.88
238.156	141.88
238.39	132.88
238.624	122.88
238.858	132.88
239.091	125.88
239.325	145.88
239.559	126.88
239.793	130.88
240.027	142.88
240.26	144.88
240.494	160.88
240.728	145.88
240.961	152.88
241.195	139.88
241.429	139.88
241.662	137.88
241.896	133.88
242.13	154.88
242.363	143.88
242.597	132.88
242.83	142.88
243.064	158.88
243.298	150.88
243.531	130.88
243.765	150.88
243.998	147.88
244.232	154.88
244.465	139.88
244.699	158.88
244.932	157.88
245.166	144.88
245.399	151.88
245.633	157.88
245.866	151.88
246.099	142.88
246.333	169.88
246.566	152.88
246.8	166.88
247.033	168.88
247.266	175.88
247.5	162.88
247.733	168.88
247.966	174.88
248.2	174.88
248.433	178.88
248.666	186.88
248.899	189.88
249.133	214.88
249.366	193.88
249.599	193.88
249.832	199.88
250.066	187.88
250.299	192.88
250.532	196.88
250.765	199.88
250.998	247.88
251.231	228.88
251.465	226.88
251.698	215.88
251.931	198.88
252.164	206.88
252.397	201.88
252.63	205.88
252.863	211.88
253.096	206.88
253.329	237.88
253.562	225.88
253.795	221.88
254.028	218.88
254.261	224.88
254.494	238.88
254.727	247.88
254.96	273.88
255.193	280.88
255.426	258.88
255.659	237.88
255.892	229.88
256.124	239.88
256.357	237.88
256.59	217.88
256.823	232.88
257.056	215.88
257.289	199.88
257.521	212.88
257.754	216.88
257.987	222.88
258.22	224.88
258.452	211.88
258.685	218.88
258.918	206.88
259.151	214.88
259.383	220.88
259.616	250.88
259.849	230.88
260.081	239.88
260.314	258.88
260.547	264.88
260.779	252.88
261.012	240.88
261.244	255.88
261.477	235.88
261.71	230.88
261.942	237.88
262.175	235.88
262.407	232.88
262.64	226.88
262.872	226.88
263.105	235.88
263.337	232.88
263.57	225.88
263.802	235.88
264.035	217.88
264.267	223.88
264.499	221.88
264.732	213.88
264.964	223.88
265.197	221.88
265.429	236.88
265.661	237.88
265.894	228.88
266.126	238.88
266.358	235.88
266.591	235.88
266.823	252.88
267.055	239.88
267.287	239.88
267.52	241.88
267.752	231.88
267.984	247.88
268.216	253.88
268.448	250.88
268.681	251.88
268.913	269.88
269.145	268.88
269.377	291.88
269.609	304.88
269.841	293.88
270.073	286.88
270.306	285.88
270.538	317.88
270.77	316.88
271.002	347.88
271.234	299.88
271.466	315.88
271.698	323.88
271.93	329.88
272.162	310.88
272.394	327.88
272.626	326.88
272.858	294.88
273.09	292.88
273.322	286.88
273.553	285.88
273.785	288.88
274.017	274.88
274.249	298.88
274.481	281.88
274.713	282.88
274.945	282.88
275.176	278.88
275.408	284.88
275.64	279.88
275.872	282.88
276.104	279.88
276.335	299.88
276.567	298.88
276.799	299.88
277.031	319.88
277.262	353.88
277.494	324.88
277.726	331.88
277.957	311.88
278.189	306.88
278.421	284.88
278.652	298.88
278.884	293.88
279.115	313.88
279.347	306.88
279.579	302.88
279.81	274.88
280.042	286.88
280.273	291.88
280.505	292.88
280.736	286.88
280.968	294.88
281.199	297.88
281.431	298.88
281.662	300.88
281.894	284.88
282.125	297.88
282.356	307.88
282.588	320.88
282.819	317.88
283.051	312.88
283.282	292.88
283.513	299.88
283.745	293.88
283.976	288.88
284.207	318.88
284.439	322.88
284.67	313.88
284.901	290.88
285.132	334.88
285.364	300.88
285.595	308.88
285.826	309.88
286.057	313.88
286.288	326.88
286.52	310.88
286.751	299.88
286.982	327.88
287.213	308.88
287.444	316.88
287.675	323.88
287.906	329.88
288.138	334.88
288.369	339.88
288.6	324.88
288.831	323.88
289.062	344.88
289.293	313.88
289.524	299.88
289.755	331.88
289.986	325.88
290.217	307.88
290.448	308.88
290.679	315.88
290.91	322.88
291.141	326.88
291.371	315.88
291.602	322.88
291.833	320.88
292.064	331.88
292.295	314.88
292.526	321.88
292.757	336.88
292.987	324.88
293.218	317.88
293.449	338.88
293.68	323.88
293.91	319.88
294.141	336.88
294.372	331.88
294.603	333.88
294.833	332.88
295.064	335.88
295.295	336.88
295.525	336.88
295.756	317.88
295.987	334.88
296.217	359.88
296.448	345.88
296.679	329.88
296.909	327.88
297.14	347.88
297.37	364.88
297.601	328.88
297.831	324.88
298.062	325.88
298.292	333.88
298.523	335.88
298.753	342.88
298.984	352.88
299.214	347.88
299.445	342.88
299.675	350.88
299.905	339.88
300.136	312.88
300.366	347.88
300.597	351.88
300.827	341.88
301.057	358.88
301.288	368.88
301.518	356.88
301.748	366.88
301.979	358.88
302.209	376.88
302.439	366.88
302.669	352.88
302.9	358.88
303.13	360.88
303.36	380.88
303.59	377.88
303.82	350.88
304.051	378.88
304.281	363.88
304.511	358.88
304.741	366.88
304.971	346.88
305.201	360.88
305.431	367.88
305.661	354.88
305.891	357.88
306.121	364.88
306.352	361.88
306.582	368.88
306.812	359.88
307.042	352.88
307.272	379.88
307.502	372.88
307.731	373.88
307.961	367.88
308.191	370.88
308.421	360.88
308.651	360.88
308.881	372.88
309.111	363.88
309.341	368.88
309.571	378.88
309.8	402.88
310.03	400.88
310.26	409.88
310.49	393.88
310.72	406.88
310.949	426.88
311.179	439.88
311.409	405.88
311.639	404.88
311.868	410.88
312.098	420.88
312.328	409.88
312.557	446.88
312.787	424.88
313.017	432.88
313.246	412.88
313.476	410.88
313.706	421.88
313.935	414.88
314.165	416.88
314.394	437.88
314.624	418.88
314.853	418.88
315.083	408.88
315.312	390.88
315.542	408.88
315.771	397.88
316.001	412.88
316.23	410.88
316.46	421.88
316.689	418.88
316.919	415.88
317.148	438.88
317.377	422.88
317.607	399.88
317.836	407.88
318.065	397.88
318.295	391.88
318.524	414.88
318.753	384.88
318.983	401.88
319.212	388.88
319.441	403.88
319.67	414.88
319.9	406.88
320.129	388.88
320.358	400.88
320.587	408.88
320.816	412.88
321.046	419.88
321.275	434.88
321.504	420.88
321.733	423.88
321.962	421.88
322.191	447.88
322.42	451.88
322.649	470.88
322.878	454.88
323.108	471.88
323.337	470.88
323.566	481.88
323.795	532.88
324.024	564.88
324.253	639.88
324.482	864.88
324.71	1323.88
324.939	1926.88
325.168	1733.88
325.397	895.88
325.626	634.88
325.855	552.88
326.084	504.88
326.313	517.88
326.542	507.88
326.77	532.88
326.999	611.88
327.228	832.88
327.457	1208.88
327.686	1473.88
327.914	989.88
328.143	628.88
328.372	593.88
328.6	563.88
328.829	549.88
329.058	570.88
329.287	563.88
329.515	538.88
329.744	525.88
329.972	516.88
330.201	506.88
330.43	559.88
330.658	581.88
330.887	623.88
331.115	573.88
331.344	525.88
331.572	507.88
331.801	515.88
332.03	523.88
332.258	494.88
332.486	489.88
332.715	473.88
332.943	488.88
333.172	513.88
333.4	511.88
333.629	517.88
333.857	543.88
334.085	553.88
334.314	545.88
334.542	570.88
334.771	586.88
334.999	517.88
335.227	506.88
335.455	518.88
335.684	516.88
335.912	479.88
336.14	475.88
336.369	475.88
336.597	492.88
336.825	486.88
337.053	477.88
337.281	480.88
337.51	479.88
337.738	468.88
337.966	488.88
338.194	489.88
338.422	471.88
338.65	496.88
338.878	480.88
339.106	456.88
339.334	467.88
339.562	443.88
339.79	462.88
340.018	445.88
340.246	462.88
340.474	457.88
340.702	442.88
340.93	475.88
341.158	467.88
341.386	452.88
341.614	427.88
341.842	463.88
342.07	436.88
342.298	462.88
342.526	452.88
342.754	443.88
342.981	447.88
343.209	469.88
343.437	458.88
343.665	474.88
343.893	477.88
344.12	495.88
344.348	480.88
344.576	480.88
344.804	479.88
345.031	486.88
345.259	502.88
345.487	479.88
345.714	467.88
345.942	447.88
346.17	467.88
346.397	465.88
346.625	446.88
346.853	428.88
347.08	425.88
347.308	435.88
347.535	442.88
347.763	436.88
347.99	457.88
348.218	467.88
348.445	457.88
348.673	477.88
348.9	457.88
349.128	450.88
349.355	429.88
349.583	418.88
349.81	443.88
350.037	426.88
350.265	414.88
350.492	427.88
350.72	416.88
350.947	428.88
351.174	454.88
351.402	454.88
351.629	424.88
351.856	448.88
352.083	440.88
352.311	447.88
352.538	448.88
352.765	467.88
352.992	465.88
353.22	442.88
353.447	437.88
353.674	448.88
353.901	445.88
354.128	430.88
354.355	420.88
354.583	425.88
354.81	427.88
355.037	420.88
355.264	420.88
355.491	411.88
355.718	416.88
355.945	405.88
356.172	425.88
356.399	407.88
356.626	414.88
356.853	436.88
357.08	416.88
357.307	418.88
357.534	414.88
357.761	409.88
357.988	418.88
358.215	412.88
358.441	428.88
358.668	424.88
358.895	430.88
359.122	440.88
359.349	435.88
359.576	442.88
359.802	458.88
360.029	459.88
360.256	489.88
360.483	471.88
360.709	450.88
360.936	444.88
361.163	446.88
361.39	435.88
361.616	431.88
361.843	418.88
362.07	438.88
362.296	462.88
362.523	434.88
362.749	452.88
362.976	443.88
363.203	454.88
363.429	425.88
363.656	428.88
363.882	416.88
364.109	432.88
364.335	446.88
364.562	424.88
364.788	425.88
365.015	422.88
365.241	438.88
365.468	418.88
365.694	420.88
365.92	435.88
366.147	424.88
366.373	430.88
366.599	437.88
366.826	428.88
367.052	424.88
367.278	432.88
367.505	429.88
367.731	412.88
367.957	417.88
368.184	424.88
368.41	438.88
368.636	447.88
368.862	441.88
369.089	439.88
369.315	430.88
369.541	432.88
369.767	435.88
369.993	426.88
370.219	434.88
370.445	436.88
370.672	430.88
370.898	454.88
371.124	437.88
371.35	427.88
371.576	422.88
371.802	440.88
372.028	438.88
372.254	445.88
372.48	435.88
372.706	434.88
372.932	452.88
373.158	428.88
373.384	440.88
373.61	449.88
373.835	436.88
374.061	449.88
374.287	429.88
374.513	461.88
374.739	438.88
374.965	456.88
375.191	442.88
375.416	438.88
375.642	450.88
375.868	422.88
376.094	427.88
376.319	427.88
376.545	438.88
376.771	416.88
376.997	429.88
377.222	422.88
377.448	447.88
377.674	438.88
377.899	419.88
378.125	420.88
378.35	420.88
378.576	422.88
378.802	421.88
379.027	428.88
379.253	450.88
379.478	439.88
379.704	425.88
379.929	452.88
380.155	448.88
380.38	439.88
380.606	424.88
380.831	422.88
381.057	425.88
381.282	444.88
381.507	454.88
381.733	442.88
381.958	434.88
382.184	426.88
382.409	455.88
382.634	444.88
382.86	445.88
383.085	429.88
383.31	437.88
383.535	458.88
383.761	460.88
383.986	464.88
384.211	455.88
384.436	447.88
384.662	469.88
384.887	490.88
385.112	455.88
385.337	480.88
385.562	483.88
385.787	482.88
386.013	501.88
386.238	488.88
386.463	506.88
386.688	497.88
386.913	459.88
387.138	476.88
387.363	486.88
387.588	481.88
387.813	507.88
388.038	500.88
388.263	493.88
388.488	476.88
388.713	493.88
388.938	476.88
389.163	501.88
389.387	502.88
389.612	487.88
389.837	467.88
390.062	484.88
390.287	468.88
390.512	476.88
390.736	471.88
390.961	490.88
391.186	492.88
391.411	499.88
391.636	510.88
391.86	506.88
392.085	527.88
392.31	506.88
392.534	507.88
392.759	490.88
392.984	496.88
393.208	495.88
393.433	507.88
393.658	476.88
393.882	474.88
394.107	494.88
394.331	486.88
394.556	475.88
394.78	469.88
395.005	495.88
395.229	484.88
395.454	534.88
395.678	507.88
395.903	541.88
396.127	551.88
396.352	516.88
396.576	534.88
396.801	514.88
397.025	495.88
397.249	503.88
397.474	510.88
397.698	528.88
397.922	578.88
398.147	560.88
398.371	555.88
398.595	570.88
398.82	568.88
399.044	581.88
399.268	604.88
399.492	642.88
399.717	666.88
399.941	694.88
400.165	736.88
400.389	708.88
400.613	638.88
400.837	605.88
401.062	584.88
401.286	587.88
401.51	551.88
401.734	554.88
401.958	589.88
402.182	574.88
402.406	602.88
402.63	582.88
402.854	574.88
403.078	567.88
403.302	588.88
403.526	570.88
403.75	613.88
403.974	582.88
404.198	618.88
404.422	579.88
404.645	600.88
404.869	606.88
405.093	636.88
405.317	673.88
405.541	700.88
405.765	635.88
405.988	614.88
406.212	652.88
406.436	644.88
406.66	653.88
406.883	643.88
407.107	661.88
407.331	703.88
407.555	771.88
407.778	772.88
408.002	705.88
408.226	636.88
408.449	652.88
408.673	632.88
408.896	669.88
409.12	711.88
409.344	699.88
409.567	611.88
409.791	581.88
410.014	610.88
410.238	598.88
410.461	580.88
410.685	607.88
410.908	598.88
411.132	635.88
411.355	684.88
411.578	637.88
411.802	609.88
412.025	582.88
412.249	611.88
412.472	602.88
412.695	661.88
412.919	643.88
413.142	576.88
413.365	588.88
413.589	567.88
413.812	559.88
414.035	561.88
414.258	570.88
414.482	546.88
414.705	548.88
414.928	554.88
415.151	551.88
415.374	557.88
415.597	543.88
415.821	569.88
416.044	562.88
416.267	528.88
416.49	536.88
416.713	552.88
416.936	550.88
417.159	540.88
417.382	557.88
417.605	560.88
417.828	559.88
418.051	590.88
418.274	574.88
418.497	541.88
418.72	555.88
418.943	546.88
419.166	567.88
419.389	606.88
419.611	594.88
419.834	595.88
420.057	604.88
420.28	616.88
420.503	606.88
420.726	598.88
420.948	589.88
421.171	613.88
421.394	615.88
421.617	586.88
421.839	581.88
422.062	562.88
422.285	557.88
422.507	654.88
422.73	748.88
422.953	719.88
423.175	612.88
423.398	608.88
423.621	600.88
423.843	621.88
424.066	611.88
424.288	612.88
424.511	622.88
424.733	676.88
424.956	757.88
425.178	705.88
425.401	747.88
425.623	758.88
425.846	631.88
426.068	636.88
426.291	582.88
426.513	601.88
426.735	569.88
426.958	626.88
427.18	707.88
427.402	865.88
427.625	942.88
427.847	805.88
428.069	711.88
428.292	618.88
428.514	616.88
428.736	586.88
428.958	596.88
429.181	537.88
429.403	578.88
429.625	572.88
429.847	575.88
430.069	666.88
430.292	651.88
430.514	564.88
430.736	550.88
430.958	543.88
431.18	530.88
431.402	550.88
431.624	529.88
431.846	533.88
432.068	528.88
432.29	547.88
432.512	531.88
432.734	533.88
432.956	518.88
433.178	566.88
433.4	554.88
433.622	551.88
433.844	546.88
434.066	529.88
434.287	537.88
434.509	534.88
434.731	558.88
434.953	585.88
435.175	548.88
435.397	640.88
435.618	619.88
435.84	638.88
436.062	733.88
436.284	826.88
436.505	662.88
436.727	606.88
436.949	588.88
437.17	585.88
437.392	545.88
437.614	553.88
437.835	597.88
438.057	692.88
438.278	795.88
438.5	778.88
438.721	836.88
438.943	819.88
439.165	664.88
439.386	648.88
439.608	608.88
439.829	604.88
440.05	621.88
440.272	687.88
440.493	642.88
440.715	610.88
440.936	581.88
441.158	573.88
441.379	565.88
441.6	598.88
441.822	596.88
442.043	636.88
442.264	725.88
442.486	798.88
442.707	676.88
442.928	605.88
443.149	640.88
443.371	655.88
443.592	694.88
443.813	782.88
444.034	841.88
444.255	720.88
444.476	638.88
444.698	648.88
444.919	653.88
445.14	773.88
445.361	675.88
445.582	650.88
445.803	696.88
446.024	807.88
446.245	808.88
446.466	757.88
446.687	627.88
446.908	602.88
447.129	573.88
447.35	568.88
447.571	563.88
447.792	545.88
448.013	545.88
448.234	551.88
448.455	608.88
448.675	703.88
448.896	867.88
449.117	736.88
449.338	668.88
449.559	783.88
449.779	890.88
450	710.88
450.221	592.88
450.442	569.88
450.662	532.88
450.883	537.88
451.104	550.88
451.324	532.88
451.545	536.88
451.766	518.88
451.986	472.88
452.207	471.88
452.428	492.88
452.648	467.88
452.869	482.88
453.089	516.88
453.31	518.88
453.53	502.88
453.751	482.88
453.971	494.88
454.192	510.88
454.412	480.88
454.633	475.88
454.853	483.88
455.073	478.88
455.294	496.88
455.514	582.88
455.734	581.88
455.955	508.88
456.175	456.88
456.395	470.88
456.616	454.88
456.836	460.88
457.056	463.88
457.276	464.88
457.497	467.88
457.717	475.88
457.937	481.88
458.157	490.88
458.377	479.88
458.598	502.88
458.818	534.88
459.038	634.88
459.258	657.88
459.478	576.88
459.698	518.88
459.918	516.88
460.138	535.88
460.358	552.88
460.578	541.88
460.798	574.88
461.018	582.88
461.238	527.88
461.458	541.88
461.678	559.88
461.898	560.88
462.118	563.88
462.338	568.88
462.558	559.88
462.777	590.88
462.997	617.88
463.217	640.88
463.437	627.88
463.657	593.88
463.876	591.88
464.096	599.88
464.316	597.88
464.536	601.88
464.755	599.88
464.975	584.88
465.195	640.88
465.414	651.88
465.634	571.88
465.854	550.88
466.073	541.88
466.293	533.88
466.512	499.88
466.732	510.88
466.951	527.88
467.171	499.88
467.391	512.88
467.61	528.88
467.829	526.88
468.049	508.88
468.268	508.88
468.488	522.88
468.707	508.88
468.927	507.88
469.146	485.88
469.365	512.88
469.585	490.88
469.804	516.88
470.023	490.88
470.243	512.88
470.462	508.88
470.681	547.88
470.901	529.88
471.12	514.88
471.339	494.88
471.558	516.88
471.777	531.88
471.997	491.88
472.216	514.88
472.435	530.88
472.654	522.88
472.873	489.88
473.092	488.88
473.311	501.88
473.53	518.88
473.749	519.88
473.968	574.88
474.187	655.88
474.406	665.88
474.625	579.88
474.844	534.88
475.063	507.88
475.282	524.88
475.501	507.88
475.72	522.88
475.939	535.88
476.158	526.88
476.377	544.88
476.596	540.88
476.814	528.88
477.033	536.88
477.252	564.88
477.471	556.88
477.69	550.88
477.908	566.88
478.127	564.88
478.346	576.88
478.564	600.88
478.783	579.88
479.002	595.88
479.22	608.88
479.439	595.88
479.658	617.88
479.876	610.88
480.095	617.88
480.313	654.88
480.532	649.88
480.751	657.88
480.969	647.88
481.188	680.88
481.406	670.88
481.624	663.88
481.843	616.88
482.061	623.88
482.28	591.88
482.498	607.88
482.717	619.88
482.935	599.88
483.153	613.88
483.372	567.88
483.59	605.88
483.808	598.88
484.027	561.88
484.245	611.88
484.463	601.88
484.681	601.88
484.9	629.88
485.118	613.88
485.336	621.88
485.554	619.88
485.772	640.88
485.99	629.88
486.209	615.88
486.427	624.88
486.645	637.88
486.863	639.88
487.081	648.88
487.299	630.88
487.517	620.88
487.735	632.88
487.953	648.88
488.171	644.88
488.389	631.88
488.607	651.88
488.825	651.88
489.043	646.88
489.261	662.88
489.479	660.88
489.696	650.88
489.914	632.88
490.132	657.88
490.35	648.88
490.568	667.88
490.786	686.88
491.003	691.88
491.221	698.88
491.439	706.88
491.657	729.88
491.874	724.88
492.092	719.88
492.31	742.88
492.527	754.88
492.745	718.88
492.963	730.88
493.18	746.88
493.398	737.88
493.615	753.88
493.833	730.88
494.05	745.88
494.268	734.88
494.485	749.88
494.703	738.88
494.92	743.88
495.138	750.88
495.355	741.88
495.573	739.88
495.79	740.88
496.008	752.88
496.225	764.88
496.442	759.88
496.66	741.88
496.877	751.88
497.094	751.88
497.312	766.88
497.529	783.88
497.746	805.88
497.963	835.88
498.181	861.88
498.398	835.88
498.615	875.88
498.832	894.88
499.049	893.88
499.267	943.88
499.484	998.88
499.701	1024.88
499.918	1084.88
500.135	1125.88
500.352	1174.88
500.569	1246.88
500.786	1244.88
501.003	1216.88
501.22	1150.88
501.437	1109.88
501.654	1062.88
