Data from 1976.PennyLincolnUp.Lamp.En5.5.200Scan.071719.P1.Changed Mount._HRD10591_15-59-36-860.txt Node
Date: Thu Jul 18 15:59:36 EDT 2019
User: cochatt
Spectrometer: HR+D1059
Trigger mode: 1
Integration Time (sec): 1.000000E-1
Scans to average: 1
Electric dark correction enabled: true
Nonlinearity correction enabled: false
Boxcar width: 0
XAxis mode: Wavelengths
Number of Pixels in Spectrum: 2048
>>>>>Begin Spectral Data<<<<<
223.165	-9.94
223.4	-9.94
223.635	-9.94
223.869	-14.94
224.104	-21.94
224.338	-10.94
224.573	-9.94
224.808	-10.94
225.042	9.06
225.277	-4.94
225.511	-21.94
225.746	-4.94
225.98	-1.94
226.215	14.06
226.449	24.06
226.683	14.06
226.918	19.06
227.152	32.06
227.387	39.06
227.621	44.06
227.856	40.06
228.09	39.06
228.324	56.06
228.559	60.06
228.793	77.06
229.027	96.06
229.262	95.06
229.496	109.06
229.73	124.06
229.964	119.06
230.199	107.06
230.433	102.06
230.667	109.06
230.901	106.06
231.136	104.06
231.37	114.06
231.604	98.06
231.838	109.06
232.072	107.06
232.306	111.06
232.541	104.06
232.775	102.06
233.009	109.06
233.243	108.06
233.477	107.06
233.711	108.06
233.945	103.06
234.179	115.06
234.413	110.06
234.647	116.06
234.881	112.06
235.115	102.06
235.349	112.06
235.583	124.06
235.817	118.06
236.051	122.06
236.285	107.06
236.519	107.06
236.753	120.06
236.987	141.06
237.221	156.06
237.455	180.06
237.689	165.06
237.922	133.06
238.156	122.06
238.39	120.06
238.624	118.06
238.858	125.06
239.091	125.06
239.325	120.06
239.559	116.06
239.793	121.06
240.027	116.06
240.26	132.06
240.494	158.06
240.728	141.06
240.961	138.06
241.195	132.06
241.429	136.06
241.662	122.06
241.896	122.06
242.13	126.06
242.363	139.06
242.597	118.06
242.83	118.06
243.064	140.06
243.298	124.06
243.531	131.06
243.765	130.06
243.998	142.06
244.232	136.06
244.465	133.06
244.699	137.06
244.932	143.06
245.166	152.06
245.399	154.06
245.633	141.06
245.866	116.06
246.099	150.06
246.333	157.06
246.566	141.06
246.8	136.06
247.033	141.06
247.266	162.06
247.5	145.06
247.733	176.06
247.966	157.06
248.2	144.06
248.433	160.06
248.666	157.06
248.899	170.06
249.133	177.06
249.366	195.06
249.599	180.06
249.832	172.06
250.066	167.06
250.299	181.06
250.532	180.06
250.765	195.06
250.998	192.06
251.231	201.06
251.465	182.06
251.698	188.06
251.931	180.06
252.164	176.06
252.397	178.06
252.63	185.06
252.863	187.06
253.096	178.06
253.329	207.06
253.562	193.06
253.795	196.06
254.028	198.06
254.261	190.06
254.494	204.06
254.727	234.06
254.96	250.06
255.193	232.06
255.426	226.06
255.659	219.06
255.892	210.06
256.124	207.06
256.357	204.06
256.59	204.06
256.823	192.06
257.056	169.06
257.289	199.06
257.521	195.06
257.754	188.06
257.987	195.06
258.22	187.06
258.452	185.06
258.685	183.06
258.918	193.06
259.151	176.06
259.383	206.06
259.616	205.06
259.849	206.06
260.081	215.06
260.314	212.06
260.547	248.06
260.779	212.06
261.012	204.06
261.244	221.06
261.477	202.06
261.71	216.06
261.942	228.06
262.175	213.06
262.407	201.06
262.64	194.06
262.872	198.06
263.105	181.06
263.337	197.06
263.57	184.06
263.802	209.06
264.035	212.06
264.267	192.06
264.499	213.06
264.732	197.06
264.964	205.06
265.197	211.06
265.429	201.06
265.661	212.06
265.894	195.06
266.126	207.06
266.358	227.06
266.591	204.06
266.823	216.06
267.055	205.06
267.287	212.06
267.52	192.06
267.752	205.06
267.984	217.06
268.216	217.06
268.448	206.06
268.681	216.06
268.913	234.06
269.145	236.06
269.377	261.06
269.609	233.06
269.841	232.06
270.073	258.06
270.306	256.06
270.538	302.06
270.77	270.06
271.002	263.06
271.234	263.06
271.466	284.06
271.698	274.06
271.93	260.06
272.162	281.06
272.394	273.06
272.626	257.06
272.858	261.06
273.09	243.06
273.322	254.06
273.553	235.06
273.785	240.06
274.017	255.06
274.249	241.06
274.481	249.06
274.713	250.06
274.945	248.06
275.176	256.06
275.408	258.06
275.64	241.06
275.872	252.06
276.104	237.06
276.335	244.06
276.567	235.06
276.799	247.06
277.031	273.06
277.262	280.06
277.494	290.06
277.726	271.06
277.957	261.06
278.189	261.06
278.421	248.06
278.652	254.06
278.884	249.06
279.115	260.06
279.347	270.06
279.579	248.06
279.81	246.06
280.042	261.06
280.273	257.06
280.505	263.06
280.736	273.06
280.968	258.06
281.199	263.06
281.431	237.06
281.662	241.06
281.894	253.06
282.125	277.06
282.356	263.06
282.588	278.06
282.819	268.06
283.051	266.06
283.282	260.06
283.513	267.06
283.745	277.06
283.976	256.06
284.207	268.06
284.439	268.06
284.67	270.06
284.901	279.06
285.132	266.06
285.364	277.06
285.595	255.06
285.826	277.06
286.057	285.06
286.288	269.06
286.52	288.06
286.751	275.06
286.982	288.06
287.213	263.06
287.444	273.06
287.675	273.06
287.906	294.06
288.138	304.06
288.369	300.06
288.6	291.06
288.831	269.06
289.062	298.06
289.293	277.06
289.524	267.06
289.755	276.06
289.986	293.06
290.217	281.06
290.448	291.06
290.679	267.06
290.91	251.06
291.141	281.06
291.371	286.06
291.602	275.06
291.833	280.06
292.064	280.06
292.295	299.06
292.526	264.06
292.757	280.06
292.987	269.06
293.218	292.06
293.449	288.06
293.68	301.06
293.91	299.06
294.141	288.06
294.372	278.06
294.603	266.06
294.833	269.06
295.064	282.06
295.295	288.06
295.525	296.06
295.756	288.06
295.987	289.06
296.217	291.06
296.448	303.06
296.679	306.06
296.909	292.06
297.14	306.06
297.37	302.06
297.601	277.06
297.831	289.06
298.062	293.06
298.292	302.06
298.523	277.06
298.753	284.06
298.984	295.06
299.214	275.06
299.445	301.06
299.675	297.06
299.905	307.06
300.136	308.06
300.366	307.06
300.597	296.06
300.827	304.06
301.057	310.06
301.288	321.06
301.518	304.06
301.748	320.06
301.979	317.06
302.209	310.06
302.439	312.06
302.669	329.06
302.9	329.06
303.13	316.06
303.36	313.06
303.59	318.06
303.82	325.06
304.051	300.06
304.281	314.06
304.511	309.06
304.741	325.06
304.971	322.06
305.201	313.06
305.431	298.06
305.661	324.06
305.891	324.06
306.121	315.06
306.352	318.06
306.582	320.06
306.812	331.06
307.042	320.06
307.272	323.06
307.502	323.06
307.731	318.06
307.961	337.06
308.191	328.06
308.421	312.06
308.651	311.06
308.881	307.06
309.111	327.06
309.341	318.06
309.571	324.06
309.8	330.06
310.03	341.06
310.26	318.06
310.49	334.06
310.72	339.06
310.949	348.06
311.179	343.06
311.409	354.06
311.639	338.06
311.868	344.06
312.098	339.06
312.328	348.06
312.557	375.06
312.787	355.06
313.017	348.06
313.246	348.06
313.476	344.06
313.706	353.06
313.935	342.06
314.165	369.06
314.394	388.06
314.624	373.06
314.853	356.06
315.083	355.06
315.312	363.06
315.542	345.06
315.771	341.06
316.001	345.06
316.23	352.06
316.46	335.06
316.689	333.06
316.919	349.06
317.148	387.06
317.377	350.06
317.607	369.06
317.836	346.06
318.065	355.06
318.295	340.06
318.524	334.06
318.753	365.06
318.983	345.06
319.212	360.06
319.441	355.06
319.67	372.06
319.9	350.06
320.129	358.06
320.358	330.06
320.587	349.06
320.816	352.06
321.046	374.06
321.275	364.06
321.504	364.06
321.733	363.06
321.962	359.06
322.191	378.06
322.42	374.06
322.649	384.06
322.878	389.06
323.108	377.06
323.337	412.06
323.566	417.06
323.795	438.06
324.024	462.06
324.253	521.06
324.482	700.06
324.71	1038.06
324.939	1523.06
325.168	1344.06
325.397	691.06
325.626	488.06
325.855	453.06
326.084	412.06
326.313	421.06
326.542	417.06
326.77	416.06
326.999	504.06
327.228	649.06
327.457	934.06
327.686	1134.06
327.914	788.06
328.143	526.06
328.372	484.06
328.6	480.06
328.829	439.06
329.058	429.06
329.287	461.06
329.515	439.06
329.744	430.06
329.972	420.06
330.201	440.06
330.43	478.06
330.658	482.06
330.887	483.06
331.115	480.06
331.344	440.06
331.572	450.06
331.801	419.06
332.03	416.06
332.258	433.06
332.486	447.06
332.715	420.06
332.943	439.06
333.172	451.06
333.4	421.06
333.629	436.06
333.857	442.06
334.085	458.06
334.314	448.06
334.542	487.06
334.771	488.06
334.999	456.06
335.227	428.06
335.455	435.06
335.684	439.06
335.912	412.06
336.14	404.06
336.369	430.06
336.597	412.06
336.825	431.06
337.053	426.06
337.281	426.06
337.51	425.06
337.738	420.06
337.966	410.06
338.194	394.06
338.422	419.06
338.65	397.06
338.878	408.06
339.106	403.06
339.334	419.06
339.562	403.06
339.79	402.06
340.018	405.06
340.246	396.06
340.474	412.06
340.702	375.06
340.93	400.06
341.158	403.06
341.386	385.06
341.614	405.06
341.842	396.06
342.07	419.06
342.298	427.06
342.526	376.06
342.754	406.06
342.981	404.06
343.209	393.06
343.437	404.06
343.665	390.06
343.893	423.06
344.12	427.06
344.348	411.06
344.576	416.06
344.804	411.06
345.031	424.06
345.259	427.06
345.487	403.06
345.714	404.06
345.942	402.06
346.17	404.06
346.397	385.06
346.625	392.06
346.853	372.06
347.08	403.06
347.308	388.06
347.535	390.06
347.763	393.06
347.99	381.06
348.218	387.06
348.445	378.06
348.673	413.06
348.9	385.06
349.128	364.06
349.355	356.06
349.583	375.06
349.81	376.06
350.037	370.06
350.265	362.06
350.492	374.06
350.72	375.06
350.947	379.06
351.174	382.06
351.402	382.06
351.629	406.06
351.856	387.06
352.083	375.06
352.311	384.06
352.538	396.06
352.765	383.06
352.992	392.06
353.22	418.06
353.447	372.06
353.674	376.06
353.901	361.06
354.128	350.06
354.355	376.06
354.583	342.06
354.81	376.06
355.037	378.06
355.264	382.06
355.491	380.06
355.718	374.06
355.945	365.06
356.172	364.06
356.399	360.06
356.626	353.06
356.853	353.06
357.08	355.06
357.307	363.06
357.534	370.06
357.761	368.06
357.988	365.06
358.215	377.06
358.441	359.06
358.668	376.06
358.895	360.06
359.122	377.06
359.349	382.06
359.576	365.06
359.802	379.06
360.029	398.06
360.256	394.06
360.483	376.06
360.709	399.06
360.936	388.06
361.163	368.06
361.39	396.06
361.616	372.06
361.843	382.06
362.07	394.06
362.296	376.06
362.523	382.06
362.749	382.06
362.976	379.06
363.203	377.06
363.429	363.06
363.656	383.06
363.882	365.06
364.109	378.06
364.335	373.06
364.562	378.06
364.788	356.06
365.015	394.06
365.241	380.06
365.468	388.06
365.694	380.06
365.92	382.06
366.147	387.06
366.373	368.06
366.599	365.06
366.826	374.06
367.052	376.06
367.278	370.06
367.505	386.06
367.731	379.06
367.957	349.06
368.184	378.06
368.41	384.06
368.636	386.06
368.862	398.06
369.089	383.06
369.315	410.06
369.541	358.06
369.767	380.06
369.993	382.06
370.219	394.06
370.445	383.06
370.672	368.06
370.898	379.06
371.124	391.06
371.35	389.06
371.576	377.06
371.802	389.06
372.028	379.06
372.254	389.06
372.48	384.06
372.706	398.06
372.932	381.06
373.158	402.06
373.384	394.06
373.61	380.06
373.835	380.06
374.061	388.06
374.287	404.06
374.513	396.06
374.739	423.06
374.965	385.06
375.191	399.06
375.416	396.06
375.642	379.06
375.868	397.06
376.094	398.06
376.319	387.06
376.545	382.06
376.771	396.06
376.997	379.06
377.222	388.06
377.448	383.06
377.674	394.06
377.899	378.06
378.125	408.06
378.35	388.06
378.576	395.06
378.802	385.06
379.027	384.06
379.253	379.06
379.478	390.06
379.704	386.06
379.929	383.06
380.155	385.06
380.38	406.06
380.606	374.06
380.831	394.06
381.057	380.06
381.282	400.06
381.507	368.06
381.733	412.06
381.958	392.06
382.184	402.06
382.409	396.06
382.634	385.06
382.86	393.06
383.085	399.06
383.31	412.06
383.535	404.06
383.761	405.06
383.986	393.06
384.211	400.06
384.436	408.06
384.662	411.06
384.887	439.06
385.112	420.06
385.337	404.06
385.562	423.06
385.787	415.06
386.013	427.06
386.238	438.06
386.463	458.06
386.688	447.06
386.913	424.06
387.138	425.06
387.363	426.06
387.588	415.06
387.813	428.06
388.038	419.06
388.263	438.06
388.488	439.06
388.713	427.06
388.938	444.06
389.163	436.06
389.387	451.06
389.612	424.06
389.837	451.06
390.062	426.06
390.287	432.06
390.512	432.06
390.736	426.06
390.961	434.06
391.186	420.06
391.411	445.06
391.636	441.06
391.86	431.06
392.085	446.06
392.31	445.06
392.534	446.06
392.759	437.06
392.984	456.06
393.208	436.06
393.433	453.06
393.658	442.06
393.882	429.06
394.107	427.06
394.331	456.06
394.556	446.06
394.78	429.06
395.005	448.06
395.229	414.06
395.454	449.06
395.678	453.06
395.903	475.06
396.127	464.06
396.352	482.06
396.576	441.06
396.801	450.06
397.025	458.06
397.249	473.06
397.474	455.06
397.698	472.06
397.922	489.06
398.147	476.06
398.371	483.06
398.595	478.06
398.82	493.06
399.044	521.06
399.268	542.06
399.492	582.06
399.717	616.06
399.941	616.06
400.165	606.06
400.389	620.06
400.613	582.06
400.837	568.06
401.062	532.06
401.286	517.06
401.51	520.06
401.734	491.06
401.958	493.06
402.182	507.06
402.406	515.06
402.63	508.06
402.854	513.06
403.078	502.06
403.302	510.06
403.526	508.06
403.75	506.06
403.974	537.06
404.198	504.06
404.422	513.06
404.645	540.06
404.869	534.06
405.093	557.06
405.317	595.06
405.541	636.06
405.765	542.06
405.988	541.06
406.212	557.06
406.436	558.06
406.66	566.06
406.883	561.06
407.107	574.06
407.331	624.06
407.555	666.06
407.778	673.06
408.002	624.06
408.226	588.06
408.449	583.06
408.673	591.06
408.896	584.06
409.12	607.06
409.344	596.06
409.567	551.06
409.791	552.06
410.014	522.06
410.238	526.06
410.461	518.06
410.685	523.06
410.908	534.06
411.132	561.06
411.355	588.06
411.578	544.06
411.802	529.06
412.025	492.06
412.249	514.06
412.472	538.06
412.695	564.06
412.919	546.06
413.142	543.06
413.365	500.06
413.589	517.06
413.812	493.06
414.035	480.06
414.258	482.06
414.482	482.06
414.705	501.06
414.928	508.06
415.151	481.06
415.374	496.06
415.597	504.06
415.821	502.06
416.044	506.06
416.267	485.06
416.49	470.06
416.713	498.06
416.936	486.06
417.159	481.06
417.382	513.06
417.605	477.06
417.828	510.06
418.051	516.06
418.274	517.06
418.497	485.06
418.72	490.06
418.943	486.06
419.166	525.06
419.389	530.06
419.611	526.06
419.834	538.06
420.057	499.06
420.28	526.06
420.503	502.06
420.726	509.06
420.948	515.06
421.171	533.06
421.394	568.06
421.617	520.06
421.839	515.06
422.062	500.06
422.285	503.06
422.507	576.06
422.73	624.06
422.953	598.06
423.175	532.06
423.398	517.06
423.621	514.06
423.843	541.06
424.066	553.06
424.288	545.06
424.511	573.06
424.733	599.06
424.956	672.06
425.178	640.06
425.401	621.06
425.623	682.06
425.846	580.06
426.068	545.06
426.291	530.06
426.513	512.06
426.735	525.06
426.958	569.06
427.18	616.06
427.402	738.06
427.625	806.06
427.847	672.06
428.069	589.06
428.292	546.06
428.514	514.06
428.736	484.06
428.958	481.06
429.181	489.06
429.403	475.06
429.625	460.06
429.847	517.06
430.069	556.06
430.292	570.06
430.514	502.06
430.736	499.06
430.958	491.06
431.18	475.06
431.402	472.06
431.624	456.06
431.846	468.06
432.068	464.06
432.29	464.06
432.512	466.06
432.734	482.06
432.956	466.06
433.178	467.06
433.4	481.06
433.622	490.06
433.844	480.06
434.066	473.06
434.287	465.06
434.509	472.06
434.731	492.06
434.953	476.06
435.175	507.06
435.397	504.06
435.618	536.06
435.84	571.06
436.062	636.06
436.284	693.06
436.505	576.06
436.727	519.06
436.949	477.06
437.17	477.06
437.392	483.06
437.614	502.06
437.835	519.06
438.057	592.06
438.278	697.06
438.5	692.06
438.721	734.06
438.943	730.06
439.165	548.06
439.386	523.06
439.608	519.06
439.829	541.06
440.05	546.06
440.272	594.06
440.493	547.06
440.715	511.06
440.936	528.06
441.158	486.06
441.379	505.06
441.6	518.06
441.822	534.06
442.043	554.06
442.264	636.06
442.486	651.06
442.707	571.06
442.928	528.06
443.149	549.06
443.371	540.06
443.592	632.06
443.813	671.06
444.034	725.06
444.255	608.06
444.476	560.06
444.698	546.06
444.919	524.06
445.14	663.06
445.361	597.06
445.582	557.06
445.803	581.06
446.024	696.06
446.245	692.06
446.466	640.06
446.687	574.06
446.908	519.06
447.129	512.06
447.35	469.06
447.571	480.06
447.792	480.06
448.013	455.06
448.234	472.06
448.455	501.06
448.675	635.06
448.896	706.06
449.117	602.06
449.338	581.06
449.559	671.06
449.779	758.06
450	626.06
450.221	542.06
450.442	474.06
450.662	452.06
450.883	465.06
451.104	484.06
451.324	456.06
451.545	455.06
451.766	413.06
451.986	416.06
452.207	407.06
452.428	422.06
452.648	446.06
452.869	433.06
453.089	449.06
453.31	442.06
453.53	416.06
453.751	422.06
453.971	428.06
454.192	421.06
454.412	419.06
454.633	418.06
454.853	425.06
455.073	426.06
455.294	444.06
455.514	502.06
455.734	494.06
455.955	429.06
456.175	425.06
456.395	413.06
456.616	392.06
456.836	405.06
457.056	416.06
457.276	384.06
457.497	386.06
457.717	414.06
457.937	389.06
458.157	426.06
458.377	417.06
458.598	435.06
458.818	457.06
459.038	535.06
459.258	553.06
459.478	505.06
459.698	462.06
459.918	480.06
460.138	476.06
460.358	482.06
460.578	477.06
460.798	485.06
461.018	489.06
461.238	485.06
461.458	486.06
461.678	475.06
461.898	504.06
462.118	510.06
462.338	532.06
462.558	517.06
462.777	529.06
462.997	524.06
463.217	561.06
463.437	546.06
463.657	540.06
463.876	558.06
464.096	539.06
464.316	538.06
464.536	545.06
464.755	552.06
464.975	541.06
465.195	535.06
465.414	564.06
465.634	517.06
465.854	501.06
466.073	456.06
466.293	456.06
466.512	459.06
466.732	468.06
466.951	438.06
467.171	429.06
467.391	461.06
467.61	446.06
467.829	459.06
468.049	448.06
468.268	456.06
468.488	429.06
468.707	438.06
468.927	443.06
469.146	436.06
469.365	426.06
469.585	428.06
469.804	441.06
470.023	466.06
470.243	468.06
470.462	462.06
470.681	483.06
470.901	473.06
471.12	468.06
471.339	442.06
471.558	449.06
471.777	425.06
471.997	445.06
472.216	450.06
472.435	452.06
472.654	441.06
472.873	450.06
473.092	429.06
473.311	445.06
473.53	462.06
473.749	452.06
473.968	485.06
474.187	561.06
474.406	593.06
474.625	493.06
474.844	481.06
475.063	472.06
475.282	462.06
475.501	455.06
475.72	440.06
475.939	454.06
476.158	464.06
476.377	473.06
476.596	463.06
476.814	460.06
477.033	482.06
477.252	499.06
477.471	469.06
477.69	488.06
477.908	470.06
478.127	475.06
478.346	489.06
478.564	499.06
478.783	520.06
479.002	522.06
479.22	523.06
479.439	534.06
479.658	563.06
479.876	540.06
480.095	555.06
480.313	555.06
480.532	557.06
480.751	550.06
480.969	573.06
481.188	583.06
481.406	602.06
481.624	549.06
481.843	548.06
482.061	536.06
482.28	515.06
482.498	525.06
482.717	521.06
482.935	513.06
483.153	524.06
483.372	500.06
483.59	517.06
483.808	518.06
484.027	514.06
484.245	521.06
484.463	534.06
484.681	543.06
484.9	542.06
485.118	540.06
485.336	527.06
485.554	541.06
485.772	550.06
485.99	539.06
486.209	545.06
486.427	526.06
486.645	550.06
486.863	558.06
487.081	541.06
487.299	560.06
487.517	557.06
487.735	572.06
487.953	579.06
488.171	546.06
488.389	562.06
488.607	531.06
488.825	530.06
489.043	556.06
489.261	560.06
489.479	550.06
489.696	563.06
489.914	584.06
490.132	588.06
490.35	586.06
490.568	572.06
490.786	577.06
491.003	583.06
491.221	599.06
491.439	599.06
491.657	605.06
491.874	616.06
492.092	608.06
492.31	625.06
492.527	628.06
492.745	640.06
492.963	646.06
493.18	632.06
493.398	621.06
493.615	636.06
493.833	636.06
494.05	638.06
494.268	654.06
494.485	657.06
494.703	636.06
494.92	639.06
495.138	630.06
495.355	643.06
495.573	643.06
495.79	672.06
496.008	670.06
496.225	666.06
496.442	660.06
496.66	672.06
496.877	658.06
497.094	660.06
497.312	682.06
497.529	670.06
497.746	685.06
497.963	693.06
498.181	756.06
498.398	722.06
498.615	733.06
498.832	749.06
499.049	769.06
499.267	818.06
499.484	824.06
499.701	881.06
499.918	958.06
500.135	972.06
500.352	1022.06
500.569	1063.06
500.786	1074.06
501.003	1051.06
501.22	977.06
501.437	938.06
501.654	886.06
