Data from 1976.PennyLincolnUp.Lamp.En5.5.200Scan.071719.P1.Changed Mount._HRD10591_16-01-49-862.txt Node
Date: Thu Jul 18 16:01:49 EDT 2019
User: cochatt
Spectrometer: HR+D1059
Trigger mode: 1
Integration Time (sec): 1.000000E-1
Scans to average: 1
Electric dark correction enabled: true
Nonlinearity correction enabled: false
Boxcar width: 0
XAxis mode: Wavelengths
Number of Pixels in Spectrum: 2048
>>>>>Begin Spectral Data<<<<<
223.165	-21.62
223.4	-21.62
223.635	-21.62
223.869	-27.62
224.104	-22.62
224.338	-9.62
224.573	0.38
224.808	-9.62
225.042	-0.62
225.277	-10.62
225.511	-8.62
225.746	-3.62
225.98	9.38
226.215	15.38
226.449	22.38
226.683	25.38
226.918	22.38
227.152	19.38
227.387	23.38
227.621	35.38
227.856	49.38
228.09	35.38
228.324	47.38
228.559	54.38
228.793	67.38
229.027	103.38
229.262	93.38
229.496	113.38
229.73	137.38
229.964	157.38
230.199	125.38
230.433	113.38
230.667	106.38
230.901	124.38
231.136	124.38
231.37	118.38
231.604	120.38
231.838	115.38
232.072	111.38
232.306	98.38
232.541	109.38
232.775	123.38
233.009	110.38
233.243	120.38
233.477	112.38
233.711	133.38
233.945	127.38
234.179	120.38
234.413	130.38
234.647	129.38
234.881	121.38
235.115	110.38
235.349	122.38
235.583	126.38
235.817	128.38
236.051	136.38
236.285	130.38
236.519	137.38
236.753	142.38
236.987	146.38
237.221	183.38
237.455	218.38
237.689	195.38
237.922	140.38
238.156	143.38
238.39	126.38
238.624	140.38
238.858	137.38
239.091	133.38
239.325	129.38
239.559	127.38
239.793	141.38
240.027	136.38
240.26	133.38
240.494	151.38
240.728	149.38
240.961	153.38
241.195	141.38
241.429	159.38
241.662	143.38
241.896	149.38
242.13	141.38
242.363	129.38
242.597	127.38
242.83	142.38
243.064	159.38
243.298	143.38
243.531	138.38
243.765	139.38
243.998	142.38
244.232	160.38
244.465	141.38
244.699	154.38
244.932	155.38
245.166	149.38
245.399	151.38
245.633	157.38
245.866	154.38
246.099	163.38
246.333	151.38
246.566	168.38
246.8	157.38
247.033	154.38
247.266	156.38
247.5	169.38
247.733	171.38
247.966	175.38
248.2	180.38
248.433	183.38
248.666	177.38
248.899	204.38
249.133	202.38
249.366	216.38
249.599	201.38
249.832	195.38
250.066	198.38
250.299	186.38
250.532	204.38
250.765	208.38
250.998	236.38
251.231	242.38
251.465	213.38
251.698	208.38
251.931	213.38
252.164	225.38
252.397	201.38
252.63	210.38
252.863	228.38
253.096	224.38
253.329	236.38
253.562	246.38
253.795	229.38
254.028	227.38
254.261	213.38
254.494	247.38
254.727	271.38
254.96	294.38
255.193	255.38
255.426	257.38
255.659	242.38
255.892	231.38
256.124	248.38
256.357	243.38
256.59	241.38
256.823	213.38
257.056	241.38
257.289	219.38
257.521	218.38
257.754	236.38
257.987	215.38
258.22	213.38
258.452	221.38
258.685	223.38
258.918	212.38
259.151	229.38
259.383	222.38
259.616	229.38
259.849	243.38
260.081	261.38
260.314	264.38
260.547	259.38
260.779	250.38
261.012	251.38
261.244	243.38
261.477	227.38
261.71	232.38
261.942	247.38
262.175	242.38
262.407	247.38
262.64	230.38
262.872	239.38
263.105	234.38
263.337	248.38
263.57	243.38
263.802	239.38
264.035	215.38
264.267	216.38
264.499	226.38
264.732	232.38
264.964	216.38
265.197	207.38
265.429	228.38
265.661	237.38
265.894	246.38
266.126	241.38
266.358	251.38
266.591	228.38
266.823	230.38
267.055	241.38
267.287	269.38
267.52	229.38
267.752	249.38
267.984	249.38
268.216	250.38
268.448	278.38
268.681	266.38
268.913	273.38
269.145	284.38
269.377	304.38
269.609	309.38
269.841	286.38
270.073	301.38
270.306	326.38
270.538	331.38
270.77	332.38
271.002	326.38
271.234	305.38
271.466	323.38
271.698	333.38
271.93	344.38
272.162	332.38
272.394	334.38
272.626	322.38
272.858	303.38
273.09	297.38
273.322	310.38
273.553	288.38
273.785	281.38
274.017	300.38
274.249	292.38
274.481	282.38
274.713	287.38
274.945	306.38
275.176	301.38
275.408	291.38
275.64	299.38
275.872	297.38
276.104	289.38
276.335	283.38
276.567	293.38
276.799	311.38
277.031	324.38
277.262	339.38
277.494	345.38
277.726	328.38
277.957	318.38
278.189	317.38
278.421	312.38
278.652	294.38
278.884	317.38
279.115	276.38
279.347	283.38
279.579	293.38
279.81	293.38
280.042	311.38
280.273	306.38
280.505	310.38
280.736	295.38
280.968	305.38
281.199	286.38
281.431	302.38
281.662	296.38
281.894	268.38
282.125	309.38
282.356	330.38
282.588	320.38
282.819	348.38
283.051	324.38
283.282	283.38
283.513	305.38
283.745	288.38
283.976	314.38
284.207	319.38
284.439	322.38
284.67	303.38
284.901	325.38
285.132	299.38
285.364	317.38
285.595	326.38
285.826	321.38
286.057	314.38
286.288	316.38
286.52	322.38
286.751	293.38
286.982	313.38
287.213	314.38
287.444	345.38
287.675	324.38
287.906	313.38
288.138	333.38
288.369	334.38
288.6	333.38
288.831	325.38
289.062	321.38
289.293	329.38
289.524	319.38
289.755	313.38
289.986	333.38
290.217	310.38
290.448	300.38
290.679	315.38
290.91	327.38
291.141	328.38
291.371	334.38
291.602	327.38
291.833	330.38
292.064	313.38
292.295	319.38
292.526	322.38
292.757	317.38
292.987	341.38
293.218	311.38
293.449	340.38
293.68	323.38
293.91	317.38
294.141	326.38
294.372	324.38
294.603	329.38
294.833	324.38
295.064	315.38
295.295	329.38
295.525	327.38
295.756	340.38
295.987	351.38
296.217	349.38
296.448	372.38
296.679	334.38
296.909	313.38
297.14	356.38
297.37	316.38
297.601	329.38
297.831	334.38
298.062	329.38
298.292	333.38
298.523	336.38
298.753	355.38
298.984	341.38
299.214	347.38
299.445	340.38
299.675	335.38
299.905	351.38
300.136	340.38
300.366	371.38
300.597	353.38
300.827	358.38
301.057	333.38
301.288	373.38
301.518	360.38
301.748	367.38
301.979	373.38
302.209	365.38
302.439	373.38
302.669	374.38
302.9	357.38
303.13	351.38
303.36	369.38
303.59	362.38
303.82	369.38
304.051	392.38
304.281	378.38
304.511	343.38
304.741	342.38
304.971	349.38
305.201	348.38
305.431	366.38
305.661	347.38
305.891	383.38
306.121	350.38
306.352	366.38
306.582	373.38
306.812	364.38
307.042	351.38
307.272	357.38
307.502	369.38
307.731	375.38
307.961	374.38
308.191	369.38
308.421	390.38
308.651	396.38
308.881	366.38
309.111	377.38
309.341	371.38
309.571	377.38
309.8	377.38
310.03	400.38
310.26	405.38
310.49	409.38
310.72	389.38
310.949	424.38
311.179	428.38
311.409	413.38
311.639	403.38
311.868	408.38
312.098	397.38
312.328	420.38
312.557	410.38
312.787	423.38
313.017	424.38
313.246	434.38
313.476	400.38
313.706	418.38
313.935	405.38
314.165	413.38
314.394	439.38
314.624	421.38
314.853	428.38
315.083	425.38
315.312	401.38
315.542	399.38
315.771	409.38
316.001	395.38
316.23	423.38
316.46	401.38
316.689	405.38
316.919	408.38
317.148	447.38
317.377	420.38
317.607	419.38
317.836	427.38
318.065	407.38
318.295	413.38
318.524	417.38
318.753	419.38
318.983	396.38
319.212	395.38
319.441	410.38
319.67	406.38
319.9	432.38
320.129	417.38
320.358	407.38
320.587	418.38
320.816	426.38
321.046	425.38
321.275	430.38
321.504	439.38
321.733	444.38
321.962	429.38
322.191	448.38
322.42	419.38
322.649	453.38
322.878	487.38
323.108	502.38
323.337	502.38
323.566	508.38
323.795	534.38
324.024	563.38
324.253	667.38
324.482	900.38
324.71	1415.38
324.939	2071.38
325.168	1831.38
325.397	901.38
325.626	653.38
325.855	563.38
326.084	505.38
326.313	492.38
326.542	517.38
326.77	547.38
326.999	638.38
327.228	833.38
327.457	1273.38
327.686	1578.38
327.914	1049.38
328.143	684.38
328.372	621.38
328.6	586.38
328.829	559.38
329.058	570.38
329.287	577.38
329.515	590.38
329.744	537.38
329.972	494.38
330.201	549.38
330.43	596.38
330.658	619.38
330.887	620.38
331.115	603.38
331.344	552.38
331.572	491.38
331.801	514.38
332.03	537.38
332.258	511.38
332.486	477.38
332.715	478.38
332.943	498.38
333.172	519.38
333.4	513.38
333.629	498.38
333.857	526.38
334.085	545.38
334.314	568.38
334.542	580.38
334.771	588.38
334.999	547.38
335.227	532.38
335.455	505.38
335.684	503.38
335.912	506.38
336.14	502.38
336.369	482.38
336.597	497.38
336.825	506.38
337.053	499.38
337.281	494.38
337.51	472.38
337.738	487.38
337.966	490.38
338.194	481.38
338.422	479.38
338.65	477.38
338.878	463.38
339.106	474.38
339.334	461.38
339.562	490.38
339.79	458.38
340.018	447.38
340.246	437.38
340.474	454.38
340.702	455.38
340.93	482.38
341.158	467.38
341.386	440.38
341.614	467.38
341.842	464.38
342.07	476.38
342.298	456.38
342.526	453.38
342.754	456.38
342.981	430.38
343.209	434.38
343.437	453.38
343.665	455.38
343.893	475.38
344.12	503.38
344.348	467.38
344.576	474.38
344.804	494.38
345.031	483.38
345.259	500.38
345.487	487.38
345.714	462.38
345.942	471.38
346.17	472.38
346.397	453.38
346.625	461.38
346.853	455.38
347.08	434.38
347.308	462.38
347.535	450.38
347.763	473.38
347.99	444.38
348.218	456.38
348.445	459.38
348.673	466.38
348.9	454.38
349.128	445.38
349.355	430.38
349.583	430.38
349.81	447.38
350.037	427.38
350.265	443.38
350.492	448.38
350.72	440.38
350.947	434.38
351.174	444.38
351.402	465.38
351.629	464.38
351.856	457.38
352.083	453.38
352.311	453.38
352.538	438.38
352.765	433.38
352.992	458.38
353.22	451.38
353.447	450.38
353.674	456.38
353.901	443.38
354.128	424.38
354.355	424.38
354.583	420.38
354.81	430.38
355.037	421.38
355.264	428.38
355.491	437.38
355.718	447.38
355.945	438.38
356.172	426.38
356.399	422.38
356.626	409.38
356.853	436.38
357.08	435.38
357.307	409.38
357.534	428.38
357.761	435.38
357.988	417.38
358.215	421.38
358.441	463.38
358.668	429.38
358.895	437.38
359.122	438.38
359.349	437.38
359.576	437.38
359.802	467.38
360.029	469.38
360.256	489.38
360.483	465.38
360.709	458.38
360.936	449.38
361.163	441.38
361.39	439.38
361.616	452.38
361.843	421.38
362.07	462.38
362.296	461.38
362.523	455.38
362.749	442.38
362.976	428.38
363.203	443.38
363.429	438.38
363.656	422.38
363.882	421.38
364.109	414.38
364.335	422.38
364.562	435.38
364.788	421.38
365.015	428.38
365.241	418.38
365.468	429.38
365.694	419.38
365.92	426.38
366.147	419.38
366.373	414.38
366.599	406.38
366.826	431.38
367.052	437.38
367.278	431.38
367.505	445.38
367.731	419.38
367.957	421.38
368.184	434.38
368.41	435.38
368.636	435.38
368.862	439.38
369.089	426.38
369.315	445.38
369.541	437.38
369.767	429.38
369.993	425.38
370.219	433.38
370.445	441.38
370.672	446.38
370.898	422.38
371.124	435.38
371.35	456.38
371.576	421.38
371.802	438.38
372.028	425.38
372.254	430.38
372.48	433.38
372.706	452.38
372.932	423.38
373.158	453.38
373.384	433.38
373.61	445.38
373.835	444.38
374.061	444.38
374.287	443.38
374.513	451.38
374.739	447.38
374.965	442.38
375.191	451.38
375.416	467.38
375.642	473.38
375.868	437.38
376.094	439.38
376.319	437.38
376.545	443.38
376.771	436.38
376.997	426.38
377.222	438.38
377.448	438.38
377.674	429.38
377.899	415.38
378.125	442.38
378.35	429.38
378.576	449.38
378.802	430.38
379.027	447.38
379.253	426.38
379.478	445.38
379.704	452.38
379.929	427.38
380.155	426.38
380.38	432.38
380.606	441.38
380.831	430.38
381.057	444.38
381.282	438.38
381.507	434.38
381.733	459.38
381.958	434.38
382.184	440.38
382.409	449.38
382.634	464.38
382.86	437.38
383.085	452.38
383.31	447.38
383.535	458.38
383.761	474.38
383.986	463.38
384.211	469.38
384.436	465.38
384.662	467.38
384.887	437.38
385.112	460.38
385.337	482.38
385.562	483.38
385.787	467.38
386.013	467.38
386.238	481.38
386.463	514.38
386.688	493.38
386.913	467.38
387.138	469.38
387.363	484.38
387.588	470.38
387.813	502.38
388.038	478.38
388.263	489.38
388.488	500.38
388.713	493.38
388.938	491.38
389.163	478.38
389.387	481.38
389.612	473.38
389.837	478.38
390.062	489.38
390.287	462.38
390.512	476.38
390.736	470.38
390.961	487.38
391.186	473.38
391.411	498.38
391.636	493.38
391.86	510.38
392.085	513.38
392.31	499.38
392.534	503.38
392.759	514.38
392.984	484.38
393.208	473.38
393.433	500.38
393.658	487.38
393.882	488.38
394.107	492.38
394.331	491.38
394.556	487.38
394.78	486.38
395.005	495.38
395.229	494.38
395.454	506.38
395.678	501.38
395.903	532.38
396.127	555.38
396.352	547.38
396.576	519.38
396.801	501.38
397.025	511.38
397.249	502.38
397.474	484.38
397.698	507.38
397.922	528.38
398.147	561.38
398.371	546.38
398.595	542.38
398.82	579.38
399.044	569.38
399.268	588.38
399.492	656.38
399.717	657.38
399.941	720.38
400.165	729.38
400.389	701.38
400.613	664.38
400.837	605.38
401.062	580.38
401.286	586.38
401.51	564.38
401.734	567.38
401.958	571.38
402.182	557.38
402.406	587.38
402.63	608.38
402.854	594.38
403.078	583.38
403.302	596.38
403.526	593.38
403.75	601.38
403.974	606.38
404.198	598.38
404.422	586.38
404.645	598.38
404.869	598.38
405.093	641.38
405.317	663.38
405.541	727.38
405.765	658.38
405.988	623.38
406.212	610.38
406.436	642.38
406.66	656.38
406.883	641.38
407.107	635.38
407.331	708.38
407.555	798.38
407.778	795.38
408.002	717.38
408.226	669.38
408.449	651.38
408.673	653.38
408.896	665.38
409.12	725.38
409.344	671.38
409.567	606.38
409.791	613.38
410.014	583.38
410.238	605.38
410.461	578.38
410.685	585.38
410.908	599.38
411.132	633.38
411.355	661.38
411.578	650.38
411.802	593.38
412.025	577.38
412.249	622.38
412.472	619.38
412.695	642.38
412.919	625.38
413.142	607.38
413.365	587.38
413.589	580.38
413.812	563.38
414.035	556.38
414.258	557.38
414.482	549.38
414.705	537.38
414.928	544.38
415.151	549.38
415.374	527.38
415.597	554.38
415.821	526.38
416.044	546.38
416.267	556.38
416.49	536.38
416.713	534.38
416.936	541.38
417.159	555.38
417.382	567.38
417.605	587.38
417.828	569.38
418.051	570.38
418.274	604.38
418.497	552.38
418.72	590.38
418.943	537.38
419.166	572.38
419.389	587.38
419.611	609.38
419.834	569.38
420.057	576.38
420.28	588.38
420.503	564.38
420.726	565.38
420.948	600.38
421.171	630.38
421.394	655.38
421.617	591.38
421.839	581.38
422.062	576.38
422.285	602.38
422.507	651.38
422.73	724.38
422.953	703.38
423.175	619.38
423.398	609.38
423.621	591.38
423.843	631.38
424.066	622.38
424.288	627.38
424.511	627.38
424.733	670.38
424.956	776.38
425.178	755.38
425.401	733.38
425.623	760.38
425.846	657.38
426.068	606.38
426.291	597.38
426.513	592.38
426.735	606.38
426.958	644.38
427.18	721.38
427.402	893.38
427.625	969.38
427.847	824.38
428.069	697.38
428.292	630.38
428.514	616.38
428.736	575.38
428.958	587.38
429.181	549.38
429.403	539.38
429.625	584.38
429.847	597.38
430.069	673.38
430.292	679.38
430.514	587.38
430.736	565.38
430.958	537.38
431.18	541.38
431.402	544.38
431.624	531.38
431.846	519.38
432.068	536.38
432.29	521.38
432.512	516.38
432.734	554.38
432.956	550.38
433.178	549.38
433.4	538.38
433.622	548.38
433.844	527.38
434.066	544.38
434.287	522.38
434.509	537.38
434.731	561.38
434.953	569.38
435.175	591.38
435.397	604.38
435.618	621.38
435.84	631.38
436.062	733.38
436.284	814.38
436.505	680.38
436.727	615.38
436.949	586.38
437.17	557.38
437.392	547.38
437.614	561.38
437.835	586.38
438.057	701.38
438.278	809.38
438.5	835.38
438.721	902.38
438.943	859.38
439.165	669.38
439.386	614.38
439.608	635.38
439.829	623.38
440.05	620.38
440.272	709.38
440.493	651.38
440.715	594.38
440.936	573.38
441.158	550.38
441.379	579.38
441.6	588.38
441.822	586.38
442.043	636.38
442.264	737.38
442.486	795.38
442.707	679.38
442.928	620.38
443.149	633.38
443.371	645.38
443.592	672.38
443.813	802.38
444.034	877.38
444.255	726.38
444.476	654.38
444.698	653.38
444.919	645.38
445.14	774.38
445.361	680.38
445.582	653.38
445.803	720.38
446.024	835.38
446.245	859.38
446.466	773.38
446.687	657.38
446.908	609.38
447.129	567.38
447.35	561.38
447.571	559.38
447.792	540.38
448.013	565.38
448.234	570.38
448.455	613.38
448.675	737.38
448.896	902.38
449.117	711.38
449.338	688.38
449.559	819.38
449.779	910.38
450	707.38
450.221	611.38
450.442	559.38
450.662	536.38
450.883	554.38
451.104	526.38
451.324	558.38
451.545	520.38
451.766	520.38
451.986	513.38
452.207	480.38
452.428	490.38
452.648	508.38
452.869	476.38
453.089	508.38
453.31	516.38
453.53	502.38
453.751	479.38
453.971	495.38
454.192	509.38
454.412	484.38
454.633	490.38
454.853	497.38
455.073	491.38
455.294	515.38
455.514	570.38
455.734	582.38
455.955	520.38
456.175	481.38
456.395	462.38
456.616	468.38
456.836	465.38
457.056	489.38
457.276	471.38
457.497	463.38
457.717	467.38
457.937	481.38
458.157	455.38
458.377	471.38
458.598	511.38
458.818	544.38
459.038	640.38
459.258	659.38
459.478	591.38
459.698	523.38
459.918	526.38
460.138	549.38
460.358	561.38
460.578	543.38
460.798	583.38
461.018	574.38
461.238	557.38
461.458	566.38
461.678	540.38
461.898	550.38
462.118	565.38
462.338	567.38
462.558	604.38
462.777	604.38
462.997	638.38
463.217	610.38
463.437	632.38
463.657	631.38
463.876	583.38
464.096	591.38
464.316	603.38
464.536	619.38
464.755	619.38
464.975	577.38
465.195	599.38
465.414	659.38
465.634	600.38
465.854	591.38
466.073	543.38
466.293	519.38
466.512	523.38
466.732	489.38
466.951	489.38
467.171	508.38
467.391	529.38
467.61	527.38
467.829	506.38
468.049	514.38
468.268	513.38
468.488	490.38
468.707	503.38
468.927	500.38
469.146	492.38
469.365	496.38
469.585	505.38
469.804	501.38
470.023	534.38
470.243	531.38
470.462	529.38
470.681	531.38
470.901	530.38
471.12	510.38
471.339	504.38
471.558	542.38
471.777	519.38
471.997	515.38
472.216	507.38
472.435	546.38
472.654	544.38
472.873	501.38
473.092	497.38
473.311	517.38
473.53	504.38
473.749	509.38
473.968	552.38
474.187	679.38
474.406	679.38
474.625	585.38
474.844	565.38
475.063	503.38
475.282	521.38
475.501	510.38
475.72	512.38
475.939	514.38
476.158	532.38
476.377	509.38
476.596	533.38
476.814	540.38
477.033	557.38
477.252	552.38
477.471	549.38
477.69	551.38
477.908	540.38
478.127	569.38
478.346	554.38
478.564	570.38
478.783	573.38
479.002	571.38
479.22	584.38
479.439	592.38
479.658	606.38
479.876	635.38
480.095	629.38
480.313	628.38
480.532	660.38
480.751	651.38
480.969	667.38
481.188	679.38
481.406	690.38
481.624	663.38
481.843	623.38
482.061	638.38
482.28	605.38
482.498	589.38
482.717	597.38
482.935	628.38
483.153	601.38
483.372	609.38
483.59	591.38
483.808	556.38
484.027	605.38
484.245	607.38
484.463	594.38
484.681	620.38
484.9	603.38
485.118	610.38
485.336	602.38
485.554	618.38
485.772	615.38
485.99	610.38
486.209	610.38
486.427	605.38
486.645	629.38
486.863	635.38
487.081	636.38
487.299	634.38
487.517	633.38
487.735	661.38
487.953	635.38
488.171	628.38
488.389	651.38
488.607	645.38
488.825	635.38
489.043	663.38
489.261	643.38
489.479	643.38
489.696	677.38
489.914	646.38
490.132	687.38
490.35	672.38
490.568	680.38
490.786	682.38
491.003	703.38
491.221	698.38
491.439	736.38
491.657	736.38
491.874	731.38
492.092	733.38
492.31	777.38
492.527	726.38
492.745	741.38
492.963	740.38
493.18	776.38
493.398	770.38
493.615	752.38
493.833	748.38
494.05	763.38
494.268	750.38
494.485	730.38
494.703	759.38
494.92	782.38
495.138	749.38
495.355	769.38
495.573	771.38
495.79	759.38
496.008	781.38
496.225	746.38
496.442	745.38
496.66	768.38
496.877	773.38
497.094	780.38
497.312	778.38
497.529	811.38
497.746	798.38
497.963	817.38
498.181	821.38
498.398	849.38
498.615	866.38
498.832	905.38
499.049	922.38
499.267	938.38
499.484	983.38
499.701	1020.38
499.918	1091.38
500.135	1144.38
500.352	1217.38
500.569	1226.38
500.786	1217.38
501.003	1213.38
501.22	1143.38
501.437	1079.38
501.654	1049.38
