Data from 1976.PennyLincolnUp.Lamp.En5.5.200Scan.071719.P1.Changed Mount._HRD10591_15-59-42-860.txt Node
Date: Thu Jul 18 15:59:42 EDT 2019
User: cochatt
Spectrometer: HR+D1059
Trigger mode: 1
Integration Time (sec): 1.000000E-1
Scans to average: 1
Electric dark correction enabled: true
Nonlinearity correction enabled: false
Boxcar width: 0
XAxis mode: Wavelengths
Number of Pixels in Spectrum: 2048
>>>>>Begin Spectral Data<<<<<
223.165	-10.69
223.4	-10.69
223.635	-10.69
223.869	-16.69
224.104	-23.69
224.338	-2.69
224.573	-8.69
224.808	-19.69
225.042	1.31
225.277	-8.69
225.511	-7.69
225.746	8.31
225.98	6.31
226.215	-0.69
226.449	11.31
226.683	15.31
226.918	19.31
227.152	37.31
227.387	41.31
227.621	35.31
227.856	44.31
228.09	60.31
228.324	57.31
228.559	45.31
228.793	68.31
229.027	99.31
229.262	114.31
229.496	94.31
229.73	117.31
229.964	131.31
230.199	99.31
230.433	120.31
230.667	96.31
230.901	105.31
231.136	99.31
231.37	97.31
231.604	116.31
231.838	105.31
232.072	105.31
232.306	114.31
232.541	93.31
232.775	105.31
233.009	117.31
233.243	107.31
233.477	115.31
233.711	134.31
233.945	105.31
234.179	121.31
234.413	119.31
234.647	103.31
234.881	95.31
235.115	116.31
235.349	123.31
235.583	125.31
235.817	120.31
236.051	119.31
236.285	115.31
236.519	106.31
236.753	114.31
236.987	130.31
237.221	166.31
237.455	206.31
237.689	171.31
237.922	142.31
238.156	131.31
238.39	125.31
238.624	126.31
238.858	120.31
239.091	123.31
239.325	113.31
239.559	110.31
239.793	116.31
240.027	137.31
240.26	145.31
240.494	150.31
240.728	142.31
240.961	145.31
241.195	125.31
241.429	127.31
241.662	124.31
241.896	139.31
242.13	140.31
242.363	122.31
242.597	127.31
242.83	133.31
243.064	133.31
243.298	134.31
243.531	124.31
243.765	135.31
243.998	129.31
244.232	131.31
244.465	126.31
244.699	137.31
244.932	147.31
245.166	141.31
245.399	144.31
245.633	170.31
245.866	143.31
246.099	140.31
246.333	153.31
246.566	163.31
246.8	155.31
247.033	142.31
247.266	157.31
247.5	142.31
247.733	174.31
247.966	167.31
248.2	145.31
248.433	187.31
248.666	173.31
248.899	184.31
249.133	178.31
249.366	191.31
249.599	184.31
249.832	165.31
250.066	179.31
250.299	170.31
250.532	188.31
250.765	198.31
250.998	208.31
251.231	221.31
251.465	212.31
251.698	191.31
251.931	186.31
252.164	169.31
252.397	188.31
252.63	195.31
252.863	180.31
253.096	213.31
253.329	216.31
253.562	206.31
253.795	204.31
254.028	203.31
254.261	188.31
254.494	219.31
254.727	238.31
254.96	245.31
255.193	248.31
255.426	227.31
255.659	201.31
255.892	222.31
256.124	209.31
256.357	224.31
256.59	198.31
256.823	193.31
257.056	198.31
257.289	210.31
257.521	201.31
257.754	204.31
257.987	174.31
258.22	193.31
258.452	213.31
258.685	201.31
258.918	194.31
259.151	210.31
259.383	209.31
259.616	202.31
259.849	211.31
260.081	225.31
260.314	239.31
260.547	235.31
260.779	228.31
261.012	207.31
261.244	224.31
261.477	215.31
261.71	212.31
261.942	200.31
262.175	208.31
262.407	213.31
262.64	208.31
262.872	205.31
263.105	217.31
263.337	205.31
263.57	194.31
263.802	189.31
264.035	198.31
264.267	218.31
264.499	219.31
264.732	197.31
264.964	214.31
265.197	206.31
265.429	206.31
265.661	210.31
265.894	201.31
266.126	200.31
266.358	186.31
266.591	208.31
266.823	222.31
267.055	211.31
267.287	238.31
267.52	221.31
267.752	213.31
267.984	223.31
268.216	214.31
268.448	237.31
268.681	236.31
268.913	221.31
269.145	243.31
269.377	245.31
269.609	263.31
269.841	249.31
270.073	259.31
270.306	282.31
270.538	295.31
270.77	293.31
271.002	299.31
271.234	268.31
271.466	268.31
271.698	269.31
271.93	313.31
272.162	308.31
272.394	290.31
272.626	267.31
272.858	269.31
273.09	272.31
273.322	258.31
273.553	260.31
273.785	271.31
274.017	257.31
274.249	249.31
274.481	247.31
274.713	264.31
274.945	259.31
275.176	255.31
275.408	266.31
275.64	261.31
275.872	263.31
276.104	266.31
276.335	249.31
276.567	246.31
276.799	274.31
277.031	306.31
277.262	310.31
277.494	309.31
277.726	278.31
277.957	292.31
278.189	263.31
278.421	265.31
278.652	271.31
278.884	269.31
279.115	261.31
279.347	270.31
279.579	259.31
279.81	258.31
280.042	266.31
280.273	268.31
280.505	253.31
280.736	261.31
280.968	268.31
281.199	261.31
281.431	266.31
281.662	266.31
281.894	262.31
282.125	237.31
282.356	282.31
282.588	289.31
282.819	282.31
283.051	277.31
283.282	272.31
283.513	282.31
283.745	279.31
283.976	272.31
284.207	268.31
284.439	297.31
284.67	268.31
284.901	273.31
285.132	275.31
285.364	288.31
285.595	265.31
285.826	283.31
286.057	283.31
286.288	286.31
286.52	286.31
286.751	291.31
286.982	274.31
287.213	277.31
287.444	284.31
287.675	282.31
287.906	282.31
288.138	294.31
288.369	305.31
288.6	285.31
288.831	301.31
289.062	294.31
289.293	283.31
289.524	271.31
289.755	285.31
289.986	284.31
290.217	290.31
290.448	291.31
290.679	299.31
290.91	306.31
291.141	304.31
291.371	302.31
291.602	301.31
291.833	293.31
292.064	305.31
292.295	279.31
292.526	295.31
292.757	296.31
292.987	293.31
293.218	275.31
293.449	297.31
293.68	326.31
293.91	280.31
294.141	295.31
294.372	295.31
294.603	294.31
294.833	307.31
295.064	291.31
295.295	313.31
295.525	286.31
295.756	310.31
295.987	291.31
296.217	305.31
296.448	324.31
296.679	314.31
296.909	282.31
297.14	293.31
297.37	301.31
297.601	322.31
297.831	327.31
298.062	309.31
298.292	299.31
298.523	287.31
298.753	307.31
298.984	299.31
299.214	309.31
299.445	315.31
299.675	318.31
299.905	315.31
300.136	309.31
300.366	315.31
300.597	305.31
300.827	307.31
301.057	307.31
301.288	322.31
301.518	320.31
301.748	313.31
301.979	320.31
302.209	351.31
302.439	324.31
302.669	321.31
302.9	316.31
303.13	315.31
303.36	327.31
303.59	347.31
303.82	309.31
304.051	341.31
304.281	340.31
304.511	333.31
304.741	311.31
304.971	309.31
305.201	336.31
305.431	308.31
305.661	334.31
305.891	315.31
306.121	330.31
306.352	326.31
306.582	329.31
306.812	325.31
307.042	332.31
307.272	339.31
307.502	319.31
307.731	329.31
307.961	316.31
308.191	291.31
308.421	318.31
308.651	352.31
308.881	313.31
309.111	334.31
309.341	319.31
309.571	337.31
309.8	335.31
310.03	359.31
310.26	346.31
310.49	347.31
310.72	350.31
310.949	352.31
311.179	355.31
311.409	346.31
311.639	362.31
311.868	357.31
312.098	329.31
312.328	342.31
312.557	355.31
312.787	382.31
313.017	375.31
313.246	386.31
313.476	349.31
313.706	381.31
313.935	385.31
314.165	358.31
314.394	374.31
314.624	365.31
314.853	369.31
315.083	369.31
315.312	359.31
315.542	362.31
315.771	370.31
316.001	335.31
316.23	365.31
316.46	360.31
316.689	346.31
316.919	377.31
317.148	360.31
317.377	365.31
317.607	358.31
317.836	373.31
318.065	365.31
318.295	365.31
318.524	369.31
318.753	357.31
318.983	367.31
319.212	350.31
319.441	383.31
319.67	365.31
319.9	379.31
320.129	373.31
320.358	375.31
320.587	372.31
320.816	377.31
321.046	375.31
321.275	384.31
321.504	396.31
321.733	367.31
321.962	373.31
322.191	373.31
322.42	394.31
322.649	398.31
322.878	417.31
323.108	397.31
323.337	443.31
323.566	441.31
323.795	432.31
324.024	490.31
324.253	568.31
324.482	744.31
324.71	1088.31
324.939	1609.31
325.168	1397.31
325.397	741.31
325.626	506.31
325.855	463.31
326.084	446.31
326.313	420.31
326.542	422.31
326.77	481.31
326.999	526.31
327.228	723.31
327.457	1013.31
327.686	1244.31
327.914	795.31
328.143	555.31
328.372	504.31
328.6	496.31
328.829	463.31
329.058	481.31
329.287	502.31
329.515	477.31
329.744	434.31
329.972	439.31
330.201	466.31
330.43	473.31
330.658	502.31
330.887	509.31
331.115	483.31
331.344	457.31
331.572	452.31
331.801	479.31
332.03	453.31
332.258	426.31
332.486	439.31
332.715	428.31
332.943	429.31
333.172	443.31
333.4	458.31
333.629	444.31
333.857	456.31
334.085	471.31
334.314	463.31
334.542	482.31
334.771	497.31
334.999	478.31
335.227	454.31
335.455	466.31
335.684	441.31
335.912	455.31
336.14	430.31
336.369	432.31
336.597	437.31
336.825	435.31
337.053	438.31
337.281	413.31
337.51	423.31
337.738	455.31
337.966	423.31
338.194	453.31
338.422	452.31
338.65	422.31
338.878	410.31
339.106	412.31
339.334	423.31
339.562	410.31
339.79	420.31
340.018	420.31
340.246	410.31
340.474	413.31
340.702	397.31
340.93	412.31
341.158	434.31
341.386	416.31
341.614	414.31
341.842	409.31
342.07	426.31
342.298	390.31
342.526	411.31
342.754	409.31
342.981	406.31
343.209	410.31
343.437	413.31
343.665	408.31
343.893	439.31
344.12	434.31
344.348	446.31
344.576	426.31
344.804	447.31
345.031	435.31
345.259	438.31
345.487	442.31
345.714	424.31
345.942	419.31
346.17	409.31
346.397	406.31
346.625	407.31
346.853	388.31
347.08	390.31
347.308	408.31
347.535	399.31
347.763	383.31
347.99	392.31
348.218	417.31
348.445	400.31
348.673	415.31
348.9	397.31
349.128	397.31
349.355	388.31
349.583	402.31
349.81	375.31
350.037	386.31
350.265	394.31
350.492	387.31
350.72	391.31
350.947	400.31
351.174	385.31
351.402	384.31
351.629	389.31
351.856	385.31
352.083	407.31
352.311	390.31
352.538	418.31
352.765	409.31
352.992	405.31
353.22	400.31
353.447	389.31
353.674	402.31
353.901	387.31
354.128	389.31
354.355	370.31
354.583	383.31
354.81	382.31
355.037	378.31
355.264	373.31
355.491	377.31
355.718	384.31
355.945	377.31
356.172	360.31
356.399	378.31
356.626	385.31
356.853	379.31
357.08	360.31
357.307	390.31
357.534	389.31
357.761	382.31
357.988	376.31
358.215	373.31
358.441	371.31
358.668	380.31
358.895	395.31
359.122	381.31
359.349	381.31
359.576	391.31
359.802	405.31
360.029	433.31
360.256	418.31
360.483	416.31
360.709	396.31
360.936	383.31
361.163	391.31
361.39	399.31
361.616	407.31
361.843	393.31
362.07	398.31
362.296	385.31
362.523	379.31
362.749	386.31
362.976	393.31
363.203	389.31
363.429	393.31
363.656	398.31
363.882	380.31
364.109	406.31
364.335	378.31
364.562	379.31
364.788	386.31
365.015	401.31
365.241	377.31
365.468	389.31
365.694	371.31
365.92	387.31
366.147	382.31
366.373	391.31
366.599	375.31
366.826	379.31
367.052	374.31
367.278	374.31
367.505	388.31
367.731	394.31
367.957	372.31
368.184	371.31
368.41	382.31
368.636	387.31
368.862	395.31
369.089	412.31
369.315	392.31
369.541	396.31
369.767	390.31
369.993	392.31
370.219	381.31
370.445	380.31
370.672	388.31
370.898	395.31
371.124	371.31
371.35	385.31
371.576	398.31
371.802	398.31
372.028	406.31
372.254	401.31
372.48	390.31
372.706	395.31
372.932	400.31
373.158	381.31
373.384	420.31
373.61	413.31
373.835	409.31
374.061	395.31
374.287	407.31
374.513	403.31
374.739	411.31
374.965	430.31
375.191	411.31
375.416	415.31
375.642	386.31
375.868	409.31
376.094	406.31
376.319	403.31
376.545	394.31
376.771	397.31
376.997	379.31
377.222	390.31
377.448	380.31
377.674	377.31
377.899	364.31
378.125	395.31
378.35	384.31
378.576	405.31
378.802	384.31
379.027	392.31
379.253	394.31
379.478	386.31
379.704	390.31
379.929	403.31
380.155	398.31
380.38	393.31
380.606	407.31
380.831	401.31
381.057	395.31
381.282	401.31
381.507	383.31
381.733	403.31
381.958	418.31
382.184	409.31
382.409	401.31
382.634	402.31
382.86	413.31
383.085	416.31
383.31	407.31
383.535	405.31
383.761	434.31
383.986	419.31
384.211	445.31
384.436	437.31
384.662	422.31
384.887	437.31
385.112	425.31
385.337	430.31
385.562	443.31
385.787	418.31
386.013	435.31
386.238	447.31
386.463	444.31
386.688	451.31
386.913	426.31
387.138	443.31
387.363	435.31
387.588	475.31
387.813	431.31
388.038	438.31
388.263	440.31
388.488	461.31
388.713	453.31
388.938	433.31
389.163	442.31
389.387	456.31
389.612	428.31
389.837	419.31
390.062	425.31
390.287	439.31
390.512	443.31
390.736	428.31
390.961	442.31
391.186	431.31
391.411	457.31
391.636	466.31
391.86	454.31
392.085	458.31
392.31	468.31
392.534	453.31
392.759	456.31
392.984	445.31
393.208	442.31
393.433	436.31
393.658	437.31
393.882	436.31
394.107	437.31
394.331	437.31
394.556	436.31
394.78	453.31
395.005	463.31
395.229	438.31
395.454	475.31
395.678	464.31
395.903	467.31
396.127	485.31
396.352	475.31
396.576	449.31
396.801	454.31
397.025	463.31
397.249	458.31
397.474	469.31
397.698	459.31
397.922	513.31
398.147	485.31
398.371	497.31
398.595	483.31
398.82	517.31
399.044	523.31
399.268	542.31
399.492	581.31
399.717	618.31
399.941	653.31
400.165	649.31
400.389	645.31
400.613	594.31
400.837	543.31
401.062	533.31
401.286	525.31
401.51	523.31
401.734	503.31
401.958	503.31
402.182	509.31
402.406	495.31
402.63	534.31
402.854	531.31
403.078	517.31
403.302	538.31
403.526	537.31
403.75	527.31
403.974	546.31
404.198	523.31
404.422	533.31
404.645	532.31
404.869	553.31
405.093	554.31
405.317	580.31
405.541	628.31
405.765	573.31
405.988	551.31
406.212	567.31
406.436	559.31
406.66	590.31
406.883	548.31
407.107	593.31
407.331	633.31
407.555	697.31
407.778	713.31
408.002	661.31
408.226	604.31
408.449	589.31
408.673	554.31
408.896	607.31
409.12	637.31
409.344	611.31
409.567	568.31
409.791	535.31
410.014	528.31
410.238	524.31
410.461	527.31
410.685	534.31
410.908	535.31
411.132	564.31
411.355	611.31
411.578	574.31
411.802	526.31
412.025	537.31
412.249	531.31
412.472	568.31
412.695	571.31
412.919	559.31
413.142	548.31
413.365	517.31
413.589	532.31
413.812	511.31
414.035	500.31
414.258	514.31
414.482	510.31
414.705	501.31
414.928	507.31
415.151	506.31
415.374	515.31
415.597	495.31
415.821	511.31
416.044	488.31
416.267	510.31
416.49	509.31
416.713	494.31
416.936	477.31
417.159	484.31
417.382	500.31
417.605	497.31
417.828	516.31
418.051	501.31
418.274	504.31
418.497	505.31
418.72	496.31
418.943	484.31
419.166	532.31
419.389	548.31
419.611	526.31
419.834	515.31
420.057	538.31
420.28	523.31
420.503	522.31
420.726	511.31
420.948	540.31
421.171	568.31
421.394	590.31
421.617	559.31
421.839	510.31
422.062	500.31
422.285	511.31
422.507	575.31
422.73	625.31
422.953	619.31
423.175	560.31
423.398	531.31
423.621	511.31
423.843	546.31
424.066	583.31
424.288	551.31
424.511	580.31
424.733	621.31
424.956	697.31
425.178	651.31
425.401	635.31
425.623	689.31
425.846	557.31
426.068	537.31
426.291	555.31
426.513	538.31
426.735	528.31
426.958	599.31
427.18	652.31
427.402	779.31
427.625	858.31
427.847	712.31
428.069	612.31
428.292	556.31
428.514	516.31
428.736	513.31
428.958	486.31
429.181	501.31
429.403	501.31
429.625	499.31
429.847	541.31
430.069	591.31
430.292	614.31
430.514	502.31
430.736	489.31
430.958	477.31
431.18	462.31
431.402	490.31
431.624	455.31
431.846	463.31
432.068	480.31
432.29	479.31
432.512	469.31
432.734	498.31
432.956	493.31
433.178	482.31
433.4	477.31
433.622	473.31
433.844	487.31
434.066	463.31
434.287	463.31
434.509	494.31
434.731	492.31
434.953	479.31
435.175	521.31
435.397	549.31
435.618	542.31
435.84	563.31
436.062	647.31
436.284	723.31
436.505	591.31
436.727	529.31
436.949	533.31
437.17	482.31
437.392	506.31
437.614	501.31
437.835	545.31
438.057	603.31
438.278	693.31
438.5	687.31
438.721	750.31
438.943	739.31
439.165	592.31
439.386	535.31
439.608	541.31
439.829	516.31
440.05	569.31
440.272	584.31
440.493	558.31
440.715	524.31
440.936	502.31
441.158	504.31
441.379	494.31
441.6	512.31
441.822	536.31
442.043	533.31
442.264	613.31
442.486	667.31
442.707	577.31
442.928	554.31
443.149	567.31
443.371	557.31
443.592	618.31
443.813	727.31
444.034	769.31
444.255	626.31
444.476	579.31
444.698	543.31
444.919	549.31
445.14	681.31
445.361	647.31
445.582	594.31
445.803	661.31
446.024	712.31
446.245	721.31
446.466	665.31
446.687	569.31
446.908	549.31
447.129	514.31
447.35	503.31
447.571	504.31
447.792	489.31
448.013	485.31
448.234	512.31
448.455	546.31
448.675	632.31
448.896	771.31
449.117	637.31
449.338	607.31
449.559	703.31
449.779	811.31
450	652.31
450.221	525.31
450.442	501.31
450.662	471.31
450.883	462.31
451.104	465.31
451.324	460.31
451.545	461.31
451.766	473.31
451.986	437.31
452.207	437.31
452.428	441.31
452.648	423.31
452.869	422.31
453.089	416.31
453.31	452.31
453.53	438.31
453.751	447.31
453.971	435.31
454.192	452.31
454.412	437.31
454.633	437.31
454.853	423.31
455.073	451.31
455.294	461.31
455.514	509.31
455.734	488.31
455.955	442.31
456.175	414.31
456.395	399.31
456.616	402.31
456.836	399.31
457.056	422.31
457.276	391.31
457.497	411.31
457.717	415.31
457.937	426.31
458.157	421.31
458.377	432.31
458.598	451.31
458.818	485.31
459.038	539.31
459.258	560.31
459.478	485.31
459.698	482.31
459.918	478.31
460.138	473.31
460.358	489.31
460.578	490.31
460.798	488.31
461.018	503.31
461.238	507.31
461.458	503.31
461.678	489.31
461.898	507.31
462.118	527.31
462.338	513.31
462.558	501.31
462.777	525.31
462.997	529.31
463.217	571.31
463.437	577.31
463.657	554.31
463.876	551.31
464.096	561.31
464.316	528.31
464.536	534.31
464.755	541.31
464.975	531.31
465.195	543.31
465.414	565.31
465.634	530.31
465.854	494.31
466.073	496.31
466.293	467.31
466.512	458.31
466.732	456.31
466.951	469.31
467.171	451.31
467.391	461.31
467.61	466.31
467.829	464.31
468.049	465.31
468.268	474.31
468.488	448.31
468.707	438.31
468.927	445.31
469.146	451.31
469.365	445.31
469.585	450.31
469.804	475.31
470.023	470.31
470.243	473.31
470.462	456.31
470.681	473.31
470.901	477.31
471.12	469.31
471.339	470.31
471.558	447.31
471.777	470.31
471.997	471.31
472.216	466.31
472.435	487.31
472.654	465.31
472.873	460.31
473.092	451.31
473.311	443.31
473.53	467.31
473.749	463.31
473.968	506.31
474.187	583.31
474.406	595.31
474.625	525.31
474.844	473.31
475.063	458.31
475.282	457.31
475.501	470.31
475.72	471.31
475.939	482.31
476.158	461.31
476.377	450.31
476.596	455.31
476.814	486.31
477.033	481.31
477.252	501.31
477.471	494.31
477.69	479.31
477.908	493.31
478.127	513.31
478.346	523.31
478.564	518.31
478.783	511.31
479.002	540.31
479.22	539.31
479.439	555.31
479.658	540.31
479.876	543.31
480.095	567.31
480.313	568.31
480.532	582.31
480.751	570.31
480.969	573.31
481.188	578.31
481.406	606.31
481.624	567.31
481.843	557.31
482.061	547.31
482.28	540.31
482.498	537.31
482.717	534.31
482.935	517.31
483.153	544.31
483.372	521.31
483.59	504.31
483.808	566.31
484.027	534.31
484.245	550.31
484.463	523.31
484.681	557.31
484.9	575.31
485.118	556.31
485.336	535.31
485.554	546.31
485.772	546.31
485.99	554.31
486.209	557.31
486.427	547.31
486.645	558.31
486.863	556.31
487.081	568.31
487.299	582.31
487.517	569.31
487.735	574.31
487.953	594.31
488.171	565.31
488.389	578.31
488.607	576.31
488.825	570.31
489.043	580.31
489.261	582.31
489.479	569.31
489.696	556.31
489.914	573.31
490.132	597.31
490.35	589.31
490.568	585.31
490.786	614.31
491.003	626.31
491.221	649.31
491.439	642.31
491.657	643.31
491.874	670.31
492.092	673.31
492.31	654.31
492.527	652.31
492.745	666.31
492.963	665.31
493.18	661.31
493.398	667.31
493.615	678.31
493.833	662.31
494.05	685.31
494.268	664.31
494.485	645.31
494.703	669.31
494.92	665.31
495.138	680.31
495.355	682.31
495.573	680.31
495.79	698.31
496.008	684.31
496.225	691.31
496.442	670.31
496.66	675.31
496.877	679.31
497.094	676.31
497.312	679.31
497.529	710.31
497.746	715.31
497.963	710.31
498.181	748.31
498.398	754.31
498.615	780.31
498.832	771.31
499.049	831.31
499.267	836.31
499.484	879.31
499.701	926.31
499.918	954.31
500.135	1043.31
500.352	1053.31
500.569	1131.31
500.786	1069.31
501.003	1047.31
501.22	1009.31
501.437	970.31
501.654	974.31
501.871	914.31
