Data from 1976.PennyLincolnUp.Lamp.En5.5.200Scan.071719.P1.Changed Mount._HRD10591_16-02-36-862.txt Node
Date: Thu Jul 18 16:02:36 EDT 2019
User: cochatt
Spectrometer: HR+D1059
Trigger mode: 1
Integration Time (sec): 1.000000E-1
Scans to average: 1
Electric dark correction enabled: true
Nonlinearity correction enabled: false
Boxcar width: 0
XAxis mode: Wavelengths
Number of Pixels in Spectrum: 2048
>>>>>Begin Spectral Data<<<<<
223.165	-11.69
223.4	-11.69
223.635	-11.69
223.869	-11.69
224.104	-28.69
224.338	-24.69
224.573	-9.69
224.808	-6.69
225.042	-11.69
225.277	-7.69
225.511	-0.69
225.746	-8.69
225.98	4.31
226.215	8.31
226.449	19.31
226.683	14.31
226.918	35.31
227.152	40.31
227.387	42.31
227.621	45.31
227.856	44.31
228.09	42.31
228.324	60.31
228.559	47.31
228.793	73.31
229.027	97.31
229.262	110.31
229.496	116.31
229.73	122.31
229.964	155.31
230.199	122.31
230.433	135.31
230.667	120.31
230.901	122.31
231.136	121.31
231.37	99.31
231.604	116.31
231.838	130.31
232.072	116.31
232.306	116.31
232.541	104.31
232.775	127.31
233.009	114.31
233.243	121.31
233.477	99.31
233.711	126.31
233.945	136.31
234.179	106.31
234.413	109.31
234.647	126.31
234.881	123.31
235.115	110.31
235.349	113.31
235.583	138.31
235.817	112.31
236.051	133.31
236.285	120.31
236.519	126.31
236.753	126.31
236.987	149.31
237.221	157.31
237.455	224.31
237.689	198.31
237.922	139.31
238.156	138.31
238.39	126.31
238.624	141.31
238.858	131.31
239.091	129.31
239.325	126.31
239.559	114.31
239.793	134.31
240.027	129.31
240.26	156.31
240.494	153.31
240.728	159.31
240.961	153.31
241.195	147.31
241.429	154.31
241.662	147.31
241.896	145.31
242.13	156.31
242.363	139.31
242.597	166.31
242.83	159.31
243.064	145.31
243.298	139.31
243.531	148.31
243.765	159.31
243.998	147.31
244.232	152.31
244.465	175.31
244.699	154.31
244.932	138.31
245.166	135.31
245.399	168.31
245.633	154.31
245.866	159.31
246.099	153.31
246.333	150.31
246.566	166.31
246.8	173.31
247.033	180.31
247.266	188.31
247.5	169.31
247.733	185.31
247.966	172.31
248.2	166.31
248.433	187.31
248.666	200.31
248.899	187.31
249.133	214.31
249.366	208.31
249.599	185.31
249.832	192.31
250.066	185.31
250.299	188.31
250.532	187.31
250.765	213.31
250.998	229.31
251.231	224.31
251.465	223.31
251.698	226.31
251.931	207.31
252.164	192.31
252.397	206.31
252.63	207.31
252.863	212.31
253.096	226.31
253.329	242.31
253.562	231.31
253.795	238.31
254.028	211.31
254.261	231.31
254.494	245.31
254.727	284.31
254.96	305.31
255.193	270.31
255.426	262.31
255.659	262.31
255.892	240.31
256.124	241.31
256.357	251.31
256.59	247.31
256.823	212.31
257.056	233.31
257.289	217.31
257.521	235.31
257.754	239.31
257.987	237.31
258.22	214.31
258.452	232.31
258.685	221.31
258.918	220.31
259.151	240.31
259.383	219.31
259.616	235.31
259.849	233.31
260.081	242.31
260.314	267.31
260.547	261.31
260.779	248.31
261.012	237.31
261.244	251.31
261.477	245.31
261.71	229.31
261.942	248.31
262.175	239.31
262.407	236.31
262.64	226.31
262.872	239.31
263.105	236.31
263.337	234.31
263.57	215.31
263.802	229.31
264.035	210.31
264.267	221.31
264.499	224.31
264.732	222.31
264.964	238.31
265.197	244.31
265.429	238.31
265.661	230.31
265.894	233.31
266.126	239.31
266.358	248.31
266.591	238.31
266.823	259.31
267.055	227.31
267.287	246.31
267.52	233.31
267.752	239.31
267.984	256.31
268.216	246.31
268.448	261.31
268.681	260.31
268.913	279.31
269.145	287.31
269.377	300.31
269.609	272.31
269.841	271.31
270.073	275.31
270.306	315.31
270.538	328.31
270.77	337.31
271.002	332.31
271.234	308.31
271.466	316.31
271.698	317.31
271.93	308.31
272.162	336.31
272.394	350.31
272.626	324.31
272.858	297.31
273.09	301.31
273.322	300.31
273.553	302.31
273.785	277.31
274.017	292.31
274.249	290.31
274.481	287.31
274.713	301.31
274.945	314.31
275.176	286.31
275.408	299.31
275.64	282.31
275.872	268.31
276.104	287.31
276.335	299.31
276.567	282.31
276.799	293.31
277.031	307.31
277.262	337.31
277.494	333.31
277.726	328.31
277.957	322.31
278.189	308.31
278.421	279.31
278.652	308.31
278.884	296.31
279.115	298.31
279.347	281.31
279.579	295.31
279.81	286.31
280.042	296.31
280.273	294.31
280.505	276.31
280.736	304.31
280.968	292.31
281.199	302.31
281.431	281.31
281.662	300.31
281.894	289.31
282.125	285.31
282.356	335.31
282.588	336.31
282.819	319.31
283.051	308.31
283.282	287.31
283.513	316.31
283.745	323.31
283.976	311.31
284.207	323.31
284.439	326.31
284.67	313.31
284.901	299.31
285.132	306.31
285.364	316.31
285.595	313.31
285.826	307.31
286.057	317.31
286.288	299.31
286.52	298.31
286.751	319.31
286.982	311.31
287.213	301.31
287.444	308.31
287.675	310.31
287.906	335.31
288.138	334.31
288.369	338.31
288.6	351.31
288.831	335.31
289.062	331.31
289.293	339.31
289.524	320.31
289.755	310.31
289.986	308.31
290.217	339.31
290.448	319.31
290.679	316.31
290.91	312.31
291.141	325.31
291.371	331.31
291.602	315.31
291.833	314.31
292.064	326.31
292.295	314.31
292.526	344.31
292.757	316.31
292.987	323.31
293.218	315.31
293.449	317.31
293.68	324.31
293.91	326.31
294.141	327.31
294.372	323.31
294.603	339.31
294.833	331.31
295.064	315.31
295.295	327.31
295.525	313.31
295.756	335.31
295.987	352.31
296.217	341.31
296.448	372.31
296.679	331.31
296.909	314.31
297.14	330.31
297.37	352.31
297.601	328.31
297.831	340.31
298.062	336.31
298.292	336.31
298.523	335.31
298.753	331.31
298.984	354.31
299.214	343.31
299.445	367.31
299.675	334.31
299.905	349.31
300.136	356.31
300.366	347.31
300.597	358.31
300.827	340.31
301.057	356.31
301.288	362.31
301.518	361.31
301.748	360.31
301.979	359.31
302.209	346.31
302.439	377.31
302.669	369.31
302.9	373.31
303.13	366.31
303.36	370.31
303.59	378.31
303.82	381.31
304.051	396.31
304.281	375.31
304.511	374.31
304.741	374.31
304.971	357.31
305.201	344.31
305.431	379.31
305.661	365.31
305.891	355.31
306.121	363.31
306.352	361.31
306.582	358.31
306.812	360.31
307.042	358.31
307.272	378.31
307.502	346.31
307.731	347.31
307.961	363.31
308.191	379.31
308.421	370.31
308.651	380.31
308.881	376.31
309.111	381.31
309.341	348.31
309.571	388.31
309.8	392.31
310.03	404.31
310.26	404.31
310.49	405.31
310.72	387.31
310.949	413.31
311.179	442.31
311.409	406.31
311.639	404.31
311.868	406.31
312.098	394.31
312.328	382.31
312.557	424.31
312.787	418.31
313.017	432.31
313.246	436.31
313.476	410.31
313.706	381.31
313.935	412.31
314.165	418.31
314.394	426.31
314.624	418.31
314.853	411.31
315.083	400.31
315.312	397.31
315.542	425.31
315.771	398.31
316.001	406.31
316.23	398.31
316.46	379.31
316.689	408.31
316.919	413.31
317.148	415.31
317.377	403.31
317.607	415.31
317.836	387.31
318.065	436.31
318.295	400.31
318.524	405.31
318.753	398.31
318.983	403.31
319.212	408.31
319.441	398.31
319.67	408.31
319.9	404.31
320.129	432.31
320.358	408.31
320.587	412.31
320.816	427.31
321.046	432.31
321.275	435.31
321.504	424.31
321.733	418.31
321.962	446.31
322.191	448.31
322.42	440.31
322.649	469.31
322.878	464.31
323.108	484.31
323.337	511.31
323.566	520.31
323.795	552.31
324.024	568.31
324.253	669.31
324.482	916.31
324.71	1401.31
324.939	2076.31
325.168	1825.31
325.397	891.31
325.626	639.31
325.855	545.31
326.084	508.31
326.313	535.31
326.542	536.31
326.77	562.31
326.999	631.31
327.228	854.31
327.457	1279.31
327.686	1594.31
327.914	1062.31
328.143	684.31
328.372	601.31
328.6	574.31
328.829	568.31
329.058	581.31
329.287	595.31
329.515	564.31
329.744	522.31
329.972	522.31
330.201	547.31
330.43	584.31
330.658	584.31
330.887	601.31
331.115	600.31
331.344	531.31
331.572	531.31
331.801	524.31
332.03	524.31
332.258	514.31
332.486	507.31
332.715	494.31
332.943	500.31
333.172	502.31
333.4	516.31
333.629	521.31
333.857	509.31
334.085	538.31
334.314	551.31
334.542	575.31
334.771	586.31
334.999	554.31
335.227	522.31
335.455	512.31
335.684	501.31
335.912	517.31
336.14	468.31
336.369	468.31
336.597	488.31
336.825	509.31
337.053	491.31
337.281	495.31
337.51	479.31
337.738	481.31
337.966	470.31
338.194	483.31
338.422	483.31
338.65	482.31
338.878	454.31
339.106	460.31
339.334	479.31
339.562	475.31
339.79	468.31
340.018	477.31
340.246	468.31
340.474	466.31
340.702	475.31
340.93	447.31
341.158	460.31
341.386	470.31
341.614	474.31
341.842	466.31
342.07	464.31
342.298	458.31
342.526	474.31
342.754	453.31
342.981	438.31
343.209	450.31
343.437	469.31
343.665	447.31
343.893	472.31
344.12	486.31
344.348	489.31
344.576	480.31
344.804	491.31
345.031	478.31
345.259	484.31
345.487	471.31
345.714	462.31
345.942	471.31
346.17	477.31
346.397	441.31
346.625	459.31
346.853	454.31
347.08	443.31
347.308	466.31
347.535	471.31
347.763	464.31
347.99	452.31
348.218	448.31
348.445	459.31
348.673	451.31
348.9	445.31
349.128	451.31
349.355	419.31
349.583	434.31
349.81	438.31
350.037	450.31
350.265	444.31
350.492	452.31
350.72	421.31
350.947	443.31
351.174	453.31
351.402	439.31
351.629	445.31
351.856	460.31
352.083	466.31
352.311	471.31
352.538	463.31
352.765	474.31
352.992	455.31
353.22	435.31
353.447	454.31
353.674	453.31
353.901	448.31
354.128	444.31
354.355	411.31
354.583	456.31
354.81	421.31
355.037	432.31
355.264	424.31
355.491	429.31
355.718	420.31
355.945	414.31
356.172	422.31
356.399	421.31
356.626	410.31
356.853	436.31
357.08	399.31
357.307	418.31
357.534	422.31
357.761	428.31
357.988	419.31
358.215	413.31
358.441	438.31
358.668	428.31
358.895	434.31
359.122	434.31
359.349	431.31
359.576	422.31
359.802	460.31
360.029	473.31
360.256	476.31
360.483	492.31
360.709	445.31
360.936	438.31
361.163	441.31
361.39	456.31
361.616	458.31
361.843	444.31
362.07	442.31
362.296	442.31
362.523	438.31
362.749	440.31
362.976	456.31
363.203	443.31
363.429	435.31
363.656	414.31
363.882	421.31
364.109	421.31
364.335	432.31
364.562	427.31
364.788	443.31
365.015	422.31
365.241	439.31
365.468	450.31
365.694	424.31
365.92	442.31
366.147	428.31
366.373	436.31
366.599	427.31
366.826	421.31
367.052	434.31
367.278	442.31
367.505	442.31
367.731	427.31
367.957	426.31
368.184	428.31
368.41	447.31
368.636	448.31
368.862	438.31
369.089	427.31
369.315	424.31
369.541	443.31
369.767	436.31
369.993	428.31
370.219	426.31
370.445	437.31
370.672	422.31
370.898	433.31
371.124	427.31
371.35	447.31
371.576	438.31
371.802	432.31
372.028	411.31
372.254	424.31
372.48	418.31
372.706	436.31
372.932	436.31
373.158	437.31
373.384	472.31
373.61	450.31
373.835	438.31
374.061	416.31
374.287	446.31
374.513	451.31
374.739	461.31
374.965	461.31
375.191	452.31
375.416	464.31
375.642	429.31
375.868	463.31
376.094	452.31
376.319	411.31
376.545	444.31
376.771	434.31
376.997	429.31
377.222	438.31
377.448	431.31
377.674	432.31
377.899	430.31
378.125	431.31
378.35	419.31
378.576	443.31
378.802	418.31
379.027	428.31
379.253	418.31
379.478	430.31
379.704	442.31
379.929	454.31
380.155	431.31
380.38	411.31
380.606	424.31
380.831	437.31
381.057	445.31
381.282	439.31
381.507	426.31
381.733	456.31
381.958	421.31
382.184	436.31
382.409	430.31
382.634	456.31
382.86	440.31
383.085	476.31
383.31	454.31
383.535	471.31
383.761	440.31
383.986	454.31
384.211	427.31
384.436	487.31
384.662	489.31
384.887	465.31
385.112	461.31
385.337	456.31
385.562	479.31
385.787	473.31
386.013	495.31
386.238	478.31
386.463	492.31
386.688	485.31
386.913	480.31
387.138	480.31
387.363	475.31
387.588	486.31
387.813	484.31
388.038	479.31
388.263	460.31
388.488	476.31
388.713	486.31
388.938	485.31
389.163	493.31
389.387	488.31
389.612	471.31
389.837	472.31
390.062	476.31
390.287	478.31
390.512	478.31
390.736	484.31
390.961	483.31
391.186	480.31
391.411	490.31
391.636	496.31
391.86	519.31
392.085	507.31
392.31	506.31
392.534	491.31
392.759	500.31
392.984	478.31
393.208	507.31
393.433	497.31
393.658	493.31
393.882	486.31
394.107	476.31
394.331	490.31
394.556	507.31
394.78	486.31
395.005	503.31
395.229	482.31
395.454	508.31
395.678	512.31
395.903	539.31
396.127	538.31
396.352	550.31
396.576	522.31
396.801	512.31
397.025	495.31
397.249	506.31
397.474	511.31
397.698	511.31
397.922	542.31
398.147	559.31
398.371	551.31
398.595	545.31
398.82	551.31
399.044	597.31
399.268	579.31
399.492	654.31
399.717	676.31
399.941	728.31
400.165	739.31
400.389	712.31
400.613	640.31
400.837	614.31
401.062	574.31
401.286	580.31
401.51	582.31
401.734	569.31
401.958	554.31
402.182	556.31
402.406	566.31
402.63	571.31
402.854	564.31
403.078	577.31
403.302	594.31
403.526	589.31
403.75	601.31
403.974	580.31
404.198	591.31
404.422	612.31
404.645	620.31
404.869	590.31
405.093	652.31
405.317	686.31
405.541	736.31
405.765	649.31
405.988	632.31
406.212	616.31
406.436	640.31
406.66	640.31
406.883	637.31
407.107	632.31
407.331	703.31
407.555	791.31
407.778	791.31
408.002	715.31
408.226	666.31
408.449	635.31
408.673	665.31
408.896	662.31
409.12	724.31
409.344	646.31
409.567	629.31
409.791	587.31
410.014	603.31
410.238	580.31
410.461	583.31
410.685	593.31
410.908	620.31
411.132	642.31
411.355	668.31
411.578	632.31
411.802	579.31
412.025	587.31
412.249	596.31
412.472	600.31
412.695	628.31
412.919	635.31
413.142	620.31
413.365	582.31
413.589	586.31
413.812	571.31
414.035	556.31
414.258	562.31
414.482	573.31
414.705	530.31
414.928	546.31
415.151	554.31
415.374	531.31
415.597	558.31
415.821	558.31
416.044	548.31
416.267	532.31
416.49	551.31
416.713	549.31
416.936	559.31
417.159	555.31
417.382	564.31
417.605	550.31
417.828	590.31
418.051	572.31
418.274	589.31
418.497	551.31
418.72	552.31
418.943	570.31
419.166	582.31
419.389	616.31
419.611	591.31
419.834	570.31
420.057	624.31
420.28	594.31
420.503	567.31
420.726	580.31
420.948	602.31
421.171	627.31
421.394	686.31
421.617	596.31
421.839	598.31
422.062	580.31
422.285	583.31
422.507	638.31
422.73	730.31
422.953	701.31
423.175	613.31
423.398	645.31
423.621	614.31
423.843	652.31
424.066	635.31
424.288	634.31
424.511	633.31
424.733	707.31
424.956	774.31
425.178	733.31
425.401	719.31
425.623	747.31
425.846	655.31
426.068	591.31
426.291	578.31
426.513	602.31
426.735	616.31
426.958	645.31
427.18	731.31
427.402	852.31
427.625	978.31
427.847	820.31
428.069	708.31
428.292	647.31
428.514	580.31
428.736	571.31
428.958	612.31
429.181	546.31
429.403	558.31
429.625	562.31
429.847	595.31
430.069	674.31
430.292	647.31
430.514	551.31
430.736	578.31
430.958	566.31
431.18	545.31
431.402	537.31
431.624	543.31
431.846	532.31
432.068	542.31
432.29	527.31
432.512	540.31
432.734	541.31
432.956	549.31
433.178	551.31
433.4	570.31
433.622	577.31
433.844	535.31
434.066	546.31
434.287	529.31
434.509	555.31
434.731	551.31
434.953	571.31
435.175	585.31
435.397	604.31
435.618	598.31
435.84	628.31
436.062	726.31
436.284	819.31
436.505	660.31
436.727	613.31
436.949	541.31
437.17	567.31
437.392	541.31
437.614	586.31
437.835	601.31
438.057	686.31
438.278	809.31
438.5	806.31
438.721	908.31
438.943	853.31
439.165	657.31
439.386	614.31
439.608	617.31
439.829	602.31
440.05	650.31
440.272	700.31
440.493	637.31
440.715	573.31
440.936	552.31
441.158	574.31
441.379	569.31
441.6	583.31
441.822	600.31
442.043	642.31
442.264	746.31
442.486	781.31
442.707	695.31
442.928	616.31
443.149	650.31
443.371	674.31
443.592	695.31
443.813	816.31
444.034	862.31
444.255	698.31
444.476	678.31
444.698	614.31
444.919	632.31
445.14	708.31
445.361	669.31
445.582	660.31
445.803	697.31
446.024	807.31
446.245	825.31
446.466	748.31
446.687	672.31
446.908	635.31
447.129	612.31
447.35	564.31
447.571	547.31
447.792	563.31
448.013	536.31
448.234	593.31
448.455	611.31
448.675	732.31
448.896	867.31
449.117	716.31
449.338	680.31
449.559	775.31
449.779	923.31
450	730.31
450.221	631.31
450.442	567.31
450.662	526.31
450.883	539.31
451.104	550.31
451.324	540.31
451.545	524.31
451.766	511.31
451.986	499.31
452.207	482.31
452.428	500.31
452.648	473.31
452.869	503.31
453.089	492.31
453.31	488.31
453.53	491.31
453.751	483.31
453.971	511.31
454.192	500.31
454.412	514.31
454.633	506.31
454.853	482.31
455.073	482.31
455.294	522.31
455.514	585.31
455.734	587.31
455.955	488.31
456.175	463.31
456.395	456.31
456.616	467.31
456.836	463.31
457.056	458.31
457.276	437.31
457.497	485.31
457.717	479.31
457.937	488.31
458.157	483.31
458.377	484.31
458.598	490.31
458.818	548.31
459.038	623.31
459.258	659.31
459.478	568.31
459.698	538.31
459.918	543.31
460.138	558.31
460.358	548.31
460.578	534.31
460.798	534.31
461.018	535.31
461.238	564.31
461.458	538.31
461.678	542.31
461.898	548.31
462.118	556.31
462.338	567.31
462.558	599.31
462.777	599.31
462.997	600.31
463.217	621.31
463.437	596.31
463.657	630.31
463.876	604.31
464.096	587.31
464.316	600.31
464.536	606.31
464.755	595.31
464.975	576.31
465.195	613.31
465.414	658.31
465.634	590.31
465.854	548.31
466.073	565.31
466.293	525.31
466.512	505.31
466.732	536.31
466.951	510.31
467.171	509.31
467.391	495.31
467.61	501.31
467.829	543.31
468.049	536.31
468.268	525.31
468.488	532.31
468.707	487.31
468.927	503.31
469.146	490.31
469.365	504.31
469.585	492.31
469.804	500.31
470.023	524.31
470.243	514.31
470.462	517.31
470.681	542.31
470.901	535.31
471.12	536.31
471.339	521.31
471.558	529.31
471.777	504.31
471.997	512.31
472.216	505.31
472.435	543.31
472.654	529.31
472.873	516.31
473.092	514.31
473.311	521.31
473.53	516.31
473.749	515.31
473.968	580.31
474.187	663.31
474.406	702.31
474.625	595.31
474.844	522.31
475.063	535.31
475.282	522.31
475.501	507.31
475.72	528.31
475.939	518.31
476.158	520.31
476.377	525.31
476.596	520.31
476.814	541.31
477.033	541.31
477.252	540.31
477.471	529.31
477.69	559.31
477.908	564.31
478.127	569.31
478.346	590.31
478.564	587.31
478.783	583.31
479.002	603.31
479.22	601.31
479.439	606.31
479.658	623.31
479.876	597.31
480.095	635.31
480.313	672.31
480.532	645.31
480.751	622.31
480.969	656.31
481.188	684.31
481.406	704.31
481.624	654.31
481.843	633.31
482.061	619.31
482.28	624.31
482.498	614.31
482.717	597.31
482.935	587.31
483.153	602.31
483.372	587.31
483.59	588.31
483.808	587.31
484.027	603.31
484.245	596.31
484.463	614.31
484.681	609.31
484.9	610.31
485.118	611.31
485.336	619.31
485.554	621.31
485.772	635.31
485.99	616.31
486.209	615.31
486.427	615.31
486.645	613.31
486.863	638.31
487.081	634.31
487.299	627.31
487.517	640.31
487.735	648.31
487.953	638.31
488.171	627.31
488.389	632.31
488.607	649.31
488.825	647.31
489.043	639.31
489.261	646.31
489.479	655.31
489.696	661.31
489.914	639.31
490.132	668.31
490.35	672.31
490.568	664.31
490.786	687.31
491.003	693.31
491.221	706.31
491.439	709.31
491.657	721.31
491.874	714.31
492.092	763.31
492.31	754.31
492.527	740.31
492.745	783.31
492.963	744.31
493.18	733.31
493.398	769.31
493.615	758.31
493.833	745.31
494.05	735.31
494.268	781.31
494.485	765.31
494.703	725.31
494.92	738.31
495.138	752.31
495.355	790.31
495.573	758.31
495.79	775.31
496.008	756.31
496.225	746.31
496.442	780.31
496.66	781.31
496.877	776.31
497.094	787.31
497.312	799.31
497.529	805.31
497.746	800.31
497.963	837.31
498.181	868.31
498.398	866.31
498.615	859.31
498.832	884.31
499.049	902.31
499.267	936.31
499.484	976.31
499.701	1008.31
499.918	1031.31
500.135	1140.31
500.352	1165.31
500.569	1204.31
500.786	1212.31
501.003	1210.31
501.22	1163.31
501.437	1108.31
501.654	1046.31
