Data from 1976.PennyLincolnUp.Lamp.En5.5.200Scan.071719.P1.Changed Mount._HRD10591_15-59-47-860.txt Node
Date: Thu Jul 18 15:59:47 EDT 2019
User: cochatt
Spectrometer: HR+D1059
Trigger mode: 1
Integration Time (sec): 1.000000E-1
Scans to average: 1
Electric dark correction enabled: true
Nonlinearity correction enabled: false
Boxcar width: 0
XAxis mode: Wavelengths
Number of Pixels in Spectrum: 2048
>>>>>Begin Spectral Data<<<<<
223.165	-7.12
223.4	-7.12
223.635	-7.12
223.869	-26.12
224.104	-25.12
224.338	-20.12
224.573	-9.12
224.808	-12.12
225.042	-7.12
225.277	-6.12
225.511	-15.12
225.746	5.88
225.98	12.88
226.215	13.88
226.449	12.88
226.683	15.88
226.918	28.88
227.152	37.88
227.387	38.88
227.621	51.88
227.856	57.88
228.09	43.88
228.324	63.88
228.559	59.88
228.793	76.88
229.027	98.88
229.262	105.88
229.496	118.88
229.73	125.88
229.964	152.88
230.199	129.88
230.433	109.88
230.667	105.88
230.901	117.88
231.136	112.88
231.37	113.88
231.604	124.88
231.838	116.88
232.072	117.88
232.306	109.88
232.541	117.88
232.775	114.88
233.009	121.88
233.243	107.88
233.477	109.88
233.711	113.88
233.945	137.88
234.179	111.88
234.413	122.88
234.647	111.88
234.881	121.88
235.115	117.88
235.349	125.88
235.583	130.88
235.817	120.88
236.051	121.88
236.285	126.88
236.519	139.88
236.753	140.88
236.987	146.88
237.221	182.88
237.455	218.88
237.689	190.88
237.922	130.88
238.156	136.88
238.39	122.88
238.624	120.88
238.858	129.88
239.091	135.88
239.325	134.88
239.559	130.88
239.793	145.88
240.027	127.88
240.26	132.88
240.494	143.88
240.728	142.88
240.961	136.88
241.195	148.88
241.429	155.88
241.662	139.88
241.896	138.88
242.13	123.88
242.363	135.88
242.597	136.88
242.83	142.88
243.064	126.88
243.298	153.88
243.531	146.88
243.765	145.88
243.998	145.88
244.232	143.88
244.465	142.88
244.699	139.88
244.932	141.88
245.166	161.88
245.399	137.88
245.633	147.88
245.866	143.88
246.099	135.88
246.333	142.88
246.566	147.88
246.8	164.88
247.033	160.88
247.266	160.88
247.5	160.88
247.733	167.88
247.966	154.88
248.2	171.88
248.433	184.88
248.666	174.88
248.899	168.88
249.133	180.88
249.366	207.88
249.599	186.88
249.832	184.88
250.066	193.88
250.299	173.88
250.532	179.88
250.765	199.88
250.998	216.88
251.231	222.88
251.465	213.88
251.698	206.88
251.931	194.88
252.164	186.88
252.397	205.88
252.63	191.88
252.863	199.88
253.096	196.88
253.329	210.88
253.562	208.88
253.795	219.88
254.028	215.88
254.261	211.88
254.494	208.88
254.727	236.88
254.96	279.88
255.193	264.88
255.426	230.88
255.659	218.88
255.892	225.88
256.124	228.88
256.357	213.88
256.59	213.88
256.823	221.88
257.056	213.88
257.289	197.88
257.521	220.88
257.754	210.88
257.987	215.88
258.22	200.88
258.452	192.88
258.685	211.88
258.918	215.88
259.151	201.88
259.383	222.88
259.616	221.88
259.849	214.88
260.081	222.88
260.314	220.88
260.547	241.88
260.779	250.88
261.012	219.88
261.244	213.88
261.477	210.88
261.71	203.88
261.942	216.88
262.175	213.88
262.407	223.88
262.64	210.88
262.872	208.88
263.105	202.88
263.337	223.88
263.57	215.88
263.802	210.88
264.035	220.88
264.267	210.88
264.499	217.88
264.732	208.88
264.964	204.88
265.197	232.88
265.429	220.88
265.661	210.88
265.894	205.88
266.126	221.88
266.358	218.88
266.591	213.88
266.823	229.88
267.055	222.88
267.287	225.88
267.52	220.88
267.752	220.88
267.984	231.88
268.216	225.88
268.448	233.88
268.681	227.88
268.913	248.88
269.145	255.88
269.377	250.88
269.609	259.88
269.841	254.88
270.073	287.88
270.306	281.88
270.538	309.88
270.77	287.88
271.002	283.88
271.234	274.88
271.466	287.88
271.698	310.88
271.93	295.88
272.162	315.88
272.394	299.88
272.626	295.88
272.858	270.88
273.09	284.88
273.322	263.88
273.553	258.88
273.785	256.88
274.017	263.88
274.249	261.88
274.481	257.88
274.713	264.88
274.945	259.88
275.176	262.88
275.408	258.88
275.64	269.88
275.872	278.88
276.104	285.88
276.335	286.88
276.567	282.88
276.799	273.88
277.031	287.88
277.262	294.88
277.494	305.88
277.726	314.88
277.957	291.88
278.189	274.88
278.421	265.88
278.652	257.88
278.884	283.88
279.115	281.88
279.347	274.88
279.579	268.88
279.81	247.88
280.042	274.88
280.273	270.88
280.505	268.88
280.736	267.88
280.968	277.88
281.199	265.88
281.431	269.88
281.662	267.88
281.894	272.88
282.125	261.88
282.356	292.88
282.588	302.88
282.819	285.88
283.051	279.88
283.282	286.88
283.513	305.88
283.745	287.88
283.976	279.88
284.207	303.88
284.439	274.88
284.67	287.88
284.901	296.88
285.132	286.88
285.364	284.88
285.595	290.88
285.826	297.88
286.057	286.88
286.288	281.88
286.52	282.88
286.751	313.88
286.982	302.88
287.213	303.88
287.444	280.88
287.675	290.88
287.906	294.88
288.138	303.88
288.369	324.88
288.6	298.88
288.831	313.88
289.062	303.88
289.293	287.88
289.524	303.88
289.755	310.88
289.986	311.88
290.217	287.88
290.448	297.88
290.679	286.88
290.91	298.88
291.141	319.88
291.371	293.88
291.602	289.88
291.833	299.88
292.064	297.88
292.295	290.88
292.526	312.88
292.757	294.88
292.987	317.88
293.218	315.88
293.449	313.88
293.68	292.88
293.91	313.88
294.141	305.88
294.372	287.88
294.603	296.88
294.833	296.88
295.064	312.88
295.295	317.88
295.525	302.88
295.756	306.88
295.987	320.88
296.217	350.88
296.448	320.88
296.679	319.88
296.909	298.88
297.14	309.88
297.37	310.88
297.601	309.88
297.831	319.88
298.062	327.88
298.292	312.88
298.523	335.88
298.753	335.88
298.984	314.88
299.214	325.88
299.445	339.88
299.675	337.88
299.905	300.88
300.136	310.88
300.366	330.88
300.597	318.88
300.827	350.88
301.057	329.88
301.288	338.88
301.518	319.88
301.748	328.88
301.979	329.88
302.209	338.88
302.439	331.88
302.669	326.88
302.9	315.88
303.13	326.88
303.36	320.88
303.59	332.88
303.82	350.88
304.051	362.88
304.281	336.88
304.511	338.88
304.741	340.88
304.971	320.88
305.201	323.88
305.431	313.88
305.661	331.88
305.891	326.88
306.121	339.88
306.352	339.88
306.582	343.88
306.812	339.88
307.042	327.88
307.272	333.88
307.502	342.88
307.731	318.88
307.961	341.88
308.191	343.88
308.421	339.88
308.651	328.88
308.881	346.88
309.111	365.88
309.341	332.88
309.571	328.88
309.8	354.88
310.03	358.88
310.26	383.88
310.49	366.88
310.72	354.88
310.949	374.88
311.179	371.88
311.409	381.88
311.639	361.88
311.868	364.88
312.098	364.88
312.328	365.88
312.557	393.88
312.787	397.88
313.017	377.88
313.246	393.88
313.476	367.88
313.706	379.88
313.935	382.88
314.165	383.88
314.394	401.88
314.624	389.88
314.853	370.88
315.083	385.88
315.312	376.88
315.542	362.88
315.771	350.88
316.001	361.88
316.23	360.88
316.46	370.88
316.689	402.88
316.919	377.88
317.148	393.88
317.377	384.88
317.607	386.88
317.836	382.88
318.065	374.88
318.295	377.88
318.524	359.88
318.753	359.88
318.983	357.88
319.212	380.88
319.441	380.88
319.67	388.88
319.9	384.88
320.129	375.88
320.358	392.88
320.587	385.88
320.816	358.88
321.046	403.88
321.275	391.88
321.504	389.88
321.733	403.88
321.962	414.88
322.191	439.88
322.42	397.88
322.649	405.88
322.878	400.88
323.108	433.88
323.337	440.88
323.566	445.88
323.795	447.88
324.024	486.88
324.253	541.88
324.482	744.88
324.71	1114.88
324.939	1627.88
325.168	1425.88
325.397	728.88
325.626	538.88
325.855	463.88
326.084	455.88
326.313	432.88
326.542	460.88
326.77	477.88
326.999	541.88
327.228	701.88
327.457	997.88
327.686	1229.88
327.914	839.88
328.143	587.88
328.372	499.88
328.6	492.88
328.829	505.88
329.058	487.88
329.287	503.88
329.515	467.88
329.744	461.88
329.972	447.88
330.201	451.88
330.43	498.88
330.658	515.88
330.887	535.88
331.115	508.88
331.344	479.88
331.572	445.88
331.801	452.88
332.03	458.88
332.258	443.88
332.486	422.88
332.715	441.88
332.943	434.88
333.172	451.88
333.4	458.88
333.629	454.88
333.857	460.88
334.085	463.88
334.314	488.88
334.542	517.88
334.771	503.88
334.999	475.88
335.227	475.88
335.455	448.88
335.684	452.88
335.912	462.88
336.14	441.88
336.369	431.88
336.597	461.88
336.825	460.88
337.053	439.88
337.281	439.88
337.51	430.88
337.738	429.88
337.966	439.88
338.194	440.88
338.422	428.88
338.65	415.88
338.878	420.88
339.106	432.88
339.334	459.88
339.562	432.88
339.79	423.88
340.018	421.88
340.246	409.88
340.474	437.88
340.702	415.88
340.93	402.88
341.158	423.88
341.386	409.88
341.614	404.88
341.842	426.88
342.07	429.88
342.298	429.88
342.526	425.88
342.754	414.88
342.981	418.88
343.209	412.88
343.437	424.88
343.665	405.88
343.893	429.88
344.12	446.88
344.348	462.88
344.576	454.88
344.804	432.88
345.031	433.88
345.259	451.88
345.487	428.88
345.714	423.88
345.942	426.88
346.17	412.88
346.397	415.88
346.625	394.88
346.853	401.88
347.08	416.88
347.308	416.88
347.535	412.88
347.763	416.88
347.99	392.88
348.218	416.88
348.445	431.88
348.673	407.88
348.9	410.88
349.128	410.88
349.355	399.88
349.583	406.88
349.81	394.88
350.037	376.88
350.265	382.88
350.492	384.88
350.72	393.88
350.947	392.88
351.174	413.88
351.402	392.88
351.629	403.88
351.856	401.88
352.083	415.88
352.311	417.88
352.538	392.88
352.765	430.88
352.992	385.88
353.22	428.88
353.447	400.88
353.674	409.88
353.901	413.88
354.128	398.88
354.355	385.88
354.583	407.88
354.81	400.88
355.037	383.88
355.264	377.88
355.491	387.88
355.718	386.88
355.945	383.88
356.172	383.88
356.399	372.88
356.626	363.88
356.853	391.88
357.08	387.88
357.307	399.88
357.534	379.88
357.761	392.88
357.988	381.88
358.215	401.88
358.441	390.88
358.668	400.88
358.895	386.88
359.122	398.88
359.349	395.88
359.576	421.88
359.802	427.88
360.029	417.88
360.256	427.88
360.483	414.88
360.709	425.88
360.936	394.88
361.163	406.88
361.39	413.88
361.616	429.88
361.843	400.88
362.07	399.88
362.296	397.88
362.523	417.88
362.749	408.88
362.976	415.88
363.203	408.88
363.429	395.88
363.656	399.88
363.882	375.88
364.109	386.88
364.335	371.88
364.562	406.88
364.788	393.88
365.015	380.88
365.241	411.88
365.468	401.88
365.694	386.88
365.92	400.88
366.147	391.88
366.373	408.88
366.599	381.88
366.826	389.88
367.052	398.88
367.278	403.88
367.505	399.88
367.731	383.88
367.957	385.88
368.184	382.88
368.41	382.88
368.636	418.88
368.862	397.88
369.089	407.88
369.315	382.88
369.541	377.88
369.767	393.88
369.993	401.88
370.219	403.88
370.445	406.88
370.672	398.88
370.898	423.88
371.124	393.88
371.35	423.88
371.576	386.88
371.802	412.88
372.028	409.88
372.254	416.88
372.48	403.88
372.706	416.88
372.932	400.88
373.158	424.88
373.384	407.88
373.61	413.88
373.835	411.88
374.061	419.88
374.287	411.88
374.513	409.88
374.739	401.88
374.965	402.88
375.191	420.88
375.416	408.88
375.642	407.88
375.868	416.88
376.094	387.88
376.319	390.88
376.545	405.88
376.771	416.88
376.997	410.88
377.222	394.88
377.448	400.88
377.674	397.88
377.899	392.88
378.125	401.88
378.35	378.88
378.576	401.88
378.802	413.88
379.027	398.88
379.253	415.88
379.478	411.88
379.704	387.88
379.929	398.88
380.155	380.88
380.38	410.88
380.606	399.88
380.831	393.88
381.057	402.88
381.282	403.88
381.507	425.88
381.733	403.88
381.958	399.88
382.184	404.88
382.409	410.88
382.634	420.88
382.86	417.88
383.085	426.88
383.31	419.88
383.535	406.88
383.761	428.88
383.986	432.88
384.211	434.88
384.436	427.88
384.662	445.88
384.887	436.88
385.112	434.88
385.337	455.88
385.562	457.88
385.787	447.88
386.013	467.88
386.238	466.88
386.463	455.88
386.688	450.88
386.913	455.88
387.138	461.88
387.363	455.88
387.588	435.88
387.813	439.88
388.038	446.88
388.263	460.88
388.488	451.88
388.713	455.88
388.938	431.88
389.163	445.88
389.387	441.88
389.612	451.88
389.837	449.88
390.062	425.88
390.287	443.88
390.512	449.88
390.736	456.88
390.961	427.88
391.186	472.88
391.411	457.88
391.636	459.88
391.86	455.88
392.085	477.88
392.31	467.88
392.534	482.88
392.759	464.88
392.984	459.88
393.208	461.88
393.433	434.88
393.658	458.88
393.882	438.88
394.107	451.88
394.331	432.88
394.556	477.88
394.78	470.88
395.005	445.88
395.229	469.88
395.454	450.88
395.678	467.88
395.903	474.88
396.127	507.88
396.352	485.88
396.576	469.88
396.801	463.88
397.025	477.88
397.249	482.88
397.474	465.88
397.698	466.88
397.922	471.88
398.147	497.88
398.371	517.88
398.595	504.88
398.82	518.88
399.044	539.88
399.268	559.88
399.492	614.88
399.717	611.88
399.941	651.88
400.165	637.88
400.389	677.88
400.613	592.88
400.837	553.88
401.062	554.88
401.286	540.88
401.51	538.88
401.734	527.88
401.958	525.88
402.182	523.88
402.406	525.88
402.63	522.88
402.854	535.88
403.078	535.88
403.302	551.88
403.526	544.88
403.75	565.88
403.974	566.88
404.198	558.88
404.422	552.88
404.645	552.88
404.869	551.88
405.093	582.88
405.317	593.88
405.541	622.88
405.765	585.88
405.988	568.88
406.212	586.88
406.436	578.88
406.66	594.88
406.883	585.88
407.107	594.88
407.331	647.88
407.555	699.88
407.778	718.88
408.002	643.88
408.226	607.88
408.449	605.88
408.673	584.88
408.896	616.88
409.12	654.88
409.344	609.88
409.567	568.88
409.791	569.88
410.014	526.88
410.238	544.88
410.461	532.88
410.685	544.88
410.908	539.88
411.132	580.88
411.355	635.88
411.578	595.88
411.802	543.88
412.025	534.88
412.249	545.88
412.472	592.88
412.695	598.88
412.919	575.88
413.142	547.88
413.365	519.88
413.589	519.88
413.812	538.88
414.035	512.88
414.258	505.88
414.482	505.88
414.705	519.88
414.928	518.88
415.151	529.88
415.374	521.88
415.597	522.88
415.821	503.88
416.044	477.88
416.267	513.88
416.49	495.88
416.713	507.88
416.936	489.88
417.159	517.88
417.382	499.88
417.605	517.88
417.828	494.88
418.051	538.88
418.274	542.88
418.497	544.88
418.72	517.88
418.943	526.88
419.166	550.88
419.389	558.88
419.611	539.88
419.834	545.88
420.057	544.88
420.28	543.88
420.503	543.88
420.726	511.88
420.948	528.88
421.171	586.88
421.394	618.88
421.617	551.88
421.839	528.88
422.062	528.88
422.285	539.88
422.507	582.88
422.73	680.88
422.953	646.88
423.175	575.88
423.398	533.88
423.621	547.88
423.843	579.88
424.066	566.88
424.288	553.88
424.511	549.88
424.733	619.88
424.956	706.88
425.178	651.88
425.401	654.88
425.623	680.88
425.846	591.88
426.068	563.88
426.291	553.88
426.513	548.88
426.735	568.88
426.958	582.88
427.18	670.88
427.402	800.88
427.625	869.88
427.847	729.88
428.069	638.88
428.292	571.88
428.514	542.88
428.736	516.88
428.958	500.88
429.181	517.88
429.403	496.88
429.625	517.88
429.847	521.88
430.069	607.88
430.292	599.88
430.514	530.88
430.736	495.88
430.958	502.88
431.18	488.88
431.402	474.88
431.624	481.88
431.846	489.88
432.068	494.88
432.29	496.88
432.512	497.88
432.734	499.88
432.956	499.88
433.178	515.88
433.4	506.88
433.622	519.88
433.844	496.88
434.066	496.88
434.287	518.88
434.509	494.88
434.731	527.88
434.953	520.88
435.175	539.88
435.397	538.88
435.618	545.88
435.84	601.88
436.062	667.88
436.284	734.88
436.505	618.88
436.727	556.88
436.949	542.88
437.17	534.88
437.392	498.88
437.614	527.88
437.835	543.88
438.057	617.88
438.278	707.88
438.5	704.88
438.721	776.88
438.943	770.88
439.165	604.88
439.386	562.88
439.608	531.88
439.829	548.88
440.05	565.88
440.272	616.88
440.493	561.88
440.715	544.88
440.936	518.88
441.158	536.88
441.379	525.88
441.6	526.88
441.822	539.88
442.043	584.88
442.264	655.88
442.486	686.88
442.707	591.88
442.928	551.88
443.149	553.88
443.371	594.88
443.592	629.88
443.813	707.88
444.034	767.88
444.255	643.88
444.476	589.88
444.698	568.88
444.919	576.88
445.14	689.88
445.361	634.88
445.582	604.88
445.803	641.88
446.024	718.88
446.245	731.88
446.466	665.88
446.687	577.88
446.908	546.88
447.129	543.88
447.35	510.88
447.571	513.88
447.792	510.88
448.013	494.88
448.234	509.88
448.455	565.88
448.675	661.88
448.896	754.88
449.117	631.88
449.338	609.88
449.559	719.88
449.779	841.88
450	649.88
450.221	537.88
450.442	493.88
450.662	492.88
450.883	486.88
451.104	494.88
451.324	475.88
451.545	457.88
451.766	454.88
451.986	459.88
452.207	444.88
452.428	463.88
452.648	449.88
452.869	443.88
453.089	456.88
453.31	456.88
453.53	448.88
453.751	455.88
453.971	450.88
454.192	465.88
454.412	462.88
454.633	456.88
454.853	443.88
455.073	432.88
455.294	452.88
455.514	527.88
455.734	509.88
455.955	429.88
456.175	460.88
456.395	434.88
456.616	425.88
456.836	440.88
457.056	431.88
457.276	419.88
457.497	431.88
457.717	450.88
457.937	436.88
458.157	455.88
458.377	436.88
458.598	461.88
458.818	494.88
459.038	559.88
459.258	584.88
459.478	529.88
459.698	476.88
459.918	470.88
460.138	489.88
460.358	522.88
460.578	523.88
460.798	509.88
461.018	525.88
461.238	507.88
461.458	495.88
461.678	525.88
461.898	511.88
462.118	503.88
462.338	535.88
462.558	522.88
462.777	536.88
462.997	563.88
463.217	581.88
463.437	591.88
463.657	577.88
463.876	549.88
464.096	545.88
464.316	550.88
464.536	571.88
464.755	562.88
464.975	551.88
465.195	543.88
465.414	591.88
465.634	542.88
465.854	507.88
466.073	491.88
466.293	479.88
466.512	455.88
466.732	456.88
466.951	461.88
467.171	457.88
467.391	493.88
467.61	472.88
467.829	473.88
468.049	486.88
468.268	471.88
468.488	489.88
468.707	462.88
468.927	446.88
469.146	441.88
469.365	466.88
469.585	440.88
469.804	478.88
470.023	482.88
470.243	474.88
470.462	485.88
470.681	485.88
470.901	476.88
471.12	503.88
471.339	486.88
471.558	472.88
471.777	478.88
471.997	478.88
472.216	491.88
472.435	474.88
472.654	463.88
472.873	480.88
473.092	475.88
473.311	480.88
473.53	449.88
473.749	479.88
473.968	530.88
474.187	620.88
474.406	618.88
474.625	525.88
474.844	492.88
475.063	472.88
475.282	480.88
475.501	472.88
475.72	474.88
475.939	458.88
476.158	494.88
476.377	503.88
476.596	467.88
476.814	486.88
477.033	511.88
477.252	515.88
477.471	496.88
477.69	514.88
477.908	513.88
478.127	523.88
478.346	534.88
478.564	533.88
478.783	537.88
479.002	539.88
479.22	537.88
479.439	545.88
479.658	555.88
479.876	547.88
480.095	589.88
480.313	593.88
480.532	570.88
480.751	586.88
480.969	569.88
481.188	613.88
481.406	594.88
481.624	570.88
481.843	562.88
482.061	546.88
482.28	565.88
482.498	573.88
482.717	537.88
482.935	547.88
483.153	560.88
483.372	567.88
483.59	574.88
483.808	570.88
484.027	542.88
484.245	557.88
484.463	556.88
484.681	569.88
484.9	549.88
485.118	558.88
485.336	565.88
485.554	577.88
485.772	583.88
485.99	558.88
486.209	576.88
486.427	584.88
486.645	554.88
486.863	613.88
487.081	595.88
487.299	606.88
487.517	599.88
487.735	590.88
487.953	566.88
488.171	578.88
488.389	598.88
488.607	569.88
488.825	601.88
489.043	579.88
489.261	600.88
489.479	599.88
489.696	588.88
489.914	606.88
490.132	588.88
490.35	607.88
490.568	626.88
490.786	632.88
491.003	643.88
491.221	656.88
491.439	654.88
491.657	650.88
491.874	656.88
492.092	689.88
492.31	691.88
492.527	649.88
492.745	653.88
492.963	679.88
493.18	672.88
493.398	698.88
493.615	679.88
493.833	685.88
494.05	680.88
494.268	670.88
494.485	681.88
494.703	691.88
494.92	688.88
495.138	700.88
495.355	688.88
495.573	686.88
495.79	689.88
496.008	674.88
496.225	671.88
496.442	684.88
496.66	683.88
496.877	711.88
497.094	698.88
497.312	706.88
497.529	724.88
497.746	721.88
497.963	733.88
498.181	748.88
498.398	762.88
498.615	800.88
498.832	803.88
499.049	818.88
499.267	848.88
499.484	910.88
499.701	963.88
499.918	971.88
500.135	1049.88
500.352	1115.88
500.569	1134.88
500.786	1126.88
501.003	1135.88
501.22	1049.88
501.437	1013.88
501.654	958.88
