Data from 1976.PennyLincolnUp.Lamp.En5.5.200Scan.071719.P1.Changed Mount._HRD10591_15-59-27-861.txt Node
Date: Thu Jul 18 15:59:27 EDT 2019
User: cochatt
Spectrometer: HR+D1059
Trigger mode: 1
Integration Time (sec): 1.000000E-1
Scans to average: 1
Electric dark correction enabled: true
Nonlinearity correction enabled: false
Boxcar width: 0
XAxis mode: Wavelengths
Number of Pixels in Spectrum: 2048
>>>>>Begin Spectral Data<<<<<
223.165	-2.69
223.4	-2.69
223.635	-2.69
223.869	-37.69
224.104	-21.69
224.338	-6.69
224.573	-7.69
224.808	-1.69
225.042	-0.69
225.277	-18.69
225.511	-3.69
225.746	14.31
225.98	3.31
226.215	-9.69
226.449	13.31
226.683	6.31
226.918	34.31
227.152	39.31
227.387	29.31
227.621	37.31
227.856	34.31
228.09	44.31
228.324	46.31
228.559	57.31
228.793	74.31
229.027	84.31
229.262	90.31
229.496	103.31
229.73	114.31
229.964	132.31
230.199	118.31
230.433	91.31
230.667	93.31
230.901	100.31
231.136	98.31
231.37	105.31
231.604	98.31
231.838	94.31
232.072	99.31
232.306	97.31
232.541	99.31
232.775	101.31
233.009	106.31
233.243	103.31
233.477	105.31
233.711	115.31
233.945	114.31
234.179	108.31
234.413	112.31
234.647	111.31
234.881	101.31
235.115	114.31
235.349	122.31
235.583	127.31
235.817	111.31
236.051	112.31
236.285	116.31
236.519	107.31
236.753	119.31
236.987	132.31
237.221	149.31
237.455	190.31
237.689	150.31
237.922	128.31
238.156	138.31
238.39	117.31
238.624	101.31
238.858	106.31
239.091	124.31
239.325	120.31
239.559	121.31
239.793	115.31
240.027	120.31
240.26	137.31
240.494	145.31
240.728	118.31
240.961	134.31
241.195	133.31
241.429	120.31
241.662	131.31
241.896	126.31
242.13	118.31
242.363	117.31
242.597	136.31
242.83	131.31
243.064	135.31
243.298	121.31
243.531	133.31
243.765	131.31
243.998	121.31
244.232	127.31
244.465	137.31
244.699	136.31
244.932	125.31
245.166	133.31
245.399	147.31
245.633	142.31
245.866	132.31
246.099	130.31
246.333	148.31
246.566	140.31
246.8	127.31
247.033	141.31
247.266	155.31
247.5	156.31
247.733	167.31
247.966	156.31
248.2	161.31
248.433	170.31
248.666	159.31
248.899	152.31
249.133	162.31
249.366	190.31
249.599	176.31
249.832	171.31
250.066	169.31
250.299	152.31
250.532	156.31
250.765	162.31
250.998	180.31
251.231	196.31
251.465	183.31
251.698	182.31
251.931	173.31
252.164	173.31
252.397	180.31
252.63	172.31
252.863	182.31
253.096	180.31
253.329	175.31
253.562	194.31
253.795	194.31
254.028	205.31
254.261	190.31
254.494	196.31
254.727	214.31
254.96	224.31
255.193	232.31
255.426	205.31
255.659	212.31
255.892	192.31
256.124	195.31
256.357	182.31
256.59	200.31
256.823	189.31
257.056	173.31
257.289	185.31
257.521	182.31
257.754	187.31
257.987	184.31
258.22	185.31
258.452	173.31
258.685	194.31
258.918	203.31
259.151	207.31
259.383	181.31
259.616	183.31
259.849	204.31
260.081	206.31
260.314	212.31
260.547	232.31
260.779	206.31
261.012	211.31
261.244	196.31
261.477	196.31
261.71	196.31
261.942	202.31
262.175	217.31
262.407	218.31
262.64	183.31
262.872	201.31
263.105	192.31
263.337	216.31
263.57	203.31
263.802	201.31
264.035	197.31
264.267	195.31
264.499	206.31
264.732	208.31
264.964	220.31
265.197	215.31
265.429	204.31
265.661	199.31
265.894	185.31
266.126	205.31
266.358	209.31
266.591	199.31
266.823	206.31
267.055	205.31
267.287	200.31
267.52	228.31
267.752	202.31
267.984	211.31
268.216	213.31
268.448	200.31
268.681	226.31
268.913	234.31
269.145	246.31
269.377	248.31
269.609	238.31
269.841	230.31
270.073	230.31
270.306	247.31
270.538	262.31
270.77	282.31
271.002	283.31
271.234	260.31
271.466	251.31
271.698	272.31
271.93	267.31
272.162	268.31
272.394	271.31
272.626	273.31
272.858	240.31
273.09	233.31
273.322	241.31
273.553	236.31
273.785	241.31
274.017	230.31
274.249	243.31
274.481	244.31
274.713	250.31
274.945	247.31
275.176	238.31
275.408	231.31
275.64	256.31
275.872	225.31
276.104	254.31
276.335	248.31
276.567	247.31
276.799	237.31
277.031	264.31
277.262	278.31
277.494	275.31
277.726	282.31
277.957	268.31
278.189	267.31
278.421	253.31
278.652	254.31
278.884	236.31
279.115	258.31
279.347	237.31
279.579	250.31
279.81	235.31
280.042	254.31
280.273	248.31
280.505	258.31
280.736	244.31
280.968	245.31
281.199	236.31
281.431	258.31
281.662	254.31
281.894	269.31
282.125	254.31
282.356	260.31
282.588	274.31
282.819	264.31
283.051	274.31
283.282	261.31
283.513	265.31
283.745	261.31
283.976	262.31
284.207	262.31
284.439	251.31
284.67	282.31
284.901	270.31
285.132	275.31
285.364	276.31
285.595	262.31
285.826	269.31
286.057	285.31
286.288	267.31
286.52	266.31
286.751	257.31
286.982	245.31
287.213	274.31
287.444	280.31
287.675	272.31
287.906	284.31
288.138	288.31
288.369	287.31
288.6	270.31
288.831	278.31
289.062	281.31
289.293	267.31
289.524	280.31
289.755	282.31
289.986	284.31
290.217	282.31
290.448	265.31
290.679	273.31
290.91	267.31
291.141	285.31
291.371	274.31
291.602	291.31
291.833	277.31
292.064	268.31
292.295	275.31
292.526	284.31
292.757	272.31
292.987	273.31
293.218	268.31
293.449	272.31
293.68	270.31
293.91	269.31
294.141	271.31
294.372	270.31
294.603	264.31
294.833	275.31
295.064	279.31
295.295	298.31
295.525	290.31
295.756	274.31
295.987	264.31
296.217	284.31
296.448	294.31
296.679	289.31
296.909	285.31
297.14	285.31
297.37	291.31
297.601	314.31
297.831	311.31
298.062	270.31
298.292	289.31
298.523	307.31
298.753	293.31
298.984	285.31
299.214	295.31
299.445	292.31
299.675	272.31
299.905	308.31
300.136	303.31
300.366	290.31
300.597	298.31
300.827	319.31
301.057	310.31
301.288	308.31
301.518	306.31
301.748	294.31
301.979	286.31
302.209	329.31
302.439	327.31
302.669	295.31
302.9	292.31
303.13	307.31
303.36	315.31
303.59	304.31
303.82	303.31
304.051	302.31
304.281	312.31
304.511	316.31
304.741	311.31
304.971	296.31
305.201	309.31
305.431	316.31
305.661	310.31
305.891	311.31
306.121	308.31
306.352	291.31
306.582	334.31
306.812	311.31
307.042	308.31
307.272	323.31
307.502	315.31
307.731	328.31
307.961	320.31
308.191	283.31
308.421	305.31
308.651	298.31
308.881	310.31
309.111	311.31
309.341	314.31
309.571	319.31
309.8	341.31
310.03	315.31
310.26	336.31
310.49	311.31
310.72	334.31
310.949	343.31
311.179	332.31
311.409	337.31
311.639	340.31
311.868	345.31
312.098	336.31
312.328	345.31
312.557	343.31
312.787	345.31
313.017	357.31
313.246	358.31
313.476	335.31
313.706	327.31
313.935	350.31
314.165	358.31
314.394	347.31
314.624	338.31
314.853	346.31
315.083	326.31
315.312	338.31
315.542	351.31
315.771	335.31
316.001	338.31
316.23	329.31
316.46	339.31
316.689	345.31
316.919	339.31
317.148	353.31
317.377	348.31
317.607	347.31
317.836	359.31
318.065	334.31
318.295	351.31
318.524	356.31
318.753	343.31
318.983	310.31
319.212	344.31
319.441	350.31
319.67	335.31
319.9	337.31
320.129	345.31
320.358	357.31
320.587	335.31
320.816	365.31
321.046	353.31
321.275	362.31
321.504	347.31
321.733	352.31
321.962	366.31
322.191	372.31
322.42	371.31
322.649	364.31
322.878	374.31
323.108	350.31
323.337	404.31
323.566	381.31
323.795	406.31
324.024	406.31
324.253	463.31
324.482	628.31
324.71	974.31
324.939	1414.31
325.168	1221.31
325.397	640.31
325.626	468.31
325.855	410.31
326.084	387.31
326.313	400.31
326.542	406.31
326.77	425.31
326.999	474.31
327.228	616.31
327.457	894.31
327.686	1080.31
327.914	729.31
328.143	502.31
328.372	440.31
328.6	416.31
328.829	435.31
329.058	429.31
329.287	424.31
329.515	436.31
329.744	400.31
329.972	401.31
330.201	408.31
330.43	457.31
330.658	435.31
330.887	465.31
331.115	447.31
331.344	420.31
331.572	421.31
331.801	422.31
332.03	424.31
332.258	412.31
332.486	420.31
332.715	395.31
332.943	405.31
333.172	412.31
333.4	429.31
333.629	425.31
333.857	437.31
334.085	444.31
334.314	439.31
334.542	455.31
334.771	461.31
334.999	438.31
335.227	448.31
335.455	426.31
335.684	410.31
335.912	429.31
336.14	409.31
336.369	414.31
336.597	398.31
336.825	407.31
337.053	404.31
337.281	396.31
337.51	411.31
337.738	414.31
337.966	374.31
338.194	398.31
338.422	382.31
338.65	403.31
338.878	378.31
339.106	394.31
339.334	400.31
339.562	380.31
339.79	399.31
340.018	401.31
340.246	408.31
340.474	390.31
340.702	397.31
340.93	378.31
341.158	375.31
341.386	389.31
341.614	388.31
341.842	373.31
342.07	398.31
342.298	377.31
342.526	391.31
342.754	390.31
342.981	376.31
343.209	363.31
343.437	391.31
343.665	416.31
343.893	404.31
344.12	400.31
344.348	397.31
344.576	396.31
344.804	398.31
345.031	394.31
345.259	401.31
345.487	394.31
345.714	383.31
345.942	387.31
346.17	403.31
346.397	386.31
346.625	381.31
346.853	390.31
347.08	378.31
347.308	397.31
347.535	381.31
347.763	389.31
347.99	372.31
348.218	391.31
348.445	396.31
348.673	381.31
348.9	375.31
349.128	364.31
349.355	384.31
349.583	371.31
349.81	356.31
350.037	374.31
350.265	358.31
350.492	368.31
350.72	369.31
350.947	364.31
351.174	368.31
351.402	377.31
351.629	383.31
351.856	365.31
352.083	382.31
352.311	378.31
352.538	378.31
352.765	360.31
352.992	378.31
353.22	377.31
353.447	378.31
353.674	386.31
353.901	363.31
354.128	358.31
354.355	362.31
354.583	358.31
354.81	361.31
355.037	368.31
355.264	366.31
355.491	357.31
355.718	356.31
355.945	358.31
356.172	342.31
356.399	361.31
356.626	363.31
356.853	359.31
357.08	352.31
357.307	365.31
357.534	363.31
357.761	367.31
357.988	350.31
358.215	353.31
358.441	388.31
358.668	370.31
358.895	367.31
359.122	380.31
359.349	363.31
359.576	365.31
359.802	387.31
360.029	387.31
360.256	377.31
360.483	386.31
360.709	376.31
360.936	362.31
361.163	367.31
361.39	383.31
361.616	395.31
361.843	375.31
362.07	363.31
362.296	383.31
362.523	356.31
362.749	381.31
362.976	375.31
363.203	351.31
363.429	353.31
363.656	382.31
363.882	334.31
364.109	368.31
364.335	357.31
364.562	375.31
364.788	364.31
365.015	363.31
365.241	372.31
365.468	375.31
365.694	369.31
365.92	372.31
366.147	360.31
366.373	362.31
366.599	365.31
366.826	371.31
367.052	366.31
367.278	369.31
367.505	366.31
367.731	364.31
367.957	370.31
368.184	383.31
368.41	367.31
368.636	384.31
368.862	398.31
369.089	377.31
369.315	353.31
369.541	365.31
369.767	371.31
369.993	358.31
370.219	363.31
370.445	365.31
370.672	375.31
370.898	387.31
371.124	384.31
371.35	356.31
371.576	378.31
371.802	381.31
372.028	372.31
372.254	381.31
372.48	367.31
372.706	390.31
372.932	383.31
373.158	380.31
373.384	399.31
373.61	382.31
373.835	385.31
374.061	387.31
374.287	371.31
374.513	375.31
374.739	390.31
374.965	390.31
375.191	398.31
375.416	390.31
375.642	385.31
375.868	384.31
376.094	378.31
376.319	366.31
376.545	392.31
376.771	387.31
376.997	384.31
377.222	364.31
377.448	385.31
377.674	382.31
377.899	373.31
378.125	370.31
378.35	385.31
378.576	366.31
378.802	368.31
379.027	382.31
379.253	384.31
379.478	360.31
379.704	370.31
379.929	394.31
380.155	375.31
380.38	383.31
380.606	391.31
380.831	366.31
381.057	380.31
381.282	382.31
381.507	389.31
381.733	383.31
381.958	415.31
382.184	382.31
382.409	407.31
382.634	394.31
382.86	392.31
383.085	408.31
383.31	396.31
383.535	398.31
383.761	406.31
383.986	421.31
384.211	416.31
384.436	423.31
384.662	439.31
384.887	423.31
385.112	428.31
385.337	443.31
385.562	436.31
385.787	437.31
386.013	428.31
386.238	438.31
386.463	425.31
386.688	440.31
386.913	431.31
387.138	429.31
387.363	440.31
387.588	447.31
387.813	437.31
388.038	416.31
388.263	442.31
388.488	446.31
388.713	435.31
388.938	399.31
389.163	409.31
389.387	417.31
389.612	419.31
389.837	419.31
390.062	424.31
390.287	445.31
390.512	426.31
390.736	433.31
390.961	425.31
391.186	443.31
391.411	442.31
391.636	438.31
391.86	428.31
392.085	446.31
392.31	456.31
392.534	458.31
392.759	457.31
392.984	436.31
393.208	417.31
393.433	445.31
393.658	431.31
393.882	433.31
394.107	431.31
394.331	451.31
394.556	432.31
394.78	436.31
395.005	436.31
395.229	441.31
395.454	447.31
395.678	468.31
395.903	468.31
396.127	469.31
396.352	447.31
396.576	452.31
396.801	450.31
397.025	427.31
397.249	420.31
397.474	456.31
397.698	452.31
397.922	454.31
398.147	464.31
398.371	478.31
398.595	492.31
398.82	496.31
399.044	500.31
399.268	554.31
399.492	570.31
399.717	613.31
399.941	606.31
400.165	606.31
400.389	596.31
400.613	540.31
400.837	506.31
401.062	496.31
401.286	515.31
401.51	494.31
401.734	503.31
401.958	487.31
402.182	490.31
402.406	489.31
402.63	499.31
402.854	527.31
403.078	498.31
403.302	506.31
403.526	509.31
403.75	533.31
403.974	502.31
404.198	534.31
404.422	521.31
404.645	516.31
404.869	503.31
405.093	540.31
405.317	550.31
405.541	591.31
405.765	538.31
405.988	529.31
406.212	518.31
406.436	537.31
406.66	546.31
406.883	547.31
407.107	538.31
407.331	576.31
407.555	643.31
407.778	660.31
408.002	602.31
408.226	583.31
408.449	562.31
408.673	557.31
408.896	575.31
409.12	618.31
409.344	585.31
409.567	528.31
409.791	516.31
410.014	512.31
410.238	507.31
410.461	516.31
410.685	498.31
410.908	524.31
411.132	563.31
411.355	573.31
411.578	544.31
411.802	475.31
412.025	505.31
412.249	509.31
412.472	525.31
412.695	548.31
412.919	548.31
413.142	501.31
413.365	504.31
413.589	506.31
413.812	487.31
414.035	500.31
414.258	471.31
414.482	471.31
414.705	487.31
414.928	510.31
415.151	482.31
415.374	487.31
415.597	477.31
415.821	476.31
416.044	471.31
416.267	482.31
416.49	478.31
416.713	476.31
416.936	476.31
417.159	479.31
417.382	483.31
417.605	494.31
417.828	511.31
418.051	488.31
418.274	499.31
418.497	486.31
418.72	485.31
418.943	485.31
419.166	506.31
419.389	526.31
419.611	524.31
419.834	521.31
420.057	513.31
420.28	519.31
420.503	496.31
420.726	470.31
420.948	505.31
421.171	552.31
421.394	547.31
421.617	522.31
421.839	490.31
422.062	485.31
422.285	474.31
422.507	537.31
422.73	588.31
422.953	577.31
423.175	536.31
423.398	500.31
423.621	484.31
423.843	514.31
424.066	520.31
424.288	519.31
424.511	560.31
424.733	572.31
424.956	635.31
425.178	602.31
425.401	588.31
425.623	632.31
425.846	548.31
426.068	531.31
426.291	483.31
426.513	503.31
426.735	479.31
426.958	534.31
427.18	614.31
427.402	715.31
427.625	793.31
427.847	664.31
428.069	582.31
428.292	523.31
428.514	491.31
428.736	475.31
428.958	467.31
429.181	462.31
429.403	459.31
429.625	466.31
429.847	498.31
430.069	559.31
430.292	550.31
430.514	474.31
430.736	480.31
430.958	472.31
431.18	455.31
431.402	465.31
431.624	448.31
431.846	472.31
432.068	470.31
432.29	454.31
432.512	460.31
432.734	474.31
432.956	459.31
433.178	454.31
433.4	469.31
433.622	458.31
433.844	480.31
434.066	452.31
434.287	453.31
434.509	464.31
434.731	479.31
434.953	476.31
435.175	489.31
435.397	534.31
435.618	528.31
435.84	542.31
436.062	604.31
436.284	657.31
436.505	580.31
436.727	508.31
436.949	492.31
437.17	452.31
437.392	462.31
437.614	486.31
437.835	504.31
438.057	540.31
438.278	616.31
438.5	648.31
438.721	698.31
438.943	716.31
439.165	572.31
439.386	501.31
439.608	504.31
439.829	505.31
440.05	532.31
440.272	555.31
440.493	533.31
440.715	503.31
440.936	474.31
441.158	478.31
441.379	482.31
441.6	502.31
441.822	512.31
442.043	539.31
442.264	625.31
442.486	646.31
442.707	550.31
442.928	506.31
443.149	508.31
443.371	528.31
443.592	582.31
443.813	632.31
444.034	685.31
444.255	610.31
444.476	538.31
444.698	519.31
444.919	532.31
445.14	634.31
445.361	596.31
445.582	548.31
445.803	587.31
446.024	656.31
446.245	669.31
446.466	615.31
446.687	538.31
446.908	503.31
447.129	480.31
447.35	484.31
447.571	449.31
447.792	470.31
448.013	474.31
448.234	466.31
448.455	505.31
448.675	590.31
448.896	691.31
449.117	599.31
449.338	554.31
449.559	664.31
449.779	720.31
450	574.31
450.221	492.31
450.442	445.31
450.662	455.31
450.883	463.31
451.104	458.31
451.324	440.31
451.545	426.31
451.766	428.31
451.986	422.31
452.207	429.31
452.428	423.31
452.648	419.31
452.869	431.31
453.089	438.31
453.31	443.31
453.53	423.31
453.751	424.31
453.971	395.31
454.192	417.31
454.412	407.31
454.633	401.31
454.853	413.31
455.073	412.31
455.294	457.31
455.514	486.31
455.734	463.31
455.955	416.31
456.175	416.31
456.395	405.31
456.616	397.31
456.836	404.31
457.056	412.31
457.276	399.31
457.497	420.31
457.717	416.31
457.937	417.31
458.157	418.31
458.377	404.31
458.598	435.31
458.818	446.31
459.038	504.31
459.258	543.31
459.478	474.31
459.698	470.31
459.918	461.31
460.138	445.31
460.358	481.31
460.578	492.31
460.798	476.31
461.018	478.31
461.238	466.31
461.458	483.31
461.678	510.31
461.898	480.31
462.118	465.31
462.338	505.31
462.558	506.31
462.777	510.31
462.997	541.31
463.217	546.31
463.437	564.31
463.657	531.31
463.876	526.31
464.096	540.31
464.316	527.31
464.536	547.31
464.755	523.31
464.975	524.31
465.195	521.31
465.414	569.31
465.634	525.31
465.854	458.31
466.073	478.31
466.293	451.31
466.512	425.31
466.732	444.31
466.951	438.31
467.171	461.31
467.391	453.31
467.61	456.31
467.829	447.31
468.049	442.31
468.268	434.31
468.488	407.31
468.707	425.31
468.927	418.31
469.146	430.31
469.365	444.31
469.585	431.31
469.804	436.31
470.023	428.31
470.243	456.31
470.462	462.31
470.681	466.31
470.901	458.31
471.12	462.31
471.339	455.31
471.558	447.31
471.777	434.31
471.997	452.31
472.216	446.31
472.435	483.31
472.654	440.31
472.873	438.31
473.092	443.31
473.311	432.31
473.53	436.31
473.749	458.31
473.968	463.31
474.187	546.31
474.406	566.31
474.625	491.31
474.844	455.31
475.063	456.31
475.282	438.31
475.501	446.31
475.72	453.31
475.939	462.31
476.158	447.31
476.377	463.31
476.596	452.31
476.814	455.31
477.033	464.31
477.252	463.31
477.471	467.31
477.69	476.31
477.908	492.31
478.127	495.31
478.346	511.31
478.564	504.31
478.783	500.31
479.002	536.31
479.22	512.31
479.439	530.31
479.658	516.31
479.876	518.31
480.095	534.31
480.313	557.31
480.532	591.31
480.751	570.31
480.969	566.31
481.188	543.31
481.406	568.31
481.624	557.31
481.843	529.31
482.061	514.31
482.28	526.31
482.498	529.31
482.717	523.31
482.935	528.31
483.153	538.31
483.372	536.31
483.59	525.31
483.808	529.31
484.027	499.31
484.245	498.31
484.463	527.31
484.681	555.31
484.9	547.31
485.118	539.31
485.336	530.31
485.554	527.31
485.772	538.31
485.99	543.31
486.209	523.31
486.427	534.31
486.645	544.31
486.863	540.31
487.081	558.31
487.299	560.31
487.517	559.31
487.735	542.31
487.953	571.31
488.171	569.31
488.389	545.31
488.607	566.31
488.825	572.31
489.043	551.31
489.261	580.31
489.479	564.31
489.696	543.31
489.914	571.31
490.132	587.31
490.35	584.31
490.568	592.31
490.786	584.31
491.003	580.31
491.221	618.31
491.439	625.31
491.657	598.31
491.874	620.31
492.092	603.31
492.31	607.31
492.527	596.31
492.745	624.31
492.963	628.31
493.18	640.31
493.398	639.31
493.615	639.31
493.833	616.31
494.05	636.31
494.268	638.31
494.485	607.31
494.703	637.31
494.92	631.31
495.138	649.31
495.355	642.31
495.573	638.31
495.79	643.31
496.008	660.31
496.225	644.31
496.442	653.31
496.66	661.31
496.877	660.31
497.094	649.31
497.312	663.31
497.529	679.31
497.746	669.31
497.963	674.31
498.181	710.31
498.398	724.31
498.615	760.31
498.832	772.31
499.049	790.31
499.267	789.31
499.484	847.31
499.701	887.31
499.918	943.31
500.135	1028.31
500.352	1040.31
500.569	1063.31
500.786	1087.31
501.003	1029.31
501.22	1006.31
501.437	966.31
501.654	889.31
501.871	889.31
