Data from 1976.PennyLincolnUp.Lamp.En5.5.200Scan.071719.P1.Changed Mount._HRD10591_16-00-17-860.txt Node
Date: Thu Jul 18 16:00:17 EDT 2019
User: cochatt
Spectrometer: HR+D1059
Trigger mode: 1
Integration Time (sec): 1.000000E-1
Scans to average: 1
Electric dark correction enabled: true
Nonlinearity correction enabled: false
Boxcar width: 0
XAxis mode: Wavelengths
Number of Pixels in Spectrum: 2048
>>>>>Begin Spectral Data<<<<<
223.165	-16.69
223.4	-16.69
223.635	-16.69
223.869	-7.69
224.104	-7.69
224.338	-10.69
224.573	-12.69
224.808	-8.69
225.042	0.31
225.277	1.31
225.511	-5.69
225.746	-1.69
225.98	11.31
226.215	-7.69
226.449	8.31
226.683	19.31
226.918	24.31
227.152	14.31
227.387	36.31
227.621	36.31
227.856	32.31
228.09	44.31
228.324	49.31
228.559	64.31
228.793	65.31
229.027	91.31
229.262	113.31
229.496	118.31
229.73	120.31
229.964	142.31
230.199	140.31
230.433	129.31
230.667	116.31
230.901	124.31
231.136	120.31
231.37	124.31
231.604	111.31
231.838	102.31
232.072	114.31
232.306	127.31
232.541	120.31
232.775	108.31
233.009	122.31
233.243	117.31
233.477	103.31
233.711	109.31
233.945	132.31
234.179	132.31
234.413	126.31
234.647	120.31
234.881	112.31
235.115	113.31
235.349	120.31
235.583	110.31
235.817	130.31
236.051	118.31
236.285	138.31
236.519	129.31
236.753	129.31
236.987	142.31
237.221	188.31
237.455	241.31
237.689	185.31
237.922	147.31
238.156	136.31
238.39	130.31
238.624	141.31
238.858	132.31
239.091	120.31
239.325	126.31
239.559	126.31
239.793	157.31
240.027	127.31
240.26	132.31
240.494	169.31
240.728	142.31
240.961	149.31
241.195	150.31
241.429	147.31
241.662	152.31
241.896	144.31
242.13	121.31
242.363	130.31
242.597	140.31
242.83	144.31
243.064	134.31
243.298	143.31
243.531	149.31
243.765	151.31
243.998	147.31
244.232	154.31
244.465	151.31
244.699	151.31
244.932	158.31
245.166	156.31
245.399	142.31
245.633	155.31
245.866	151.31
246.099	147.31
246.333	171.31
246.566	155.31
246.8	155.31
247.033	157.31
247.266	154.31
247.5	169.31
247.733	182.31
247.966	186.31
248.2	165.31
248.433	184.31
248.666	182.31
248.899	178.31
249.133	207.31
249.366	207.31
249.599	191.31
249.832	177.31
250.066	197.31
250.299	182.31
250.532	202.31
250.765	194.31
250.998	219.31
251.231	222.31
251.465	218.31
251.698	213.31
251.931	201.31
252.164	207.31
252.397	206.31
252.63	207.31
252.863	217.31
253.096	214.31
253.329	208.31
253.562	227.31
253.795	231.31
254.028	218.31
254.261	201.31
254.494	227.31
254.727	239.31
254.96	260.31
255.193	284.31
255.426	251.31
255.659	234.31
255.892	224.31
256.124	229.31
256.357	235.31
256.59	235.31
256.823	217.31
257.056	219.31
257.289	230.31
257.521	198.31
257.754	221.31
257.987	216.31
258.22	219.31
258.452	219.31
258.685	226.31
258.918	221.31
259.151	209.31
259.383	235.31
259.616	251.31
259.849	233.31
260.081	225.31
260.314	247.31
260.547	266.31
260.779	240.31
261.012	237.31
261.244	236.31
261.477	222.31
261.71	225.31
261.942	230.31
262.175	239.31
262.407	221.31
262.64	222.31
262.872	237.31
263.105	229.31
263.337	218.31
263.57	220.31
263.802	230.31
264.035	215.31
264.267	220.31
264.499	210.31
264.732	240.31
264.964	210.31
265.197	216.31
265.429	228.31
265.661	216.31
265.894	218.31
266.126	239.31
266.358	228.31
266.591	226.31
266.823	249.31
267.055	230.31
267.287	248.31
267.52	234.31
267.752	233.31
267.984	236.31
268.216	230.31
268.448	236.31
268.681	248.31
268.913	244.31
269.145	265.31
269.377	293.31
269.609	286.31
269.841	300.31
270.073	268.31
270.306	279.31
270.538	308.31
270.77	317.31
271.002	318.31
271.234	309.31
271.466	296.31
271.698	322.31
271.93	323.31
272.162	326.31
272.394	315.31
272.626	300.31
272.858	285.31
273.09	286.31
273.322	277.31
273.553	277.31
273.785	260.31
274.017	296.31
274.249	289.31
274.481	284.31
274.713	264.31
274.945	290.31
275.176	294.31
275.408	282.31
275.64	281.31
275.872	281.31
276.104	263.31
276.335	286.31
276.567	280.31
276.799	303.31
277.031	310.31
277.262	313.31
277.494	338.31
277.726	321.31
277.957	320.31
278.189	288.31
278.421	282.31
278.652	295.31
278.884	280.31
279.115	278.31
279.347	278.31
279.579	271.31
279.81	285.31
280.042	270.31
280.273	279.31
280.505	270.31
280.736	290.31
280.968	295.31
281.199	277.31
281.431	293.31
281.662	296.31
281.894	310.31
282.125	280.31
282.356	300.31
282.588	307.31
282.819	310.31
283.051	278.31
283.282	314.31
283.513	297.31
283.745	290.31
283.976	303.31
284.207	306.31
284.439	300.31
284.67	311.31
284.901	291.31
285.132	305.31
285.364	290.31
285.595	303.31
285.826	320.31
286.057	314.31
286.288	296.31
286.52	292.31
286.751	302.31
286.982	296.31
287.213	330.31
287.444	308.31
287.675	310.31
287.906	332.31
288.138	320.31
288.369	334.31
288.6	332.31
288.831	297.31
289.062	303.31
289.293	335.31
289.524	317.31
289.755	318.31
289.986	301.31
290.217	318.31
290.448	322.31
290.679	313.31
290.91	305.31
291.141	313.31
291.371	302.31
291.602	309.31
291.833	321.31
292.064	313.31
292.295	309.31
292.526	325.31
292.757	326.31
292.987	318.31
293.218	318.31
293.449	306.31
293.68	329.31
293.91	311.31
294.141	321.31
294.372	311.31
294.603	328.31
294.833	308.31
295.064	335.31
295.295	325.31
295.525	304.31
295.756	322.31
295.987	333.31
296.217	329.31
296.448	341.31
296.679	332.31
296.909	318.31
297.14	314.31
297.37	336.31
297.601	329.31
297.831	324.31
298.062	337.31
298.292	320.31
298.523	356.31
298.753	332.31
298.984	333.31
299.214	330.31
299.445	317.31
299.675	335.31
299.905	340.31
300.136	328.31
300.366	345.31
300.597	319.31
300.827	342.31
301.057	357.31
301.288	366.31
301.518	351.31
301.748	349.31
301.979	345.31
302.209	347.31
302.439	362.31
302.669	332.31
302.9	347.31
303.13	345.31
303.36	351.31
303.59	345.31
303.82	344.31
304.051	358.31
304.281	357.31
304.511	326.31
304.741	350.31
304.971	367.31
305.201	338.31
305.431	350.31
305.661	343.31
305.891	342.31
306.121	355.31
306.352	364.31
306.582	358.31
306.812	357.31
307.042	372.31
307.272	362.31
307.502	353.31
307.731	338.31
307.961	357.31
308.191	356.31
308.421	360.31
308.651	338.31
308.881	352.31
309.111	361.31
309.341	358.31
309.571	356.31
309.8	350.31
310.03	378.31
310.26	394.31
310.49	369.31
310.72	402.31
310.949	408.31
311.179	382.31
311.409	389.31
311.639	362.31
311.868	377.31
312.098	376.31
312.328	402.31
312.557	406.31
312.787	430.31
313.017	417.31
313.246	408.31
313.476	407.31
313.706	394.31
313.935	373.31
314.165	387.31
314.394	396.31
314.624	421.31
314.853	397.31
315.083	381.31
315.312	400.31
315.542	395.31
315.771	388.31
316.001	408.31
316.23	392.31
316.46	378.31
316.689	391.31
316.919	392.31
317.148	405.31
317.377	411.31
317.607	385.31
317.836	413.31
318.065	393.31
318.295	389.31
318.524	398.31
318.753	388.31
318.983	405.31
319.212	396.31
319.441	406.31
319.67	387.31
319.9	388.31
320.129	410.31
320.358	399.31
320.587	384.31
320.816	414.31
321.046	403.31
321.275	420.31
321.504	412.31
321.733	403.31
321.962	413.31
322.191	432.31
322.42	433.31
322.649	443.31
322.878	434.31
323.108	442.31
323.337	457.31
323.566	473.31
323.795	503.31
324.024	541.31
324.253	633.31
324.482	822.31
324.71	1254.31
324.939	1871.31
325.168	1608.31
325.397	834.31
325.626	572.31
325.855	511.31
326.084	482.31
326.313	476.31
326.542	493.31
326.77	540.31
326.999	583.31
327.228	783.31
327.457	1140.31
327.686	1414.31
327.914	940.31
328.143	622.31
328.372	582.31
328.6	551.31
328.829	523.31
329.058	561.31
329.287	538.31
329.515	514.31
329.744	522.31
329.972	497.31
330.201	512.31
330.43	542.31
330.658	549.31
330.887	561.31
331.115	557.31
331.344	514.31
331.572	492.31
331.801	487.31
332.03	504.31
332.258	474.31
332.486	482.31
332.715	465.31
332.943	461.31
333.172	493.31
333.4	491.31
333.629	500.31
333.857	501.31
334.085	484.31
334.314	516.31
334.542	558.31
334.771	541.31
334.999	527.31
335.227	495.31
335.455	492.31
335.684	477.31
335.912	476.31
336.14	485.31
336.369	474.31
336.597	495.31
336.825	469.31
337.053	481.31
337.281	470.31
337.51	449.31
337.738	471.31
337.966	460.31
338.194	448.31
338.422	464.31
338.65	459.31
338.878	432.31
339.106	438.31
339.334	460.31
339.562	432.31
339.79	453.31
340.018	456.31
340.246	454.31
340.474	461.31
340.702	431.31
340.93	462.31
341.158	461.31
341.386	465.31
341.614	446.31
341.842	437.31
342.07	430.31
342.298	436.31
342.526	444.31
342.754	438.31
342.981	429.31
343.209	424.31
343.437	428.31
343.665	460.31
343.893	468.31
344.12	474.31
344.348	465.31
344.576	491.31
344.804	473.31
345.031	454.31
345.259	433.31
345.487	452.31
345.714	434.31
345.942	449.31
346.17	423.31
346.397	436.31
346.625	424.31
346.853	430.31
347.08	415.31
347.308	422.31
347.535	446.31
347.763	434.31
347.99	426.31
348.218	436.31
348.445	441.31
348.673	429.31
348.9	433.31
349.128	416.31
349.355	414.31
349.583	425.31
349.81	406.31
350.037	399.31
350.265	436.31
350.492	414.31
350.72	420.31
350.947	422.31
351.174	438.31
351.402	434.31
351.629	434.31
351.856	420.31
352.083	438.31
352.311	421.31
352.538	425.31
352.765	440.31
352.992	420.31
353.22	420.31
353.447	422.31
353.674	429.31
353.901	418.31
354.128	406.31
354.355	415.31
354.583	396.31
354.81	428.31
355.037	405.31
355.264	420.31
355.491	397.31
355.718	396.31
355.945	408.31
356.172	405.31
356.399	410.31
356.626	424.31
356.853	422.31
357.08	393.31
357.307	412.31
357.534	404.31
357.761	400.31
357.988	399.31
358.215	408.31
358.441	401.31
358.668	410.31
358.895	399.31
359.122	422.31
359.349	411.31
359.576	426.31
359.802	464.31
360.029	455.31
360.256	464.31
360.483	452.31
360.709	421.31
360.936	445.31
361.163	431.31
361.39	421.31
361.616	430.31
361.843	403.31
362.07	424.31
362.296	433.31
362.523	421.31
362.749	428.31
362.976	439.31
363.203	414.31
363.429	391.31
363.656	412.31
363.882	404.31
364.109	420.31
364.335	393.31
364.562	402.31
364.788	417.31
365.015	411.31
365.241	418.31
365.468	428.31
365.694	426.31
365.92	423.31
366.147	421.31
366.373	414.31
366.599	408.31
366.826	443.31
367.052	412.31
367.278	433.31
367.505	406.31
367.731	426.31
367.957	399.31
368.184	429.31
368.41	429.31
368.636	428.31
368.862	443.31
369.089	423.31
369.315	422.31
369.541	427.31
369.767	411.31
369.993	421.31
370.219	414.31
370.445	393.31
370.672	410.31
370.898	414.31
371.124	420.31
371.35	415.31
371.576	417.31
371.802	408.31
372.028	409.31
372.254	432.31
372.48	417.31
372.706	384.31
372.932	429.31
373.158	420.31
373.384	423.31
373.61	433.31
373.835	423.31
374.061	426.31
374.287	421.31
374.513	429.31
374.739	418.31
374.965	454.31
375.191	426.31
375.416	442.31
375.642	432.31
375.868	428.31
376.094	421.31
376.319	407.31
376.545	399.31
376.771	407.31
376.997	416.31
377.222	426.31
377.448	418.31
377.674	423.31
377.899	425.31
378.125	421.31
378.35	435.31
378.576	420.31
378.802	410.31
379.027	408.31
379.253	398.31
379.478	403.31
379.704	417.31
379.929	424.31
380.155	446.31
380.38	398.31
380.606	400.31
380.831	402.31
381.057	445.31
381.282	414.31
381.507	427.31
381.733	422.31
381.958	414.31
382.184	414.31
382.409	431.31
382.634	441.31
382.86	407.31
383.085	442.31
383.31	434.31
383.535	422.31
383.761	452.31
383.986	452.31
384.211	445.31
384.436	445.31
384.662	461.31
384.887	457.31
385.112	458.31
385.337	455.31
385.562	456.31
385.787	466.31
386.013	463.31
386.238	459.31
386.463	471.31
386.688	452.31
386.913	477.31
387.138	483.31
387.363	456.31
387.588	481.31
387.813	480.31
388.038	478.31
388.263	495.31
388.488	448.31
388.713	476.31
388.938	479.31
389.163	458.31
389.387	474.31
389.612	474.31
389.837	468.31
390.062	453.31
390.287	458.31
390.512	447.31
390.736	465.31
390.961	470.31
391.186	456.31
391.411	455.31
391.636	478.31
391.86	480.31
392.085	478.31
392.31	488.31
392.534	480.31
392.759	476.31
392.984	489.31
393.208	470.31
393.433	478.31
393.658	461.31
393.882	474.31
394.107	485.31
394.331	488.31
394.556	448.31
394.78	490.31
395.005	465.31
395.229	476.31
395.454	484.31
395.678	479.31
395.903	501.31
396.127	519.31
396.352	521.31
396.576	497.31
396.801	491.31
397.025	488.31
397.249	473.31
397.474	512.31
397.698	527.31
397.922	526.31
398.147	544.31
398.371	539.31
398.595	553.31
398.82	543.31
399.044	576.31
399.268	572.31
399.492	597.31
399.717	649.31
399.941	683.31
400.165	689.31
400.389	699.31
400.613	649.31
400.837	579.31
401.062	556.31
401.286	567.31
401.51	538.31
401.734	552.31
401.958	543.31
402.182	569.31
402.406	557.31
402.63	554.31
402.854	556.31
403.078	545.31
403.302	552.31
403.526	570.31
403.75	561.31
403.974	557.31
404.198	573.31
404.422	585.31
404.645	575.31
404.869	595.31
405.093	609.31
405.317	639.31
405.541	684.31
405.765	608.31
405.988	583.31
406.212	617.31
406.436	606.31
406.66	602.31
406.883	625.31
407.107	640.31
407.331	670.31
407.555	764.31
407.778	741.31
408.002	648.31
408.226	634.31
408.449	620.31
408.673	636.31
408.896	625.31
409.12	675.31
409.344	669.31
409.567	610.31
409.791	590.31
410.014	585.31
410.238	584.31
410.461	559.31
410.685	550.31
410.908	581.31
411.132	584.31
411.355	642.31
411.578	612.31
411.802	584.31
412.025	564.31
412.249	592.31
412.472	577.31
412.695	623.31
412.919	610.31
413.142	580.31
413.365	572.31
413.589	549.31
413.812	536.31
414.035	527.31
414.258	540.31
414.482	561.31
414.705	558.31
414.928	532.31
415.151	536.31
415.374	550.31
415.597	515.31
415.821	537.31
416.044	544.31
416.267	550.31
416.49	541.31
416.713	536.31
416.936	501.31
417.159	547.31
417.382	540.31
417.605	533.31
417.828	568.31
418.051	544.31
418.274	542.31
418.497	542.31
418.72	569.31
418.943	540.31
419.166	557.31
419.389	587.31
419.611	578.31
419.834	556.31
420.057	558.31
420.28	574.31
420.503	545.31
420.726	564.31
420.948	577.31
421.171	616.31
421.394	625.31
421.617	562.31
421.839	577.31
422.062	551.31
422.285	581.31
422.507	652.31
422.73	699.31
422.953	662.31
423.175	597.31
423.398	599.31
423.621	556.31
423.843	590.31
424.066	575.31
424.288	598.31
424.511	601.31
424.733	630.31
424.956	720.31
425.178	741.31
425.401	717.31
425.623	739.31
425.846	630.31
426.068	585.31
426.291	574.31
426.513	596.31
426.735	585.31
426.958	640.31
427.18	727.31
427.402	828.31
427.625	925.31
427.847	758.31
428.069	676.31
428.292	605.31
428.514	581.31
428.736	559.31
428.958	561.31
429.181	552.31
429.403	524.31
429.625	544.31
429.847	542.31
430.069	647.31
430.292	639.31
430.514	539.31
430.736	548.31
430.958	558.31
431.18	501.31
431.402	538.31
431.624	506.31
431.846	499.31
432.068	508.31
432.29	502.31
432.512	531.31
432.734	545.31
432.956	537.31
433.178	519.31
433.4	543.31
433.622	507.31
433.844	509.31
434.066	504.31
434.287	528.31
434.509	510.31
434.731	546.31
434.953	555.31
435.175	556.31
435.397	586.31
435.618	591.31
435.84	607.31
436.062	682.31
436.284	784.31
436.505	620.31
436.727	613.31
436.949	550.31
437.17	560.31
437.392	554.31
437.614	566.31
437.835	571.31
438.057	655.31
438.278	751.31
438.5	749.31
438.721	846.31
438.943	823.31
439.165	652.31
439.386	557.31
439.608	582.31
439.829	583.31
440.05	589.31
440.272	673.31
440.493	609.31
440.715	573.31
440.936	565.31
441.158	534.31
441.379	546.31
441.6	566.31
441.822	558.31
442.043	637.31
442.264	701.31
442.486	735.31
442.707	642.31
442.928	587.31
443.149	598.31
443.371	600.31
443.592	647.31
443.813	730.31
444.034	826.31
444.255	688.31
444.476	633.31
444.698	633.31
444.919	638.31
445.14	721.31
445.361	677.31
445.582	637.31
445.803	682.31
446.024	774.31
446.245	768.31
446.466	684.31
446.687	638.31
446.908	587.31
447.129	552.31
447.35	543.31
447.571	526.31
447.792	538.31
448.013	514.31
448.234	545.31
448.455	568.31
448.675	689.31
448.896	797.31
449.117	708.31
449.338	650.31
449.559	741.31
449.779	872.31
450	693.31
450.221	591.31
450.442	535.31
450.662	528.31
450.883	504.31
451.104	524.31
451.324	520.31
451.545	524.31
451.766	501.31
451.986	490.31
452.207	473.31
452.428	474.31
452.648	466.31
452.869	505.31
453.089	474.31
453.31	498.31
453.53	466.31
453.751	474.31
453.971	466.31
454.192	470.31
454.412	467.31
454.633	470.31
454.853	468.31
455.073	474.31
455.294	499.31
455.514	564.31
455.734	538.31
455.955	486.31
456.175	440.31
456.395	463.31
456.616	456.31
456.836	442.31
457.056	448.31
457.276	446.31
457.497	472.31
457.717	465.31
457.937	481.31
458.157	474.31
458.377	484.31
458.598	491.31
458.818	517.31
459.038	605.31
459.258	618.31
459.478	556.31
459.698	525.31
459.918	526.31
460.138	521.31
460.358	547.31
460.578	531.31
460.798	546.31
461.018	520.31
461.238	547.31
461.458	542.31
461.678	531.31
461.898	540.31
462.118	530.31
462.338	569.31
462.558	560.31
462.777	575.31
462.997	602.31
463.217	605.31
463.437	606.31
463.657	592.31
463.876	597.31
464.096	586.31
464.316	584.31
464.536	585.31
464.755	576.31
464.975	578.31
465.195	591.31
465.414	631.31
465.634	577.31
465.854	550.31
466.073	530.31
466.293	512.31
466.512	513.31
466.732	489.31
466.951	483.31
467.171	494.31
467.391	492.31
467.61	497.31
467.829	492.31
468.049	496.31
468.268	501.31
468.488	487.31
468.707	503.31
468.927	501.31
469.146	469.31
469.365	474.31
469.585	480.31
469.804	502.31
470.023	496.31
470.243	503.31
470.462	512.31
470.681	508.31
470.901	530.31
471.12	495.31
471.339	525.31
471.558	504.31
471.777	490.31
471.997	487.31
472.216	513.31
472.435	518.31
472.654	512.31
472.873	476.31
473.092	471.31
473.311	491.31
473.53	525.31
473.749	517.31
473.968	534.31
474.187	620.31
474.406	653.31
474.625	538.31
474.844	508.31
475.063	480.31
475.282	485.31
475.501	500.31
475.72	514.31
475.939	487.31
476.158	500.31
476.377	522.31
476.596	501.31
476.814	524.31
477.033	523.31
477.252	527.31
477.471	538.31
477.69	538.31
477.908	575.31
478.127	561.31
478.346	543.31
478.564	530.31
478.783	565.31
479.002	560.31
479.22	568.31
479.439	588.31
479.658	588.31
479.876	585.31
480.095	614.31
480.313	629.31
480.532	618.31
480.751	621.31
480.969	614.31
481.188	680.31
481.406	665.31
481.624	641.31
481.843	600.31
482.061	586.31
482.28	592.31
482.498	600.31
482.717	576.31
482.935	586.31
483.153	562.31
483.372	571.31
483.59	575.31
483.808	568.31
484.027	575.31
484.245	594.31
484.463	571.31
484.681	581.31
484.9	589.31
485.118	578.31
485.336	577.31
485.554	591.31
485.772	603.31
485.99	581.31
486.209	591.31
486.427	586.31
486.645	611.31
486.863	631.31
487.081	604.31
487.299	622.31
487.517	589.31
487.735	611.31
487.953	612.31
488.171	605.31
488.389	624.31
488.607	614.31
488.825	617.31
489.043	621.31
489.261	627.31
489.479	604.31
489.696	618.31
489.914	605.31
490.132	645.31
490.35	654.31
490.568	645.31
490.786	673.31
491.003	666.31
491.221	687.31
491.439	686.31
491.657	686.31
491.874	720.31
492.092	701.31
492.31	726.31
492.527	700.31
492.745	734.31
492.963	706.31
493.18	715.31
493.398	728.31
493.615	717.31
493.833	713.31
494.05	713.31
494.268	730.31
494.485	713.31
494.703	732.31
494.92	716.31
495.138	733.31
495.355	731.31
495.573	733.31
495.79	733.31
496.008	734.31
496.225	726.31
496.442	743.31
496.66	731.31
496.877	743.31
497.094	750.31
497.312	789.31
497.529	745.31
497.746	773.31
497.963	761.31
498.181	796.31
498.398	807.31
498.615	810.31
498.832	851.31
499.049	886.31
499.267	884.31
499.484	965.31
499.701	998.31
499.918	1044.31
500.135	1090.31
500.352	1113.31
500.569	1188.31
500.786	1206.31
501.003	1192.31
501.22	1118.31
501.437	1068.31
501.654	995.31
