Data from 1976.PennyLincolnUp.Lamp.En5.5.200Scan.071719.P1.Changed Mount._HRD10591_16-02-26-866.txt Node
Date: Thu Jul 18 16:02:26 EDT 2019
User: cochatt
Spectrometer: HR+D1059
Trigger mode: 1
Integration Time (sec): 1.000000E-1
Scans to average: 1
Electric dark correction enabled: true
Nonlinearity correction enabled: false
Boxcar width: 0
XAxis mode: Wavelengths
Number of Pixels in Spectrum: 2048
>>>>>Begin Spectral Data<<<<<
223.165	-29.12
223.4	-29.12
223.635	-29.12
223.869	-23.12
224.104	-10.12
224.338	-26.12
224.573	-13.12
224.808	-9.12
225.042	3.88
225.277	9.88
225.511	-7.12
225.746	-2.12
225.98	12.88
226.215	13.88
226.449	24.88
226.683	9.88
226.918	26.88
227.152	17.88
227.387	40.88
227.621	41.88
227.856	45.88
228.09	57.88
228.324	38.88
228.559	50.88
228.793	72.88
229.027	83.88
229.262	112.88
229.496	104.88
229.73	136.88
229.964	165.88
230.199	145.88
230.433	126.88
230.667	125.88
230.901	125.88
231.136	114.88
231.37	112.88
231.604	128.88
231.838	114.88
232.072	123.88
232.306	121.88
232.541	122.88
232.775	126.88
233.009	134.88
233.243	124.88
233.477	106.88
233.711	116.88
233.945	123.88
234.179	134.88
234.413	139.88
234.647	127.88
234.881	123.88
235.115	113.88
235.349	127.88
235.583	127.88
235.817	122.88
236.051	133.88
236.285	135.88
236.519	123.88
236.753	141.88
236.987	135.88
237.221	183.88
237.455	250.88
237.689	201.88
237.922	154.88
238.156	148.88
238.39	150.88
238.624	122.88
238.858	127.88
239.091	126.88
239.325	141.88
239.559	129.88
239.793	141.88
240.027	130.88
240.26	148.88
240.494	158.88
240.728	159.88
240.961	157.88
241.195	152.88
241.429	147.88
241.662	139.88
241.896	131.88
242.13	139.88
242.363	139.88
242.597	139.88
242.83	148.88
243.064	144.88
243.298	154.88
243.531	157.88
243.765	147.88
243.998	158.88
244.232	153.88
244.465	153.88
244.699	151.88
244.932	160.88
245.166	147.88
245.399	141.88
245.633	144.88
245.866	133.88
246.099	154.88
246.333	173.88
246.566	153.88
246.8	175.88
247.033	174.88
247.266	166.88
247.5	185.88
247.733	170.88
247.966	189.88
248.2	172.88
248.433	185.88
248.666	190.88
248.899	204.88
249.133	202.88
249.366	219.88
249.599	207.88
249.832	183.88
250.066	200.88
250.299	174.88
250.532	193.88
250.765	212.88
250.998	218.88
251.231	232.88
251.465	237.88
251.698	204.88
251.931	207.88
252.164	201.88
252.397	210.88
252.63	194.88
252.863	214.88
253.096	219.88
253.329	234.88
253.562	223.88
253.795	233.88
254.028	222.88
254.261	226.88
254.494	229.88
254.727	265.88
254.96	304.88
255.193	281.88
255.426	264.88
255.659	236.88
255.892	229.88
256.124	237.88
256.357	236.88
256.59	230.88
256.823	235.88
257.056	218.88
257.289	224.88
257.521	231.88
257.754	217.88
257.987	201.88
258.22	232.88
258.452	215.88
258.685	203.88
258.918	226.88
259.151	217.88
259.383	235.88
259.616	253.88
259.849	247.88
260.081	248.88
260.314	275.88
260.547	263.88
260.779	251.88
261.012	243.88
261.244	224.88
261.477	239.88
261.71	232.88
261.942	234.88
262.175	225.88
262.407	252.88
262.64	231.88
262.872	239.88
263.105	220.88
263.337	235.88
263.57	240.88
263.802	233.88
264.035	231.88
264.267	221.88
264.499	231.88
264.732	222.88
264.964	232.88
265.197	236.88
265.429	234.88
265.661	237.88
265.894	241.88
266.126	247.88
266.358	245.88
266.591	242.88
266.823	247.88
267.055	263.88
267.287	230.88
267.52	263.88
267.752	243.88
267.984	249.88
268.216	255.88
268.448	249.88
268.681	244.88
268.913	273.88
269.145	258.88
269.377	283.88
269.609	290.88
269.841	288.88
270.073	279.88
270.306	317.88
270.538	358.88
270.77	341.88
271.002	328.88
271.234	306.88
271.466	314.88
271.698	328.88
271.93	338.88
272.162	321.88
272.394	324.88
272.626	336.88
272.858	297.88
273.09	305.88
273.322	302.88
273.553	298.88
273.785	282.88
274.017	298.88
274.249	279.88
274.481	298.88
274.713	282.88
274.945	282.88
275.176	279.88
275.408	289.88
275.64	280.88
275.872	296.88
276.104	285.88
276.335	297.88
276.567	294.88
276.799	317.88
277.031	310.88
277.262	315.88
277.494	339.88
277.726	347.88
277.957	317.88
278.189	294.88
278.421	287.88
278.652	290.88
278.884	282.88
279.115	291.88
279.347	314.88
279.579	306.88
279.81	298.88
280.042	293.88
280.273	289.88
280.505	312.88
280.736	288.88
280.968	286.88
281.199	305.88
281.431	301.88
281.662	287.88
281.894	293.88
282.125	291.88
282.356	312.88
282.588	314.88
282.819	312.88
283.051	305.88
283.282	305.88
283.513	314.88
283.745	296.88
283.976	280.88
284.207	317.88
284.439	307.88
284.67	309.88
284.901	304.88
285.132	318.88
285.364	304.88
285.595	316.88
285.826	313.88
286.057	305.88
286.288	316.88
286.52	291.88
286.751	303.88
286.982	314.88
287.213	305.88
287.444	293.88
287.675	323.88
287.906	317.88
288.138	327.88
288.369	309.88
288.6	341.88
288.831	340.88
289.062	326.88
289.293	329.88
289.524	321.88
289.755	327.88
289.986	323.88
290.217	313.88
290.448	303.88
290.679	329.88
290.91	327.88
291.141	314.88
291.371	305.88
291.602	301.88
291.833	334.88
292.064	323.88
292.295	302.88
292.526	314.88
292.757	323.88
292.987	306.88
293.218	307.88
293.449	317.88
293.68	322.88
293.91	305.88
294.141	314.88
294.372	324.88
294.603	328.88
294.833	327.88
295.064	335.88
295.295	319.88
295.525	322.88
295.756	323.88
295.987	354.88
296.217	349.88
296.448	343.88
296.679	344.88
296.909	318.88
297.14	326.88
297.37	343.88
297.601	334.88
297.831	323.88
298.062	339.88
298.292	328.88
298.523	331.88
298.753	335.88
298.984	346.88
299.214	339.88
299.445	354.88
299.675	318.88
299.905	339.88
300.136	335.88
300.366	348.88
300.597	346.88
300.827	345.88
301.057	333.88
301.288	354.88
301.518	362.88
301.748	361.88
301.979	355.88
302.209	362.88
302.439	349.88
302.669	351.88
302.9	359.88
303.13	374.88
303.36	356.88
303.59	389.88
303.82	367.88
304.051	377.88
304.281	350.88
304.511	358.88
304.741	353.88
304.971	367.88
305.201	358.88
305.431	366.88
305.661	370.88
305.891	358.88
306.121	357.88
306.352	370.88
306.582	357.88
306.812	357.88
307.042	351.88
307.272	353.88
307.502	353.88
307.731	356.88
307.961	370.88
308.191	363.88
308.421	368.88
308.651	349.88
308.881	361.88
309.111	387.88
309.341	372.88
309.571	387.88
309.8	390.88
310.03	403.88
310.26	400.88
310.49	396.88
310.72	393.88
310.949	425.88
311.179	423.88
311.409	394.88
311.639	383.88
311.868	399.88
312.098	402.88
312.328	406.88
312.557	418.88
312.787	450.88
313.017	408.88
313.246	424.88
313.476	394.88
313.706	407.88
313.935	414.88
314.165	407.88
314.394	427.88
314.624	428.88
314.853	432.88
315.083	403.88
315.312	398.88
315.542	397.88
315.771	430.88
316.001	398.88
316.23	401.88
316.46	402.88
316.689	389.88
316.919	409.88
317.148	421.88
317.377	422.88
317.607	413.88
317.836	399.88
318.065	421.88
318.295	391.88
318.524	393.88
318.753	378.88
318.983	397.88
319.212	405.88
319.441	417.88
319.67	422.88
319.9	401.88
320.129	422.88
320.358	388.88
320.587	410.88
320.816	401.88
321.046	431.88
321.275	427.88
321.504	426.88
321.733	426.88
321.962	418.88
322.191	441.88
322.42	429.88
322.649	470.88
322.878	441.88
323.108	459.88
323.337	484.88
323.566	517.88
323.795	517.88
324.024	554.88
324.253	651.88
324.482	921.88
324.71	1394.88
324.939	2063.88
325.168	1806.88
325.397	920.88
325.626	615.88
325.855	558.88
326.084	516.88
326.313	515.88
326.542	506.88
326.77	528.88
326.999	633.88
327.228	834.88
327.457	1271.88
327.686	1560.88
327.914	1025.88
328.143	664.88
328.372	585.88
328.6	603.88
328.829	573.88
329.058	546.88
329.287	563.88
329.515	543.88
329.744	521.88
329.972	510.88
330.201	538.88
330.43	578.88
330.658	588.88
330.887	606.88
331.115	586.88
331.344	530.88
331.572	517.88
331.801	523.88
332.03	525.88
332.258	506.88
332.486	487.88
332.715	477.88
332.943	489.88
333.172	485.88
333.4	483.88
333.629	503.88
333.857	519.88
334.085	532.88
334.314	540.88
334.542	550.88
334.771	571.88
334.999	538.88
335.227	496.88
335.455	505.88
335.684	477.88
335.912	480.88
336.14	502.88
336.369	493.88
336.597	487.88
336.825	497.88
337.053	475.88
337.281	497.88
337.51	474.88
337.738	469.88
337.966	471.88
338.194	475.88
338.422	462.88
338.65	464.88
338.878	465.88
339.106	465.88
339.334	482.88
339.562	437.88
339.79	473.88
340.018	452.88
340.246	485.88
340.474	464.88
340.702	450.88
340.93	454.88
341.158	458.88
341.386	465.88
341.614	448.88
341.842	443.88
342.07	477.88
342.298	459.88
342.526	453.88
342.754	450.88
342.981	433.88
343.209	438.88
343.437	448.88
343.665	446.88
343.893	467.88
344.12	488.88
344.348	490.88
344.576	501.88
344.804	469.88
345.031	479.88
345.259	473.88
345.487	456.88
345.714	456.88
345.942	464.88
346.17	428.88
346.397	439.88
346.625	419.88
346.853	428.88
347.08	423.88
347.308	431.88
347.535	441.88
347.763	457.88
347.99	444.88
348.218	464.88
348.445	449.88
348.673	459.88
348.9	458.88
349.128	453.88
349.355	434.88
349.583	415.88
349.81	439.88
350.037	426.88
350.265	426.88
350.492	437.88
350.72	428.88
350.947	434.88
351.174	434.88
351.402	425.88
351.629	434.88
351.856	441.88
352.083	467.88
352.311	431.88
352.538	451.88
352.765	449.88
352.992	434.88
353.22	447.88
353.447	442.88
353.674	438.88
353.901	415.88
354.128	411.88
354.355	429.88
354.583	432.88
354.81	427.88
355.037	416.88
355.264	421.88
355.491	405.88
355.718	401.88
355.945	416.88
356.172	404.88
356.399	392.88
356.626	410.88
356.853	425.88
357.08	414.88
357.307	407.88
357.534	409.88
357.761	414.88
357.988	421.88
358.215	437.88
358.441	426.88
358.668	423.88
358.895	422.88
359.122	430.88
359.349	415.88
359.576	447.88
359.802	462.88
360.029	465.88
360.256	475.88
360.483	477.88
360.709	453.88
360.936	434.88
361.163	426.88
361.39	430.88
361.616	444.88
361.843	429.88
362.07	432.88
362.296	434.88
362.523	446.88
362.749	451.88
362.976	424.88
363.203	445.88
363.429	402.88
363.656	424.88
363.882	427.88
364.109	409.88
364.335	413.88
364.562	423.88
364.788	425.88
365.015	418.88
365.241	418.88
365.468	442.88
365.694	409.88
365.92	439.88
366.147	420.88
366.373	430.88
366.599	425.88
366.826	417.88
367.052	412.88
367.278	414.88
367.505	415.88
367.731	422.88
367.957	404.88
368.184	404.88
368.41	423.88
368.636	427.88
368.862	418.88
369.089	425.88
369.315	418.88
369.541	399.88
369.767	411.88
369.993	410.88
370.219	422.88
370.445	409.88
370.672	419.88
370.898	423.88
371.124	421.88
371.35	447.88
371.576	425.88
371.802	428.88
372.028	410.88
372.254	424.88
372.48	415.88
372.706	402.88
372.932	425.88
373.158	430.88
373.384	439.88
373.61	433.88
373.835	429.88
374.061	429.88
374.287	428.88
374.513	429.88
374.739	423.88
374.965	443.88
375.191	434.88
375.416	433.88
375.642	434.88
375.868	434.88
376.094	430.88
376.319	424.88
376.545	425.88
376.771	423.88
376.997	440.88
377.222	437.88
377.448	435.88
377.674	422.88
377.899	432.88
378.125	417.88
378.35	423.88
378.576	420.88
378.802	422.88
379.027	430.88
379.253	419.88
379.478	425.88
379.704	407.88
379.929	410.88
380.155	409.88
380.38	441.88
380.606	413.88
380.831	416.88
381.057	434.88
381.282	440.88
381.507	434.88
381.733	427.88
381.958	411.88
382.184	445.88
382.409	420.88
382.634	427.88
382.86	462.88
383.085	426.88
383.31	437.88
383.535	449.88
383.761	443.88
383.986	458.88
384.211	457.88
384.436	440.88
384.662	465.88
384.887	448.88
385.112	474.88
385.337	479.88
385.562	491.88
385.787	465.88
386.013	485.88
386.238	487.88
386.463	460.88
386.688	480.88
386.913	453.88
387.138	477.88
387.363	486.88
387.588	453.88
387.813	469.88
388.038	466.88
388.263	471.88
388.488	487.88
388.713	482.88
388.938	471.88
389.163	492.88
389.387	455.88
389.612	458.88
389.837	482.88
390.062	481.88
390.287	474.88
390.512	469.88
390.736	476.88
390.961	450.88
391.186	482.88
391.411	481.88
391.636	487.88
391.86	501.88
392.085	487.88
392.31	477.88
392.534	485.88
392.759	489.88
392.984	473.88
393.208	475.88
393.433	472.88
393.658	478.88
393.882	501.88
394.107	461.88
394.331	478.88
394.556	470.88
394.78	495.88
395.005	460.88
395.229	500.88
395.454	488.88
395.678	501.88
395.903	491.88
396.127	509.88
396.352	515.88
396.576	491.88
396.801	503.88
397.025	502.88
397.249	518.88
397.474	514.88
397.698	518.88
397.922	505.88
398.147	544.88
398.371	537.88
398.595	543.88
398.82	552.88
399.044	552.88
399.268	551.88
399.492	634.88
399.717	673.88
399.941	715.88
400.165	714.88
400.389	711.88
400.613	619.88
400.837	581.88
401.062	570.88
401.286	533.88
401.51	577.88
401.734	545.88
401.958	547.88
402.182	562.88
402.406	565.88
402.63	571.88
402.854	576.88
403.078	568.88
403.302	585.88
403.526	572.88
403.75	588.88
403.974	569.88
404.198	583.88
404.422	585.88
404.645	583.88
404.869	594.88
405.093	610.88
405.317	666.88
405.541	693.88
405.765	643.88
405.988	616.88
406.212	599.88
406.436	622.88
406.66	634.88
406.883	634.88
407.107	637.88
407.331	679.88
407.555	750.88
407.778	733.88
408.002	702.88
408.226	673.88
408.449	624.88
408.673	628.88
408.896	645.88
409.12	689.88
409.344	668.88
409.567	600.88
409.791	587.88
410.014	591.88
410.238	581.88
410.461	587.88
410.685	589.88
410.908	577.88
411.132	622.88
411.355	648.88
411.578	635.88
411.802	593.88
412.025	573.88
412.249	582.88
412.472	616.88
412.695	637.88
412.919	623.88
413.142	562.88
413.365	574.88
413.589	574.88
413.812	569.88
414.035	534.88
414.258	559.88
414.482	535.88
414.705	531.88
414.928	510.88
415.151	530.88
415.374	550.88
415.597	539.88
415.821	510.88
416.044	528.88
416.267	550.88
416.49	531.88
416.713	552.88
416.936	554.88
417.159	538.88
417.382	541.88
417.605	568.88
417.828	531.88
418.051	565.88
418.274	531.88
418.497	560.88
418.72	547.88
418.943	552.88
419.166	544.88
419.389	606.88
419.611	597.88
419.834	579.88
420.057	585.88
420.28	573.88
420.503	573.88
420.726	573.88
420.948	572.88
421.171	610.88
421.394	642.88
421.617	570.88
421.839	555.88
422.062	563.88
422.285	576.88
422.507	643.88
422.73	710.88
422.953	675.88
423.175	621.88
423.398	569.88
423.621	593.88
423.843	619.88
424.066	620.88
424.288	620.88
424.511	609.88
424.733	695.88
424.956	751.88
425.178	723.88
425.401	709.88
425.623	751.88
425.846	659.88
426.068	589.88
426.291	601.88
426.513	587.88
426.735	577.88
426.958	647.88
427.18	721.88
427.402	843.88
427.625	923.88
427.847	780.88
428.069	706.88
428.292	639.88
428.514	593.88
428.736	549.88
428.958	562.88
429.181	523.88
429.403	535.88
429.625	541.88
429.847	583.88
430.069	649.88
430.292	657.88
430.514	566.88
430.736	541.88
430.958	531.88
431.18	505.88
431.402	527.88
431.624	507.88
431.846	526.88
432.068	504.88
432.29	521.88
432.512	506.88
432.734	536.88
432.956	542.88
433.178	561.88
433.4	540.88
433.622	532.88
433.844	524.88
434.066	501.88
434.287	518.88
434.509	530.88
434.731	528.88
434.953	547.88
435.175	569.88
435.397	593.88
435.618	571.88
435.84	629.88
436.062	722.88
436.284	786.88
436.505	657.88
436.727	604.88
436.949	569.88
437.17	554.88
437.392	576.88
437.614	559.88
437.835	605.88
438.057	700.88
438.278	800.88
438.5	788.88
438.721	877.88
438.943	811.88
439.165	657.88
439.386	601.88
439.608	593.88
439.829	592.88
440.05	623.88
440.272	659.88
440.493	642.88
440.715	587.88
440.936	589.88
441.158	551.88
441.379	532.88
441.6	578.88
441.822	573.88
442.043	613.88
442.264	701.88
442.486	760.88
442.707	660.88
442.928	593.88
443.149	602.88
443.371	641.88
443.592	683.88
443.813	783.88
444.034	847.88
444.255	707.88
444.476	655.88
444.698	621.88
444.919	609.88
445.14	709.88
445.361	657.88
445.582	641.88
445.803	727.88
446.024	799.88
446.245	825.88
446.466	720.88
446.687	623.88
446.908	607.88
447.129	562.88
447.35	558.88
447.571	540.88
447.792	545.88
448.013	561.88
448.234	576.88
448.455	605.88
448.675	713.88
448.896	858.88
449.117	730.88
449.338	652.88
449.559	787.88
449.779	887.88
450	716.88
450.221	606.88
450.442	569.88
450.662	535.88
450.883	529.88
451.104	535.88
451.324	537.88
451.545	527.88
451.766	507.88
451.986	499.88
452.207	463.88
452.428	477.88
452.648	491.88
452.869	465.88
453.089	488.88
453.31	501.88
453.53	496.88
453.751	488.88
453.971	475.88
454.192	485.88
454.412	490.88
454.633	474.88
454.853	489.88
455.073	472.88
455.294	507.88
455.514	580.88
455.734	569.88
455.955	495.88
456.175	473.88
456.395	456.88
456.616	457.88
456.836	457.88
457.056	446.88
457.276	448.88
457.497	449.88
457.717	471.88
457.937	455.88
458.157	484.88
458.377	490.88
458.598	492.88
458.818	549.88
459.038	607.88
459.258	631.88
459.478	560.88
459.698	523.88
459.918	529.88
460.138	507.88
460.358	559.88
460.578	525.88
460.798	533.88
461.018	562.88
461.238	554.88
461.458	533.88
461.678	514.88
461.898	561.88
462.118	560.88
462.338	542.88
462.558	568.88
462.777	579.88
462.997	576.88
463.217	637.88
463.437	616.88
463.657	616.88
463.876	613.88
464.096	601.88
464.316	561.88
464.536	600.88
464.755	594.88
464.975	598.88
465.195	593.88
465.414	626.88
465.634	596.88
465.854	549.88
466.073	547.88
466.293	533.88
466.512	494.88
466.732	503.88
466.951	502.88
467.171	498.88
467.391	497.88
467.61	522.88
467.829	511.88
468.049	519.88
468.268	501.88
468.488	482.88
468.707	481.88
468.927	480.88
469.146	467.88
469.365	489.88
469.585	487.88
469.804	503.88
470.023	539.88
470.243	504.88
470.462	507.88
470.681	551.88
470.901	511.88
471.12	525.88
471.339	527.88
471.558	526.88
471.777	514.88
471.997	507.88
472.216	490.88
472.435	533.88
472.654	531.88
472.873	490.88
473.092	491.88
473.311	501.88
473.53	484.88
473.749	496.88
473.968	551.88
474.187	655.88
474.406	659.88
474.625	560.88
474.844	528.88
475.063	510.88
475.282	524.88
475.501	514.88
475.72	533.88
475.939	500.88
476.158	523.88
476.377	531.88
476.596	533.88
476.814	537.88
477.033	522.88
477.252	545.88
477.471	527.88
477.69	541.88
477.908	535.88
478.127	574.88
478.346	554.88
478.564	559.88
478.783	577.88
479.002	577.88
479.22	577.88
479.439	605.88
479.658	607.88
479.876	613.88
480.095	620.88
480.313	640.88
480.532	629.88
480.751	632.88
480.969	644.88
481.188	671.88
481.406	722.88
481.624	633.88
481.843	608.88
482.061	608.88
482.28	584.88
482.498	591.88
482.717	578.88
482.935	602.88
483.153	601.88
483.372	582.88
483.59	565.88
483.808	587.88
484.027	574.88
484.245	600.88
484.463	603.88
484.681	593.88
484.9	592.88
485.118	602.88
485.336	598.88
485.554	599.88
485.772	612.88
485.99	627.88
486.209	593.88
486.427	601.88
486.645	629.88
486.863	642.88
487.081	634.88
487.299	647.88
487.517	632.88
487.735	637.88
487.953	623.88
488.171	639.88
488.389	616.88
488.607	618.88
488.825	620.88
489.043	653.88
489.261	634.88
489.479	633.88
489.696	636.88
489.914	654.88
490.132	659.88
490.35	648.88
490.568	635.88
490.786	664.88
491.003	705.88
491.221	687.88
491.439	702.88
491.657	694.88
491.874	718.88
492.092	699.88
492.31	734.88
492.527	721.88
492.745	733.88
492.963	724.88
493.18	711.88
493.398	757.88
493.615	741.88
493.833	706.88
494.05	738.88
494.268	735.88
494.485	735.88
494.703	744.88
494.92	743.88
495.138	744.88
495.355	735.88
495.573	755.88
495.79	737.88
496.008	753.88
496.225	730.88
496.442	719.88
496.66	733.88
496.877	759.88
497.094	750.88
497.312	759.88
497.529	781.88
497.746	791.88
497.963	806.88
498.181	846.88
498.398	833.88
498.615	851.88
498.832	857.88
499.049	877.88
499.267	907.88
499.484	954.88
499.701	1021.88
499.918	1065.88
500.135	1098.88
500.352	1148.88
500.569	1169.88
500.786	1183.88
501.003	1154.88
501.22	1095.88
501.437	1032.88
501.654	1005.88
