Data from 1976.PennyLincolnUp.Lamp.En5.5.200Scan.071719.P1.Changed Mount._HRD10591_16-01-21-865.txt Node
Date: Thu Jul 18 16:01:21 EDT 2019
User: cochatt
Spectrometer: HR+D1059
Trigger mode: 1
Integration Time (sec): 1.000000E-1
Scans to average: 1
Electric dark correction enabled: true
Nonlinearity correction enabled: false
Boxcar width: 0
XAxis mode: Wavelengths
Number of Pixels in Spectrum: 2048
>>>>>Begin Spectral Data<<<<<
223.165	-15.88
223.4	-15.88
223.635	-15.88
223.869	-17.88
224.104	-21.88
224.338	-4.88
224.573	-16.88
224.808	2.12
225.042	-11.88
225.277	-19.88
225.511	-10.88
225.746	-2.88
225.98	8.12
226.215	19.12
226.449	11.12
226.683	33.12
226.918	20.12
227.152	29.12
227.387	18.12
227.621	47.12
227.856	53.12
228.09	44.12
228.324	52.12
228.559	42.12
228.793	66.12
229.027	94.12
229.262	115.12
229.496	122.12
229.73	130.12
229.964	145.12
230.199	133.12
230.433	124.12
230.667	115.12
230.901	113.12
231.136	108.12
231.37	119.12
231.604	102.12
231.838	116.12
232.072	102.12
232.306	108.12
232.541	115.12
232.775	112.12
233.009	118.12
233.243	114.12
233.477	132.12
233.711	124.12
233.945	122.12
234.179	118.12
234.413	108.12
234.647	128.12
234.881	116.12
235.115	129.12
235.349	124.12
235.583	124.12
235.817	118.12
236.051	122.12
236.285	117.12
236.519	126.12
236.753	130.12
236.987	136.12
237.221	167.12
237.455	209.12
237.689	163.12
237.922	150.12
238.156	119.12
238.39	136.12
238.624	115.12
238.858	108.12
239.091	116.12
239.325	114.12
239.559	130.12
239.793	127.12
240.027	136.12
240.26	123.12
240.494	142.12
240.728	146.12
240.961	149.12
241.195	128.12
241.429	132.12
241.662	135.12
241.896	120.12
242.13	134.12
242.363	130.12
242.597	152.12
242.83	135.12
243.064	134.12
243.298	144.12
243.531	146.12
243.765	146.12
243.998	133.12
244.232	136.12
244.465	139.12
244.699	131.12
244.932	161.12
245.166	157.12
245.399	142.12
245.633	148.12
245.866	148.12
246.099	136.12
246.333	152.12
246.566	158.12
246.8	165.12
247.033	162.12
247.266	158.12
247.5	169.12
247.733	173.12
247.966	180.12
248.2	175.12
248.433	173.12
248.666	168.12
248.899	183.12
249.133	201.12
249.366	213.12
249.599	186.12
249.832	178.12
250.066	164.12
250.299	186.12
250.532	180.12
250.765	197.12
250.998	207.12
251.231	221.12
251.465	202.12
251.698	210.12
251.931	206.12
252.164	199.12
252.397	197.12
252.63	205.12
252.863	213.12
253.096	204.12
253.329	222.12
253.562	216.12
253.795	229.12
254.028	205.12
254.261	219.12
254.494	212.12
254.727	222.12
254.96	269.12
255.193	255.12
255.426	239.12
255.659	228.12
255.892	236.12
256.124	220.12
256.357	221.12
256.59	222.12
256.823	207.12
257.056	232.12
257.289	197.12
257.521	205.12
257.754	214.12
257.987	222.12
258.22	217.12
258.452	214.12
258.685	208.12
258.918	219.12
259.151	205.12
259.383	227.12
259.616	202.12
259.849	218.12
260.081	233.12
260.314	250.12
260.547	260.12
260.779	225.12
261.012	236.12
261.244	234.12
261.477	222.12
261.71	224.12
261.942	226.12
262.175	221.12
262.407	240.12
262.64	215.12
262.872	214.12
263.105	224.12
263.337	219.12
263.57	205.12
263.802	213.12
264.035	209.12
264.267	226.12
264.499	211.12
264.732	220.12
264.964	219.12
265.197	214.12
265.429	215.12
265.661	231.12
265.894	230.12
266.126	215.12
266.358	227.12
266.591	215.12
266.823	224.12
267.055	230.12
267.287	208.12
267.52	231.12
267.752	234.12
267.984	223.12
268.216	235.12
268.448	251.12
268.681	244.12
268.913	248.12
269.145	267.12
269.377	292.12
269.609	282.12
269.841	279.12
270.073	261.12
270.306	278.12
270.538	308.12
270.77	300.12
271.002	273.12
271.234	315.12
271.466	305.12
271.698	322.12
271.93	317.12
272.162	314.12
272.394	318.12
272.626	289.12
272.858	280.12
273.09	284.12
273.322	278.12
273.553	260.12
273.785	266.12
274.017	250.12
274.249	272.12
274.481	276.12
274.713	260.12
274.945	273.12
275.176	281.12
275.408	282.12
275.64	269.12
275.872	268.12
276.104	269.12
276.335	280.12
276.567	292.12
276.799	298.12
277.031	301.12
277.262	318.12
277.494	316.12
277.726	294.12
277.957	285.12
278.189	278.12
278.421	295.12
278.652	285.12
278.884	284.12
279.115	294.12
279.347	277.12
279.579	267.12
279.81	276.12
280.042	271.12
280.273	273.12
280.505	290.12
280.736	281.12
280.968	292.12
281.199	270.12
281.431	285.12
281.662	278.12
281.894	280.12
282.125	288.12
282.356	297.12
282.588	304.12
282.819	290.12
283.051	294.12
283.282	281.12
283.513	298.12
283.745	281.12
283.976	292.12
284.207	288.12
284.439	302.12
284.67	283.12
284.901	269.12
285.132	277.12
285.364	281.12
285.595	281.12
285.826	292.12
286.057	296.12
286.288	292.12
286.52	295.12
286.751	270.12
286.982	289.12
287.213	283.12
287.444	308.12
287.675	304.12
287.906	308.12
288.138	316.12
288.369	319.12
288.6	306.12
288.831	314.12
289.062	301.12
289.293	290.12
289.524	306.12
289.755	311.12
289.986	303.12
290.217	299.12
290.448	319.12
290.679	302.12
290.91	312.12
291.141	290.12
291.371	295.12
291.602	307.12
291.833	312.12
292.064	292.12
292.295	324.12
292.526	312.12
292.757	296.12
292.987	306.12
293.218	312.12
293.449	305.12
293.68	308.12
293.91	341.12
294.141	296.12
294.372	311.12
294.603	306.12
294.833	312.12
295.064	299.12
295.295	304.12
295.525	286.12
295.756	319.12
295.987	327.12
296.217	334.12
296.448	356.12
296.679	316.12
296.909	327.12
297.14	317.12
297.37	316.12
297.601	321.12
297.831	317.12
298.062	328.12
298.292	330.12
298.523	321.12
298.753	316.12
298.984	318.12
299.214	327.12
299.445	318.12
299.675	325.12
299.905	311.12
300.136	332.12
300.366	318.12
300.597	332.12
300.827	314.12
301.057	329.12
301.288	341.12
301.518	348.12
301.748	350.12
301.979	345.12
302.209	328.12
302.439	341.12
302.669	346.12
302.9	358.12
303.13	338.12
303.36	346.12
303.59	357.12
303.82	356.12
304.051	354.12
304.281	351.12
304.511	334.12
304.741	347.12
304.971	345.12
305.201	353.12
305.431	336.12
305.661	327.12
305.891	310.12
306.121	358.12
306.352	349.12
306.582	341.12
306.812	328.12
307.042	342.12
307.272	336.12
307.502	340.12
307.731	347.12
307.961	341.12
308.191	350.12
308.421	346.12
308.651	350.12
308.881	342.12
309.111	352.12
309.341	330.12
309.571	352.12
309.8	361.12
310.03	362.12
310.26	387.12
310.49	350.12
310.72	381.12
310.949	392.12
311.179	406.12
311.409	389.12
311.639	375.12
311.868	376.12
312.098	364.12
312.328	382.12
312.557	406.12
312.787	412.12
313.017	400.12
313.246	397.12
313.476	382.12
313.706	380.12
313.935	388.12
314.165	401.12
314.394	401.12
314.624	400.12
314.853	381.12
315.083	389.12
315.312	393.12
315.542	391.12
315.771	385.12
316.001	380.12
316.23	369.12
316.46	386.12
316.689	392.12
316.919	375.12
317.148	396.12
317.377	415.12
317.607	393.12
317.836	381.12
318.065	370.12
318.295	399.12
318.524	377.12
318.753	406.12
318.983	383.12
319.212	392.12
319.441	377.12
319.67	384.12
319.9	374.12
320.129	382.12
320.358	395.12
320.587	400.12
320.816	410.12
321.046	393.12
321.275	394.12
321.504	384.12
321.733	402.12
321.962	418.12
322.191	416.12
322.42	417.12
322.649	434.12
322.878	442.12
323.108	454.12
323.337	442.12
323.566	473.12
323.795	500.12
324.024	510.12
324.253	604.12
324.482	809.12
324.71	1237.12
324.939	1847.12
325.168	1602.12
325.397	842.12
325.626	611.12
325.855	510.12
326.084	486.12
326.313	464.12
326.542	456.12
326.77	509.12
326.999	584.12
327.228	774.12
327.457	1114.12
327.686	1420.12
327.914	958.12
328.143	636.12
328.372	571.12
328.6	548.12
328.829	504.12
329.058	533.12
329.287	542.12
329.515	521.12
329.744	500.12
329.972	486.12
330.201	534.12
330.43	543.12
330.658	556.12
330.887	548.12
331.115	572.12
331.344	494.12
331.572	473.12
331.801	469.12
332.03	485.12
332.258	475.12
332.486	448.12
332.715	459.12
332.943	436.12
333.172	477.12
333.4	476.12
333.629	488.12
333.857	487.12
334.085	497.12
334.314	520.12
334.542	541.12
334.771	544.12
334.999	513.12
335.227	476.12
335.455	489.12
335.684	470.12
335.912	458.12
336.14	458.12
336.369	453.12
336.597	460.12
336.825	454.12
337.053	447.12
337.281	436.12
337.51	459.12
337.738	446.12
337.966	451.12
338.194	482.12
338.422	437.12
338.65	429.12
338.878	427.12
339.106	459.12
339.334	436.12
339.562	436.12
339.79	444.12
340.018	436.12
340.246	425.12
340.474	443.12
340.702	456.12
340.93	423.12
341.158	440.12
341.386	439.12
341.614	452.12
341.842	432.12
342.07	418.12
342.298	435.12
342.526	406.12
342.754	434.12
342.981	429.12
343.209	411.12
343.437	418.12
343.665	451.12
343.893	463.12
344.12	444.12
344.348	448.12
344.576	451.12
344.804	461.12
345.031	447.12
345.259	422.12
345.487	452.12
345.714	429.12
345.942	425.12
346.17	425.12
346.397	430.12
346.625	418.12
346.853	419.12
347.08	426.12
347.308	416.12
347.535	439.12
347.763	433.12
347.99	423.12
348.218	431.12
348.445	423.12
348.673	431.12
348.9	435.12
349.128	418.12
349.355	398.12
349.583	408.12
349.81	406.12
350.037	421.12
350.265	396.12
350.492	423.12
350.72	406.12
350.947	406.12
351.174	387.12
351.402	430.12
351.629	418.12
351.856	409.12
352.083	412.12
352.311	423.12
352.538	422.12
352.765	440.12
352.992	430.12
353.22	414.12
353.447	416.12
353.674	410.12
353.901	412.12
354.128	415.12
354.355	410.12
354.583	416.12
354.81	406.12
355.037	391.12
355.264	395.12
355.491	398.12
355.718	399.12
355.945	384.12
356.172	412.12
356.399	408.12
356.626	401.12
356.853	402.12
357.08	404.12
357.307	397.12
357.534	380.12
357.761	412.12
357.988	398.12
358.215	402.12
358.441	404.12
358.668	383.12
358.895	400.12
359.122	412.12
359.349	415.12
359.576	420.12
359.802	432.12
360.029	440.12
360.256	448.12
360.483	444.12
360.709	415.12
360.936	427.12
361.163	399.12
361.39	412.12
361.616	431.12
361.843	418.12
362.07	410.12
362.296	430.12
362.523	416.12
362.749	405.12
362.976	418.12
363.203	392.12
363.429	393.12
363.656	420.12
363.882	412.12
364.109	400.12
364.335	395.12
364.562	413.12
364.788	413.12
365.015	396.12
365.241	400.12
365.468	407.12
365.694	395.12
365.92	414.12
366.147	406.12
366.373	404.12
366.599	396.12
366.826	409.12
367.052	393.12
367.278	399.12
367.505	391.12
367.731	415.12
367.957	389.12
368.184	396.12
368.41	400.12
368.636	410.12
368.862	427.12
369.089	418.12
369.315	379.12
369.541	394.12
369.767	401.12
369.993	409.12
370.219	411.12
370.445	420.12
370.672	422.12
370.898	404.12
371.124	413.12
371.35	393.12
371.576	413.12
371.802	422.12
372.028	412.12
372.254	410.12
372.48	413.12
372.706	426.12
372.932	422.12
373.158	406.12
373.384	419.12
373.61	427.12
373.835	404.12
374.061	416.12
374.287	399.12
374.513	414.12
374.739	428.12
374.965	430.12
375.191	411.12
375.416	440.12
375.642	403.12
375.868	423.12
376.094	421.12
376.319	404.12
376.545	425.12
376.771	426.12
376.997	393.12
377.222	405.12
377.448	401.12
377.674	415.12
377.899	416.12
378.125	392.12
378.35	394.12
378.576	417.12
378.802	406.12
379.027	420.12
379.253	417.12
379.478	404.12
379.704	410.12
379.929	412.12
380.155	396.12
380.38	410.12
380.606	428.12
380.831	424.12
381.057	409.12
381.282	399.12
381.507	404.12
381.733	411.12
381.958	415.12
382.184	415.12
382.409	413.12
382.634	419.12
382.86	412.12
383.085	408.12
383.31	421.12
383.535	425.12
383.761	447.12
383.986	452.12
384.211	414.12
384.436	442.12
384.662	454.12
384.887	443.12
385.112	431.12
385.337	456.12
385.562	453.12
385.787	432.12
386.013	460.12
386.238	456.12
386.463	446.12
386.688	440.12
386.913	448.12
387.138	436.12
387.363	442.12
387.588	458.12
387.813	469.12
388.038	440.12
388.263	455.12
388.488	454.12
388.713	465.12
388.938	454.12
389.163	476.12
389.387	462.12
389.612	461.12
389.837	464.12
390.062	442.12
390.287	469.12
390.512	434.12
390.736	455.12
390.961	477.12
391.186	458.12
391.411	440.12
391.636	468.12
391.86	500.12
392.085	486.12
392.31	449.12
392.534	473.12
392.759	471.12
392.984	467.12
393.208	452.12
393.433	482.12
393.658	446.12
393.882	463.12
394.107	442.12
394.331	460.12
394.556	462.12
394.78	450.12
395.005	477.12
395.229	460.12
395.454	500.12
395.678	492.12
395.903	456.12
396.127	494.12
396.352	500.12
396.576	470.12
396.801	470.12
397.025	486.12
397.249	488.12
397.474	480.12
397.698	494.12
397.922	509.12
398.147	536.12
398.371	520.12
398.595	531.12
398.82	506.12
399.044	554.12
399.268	571.12
399.492	586.12
399.717	651.12
399.941	653.12
400.165	666.12
400.389	677.12
400.613	628.12
400.837	572.12
401.062	563.12
401.286	544.12
401.51	534.12
401.734	547.12
401.958	556.12
402.182	528.12
402.406	535.12
402.63	532.12
402.854	536.12
403.078	524.12
403.302	547.12
403.526	555.12
403.75	552.12
403.974	574.12
404.198	549.12
404.422	576.12
404.645	564.12
404.869	582.12
405.093	593.12
405.317	622.12
405.541	689.12
405.765	615.12
405.988	572.12
406.212	592.12
406.436	620.12
406.66	618.12
406.883	611.12
407.107	620.12
407.331	665.12
407.555	726.12
407.778	712.12
408.002	663.12
408.226	616.12
408.449	603.12
408.673	606.12
408.896	611.12
409.12	659.12
409.344	630.12
409.567	582.12
409.791	581.12
410.014	566.12
410.238	528.12
410.461	546.12
410.685	560.12
410.908	549.12
411.132	603.12
411.355	620.12
411.578	615.12
411.802	536.12
412.025	542.12
412.249	554.12
412.472	581.12
412.695	619.12
412.919	589.12
413.142	555.12
413.365	546.12
413.589	533.12
413.812	518.12
414.035	527.12
414.258	537.12
414.482	526.12
414.705	516.12
414.928	506.12
415.151	519.12
415.374	504.12
415.597	534.12
415.821	521.12
416.044	521.12
416.267	522.12
416.49	523.12
416.713	509.12
416.936	518.12
417.159	518.12
417.382	526.12
417.605	531.12
417.828	545.12
418.051	538.12
418.274	514.12
418.497	509.12
418.72	516.12
418.943	537.12
419.166	559.12
419.389	591.12
419.611	562.12
419.834	548.12
420.057	559.12
420.28	565.12
420.503	526.12
420.726	530.12
420.948	572.12
421.171	594.12
421.394	597.12
421.617	549.12
421.839	547.12
422.062	560.12
422.285	551.12
422.507	590.12
422.73	684.12
422.953	638.12
423.175	594.12
423.398	542.12
423.621	554.12
423.843	589.12
424.066	599.12
424.288	585.12
424.511	581.12
424.733	639.12
424.956	711.12
425.178	697.12
425.401	668.12
425.623	714.12
425.846	612.12
426.068	562.12
426.291	555.12
426.513	553.12
426.735	579.12
426.958	607.12
427.18	656.12
427.402	808.12
427.625	895.12
427.847	758.12
428.069	682.12
428.292	623.12
428.514	567.12
428.736	551.12
428.958	538.12
429.181	510.12
429.403	530.12
429.625	531.12
429.847	579.12
430.069	600.12
430.292	607.12
430.514	536.12
430.736	527.12
430.958	520.12
431.18	508.12
431.402	496.12
431.624	503.12
431.846	492.12
432.068	510.12
432.29	505.12
432.512	504.12
432.734	510.12
432.956	536.12
433.178	522.12
433.4	502.12
433.622	507.12
433.844	516.12
434.066	494.12
434.287	495.12
434.509	498.12
434.731	521.12
434.953	533.12
435.175	545.12
435.397	573.12
435.618	572.12
435.84	597.12
436.062	691.12
436.284	746.12
436.505	638.12
436.727	563.12
436.949	546.12
437.17	507.12
437.392	518.12
437.614	531.12
437.835	580.12
438.057	642.12
438.278	734.12
438.5	719.12
438.721	803.12
438.943	790.12
439.165	635.12
439.386	586.12
439.608	564.12
439.829	560.12
440.05	586.12
440.272	628.12
440.493	600.12
440.715	548.12
440.936	542.12
441.158	545.12
441.379	543.12
441.6	547.12
441.822	567.12
442.043	602.12
442.264	703.12
442.486	714.12
442.707	647.12
442.928	582.12
443.149	618.12
443.371	604.12
443.592	649.12
443.813	732.12
444.034	778.12
444.255	670.12
444.476	629.12
444.698	606.12
444.919	560.12
445.14	700.12
445.361	656.12
445.582	628.12
445.803	663.12
446.024	781.12
446.245	762.12
446.466	696.12
446.687	611.12
446.908	562.12
447.129	540.12
447.35	544.12
447.571	517.12
447.792	506.12
448.013	522.12
448.234	513.12
448.455	581.12
448.675	691.12
448.896	802.12
449.117	669.12
449.338	642.12
449.559	749.12
449.779	832.12
450	672.12
450.221	596.12
450.442	511.12
450.662	471.12
450.883	511.12
451.104	503.12
451.324	485.12
451.545	499.12
451.766	477.12
451.986	467.12
452.207	478.12
452.428	460.12
452.648	475.12
452.869	451.12
453.089	468.12
453.31	480.12
453.53	468.12
453.751	468.12
453.971	443.12
454.192	495.12
454.412	460.12
454.633	460.12
454.853	445.12
455.073	474.12
455.294	488.12
455.514	549.12
455.734	521.12
455.955	465.12
456.175	455.12
456.395	431.12
456.616	444.12
456.836	455.12
457.056	448.12
457.276	422.12
457.497	428.12
457.717	443.12
457.937	458.12
458.157	436.12
458.377	472.12
458.598	462.12
458.818	506.12
459.038	582.12
459.258	608.12
459.478	538.12
459.698	494.12
459.918	473.12
460.138	510.12
460.358	506.12
460.578	523.12
460.798	534.12
461.018	530.12
461.238	525.12
461.458	512.12
461.678	520.12
461.898	531.12
462.118	513.12
462.338	549.12
462.558	552.12
462.777	574.12
462.997	572.12
463.217	586.12
463.437	598.12
463.657	563.12
463.876	564.12
464.096	566.12
464.316	582.12
464.536	573.12
464.755	574.12
464.975	550.12
465.195	568.12
465.414	624.12
465.634	557.12
465.854	539.12
466.073	517.12
466.293	505.12
466.512	472.12
466.732	485.12
466.951	476.12
467.171	484.12
467.391	488.12
467.61	489.12
467.829	488.12
468.049	504.12
468.268	496.12
468.488	486.12
468.707	467.12
468.927	481.12
469.146	458.12
469.365	486.12
469.585	492.12
469.804	486.12
470.023	494.12
470.243	483.12
470.462	486.12
470.681	505.12
470.901	495.12
471.12	482.12
471.339	494.12
471.558	474.12
471.777	485.12
471.997	489.12
472.216	485.12
472.435	498.12
472.654	509.12
472.873	468.12
473.092	481.12
473.311	478.12
473.53	488.12
473.749	502.12
473.968	534.12
474.187	610.12
474.406	643.12
474.625	534.12
474.844	490.12
475.063	492.12
475.282	487.12
475.501	493.12
475.72	503.12
475.939	498.12
476.158	494.12
476.377	487.12
476.596	494.12
476.814	502.12
477.033	524.12
477.252	526.12
477.471	531.12
477.69	519.12
477.908	531.12
478.127	522.12
478.346	546.12
478.564	547.12
478.783	541.12
479.002	543.12
479.22	566.12
479.439	568.12
479.658	589.12
479.876	571.12
480.095	569.12
480.313	630.12
480.532	631.12
480.751	618.12
480.969	597.12
481.188	631.12
481.406	672.12
481.624	602.12
481.843	582.12
482.061	563.12
482.28	576.12
482.498	587.12
482.717	568.12
482.935	556.12
483.153	554.12
483.372	531.12
483.59	552.12
483.808	568.12
484.027	554.12
484.245	560.12
484.463	551.12
484.681	567.12
484.9	574.12
485.118	574.12
485.336	566.12
485.554	564.12
485.772	597.12
485.99	582.12
486.209	606.12
486.427	575.12
486.645	587.12
486.863	614.12
487.081	586.12
487.299	618.12
487.517	611.12
487.735	600.12
487.953	579.12
488.171	623.12
488.389	606.12
488.607	630.12
488.825	597.12
489.043	606.12
489.261	607.12
489.479	599.12
489.696	607.12
489.914	619.12
490.132	612.12
490.35	621.12
490.568	633.12
490.786	641.12
491.003	651.12
491.221	663.12
491.439	677.12
491.657	685.12
491.874	677.12
492.092	676.12
492.31	700.12
492.527	692.12
492.745	694.12
492.963	716.12
493.18	692.12
493.398	694.12
493.615	683.12
493.833	711.12
494.05	723.12
494.268	693.12
494.485	698.12
494.703	675.12
494.92	696.12
495.138	702.12
495.355	728.12
495.573	696.12
495.79	722.12
496.008	715.12
496.225	712.12
496.442	714.12
496.66	714.12
496.877	732.12
497.094	700.12
497.312	742.12
497.529	740.12
497.746	729.12
497.963	767.12
498.181	794.12
498.398	803.12
498.615	804.12
498.832	846.12
499.049	852.12
499.267	854.12
499.484	888.12
499.701	941.12
499.918	998.12
500.135	1032.12
500.352	1118.12
500.569	1111.12
500.786	1178.12
501.003	1114.12
501.22	1054.12
501.437	1015.12
501.654	984.12
