Data from 1976.PennyLincolnUp.Lamp.En5.5.200Scan.071719.P1.Changed Mount._HRD10591_16-00-01-860.txt Node
Date: Thu Jul 18 16:00:01 EDT 2019
User: cochatt
Spectrometer: HR+D1059
Trigger mode: 1
Integration Time (sec): 1.000000E-1
Scans to average: 1
Electric dark correction enabled: true
Nonlinearity correction enabled: false
Boxcar width: 0
XAxis mode: Wavelengths
Number of Pixels in Spectrum: 2048
>>>>>Begin Spectral Data<<<<<
223.165	-9.19
223.4	-9.19
223.635	-9.19
223.869	-25.19
224.104	-11.19
224.338	-28.19
224.573	-15.19
224.808	-7.19
225.042	-7.19
225.277	2.81
225.511	4.81
225.746	-8.19
225.98	-5.19
226.215	15.81
226.449	15.81
226.683	14.81
226.918	20.81
227.152	41.81
227.387	20.81
227.621	40.81
227.856	42.81
228.09	37.81
228.324	58.81
228.559	62.81
228.793	69.81
229.027	86.81
229.262	107.81
229.496	115.81
229.73	126.81
229.964	147.81
230.199	116.81
230.433	118.81
230.667	102.81
230.901	123.81
231.136	120.81
231.37	100.81
231.604	116.81
231.838	125.81
232.072	106.81
232.306	107.81
232.541	130.81
232.775	112.81
233.009	119.81
233.243	117.81
233.477	114.81
233.711	123.81
233.945	107.81
234.179	108.81
234.413	118.81
234.647	122.81
234.881	99.81
235.115	106.81
235.349	114.81
235.583	116.81
235.817	112.81
236.051	124.81
236.285	132.81
236.519	131.81
236.753	128.81
236.987	152.81
237.221	173.81
237.455	216.81
237.689	190.81
237.922	152.81
238.156	141.81
238.39	136.81
238.624	122.81
238.858	120.81
239.091	127.81
239.325	126.81
239.559	120.81
239.793	142.81
240.027	135.81
240.26	141.81
240.494	138.81
240.728	150.81
240.961	150.81
241.195	139.81
241.429	156.81
241.662	145.81
241.896	140.81
242.13	131.81
242.363	143.81
242.597	131.81
242.83	125.81
243.064	134.81
243.298	137.81
243.531	148.81
243.765	142.81
243.998	138.81
244.232	141.81
244.465	163.81
244.699	146.81
244.932	145.81
245.166	149.81
245.399	156.81
245.633	153.81
245.866	158.81
246.099	139.81
246.333	143.81
246.566	151.81
246.8	161.81
247.033	155.81
247.266	159.81
247.5	155.81
247.733	163.81
247.966	169.81
248.2	173.81
248.433	179.81
248.666	152.81
248.899	191.81
249.133	196.81
249.366	210.81
249.599	192.81
249.832	190.81
250.066	173.81
250.299	163.81
250.532	199.81
250.765	202.81
250.998	221.81
251.231	236.81
251.465	227.81
251.698	216.81
251.931	191.81
252.164	182.81
252.397	188.81
252.63	198.81
252.863	208.81
253.096	227.81
253.329	212.81
253.562	223.81
253.795	208.81
254.028	227.81
254.261	211.81
254.494	217.81
254.727	246.81
254.96	268.81
255.193	260.81
255.426	231.81
255.659	226.81
255.892	230.81
256.124	229.81
256.357	233.81
256.59	220.81
256.823	201.81
257.056	220.81
257.289	198.81
257.521	217.81
257.754	215.81
257.987	218.81
258.22	211.81
258.452	220.81
258.685	218.81
258.918	220.81
259.151	224.81
259.383	211.81
259.616	232.81
259.849	234.81
260.081	194.81
260.314	256.81
260.547	251.81
260.779	254.81
261.012	239.81
261.244	227.81
261.477	231.81
261.71	227.81
261.942	244.81
262.175	222.81
262.407	225.81
262.64	208.81
262.872	239.81
263.105	233.81
263.337	217.81
263.57	197.81
263.802	214.81
264.035	215.81
264.267	200.81
264.499	224.81
264.732	239.81
264.964	225.81
265.197	220.81
265.429	232.81
265.661	224.81
265.894	222.81
266.126	237.81
266.358	211.81
266.591	197.81
266.823	236.81
267.055	234.81
267.287	236.81
267.52	228.81
267.752	233.81
267.984	239.81
268.216	243.81
268.448	242.81
268.681	245.81
268.913	243.81
269.145	254.81
269.377	271.81
269.609	280.81
269.841	264.81
270.073	275.81
270.306	280.81
270.538	321.81
270.77	314.81
271.002	308.81
271.234	307.81
271.466	285.81
271.698	316.81
271.93	310.81
272.162	324.81
272.394	307.81
272.626	290.81
272.858	306.81
273.09	284.81
273.322	268.81
273.553	261.81
273.785	277.81
274.017	271.81
274.249	271.81
274.481	265.81
274.713	283.81
274.945	268.81
275.176	292.81
275.408	291.81
275.64	294.81
275.872	258.81
276.104	262.81
276.335	267.81
276.567	277.81
276.799	292.81
277.031	305.81
277.262	324.81
277.494	318.81
277.726	292.81
277.957	299.81
278.189	278.81
278.421	283.81
278.652	280.81
278.884	275.81
279.115	270.81
279.347	284.81
279.579	284.81
279.81	295.81
280.042	286.81
280.273	269.81
280.505	279.81
280.736	279.81
280.968	272.81
281.199	279.81
281.431	276.81
281.662	292.81
281.894	279.81
282.125	288.81
282.356	317.81
282.588	324.81
282.819	308.81
283.051	296.81
283.282	303.81
283.513	281.81
283.745	287.81
283.976	312.81
284.207	297.81
284.439	298.81
284.67	285.81
284.901	301.81
285.132	315.81
285.364	284.81
285.595	302.81
285.826	306.81
286.057	290.81
286.288	304.81
286.52	284.81
286.751	302.81
286.982	295.81
287.213	284.81
287.444	290.81
287.675	300.81
287.906	312.81
288.138	319.81
288.369	328.81
288.6	345.81
288.831	325.81
289.062	298.81
289.293	305.81
289.524	318.81
289.755	316.81
289.986	298.81
290.217	298.81
290.448	314.81
290.679	302.81
290.91	312.81
291.141	309.81
291.371	326.81
291.602	312.81
291.833	286.81
292.064	295.81
292.295	270.81
292.526	297.81
292.757	314.81
292.987	313.81
293.218	317.81
293.449	311.81
293.68	325.81
293.91	327.81
294.141	311.81
294.372	297.81
294.603	302.81
294.833	330.81
295.064	306.81
295.295	301.81
295.525	323.81
295.756	326.81
295.987	319.81
296.217	322.81
296.448	312.81
296.679	320.81
296.909	304.81
297.14	323.81
297.37	322.81
297.601	315.81
297.831	328.81
298.062	324.81
298.292	336.81
298.523	335.81
298.753	338.81
298.984	324.81
299.214	310.81
299.445	327.81
299.675	320.81
299.905	334.81
300.136	319.81
300.366	348.81
300.597	308.81
300.827	329.81
301.057	335.81
301.288	319.81
301.518	337.81
301.748	329.81
301.979	335.81
302.209	346.81
302.439	334.81
302.669	348.81
302.9	349.81
303.13	343.81
303.36	335.81
303.59	339.81
303.82	343.81
304.051	354.81
304.281	348.81
304.511	348.81
304.741	333.81
304.971	339.81
305.201	358.81
305.431	350.81
305.661	355.81
305.891	352.81
306.121	353.81
306.352	346.81
306.582	330.81
306.812	359.81
307.042	353.81
307.272	342.81
307.502	356.81
307.731	346.81
307.961	356.81
308.191	343.81
308.421	344.81
308.651	355.81
308.881	331.81
309.111	362.81
309.341	363.81
309.571	370.81
309.8	375.81
310.03	374.81
310.26	386.81
310.49	368.81
310.72	370.81
310.949	376.81
311.179	413.81
311.409	393.81
311.639	377.81
311.868	387.81
312.098	372.81
312.328	378.81
312.557	389.81
312.787	410.81
313.017	414.81
313.246	377.81
313.476	402.81
313.706	386.81
313.935	378.81
314.165	411.81
314.394	403.81
314.624	408.81
314.853	383.81
315.083	396.81
315.312	384.81
315.542	383.81
315.771	389.81
316.001	388.81
316.23	381.81
316.46	397.81
316.689	395.81
316.919	371.81
317.148	393.81
317.377	415.81
317.607	389.81
317.836	381.81
318.065	380.81
318.295	381.81
318.524	381.81
318.753	395.81
318.983	379.81
319.212	382.81
319.441	374.81
319.67	397.81
319.9	386.81
320.129	376.81
320.358	400.81
320.587	399.81
320.816	400.81
321.046	415.81
321.275	409.81
321.504	392.81
321.733	399.81
321.962	404.81
322.191	424.81
322.42	422.81
322.649	450.81
322.878	436.81
323.108	442.81
323.337	462.81
323.566	446.81
323.795	499.81
324.024	509.81
324.253	599.81
324.482	807.81
324.71	1206.81
324.939	1783.81
325.168	1551.81
325.397	807.81
325.626	550.81
325.855	498.81
326.084	467.81
326.313	462.81
326.542	450.81
326.77	511.81
326.999	554.81
327.228	740.81
327.457	1117.81
327.686	1352.81
327.914	905.81
328.143	603.81
328.372	535.81
328.6	544.81
328.829	500.81
329.058	516.81
329.287	548.81
329.515	517.81
329.744	487.81
329.972	488.81
330.201	494.81
330.43	529.81
330.658	542.81
330.887	554.81
331.115	570.81
331.344	479.81
331.572	506.81
331.801	452.81
332.03	487.81
332.258	483.81
332.486	496.81
332.715	458.81
332.943	479.81
333.172	468.81
333.4	462.81
333.629	468.81
333.857	494.81
334.085	508.81
334.314	514.81
334.542	542.81
334.771	553.81
334.999	502.81
335.227	471.81
335.455	464.81
335.684	470.81
335.912	476.81
336.14	464.81
336.369	474.81
336.597	468.81
336.825	461.81
337.053	465.81
337.281	456.81
337.51	473.81
337.738	464.81
337.966	459.81
338.194	444.81
338.422	470.81
338.65	443.81
338.878	461.81
339.106	442.81
339.334	445.81
339.562	415.81
339.79	426.81
340.018	455.81
340.246	444.81
340.474	457.81
340.702	439.81
340.93	438.81
341.158	431.81
341.386	431.81
341.614	438.81
341.842	456.81
342.07	442.81
342.298	454.81
342.526	439.81
342.754	408.81
342.981	437.81
343.209	440.81
343.437	429.81
343.665	455.81
343.893	447.81
344.12	468.81
344.348	452.81
344.576	478.81
344.804	430.81
345.031	442.81
345.259	448.81
345.487	455.81
345.714	462.81
345.942	459.81
346.17	428.81
346.397	434.81
346.625	434.81
346.853	408.81
347.08	431.81
347.308	427.81
347.535	429.81
347.763	427.81
347.99	429.81
348.218	432.81
348.445	431.81
348.673	433.81
348.9	407.81
349.128	412.81
349.355	402.81
349.583	391.81
349.81	406.81
350.037	400.81
350.265	436.81
350.492	388.81
350.72	402.81
350.947	409.81
351.174	398.81
351.402	424.81
351.629	439.81
351.856	448.81
352.083	434.81
352.311	415.81
352.538	429.81
352.765	420.81
352.992	418.81
353.22	388.81
353.447	404.81
353.674	413.81
353.901	399.81
354.128	387.81
354.355	411.81
354.583	407.81
354.81	391.81
355.037	379.81
355.264	398.81
355.491	396.81
355.718	408.81
355.945	411.81
356.172	371.81
356.399	381.81
356.626	382.81
356.853	404.81
357.08	401.81
357.307	413.81
357.534	396.81
357.761	415.81
357.988	401.81
358.215	411.81
358.441	394.81
358.668	411.81
358.895	392.81
359.122	406.81
359.349	403.81
359.576	418.81
359.802	449.81
360.029	444.81
360.256	446.81
360.483	451.81
360.709	426.81
360.936	427.81
361.163	419.81
361.39	416.81
361.616	428.81
361.843	428.81
362.07	416.81
362.296	426.81
362.523	428.81
362.749	427.81
362.976	414.81
363.203	410.81
363.429	407.81
363.656	406.81
363.882	424.81
364.109	413.81
364.335	413.81
364.562	420.81
364.788	404.81
365.015	408.81
365.241	407.81
365.468	423.81
365.694	411.81
365.92	426.81
366.147	406.81
366.373	426.81
366.599	404.81
366.826	407.81
367.052	396.81
367.278	407.81
367.505	397.81
367.731	417.81
367.957	406.81
368.184	427.81
368.41	438.81
368.636	412.81
368.862	410.81
369.089	422.81
369.315	401.81
369.541	412.81
369.767	402.81
369.993	420.81
370.219	425.81
370.445	417.81
370.672	428.81
370.898	436.81
371.124	401.81
371.35	425.81
371.576	427.81
371.802	410.81
372.028	409.81
372.254	436.81
372.48	426.81
372.706	427.81
372.932	430.81
373.158	409.81
373.384	410.81
373.61	440.81
373.835	429.81
374.061	404.81
374.287	422.81
374.513	436.81
374.739	426.81
374.965	444.81
375.191	457.81
375.416	439.81
375.642	438.81
375.868	428.81
376.094	402.81
376.319	446.81
376.545	426.81
376.771	415.81
376.997	415.81
377.222	407.81
377.448	411.81
377.674	424.81
377.899	406.81
378.125	421.81
378.35	394.81
378.576	404.81
378.802	409.81
379.027	409.81
379.253	405.81
379.478	416.81
379.704	437.81
379.929	417.81
380.155	411.81
380.38	397.81
380.606	442.81
380.831	423.81
381.057	412.81
381.282	411.81
381.507	429.81
381.733	426.81
381.958	436.81
382.184	421.81
382.409	419.81
382.634	430.81
382.86	406.81
383.085	444.81
383.31	441.81
383.535	434.81
383.761	426.81
383.986	446.81
384.211	444.81
384.436	435.81
384.662	435.81
384.887	434.81
385.112	440.81
385.337	472.81
385.562	462.81
385.787	446.81
386.013	480.81
386.238	471.81
386.463	480.81
386.688	477.81
386.913	466.81
387.138	473.81
387.363	468.81
387.588	463.81
387.813	463.81
388.038	460.81
388.263	471.81
388.488	484.81
388.713	450.81
388.938	469.81
389.163	438.81
389.387	465.81
389.612	459.81
389.837	454.81
390.062	453.81
390.287	471.81
390.512	451.81
390.736	472.81
390.961	454.81
391.186	467.81
391.411	469.81
391.636	463.81
391.86	484.81
392.085	490.81
392.31	495.81
392.534	485.81
392.759	485.81
392.984	474.81
393.208	458.81
393.433	474.81
393.658	487.81
393.882	468.81
394.107	483.81
394.331	467.81
394.556	467.81
394.78	486.81
395.005	458.81
395.229	470.81
395.454	491.81
395.678	479.81
395.903	513.81
396.127	520.81
396.352	514.81
396.576	517.81
396.801	480.81
397.025	484.81
397.249	491.81
397.474	512.81
397.698	501.81
397.922	516.81
398.147	521.81
398.371	546.81
398.595	523.81
398.82	541.81
399.044	544.81
399.268	604.81
399.492	637.81
399.717	650.81
399.941	675.81
400.165	674.81
400.389	674.81
400.613	609.81
400.837	550.81
401.062	566.81
401.286	555.81
401.51	542.81
401.734	528.81
401.958	536.81
402.182	528.81
402.406	548.81
402.63	560.81
402.854	541.81
403.078	563.81
403.302	580.81
403.526	576.81
403.75	560.81
403.974	577.81
404.198	584.81
404.422	572.81
404.645	572.81
404.869	572.81
405.093	590.81
405.317	631.81
405.541	659.81
405.765	603.81
405.988	587.81
406.212	582.81
406.436	594.81
406.66	635.81
406.883	594.81
407.107	618.81
407.331	653.81
407.555	742.81
407.778	760.81
408.002	663.81
408.226	629.81
408.449	613.81
408.673	629.81
408.896	654.81
409.12	669.81
409.344	640.81
409.567	580.81
409.791	604.81
410.014	578.81
410.238	554.81
410.461	576.81
410.685	575.81
410.908	591.81
411.132	631.81
411.355	652.81
411.578	601.81
411.802	556.81
412.025	578.81
412.249	567.81
412.472	607.81
412.695	633.81
412.919	623.81
413.142	582.81
413.365	576.81
413.589	557.81
413.812	547.81
414.035	548.81
414.258	526.81
414.482	518.81
414.705	516.81
414.928	526.81
415.151	547.81
415.374	532.81
415.597	528.81
415.821	534.81
416.044	522.81
416.267	530.81
416.49	517.81
416.713	507.81
416.936	532.81
417.159	503.81
417.382	522.81
417.605	546.81
417.828	549.81
418.051	560.81
418.274	535.81
418.497	537.81
418.72	534.81
418.943	535.81
419.166	566.81
419.389	572.81
419.611	582.81
419.834	563.81
420.057	560.81
420.28	546.81
420.503	540.81
420.726	551.81
420.948	560.81
421.171	598.81
421.394	644.81
421.617	569.81
421.839	546.81
422.062	550.81
422.285	559.81
422.507	620.81
422.73	669.81
422.953	668.81
423.175	586.81
423.398	534.81
423.621	598.81
423.843	593.81
424.066	583.81
424.288	575.81
424.511	586.81
424.733	626.81
424.956	732.81
425.178	710.81
425.401	706.81
425.623	741.81
425.846	622.81
426.068	574.81
426.291	566.81
426.513	581.81
426.735	588.81
426.958	631.81
427.18	688.81
427.402	810.81
427.625	876.81
427.847	752.81
428.069	629.81
428.292	581.81
428.514	559.81
428.736	537.81
428.958	559.81
429.181	522.81
429.403	538.81
429.625	544.81
429.847	561.81
430.069	635.81
430.292	638.81
430.514	559.81
430.736	546.81
430.958	500.81
431.18	506.81
431.402	519.81
431.624	509.81
431.846	497.81
432.068	493.81
432.29	514.81
432.512	522.81
432.734	494.81
432.956	504.81
433.178	543.81
433.4	536.81
433.622	525.81
433.844	505.81
434.066	499.81
434.287	502.81
434.509	538.81
434.731	527.81
434.953	538.81
435.175	557.81
435.397	579.81
435.618	558.81
435.84	603.81
436.062	671.81
436.284	788.81
436.505	666.81
436.727	578.81
436.949	556.81
437.17	544.81
437.392	534.81
437.614	526.81
437.835	579.81
438.057	652.81
438.278	743.81
438.5	754.81
438.721	835.81
438.943	796.81
439.165	636.81
439.386	604.81
439.608	570.81
439.829	605.81
440.05	601.81
440.272	611.81
440.493	590.81
440.715	568.81
440.936	562.81
441.158	546.81
441.379	566.81
441.6	557.81
441.822	567.81
442.043	580.81
442.264	709.81
442.486	756.81
442.707	620.81
442.928	585.81
443.149	597.81
443.371	629.81
443.592	648.81
443.813	757.81
444.034	814.81
444.255	678.81
444.476	602.81
444.698	584.81
444.919	603.81
445.14	709.81
445.361	650.81
445.582	607.81
445.803	682.81
446.024	781.81
446.245	786.81
446.466	706.81
446.687	601.81
446.908	592.81
447.129	546.81
447.35	535.81
447.571	510.81
447.792	506.81
448.013	501.81
448.234	522.81
448.455	579.81
448.675	675.81
448.896	818.81
449.117	667.81
449.338	632.81
449.559	779.81
449.779	892.81
450	677.81
450.221	572.81
450.442	524.81
450.662	527.81
450.883	507.81
451.104	524.81
451.324	505.81
451.545	485.81
451.766	487.81
451.986	453.81
452.207	462.81
452.428	475.81
452.648	463.81
452.869	452.81
453.089	485.81
453.31	483.81
453.53	475.81
453.751	470.81
453.971	461.81
454.192	475.81
454.412	473.81
454.633	440.81
454.853	445.81
455.073	448.81
455.294	475.81
455.514	549.81
455.734	538.81
455.955	493.81
456.175	450.81
456.395	456.81
456.616	443.81
456.836	458.81
457.056	443.81
457.276	448.81
457.497	445.81
457.717	451.81
457.937	446.81
458.157	479.81
458.377	474.81
458.598	476.81
458.818	514.81
459.038	586.81
459.258	582.81
459.478	551.81
459.698	509.81
459.918	526.81
460.138	483.81
460.358	525.81
460.578	524.81
460.798	536.81
461.018	549.81
461.238	538.81
461.458	538.81
461.678	519.81
461.898	517.81
462.118	537.81
462.338	537.81
462.558	552.81
462.777	568.81
462.997	602.81
463.217	602.81
463.437	588.81
463.657	570.81
463.876	592.81
464.096	578.81
464.316	579.81
464.536	591.81
464.755	576.81
464.975	579.81
465.195	578.81
465.414	613.81
465.634	570.81
465.854	534.81
466.073	498.81
466.293	499.81
466.512	460.81
466.732	476.81
466.951	483.81
467.171	476.81
467.391	503.81
467.61	467.81
467.829	532.81
468.049	489.81
468.268	508.81
468.488	467.81
468.707	490.81
468.927	480.81
469.146	467.81
469.365	484.81
469.585	474.81
469.804	478.81
470.023	491.81
470.243	485.81
470.462	474.81
470.681	514.81
470.901	510.81
471.12	495.81
471.339	484.81
471.558	506.81
471.777	494.81
471.997	484.81
472.216	493.81
472.435	506.81
472.654	486.81
472.873	464.81
473.092	484.81
473.311	464.81
473.53	491.81
473.749	493.81
473.968	504.81
474.187	610.81
474.406	647.81
474.625	534.81
474.844	478.81
475.063	493.81
475.282	498.81
475.501	480.81
475.72	498.81
475.939	498.81
476.158	516.81
476.377	500.81
476.596	490.81
476.814	506.81
477.033	502.81
477.252	521.81
477.471	505.81
477.69	536.81
477.908	545.81
478.127	544.81
478.346	547.81
478.564	572.81
478.783	557.81
479.002	558.81
479.22	560.81
479.439	596.81
479.658	597.81
479.876	574.81
480.095	598.81
480.313	623.81
480.532	623.81
480.751	601.81
480.969	632.81
481.188	630.81
481.406	656.81
481.624	621.81
481.843	583.81
482.061	584.81
482.28	572.81
482.498	541.81
482.717	578.81
482.935	567.81
483.153	558.81
483.372	565.81
483.59	578.81
483.808	567.81
484.027	573.81
484.245	574.81
484.463	563.81
484.681	580.81
484.9	630.81
485.118	588.81
485.336	583.81
485.554	594.81
485.772	622.81
485.99	578.81
486.209	606.81
486.427	589.81
486.645	596.81
486.863	589.81
487.081	604.81
487.299	607.81
487.517	623.81
487.735	613.81
487.953	582.81
488.171	611.81
488.389	599.81
488.607	621.81
488.825	611.81
489.043	628.81
489.261	610.81
489.479	613.81
489.696	619.81
489.914	640.81
490.132	628.81
490.35	633.81
490.568	647.81
490.786	675.81
491.003	671.81
491.221	690.81
491.439	690.81
491.657	661.81
491.874	690.81
492.092	711.81
492.31	684.81
492.527	685.81
492.745	679.81
492.963	709.81
493.18	692.81
493.398	724.81
493.615	703.81
493.833	716.81
494.05	722.81
494.268	714.81
494.485	703.81
494.703	702.81
494.92	701.81
495.138	720.81
495.355	713.81
495.573	728.81
495.79	726.81
496.008	722.81
496.225	706.81
496.442	729.81
496.66	712.81
496.877	726.81
497.094	744.81
497.312	738.81
497.529	729.81
497.746	780.81
497.963	772.81
498.181	798.81
498.398	803.81
498.615	789.81
498.832	839.81
499.049	847.81
499.267	887.81
499.484	934.81
499.701	958.81
499.918	1018.81
500.135	1070.81
500.352	1133.81
500.569	1173.81
500.786	1172.81
501.003	1114.81
501.22	1091.81
501.437	1037.81
501.654	998.81
