Data from 1976.PennyLincolnUp.Lamp.En5.5.200Scan.071719.P1.Changed Mount._HRD10591_16-01-17-883.txt Node
Date: Thu Jul 18 16:01:17 EDT 2019
User: cochatt
Spectrometer: HR+D1059
Trigger mode: 1
Integration Time (sec): 1.000000E-1
Scans to average: 1
Electric dark correction enabled: true
Nonlinearity correction enabled: false
Boxcar width: 0
XAxis mode: Wavelengths
Number of Pixels in Spectrum: 2048
>>>>>Begin Spectral Data<<<<<
223.165	-10.75
223.4	-10.75
223.635	-10.75
223.869	-27.75
224.104	-19.75
224.338	-18.75
224.573	-10.75
224.808	-11.75
225.042	-2.75
225.277	-10.75
225.511	10.25
225.746	4.25
225.98	6.25
226.215	12.25
226.449	14.25
226.683	12.25
226.918	22.25
227.152	31.25
227.387	52.25
227.621	53.25
227.856	37.25
228.09	34.25
228.324	47.25
228.559	61.25
228.793	57.25
229.027	97.25
229.262	104.25
229.496	121.25
229.73	140.25
229.964	153.25
230.199	128.25
230.433	108.25
230.667	106.25
230.901	104.25
231.136	117.25
231.37	122.25
231.604	117.25
231.838	123.25
232.072	120.25
232.306	116.25
232.541	111.25
232.775	111.25
233.009	121.25
233.243	119.25
233.477	117.25
233.711	125.25
233.945	117.25
234.179	112.25
234.413	123.25
234.647	117.25
234.881	116.25
235.115	116.25
235.349	120.25
235.583	123.25
235.817	134.25
236.051	128.25
236.285	136.25
236.519	139.25
236.753	132.25
236.987	161.25
237.221	185.25
237.455	220.25
237.689	178.25
237.922	145.25
238.156	138.25
238.39	133.25
238.624	128.25
238.858	113.25
239.091	136.25
239.325	132.25
239.559	152.25
239.793	130.25
240.027	141.25
240.26	144.25
240.494	149.25
240.728	151.25
240.961	152.25
241.195	142.25
241.429	159.25
241.662	162.25
241.896	138.25
242.13	132.25
242.363	141.25
242.597	133.25
242.83	160.25
243.064	151.25
243.298	140.25
243.531	156.25
243.765	152.25
243.998	134.25
244.232	140.25
244.465	161.25
244.699	142.25
244.932	146.25
245.166	153.25
245.399	154.25
245.633	162.25
245.866	141.25
246.099	149.25
246.333	175.25
246.566	172.25
246.8	158.25
247.033	163.25
247.266	168.25
247.5	177.25
247.733	178.25
247.966	169.25
248.2	171.25
248.433	169.25
248.666	168.25
248.899	208.25
249.133	202.25
249.366	198.25
249.599	216.25
249.832	194.25
250.066	186.25
250.299	186.25
250.532	194.25
250.765	217.25
250.998	221.25
251.231	246.25
251.465	216.25
251.698	204.25
251.931	205.25
252.164	208.25
252.397	208.25
252.63	203.25
252.863	214.25
253.096	217.25
253.329	239.25
253.562	225.25
253.795	223.25
254.028	218.25
254.261	224.25
254.494	233.25
254.727	269.25
254.96	295.25
255.193	273.25
255.426	264.25
255.659	247.25
255.892	245.25
256.124	237.25
256.357	240.25
256.59	239.25
256.823	221.25
257.056	212.25
257.289	219.25
257.521	224.25
257.754	212.25
257.987	211.25
258.22	219.25
258.452	215.25
258.685	224.25
258.918	221.25
259.151	224.25
259.383	232.25
259.616	227.25
259.849	219.25
260.081	256.25
260.314	269.25
260.547	279.25
260.779	263.25
261.012	249.25
261.244	233.25
261.477	225.25
261.71	231.25
261.942	236.25
262.175	236.25
262.407	246.25
262.64	232.25
262.872	214.25
263.105	236.25
263.337	238.25
263.57	236.25
263.802	221.25
264.035	210.25
264.267	229.25
264.499	237.25
264.732	232.25
264.964	242.25
265.197	241.25
265.429	229.25
265.661	235.25
265.894	236.25
266.126	219.25
266.358	226.25
266.591	215.25
266.823	225.25
267.055	250.25
267.287	248.25
267.52	253.25
267.752	240.25
267.984	239.25
268.216	233.25
268.448	240.25
268.681	261.25
268.913	265.25
269.145	301.25
269.377	297.25
269.609	297.25
269.841	282.25
270.073	286.25
270.306	309.25
270.538	324.25
270.77	332.25
271.002	310.25
271.234	302.25
271.466	313.25
271.698	332.25
271.93	350.25
272.162	321.25
272.394	330.25
272.626	320.25
272.858	312.25
273.09	303.25
273.322	275.25
273.553	290.25
273.785	304.25
274.017	272.25
274.249	304.25
274.481	277.25
274.713	284.25
274.945	286.25
275.176	278.25
275.408	287.25
275.64	275.25
275.872	276.25
276.104	300.25
276.335	274.25
276.567	285.25
276.799	305.25
277.031	319.25
277.262	357.25
277.494	341.25
277.726	324.25
277.957	321.25
278.189	316.25
278.421	286.25
278.652	296.25
278.884	306.25
279.115	293.25
279.347	316.25
279.579	320.25
279.81	313.25
280.042	297.25
280.273	285.25
280.505	293.25
280.736	305.25
280.968	284.25
281.199	278.25
281.431	304.25
281.662	320.25
281.894	305.25
282.125	312.25
282.356	326.25
282.588	332.25
282.819	326.25
283.051	316.25
283.282	286.25
283.513	290.25
283.745	317.25
283.976	298.25
284.207	317.25
284.439	314.25
284.67	309.25
284.901	320.25
285.132	294.25
285.364	296.25
285.595	321.25
285.826	305.25
286.057	333.25
286.288	325.25
286.52	309.25
286.751	292.25
286.982	314.25
287.213	321.25
287.444	336.25
287.675	329.25
287.906	330.25
288.138	341.25
288.369	348.25
288.6	349.25
288.831	336.25
289.062	329.25
289.293	313.25
289.524	317.25
289.755	326.25
289.986	314.25
290.217	329.25
290.448	322.25
290.679	308.25
290.91	318.25
291.141	314.25
291.371	330.25
291.602	339.25
291.833	326.25
292.064	346.25
292.295	307.25
292.526	322.25
292.757	333.25
292.987	315.25
293.218	300.25
293.449	313.25
293.68	334.25
293.91	314.25
294.141	322.25
294.372	328.25
294.603	326.25
294.833	317.25
295.064	334.25
295.295	335.25
295.525	325.25
295.756	341.25
295.987	327.25
296.217	346.25
296.448	376.25
296.679	339.25
296.909	330.25
297.14	327.25
297.37	336.25
297.601	325.25
297.831	338.25
298.062	337.25
298.292	337.25
298.523	361.25
298.753	329.25
298.984	341.25
299.214	342.25
299.445	357.25
299.675	352.25
299.905	334.25
300.136	347.25
300.366	351.25
300.597	342.25
300.827	342.25
301.057	361.25
301.288	358.25
301.518	369.25
301.748	361.25
301.979	366.25
302.209	352.25
302.439	335.25
302.669	369.25
302.9	338.25
303.13	368.25
303.36	374.25
303.59	384.25
303.82	393.25
304.051	375.25
304.281	345.25
304.511	372.25
304.741	342.25
304.971	357.25
305.201	364.25
305.431	374.25
305.661	348.25
305.891	346.25
306.121	361.25
306.352	360.25
306.582	376.25
306.812	376.25
307.042	393.25
307.272	351.25
307.502	375.25
307.731	362.25
307.961	360.25
308.191	362.25
308.421	373.25
308.651	381.25
308.881	362.25
309.111	366.25
309.341	359.25
309.571	383.25
309.8	373.25
310.03	398.25
310.26	395.25
310.49	385.25
310.72	393.25
310.949	413.25
311.179	415.25
311.409	409.25
311.639	406.25
311.868	390.25
312.098	416.25
312.328	410.25
312.557	413.25
312.787	408.25
313.017	430.25
313.246	436.25
313.476	400.25
313.706	392.25
313.935	419.25
314.165	410.25
314.394	398.25
314.624	439.25
314.853	422.25
315.083	418.25
315.312	410.25
315.542	401.25
315.771	411.25
316.001	408.25
316.23	408.25
316.46	409.25
316.689	408.25
316.919	422.25
317.148	427.25
317.377	426.25
317.607	412.25
317.836	426.25
318.065	392.25
318.295	396.25
318.524	391.25
318.753	400.25
318.983	409.25
319.212	400.25
319.441	420.25
319.67	424.25
319.9	423.25
320.129	407.25
320.358	415.25
320.587	419.25
320.816	422.25
321.046	426.25
321.275	440.25
321.504	428.25
321.733	409.25
321.962	408.25
322.191	446.25
322.42	468.25
322.649	466.25
322.878	443.25
323.108	465.25
323.337	495.25
323.566	507.25
323.795	520.25
324.024	568.25
324.253	640.25
324.482	895.25
324.71	1352.25
324.939	2018.25
325.168	1716.25
325.397	898.25
325.626	624.25
325.855	560.25
326.084	532.25
326.313	523.25
326.542	518.25
326.77	540.25
326.999	648.25
327.228	868.25
327.457	1232.25
327.686	1501.25
327.914	1032.25
328.143	670.25
328.372	580.25
328.6	582.25
328.829	560.25
329.058	577.25
329.287	567.25
329.515	524.25
329.744	507.25
329.972	523.25
330.201	538.25
330.43	570.25
330.658	600.25
330.887	620.25
331.115	578.25
331.344	519.25
331.572	507.25
331.801	511.25
332.03	530.25
332.258	504.25
332.486	488.25
332.715	480.25
332.943	484.25
333.172	483.25
333.4	513.25
333.629	520.25
333.857	526.25
334.085	523.25
334.314	558.25
334.542	589.25
334.771	594.25
334.999	560.25
335.227	524.25
335.455	503.25
335.684	500.25
335.912	486.25
336.14	485.25
336.369	500.25
336.597	506.25
336.825	489.25
337.053	473.25
337.281	495.25
337.51	462.25
337.738	487.25
337.966	497.25
338.194	480.25
338.422	498.25
338.65	482.25
338.878	466.25
339.106	463.25
339.334	493.25
339.562	466.25
339.79	470.25
340.018	469.25
340.246	450.25
340.474	482.25
340.702	471.25
340.93	444.25
341.158	466.25
341.386	451.25
341.614	483.25
341.842	472.25
342.07	453.25
342.298	461.25
342.526	448.25
342.754	465.25
342.981	456.25
343.209	448.25
343.437	460.25
343.665	469.25
343.893	494.25
344.12	492.25
344.348	494.25
344.576	501.25
344.804	508.25
345.031	466.25
345.259	500.25
345.487	469.25
345.714	463.25
345.942	451.25
346.17	445.25
346.397	451.25
346.625	451.25
346.853	466.25
347.08	444.25
347.308	431.25
347.535	459.25
347.763	448.25
347.99	460.25
348.218	443.25
348.445	457.25
348.673	473.25
348.9	452.25
349.128	464.25
349.355	454.25
349.583	419.25
349.81	439.25
350.037	429.25
350.265	420.25
350.492	419.25
350.72	449.25
350.947	435.25
351.174	460.25
351.402	453.25
351.629	451.25
351.856	448.25
352.083	438.25
352.311	451.25
352.538	469.25
352.765	434.25
352.992	440.25
353.22	448.25
353.447	441.25
353.674	444.25
353.901	426.25
354.128	428.25
354.355	421.25
354.583	430.25
354.81	421.25
355.037	428.25
355.264	408.25
355.491	421.25
355.718	427.25
355.945	426.25
356.172	424.25
356.399	413.25
356.626	432.25
356.853	422.25
357.08	416.25
357.307	433.25
357.534	415.25
357.761	406.25
357.988	421.25
358.215	433.25
358.441	414.25
358.668	418.25
358.895	423.25
359.122	444.25
359.349	439.25
359.576	424.25
359.802	473.25
360.029	467.25
360.256	491.25
360.483	473.25
360.709	436.25
360.936	458.25
361.163	449.25
361.39	436.25
361.616	453.25
361.843	433.25
362.07	449.25
362.296	449.25
362.523	431.25
362.749	433.25
362.976	411.25
363.203	414.25
363.429	418.25
363.656	437.25
363.882	440.25
364.109	418.25
364.335	424.25
364.562	438.25
364.788	445.25
365.015	439.25
365.241	424.25
365.468	447.25
365.694	429.25
365.92	416.25
366.147	428.25
366.373	429.25
366.599	428.25
366.826	417.25
367.052	414.25
367.278	414.25
367.505	435.25
367.731	431.25
367.957	417.25
368.184	408.25
368.41	422.25
368.636	435.25
368.862	456.25
369.089	431.25
369.315	429.25
369.541	432.25
369.767	425.25
369.993	432.25
370.219	437.25
370.445	440.25
370.672	442.25
370.898	427.25
371.124	423.25
371.35	425.25
371.576	420.25
371.802	411.25
372.028	436.25
372.254	419.25
372.48	436.25
372.706	445.25
372.932	461.25
373.158	425.25
373.384	437.25
373.61	446.25
373.835	451.25
374.061	424.25
374.287	442.25
374.513	436.25
374.739	426.25
374.965	457.25
375.191	453.25
375.416	444.25
375.642	452.25
375.868	436.25
376.094	443.25
376.319	434.25
376.545	435.25
376.771	440.25
376.997	434.25
377.222	434.25
377.448	456.25
377.674	424.25
377.899	417.25
378.125	426.25
378.35	422.25
378.576	437.25
378.802	417.25
379.027	429.25
379.253	425.25
379.478	409.25
379.704	440.25
379.929	438.25
380.155	444.25
380.38	443.25
380.606	438.25
380.831	424.25
381.057	432.25
381.282	421.25
381.507	418.25
381.733	432.25
381.958	448.25
382.184	433.25
382.409	457.25
382.634	442.25
382.86	457.25
383.085	459.25
383.31	466.25
383.535	463.25
383.761	452.25
383.986	465.25
384.211	467.25
384.436	456.25
384.662	465.25
384.887	472.25
385.112	455.25
385.337	476.25
385.562	491.25
385.787	488.25
386.013	486.25
386.238	499.25
386.463	497.25
386.688	480.25
386.913	491.25
387.138	482.25
387.363	481.25
387.588	501.25
387.813	492.25
388.038	504.25
388.263	492.25
388.488	501.25
388.713	472.25
388.938	484.25
389.163	489.25
389.387	507.25
389.612	495.25
389.837	488.25
390.062	484.25
390.287	470.25
390.512	468.25
390.736	489.25
390.961	485.25
391.186	492.25
391.411	511.25
391.636	489.25
391.86	492.25
392.085	516.25
392.31	498.25
392.534	495.25
392.759	500.25
392.984	516.25
393.208	481.25
393.433	482.25
393.658	501.25
393.882	482.25
394.107	496.25
394.331	470.25
394.556	489.25
394.78	493.25
395.005	485.25
395.229	524.25
395.454	492.25
395.678	504.25
395.903	520.25
396.127	535.25
396.352	537.25
396.576	518.25
396.801	492.25
397.025	515.25
397.249	542.25
397.474	519.25
397.698	528.25
397.922	529.25
398.147	541.25
398.371	544.25
398.595	546.25
398.82	543.25
399.044	585.25
399.268	601.25
399.492	601.25
399.717	696.25
399.941	708.25
400.165	723.25
400.389	721.25
400.613	644.25
400.837	606.25
401.062	562.25
401.286	583.25
401.51	572.25
401.734	562.25
401.958	590.25
402.182	577.25
402.406	598.25
402.63	578.25
402.854	583.25
403.078	582.25
403.302	576.25
403.526	602.25
403.75	610.25
403.974	589.25
404.198	578.25
404.422	608.25
404.645	619.25
404.869	620.25
405.093	621.25
405.317	653.25
405.541	708.25
405.765	657.25
405.988	637.25
406.212	619.25
406.436	635.25
406.66	666.25
406.883	642.25
407.107	661.25
407.331	705.25
407.555	783.25
407.778	796.25
408.002	704.25
408.226	666.25
408.449	652.25
408.673	650.25
408.896	661.25
409.12	697.25
409.344	652.25
409.567	620.25
409.791	582.25
410.014	604.25
410.238	606.25
410.461	594.25
410.685	598.25
410.908	623.25
411.132	639.25
411.355	652.25
411.578	639.25
411.802	588.25
412.025	577.25
412.249	582.25
412.472	622.25
412.695	658.25
412.919	636.25
413.142	576.25
413.365	584.25
413.589	585.25
413.812	562.25
414.035	569.25
414.258	545.25
414.482	558.25
414.705	558.25
414.928	561.25
415.151	553.25
415.374	544.25
415.597	566.25
415.821	569.25
416.044	549.25
416.267	582.25
416.49	543.25
416.713	540.25
416.936	554.25
417.159	558.25
417.382	550.25
417.605	554.25
417.828	579.25
418.051	580.25
418.274	559.25
418.497	584.25
418.72	566.25
418.943	561.25
419.166	599.25
419.389	596.25
419.611	585.25
419.834	558.25
420.057	612.25
420.28	602.25
420.503	567.25
420.726	576.25
420.948	599.25
421.171	604.25
421.394	671.25
421.617	604.25
421.839	566.25
422.062	574.25
422.285	580.25
422.507	616.25
422.73	728.25
422.953	699.25
423.175	658.25
423.398	621.25
423.621	591.25
423.843	607.25
424.066	609.25
424.288	613.25
424.511	631.25
424.733	672.25
424.956	761.25
425.178	763.25
425.401	722.25
425.623	761.25
425.846	659.25
426.068	630.25
426.291	604.25
426.513	602.25
426.735	616.25
426.958	655.25
427.18	724.25
427.402	860.25
427.625	941.25
427.847	810.25
428.069	704.25
428.292	621.25
428.514	604.25
428.736	596.25
428.958	569.25
429.181	585.25
429.403	585.25
429.625	572.25
429.847	598.25
430.069	668.25
430.292	627.25
430.514	583.25
430.736	558.25
430.958	559.25
431.18	541.25
431.402	521.25
431.624	538.25
431.846	527.25
432.068	520.25
432.29	537.25
432.512	548.25
432.734	534.25
432.956	540.25
433.178	557.25
433.4	556.25
433.622	551.25
433.844	537.25
434.066	529.25
434.287	541.25
434.509	516.25
434.731	544.25
434.953	576.25
435.175	566.25
435.397	602.25
435.618	630.25
435.84	625.25
436.062	717.25
436.284	798.25
436.505	675.25
436.727	621.25
436.949	581.25
437.17	560.25
437.392	548.25
437.614	576.25
437.835	580.25
438.057	668.25
438.278	794.25
438.5	785.25
438.721	860.25
438.943	825.25
439.165	673.25
439.386	628.25
439.608	588.25
439.829	607.25
440.05	630.25
440.272	654.25
440.493	657.25
440.715	585.25
440.936	592.25
441.158	572.25
441.379	559.25
441.6	577.25
441.822	609.25
442.043	661.25
442.264	729.25
442.486	753.25
442.707	678.25
442.928	642.25
443.149	655.25
443.371	623.25
443.592	680.25
443.813	792.25
444.034	840.25
444.255	730.25
444.476	637.25
444.698	648.25
444.919	635.25
445.14	763.25
445.361	668.25
445.582	645.25
445.803	729.25
446.024	816.25
446.245	804.25
446.466	745.25
446.687	653.25
446.908	596.25
447.129	580.25
447.35	565.25
447.571	553.25
447.792	548.25
448.013	546.25
448.234	593.25
448.455	630.25
448.675	758.25
448.896	860.25
449.117	721.25
449.338	679.25
449.559	788.25
449.779	904.25
450	721.25
450.221	589.25
450.442	543.25
450.662	539.25
450.883	551.25
451.104	560.25
451.324	551.25
451.545	508.25
451.766	537.25
451.986	508.25
452.207	498.25
452.428	492.25
452.648	516.25
452.869	513.25
453.089	502.25
453.31	518.25
453.53	494.25
453.751	502.25
453.971	490.25
454.192	513.25
454.412	511.25
454.633	475.25
454.853	497.25
455.073	483.25
455.294	502.25
455.514	594.25
455.734	574.25
455.955	497.25
456.175	475.25
456.395	480.25
456.616	473.25
456.836	481.25
457.056	466.25
457.276	457.25
457.497	478.25
457.717	475.25
457.937	484.25
458.157	480.25
458.377	489.25
458.598	518.25
458.818	546.25
459.038	630.25
459.258	654.25
459.478	586.25
459.698	554.25
459.918	528.25
460.138	531.25
460.358	558.25
460.578	537.25
460.798	548.25
461.018	550.25
461.238	537.25
461.458	575.25
461.678	565.25
461.898	556.25
462.118	564.25
462.338	584.25
462.558	566.25
462.777	593.25
462.997	596.25
463.217	629.25
463.437	649.25
463.657	622.25
463.876	591.25
464.096	615.25
464.316	582.25
464.536	620.25
464.755	611.25
464.975	568.25
465.195	623.25
465.414	663.25
465.634	599.25
465.854	574.25
466.073	576.25
466.293	541.25
466.512	525.25
466.732	514.25
466.951	511.25
467.171	496.25
467.391	505.25
467.61	506.25
467.829	504.25
468.049	511.25
468.268	512.25
468.488	510.25
468.707	486.25
468.927	500.25
469.146	497.25
469.365	512.25
469.585	502.25
469.804	526.25
470.023	511.25
470.243	530.25
470.462	531.25
470.681	538.25
470.901	512.25
471.12	533.25
471.339	523.25
471.558	536.25
471.777	538.25
471.997	496.25
472.216	535.25
472.435	541.25
472.654	535.25
472.873	502.25
473.092	500.25
473.311	528.25
473.53	489.25
473.749	522.25
473.968	564.25
474.187	653.25
474.406	684.25
474.625	571.25
474.844	554.25
475.063	515.25
475.282	511.25
475.501	507.25
475.72	538.25
475.939	528.25
476.158	522.25
476.377	521.25
476.596	533.25
476.814	533.25
477.033	560.25
477.252	545.25
477.471	550.25
477.69	535.25
477.908	577.25
478.127	586.25
478.346	582.25
478.564	560.25
478.783	579.25
479.002	608.25
479.22	592.25
479.439	614.25
479.658	592.25
479.876	621.25
480.095	604.25
480.313	646.25
480.532	646.25
480.751	643.25
480.969	659.25
481.188	678.25
481.406	706.25
481.624	660.25
481.843	612.25
482.061	614.25
482.28	609.25
482.498	592.25
482.717	579.25
482.935	590.25
483.153	590.25
483.372	592.25
483.59	607.25
483.808	572.25
484.027	598.25
484.245	631.25
484.463	603.25
484.681	630.25
484.9	601.25
485.118	607.25
485.336	606.25
485.554	613.25
485.772	608.25
485.99	619.25
486.209	609.25
486.427	604.25
486.645	631.25
486.863	656.25
487.081	646.25
487.299	658.25
487.517	657.25
487.735	634.25
487.953	614.25
488.171	652.25
488.389	659.25
488.607	642.25
488.825	641.25
489.043	653.25
489.261	645.25
489.479	643.25
489.696	646.25
489.914	654.25
490.132	657.25
490.35	676.25
490.568	683.25
490.786	685.25
491.003	706.25
491.221	721.25
491.439	702.25
491.657	721.25
491.874	719.25
492.092	720.25
492.31	757.25
492.527	749.25
492.745	738.25
492.963	749.25
493.18	736.25
493.398	741.25
493.615	754.25
493.833	725.25
494.05	763.25
494.268	760.25
494.485	770.25
494.703	784.25
494.92	788.25
495.138	772.25
495.355	743.25
495.573	753.25
495.79	738.25
496.008	767.25
496.225	767.25
496.442	752.25
496.66	759.25
496.877	770.25
497.094	769.25
497.312	757.25
497.529	780.25
497.746	784.25
497.963	796.25
498.181	841.25
498.398	871.25
498.615	846.25
498.832	886.25
499.049	908.25
499.267	948.25
499.484	970.25
499.701	1045.25
499.918	1045.25
500.135	1122.25
500.352	1167.25
500.569	1226.25
500.786	1230.25
501.003	1200.25
501.22	1154.25
501.437	1071.25
501.654	1065.25
