Data from 1976.PennyLincolnUp.Lamp.En5.5.200Scan.071719.P1.Changed Mount._HRD10591_15-59-38-860.txt Node
Date: Thu Jul 18 15:59:38 EDT 2019
User: cochatt
Spectrometer: HR+D1059
Trigger mode: 1
Integration Time (sec): 1.000000E-1
Scans to average: 1
Electric dark correction enabled: true
Nonlinearity correction enabled: false
Boxcar width: 0
XAxis mode: Wavelengths
Number of Pixels in Spectrum: 2048
>>>>>Begin Spectral Data<<<<<
223.165	-23.56
223.4	-23.56
223.635	-23.56
223.869	-17.56
224.104	-14.56
224.338	-10.56
224.573	-11.56
224.808	-17.56
225.042	-7.56
225.277	-14.56
225.511	-7.56
225.746	4.44
225.98	1.44
226.215	12.44
226.449	20.44
226.683	28.44
226.918	23.44
227.152	34.44
227.387	20.44
227.621	35.44
227.856	44.44
228.09	38.44
228.324	48.44
228.559	57.44
228.793	66.44
229.027	102.44
229.262	111.44
229.496	120.44
229.73	123.44
229.964	117.44
230.199	116.44
230.433	103.44
230.667	118.44
230.901	125.44
231.136	113.44
231.37	108.44
231.604	107.44
231.838	121.44
232.072	106.44
232.306	120.44
232.541	96.44
232.775	113.44
233.009	109.44
233.243	119.44
233.477	125.44
233.711	106.44
233.945	113.44
234.179	119.44
234.413	118.44
234.647	114.44
234.881	106.44
235.115	126.44
235.349	125.44
235.583	125.44
235.817	114.44
236.051	108.44
236.285	105.44
236.519	127.44
236.753	134.44
236.987	144.44
237.221	160.44
237.455	209.44
237.689	162.44
237.922	125.44
238.156	125.44
238.39	124.44
238.624	128.44
238.858	131.44
239.091	112.44
239.325	122.44
239.559	122.44
239.793	118.44
240.027	128.44
240.26	140.44
240.494	139.44
240.728	142.44
240.961	141.44
241.195	145.44
241.429	143.44
241.662	126.44
241.896	132.44
242.13	141.44
242.363	132.44
242.597	141.44
242.83	130.44
243.064	127.44
243.298	143.44
243.531	137.44
243.765	153.44
243.998	134.44
244.232	142.44
244.465	152.44
244.699	125.44
244.932	150.44
245.166	150.44
245.399	138.44
245.633	147.44
245.866	139.44
246.099	142.44
246.333	150.44
246.566	145.44
246.8	151.44
247.033	149.44
247.266	143.44
247.5	159.44
247.733	159.44
247.966	169.44
248.2	167.44
248.433	152.44
248.666	153.44
248.899	163.44
249.133	187.44
249.366	186.44
249.599	200.44
249.832	173.44
250.066	171.44
250.299	169.44
250.532	182.44
250.765	179.44
250.998	194.44
251.231	212.44
251.465	202.44
251.698	194.44
251.931	176.44
252.164	188.44
252.397	162.44
252.63	177.44
252.863	180.44
253.096	199.44
253.329	216.44
253.562	199.44
253.795	192.44
254.028	208.44
254.261	198.44
254.494	215.44
254.727	226.44
254.96	236.44
255.193	226.44
255.426	212.44
255.659	215.44
255.892	208.44
256.124	197.44
256.357	222.44
256.59	200.44
256.823	197.44
257.056	204.44
257.289	184.44
257.521	194.44
257.754	197.44
257.987	172.44
258.22	188.44
258.452	201.44
258.685	193.44
258.918	196.44
259.151	202.44
259.383	211.44
259.616	205.44
259.849	197.44
260.081	219.44
260.314	216.44
260.547	250.44
260.779	244.44
261.012	231.44
261.244	206.44
261.477	211.44
261.71	205.44
261.942	205.44
262.175	215.44
262.407	217.44
262.64	213.44
262.872	230.44
263.105	200.44
263.337	200.44
263.57	196.44
263.802	197.44
264.035	200.44
264.267	203.44
264.499	198.44
264.732	209.44
264.964	198.44
265.197	209.44
265.429	228.44
265.661	203.44
265.894	223.44
266.126	226.44
266.358	211.44
266.591	207.44
266.823	223.44
267.055	224.44
267.287	218.44
267.52	213.44
267.752	231.44
267.984	230.44
268.216	221.44
268.448	220.44
268.681	231.44
268.913	235.44
269.145	255.44
269.377	252.44
269.609	258.44
269.841	247.44
270.073	252.44
270.306	287.44
270.538	286.44
270.77	284.44
271.002	256.44
271.234	254.44
271.466	275.44
271.698	293.44
271.93	287.44
272.162	292.44
272.394	294.44
272.626	268.44
272.858	278.44
273.09	271.44
273.322	261.44
273.553	237.44
273.785	267.44
274.017	239.44
274.249	255.44
274.481	259.44
274.713	256.44
274.945	252.44
275.176	256.44
275.408	262.44
275.64	261.44
275.872	239.44
276.104	241.44
276.335	260.44
276.567	260.44
276.799	278.44
277.031	292.44
277.262	281.44
277.494	301.44
277.726	292.44
277.957	278.44
278.189	268.44
278.421	254.44
278.652	263.44
278.884	266.44
279.115	262.44
279.347	255.44
279.579	264.44
279.81	272.44
280.042	278.44
280.273	283.44
280.505	265.44
280.736	251.44
280.968	259.44
281.199	250.44
281.431	258.44
281.662	268.44
281.894	277.44
282.125	274.44
282.356	268.44
282.588	305.44
282.819	277.44
283.051	259.44
283.282	252.44
283.513	268.44
283.745	284.44
283.976	287.44
284.207	284.44
284.439	268.44
284.67	277.44
284.901	291.44
285.132	280.44
285.364	263.44
285.595	263.44
285.826	260.44
286.057	237.44
286.288	273.44
286.52	276.44
286.751	280.44
286.982	279.44
287.213	266.44
287.444	302.44
287.675	288.44
287.906	281.44
288.138	286.44
288.369	294.44
288.6	285.44
288.831	299.44
289.062	281.44
289.293	279.44
289.524	289.44
289.755	293.44
289.986	288.44
290.217	296.44
290.448	279.44
290.679	282.44
290.91	294.44
291.141	274.44
291.371	300.44
291.602	286.44
291.833	290.44
292.064	285.44
292.295	277.44
292.526	280.44
292.757	298.44
292.987	292.44
293.218	292.44
293.449	307.44
293.68	287.44
293.91	296.44
294.141	293.44
294.372	288.44
294.603	286.44
294.833	300.44
295.064	288.44
295.295	286.44
295.525	304.44
295.756	295.44
295.987	295.44
296.217	300.44
296.448	301.44
296.679	303.44
296.909	313.44
297.14	300.44
297.37	296.44
297.601	294.44
297.831	298.44
298.062	285.44
298.292	312.44
298.523	287.44
298.753	310.44
298.984	312.44
299.214	283.44
299.445	319.44
299.675	302.44
299.905	318.44
300.136	314.44
300.366	305.44
300.597	305.44
300.827	311.44
301.057	315.44
301.288	331.44
301.518	332.44
301.748	302.44
301.979	331.44
302.209	322.44
302.439	316.44
302.669	328.44
302.9	327.44
303.13	318.44
303.36	326.44
303.59	331.44
303.82	317.44
304.051	340.44
304.281	337.44
304.511	349.44
304.741	340.44
304.971	329.44
305.201	336.44
305.431	335.44
305.661	325.44
305.891	310.44
306.121	322.44
306.352	328.44
306.582	333.44
306.812	329.44
307.042	316.44
307.272	330.44
307.502	326.44
307.731	329.44
307.961	336.44
308.191	326.44
308.421	324.44
308.651	310.44
308.881	313.44
309.111	333.44
309.341	333.44
309.571	342.44
309.8	360.44
310.03	328.44
310.26	361.44
310.49	348.44
310.72	340.44
310.949	345.44
311.179	361.44
311.409	348.44
311.639	348.44
311.868	359.44
312.098	356.44
312.328	354.44
312.557	372.44
312.787	372.44
313.017	358.44
313.246	340.44
313.476	349.44
313.706	350.44
313.935	367.44
314.165	373.44
314.394	386.44
314.624	370.44
314.853	348.44
315.083	365.44
315.312	367.44
315.542	359.44
315.771	345.44
316.001	360.44
316.23	336.44
316.46	360.44
316.689	358.44
316.919	387.44
317.148	366.44
317.377	384.44
317.607	359.44
317.836	352.44
318.065	357.44
318.295	349.44
318.524	370.44
318.753	373.44
318.983	347.44
319.212	372.44
319.441	357.44
319.67	370.44
319.9	359.44
320.129	383.44
320.358	387.44
320.587	356.44
320.816	368.44
321.046	370.44
321.275	389.44
321.504	380.44
321.733	366.44
321.962	384.44
322.191	374.44
322.42	370.44
322.649	396.44
322.878	396.44
323.108	413.44
323.337	428.44
323.566	430.44
323.795	444.44
324.024	467.44
324.253	508.44
324.482	708.44
324.71	1050.44
324.939	1498.44
325.168	1326.44
325.397	696.44
325.626	514.44
325.855	479.44
326.084	427.44
326.313	412.44
326.542	400.44
326.77	452.44
326.999	513.44
327.228	644.44
327.457	960.44
327.686	1162.44
327.914	807.44
328.143	545.44
328.372	489.44
328.6	464.44
328.829	432.44
329.058	470.44
329.287	492.44
329.515	479.44
329.744	445.44
329.972	422.44
330.201	429.44
330.43	452.44
330.658	476.44
330.887	475.44
331.115	496.44
331.344	434.44
331.572	436.44
331.801	431.44
332.03	446.44
332.258	431.44
332.486	438.44
332.715	436.44
332.943	408.44
333.172	444.44
333.4	451.44
333.629	456.44
333.857	452.44
334.085	445.44
334.314	466.44
334.542	497.44
334.771	496.44
334.999	441.44
335.227	458.44
335.455	458.44
335.684	449.44
335.912	425.44
336.14	432.44
336.369	431.44
336.597	453.44
336.825	414.44
337.053	417.44
337.281	413.44
337.51	421.44
337.738	411.44
337.966	422.44
338.194	417.44
338.422	410.44
338.65	421.44
338.878	416.44
339.106	424.44
339.334	411.44
339.562	412.44
339.79	395.44
340.018	398.44
340.246	418.44
340.474	405.44
340.702	421.44
340.93	409.44
341.158	412.44
341.386	398.44
341.614	412.44
341.842	394.44
342.07	406.44
342.298	408.44
342.526	397.44
342.754	384.44
342.981	405.44
343.209	425.44
343.437	420.44
343.665	416.44
343.893	424.44
344.12	427.44
344.348	440.44
344.576	431.44
344.804	440.44
345.031	424.44
345.259	424.44
345.487	417.44
345.714	410.44
345.942	400.44
346.17	406.44
346.397	397.44
346.625	409.44
346.853	394.44
347.08	389.44
347.308	390.44
347.535	397.44
347.763	406.44
347.99	408.44
348.218	401.44
348.445	413.44
348.673	412.44
348.9	384.44
349.128	397.44
349.355	390.44
349.583	373.44
349.81	382.44
350.037	382.44
350.265	407.44
350.492	384.44
350.72	386.44
350.947	375.44
351.174	391.44
351.402	397.44
351.629	377.44
351.856	399.44
352.083	394.44
352.311	398.44
352.538	405.44
352.765	384.44
352.992	390.44
353.22	385.44
353.447	382.44
353.674	373.44
353.901	391.44
354.128	386.44
354.355	384.44
354.583	401.44
354.81	384.44
355.037	395.44
355.264	383.44
355.491	374.44
355.718	362.44
355.945	354.44
356.172	366.44
356.399	355.44
356.626	376.44
356.853	380.44
357.08	374.44
357.307	361.44
357.534	373.44
357.761	361.44
357.988	384.44
358.215	381.44
358.441	374.44
358.668	379.44
358.895	396.44
359.122	404.44
359.349	388.44
359.576	388.44
359.802	387.44
360.029	422.44
360.256	408.44
360.483	423.44
360.709	394.44
360.936	391.44
361.163	376.44
361.39	403.44
361.616	414.44
361.843	388.44
362.07	380.44
362.296	382.44
362.523	412.44
362.749	373.44
362.976	400.44
363.203	382.44
363.429	385.44
363.656	374.44
363.882	381.44
364.109	368.44
364.335	382.44
364.562	372.44
364.788	377.44
365.015	381.44
365.241	403.44
365.468	385.44
365.694	383.44
365.92	380.44
366.147	380.44
366.373	380.44
366.599	394.44
366.826	366.44
367.052	388.44
367.278	359.44
367.505	392.44
367.731	418.44
367.957	391.44
368.184	388.44
368.41	402.44
368.636	382.44
368.862	404.44
369.089	382.44
369.315	380.44
369.541	400.44
369.767	375.44
369.993	364.44
370.219	374.44
370.445	406.44
370.672	380.44
370.898	387.44
371.124	369.44
371.35	366.44
371.576	396.44
371.802	396.44
372.028	384.44
372.254	378.44
372.48	390.44
372.706	396.44
372.932	403.44
373.158	391.44
373.384	379.44
373.61	388.44
373.835	396.44
374.061	383.44
374.287	394.44
374.513	398.44
374.739	404.44
374.965	418.44
375.191	408.44
375.416	431.44
375.642	399.44
375.868	401.44
376.094	401.44
376.319	403.44
376.545	384.44
376.771	383.44
376.997	386.44
377.222	381.44
377.448	401.44
377.674	394.44
377.899	390.44
378.125	384.44
378.35	389.44
378.576	394.44
378.802	400.44
379.027	376.44
379.253	400.44
379.478	384.44
379.704	403.44
379.929	408.44
380.155	385.44
380.38	375.44
380.606	407.44
380.831	394.44
381.057	410.44
381.282	390.44
381.507	397.44
381.733	393.44
381.958	387.44
382.184	383.44
382.409	408.44
382.634	408.44
382.86	411.44
383.085	408.44
383.31	420.44
383.535	424.44
383.761	407.44
383.986	416.44
384.211	414.44
384.436	425.44
384.662	414.44
384.887	414.44
385.112	441.44
385.337	431.44
385.562	450.44
385.787	432.44
386.013	458.44
386.238	441.44
386.463	419.44
386.688	436.44
386.913	463.44
387.138	428.44
387.363	438.44
387.588	446.44
387.813	439.44
388.038	457.44
388.263	426.44
388.488	410.44
388.713	451.44
388.938	436.44
389.163	440.44
389.387	439.44
389.612	422.44
389.837	440.44
390.062	418.44
390.287	427.44
390.512	432.44
390.736	434.44
390.961	436.44
391.186	426.44
391.411	450.44
391.636	482.44
391.86	449.44
392.085	443.44
392.31	446.44
392.534	452.44
392.759	455.44
392.984	429.44
393.208	448.44
393.433	449.44
393.658	440.44
393.882	450.44
394.107	425.44
394.331	441.44
394.556	436.44
394.78	431.44
395.005	465.44
395.229	456.44
395.454	461.44
395.678	456.44
395.903	465.44
396.127	478.44
396.352	484.44
396.576	464.44
396.801	465.44
397.025	477.44
397.249	455.44
397.474	460.44
397.698	476.44
397.922	491.44
398.147	478.44
398.371	498.44
398.595	501.44
398.82	502.44
399.044	502.44
399.268	533.44
399.492	579.44
399.717	617.44
399.941	636.44
400.165	612.44
400.389	637.44
400.613	584.44
400.837	544.44
401.062	524.44
401.286	520.44
401.51	517.44
401.734	500.44
401.958	496.44
402.182	499.44
402.406	524.44
402.63	505.44
402.854	522.44
403.078	529.44
403.302	522.44
403.526	527.44
403.75	543.44
403.974	539.44
404.198	524.44
404.422	557.44
404.645	526.44
404.869	543.44
405.093	557.44
405.317	584.44
405.541	602.44
405.765	572.44
405.988	531.44
406.212	536.44
406.436	566.44
406.66	577.44
406.883	559.44
407.107	608.44
407.331	626.44
407.555	679.44
407.778	659.44
408.002	617.44
408.226	588.44
408.449	576.44
408.673	544.44
408.896	586.44
409.12	622.44
409.344	615.44
409.567	580.44
409.791	550.44
410.014	519.44
410.238	504.44
410.461	557.44
410.685	540.44
410.908	553.44
411.132	570.44
411.355	578.44
411.578	568.44
411.802	534.44
412.025	502.44
412.249	533.44
412.472	544.44
412.695	576.44
412.919	561.44
413.142	536.44
413.365	497.44
413.589	505.44
413.812	500.44
414.035	496.44
414.258	495.44
414.482	495.44
414.705	494.44
414.928	491.44
415.151	505.44
415.374	470.44
415.597	490.44
415.821	493.44
416.044	498.44
416.267	490.44
416.49	485.44
416.713	495.44
416.936	482.44
417.159	533.44
417.382	494.44
417.605	478.44
417.828	486.44
418.051	513.44
418.274	523.44
418.497	485.44
418.72	503.44
418.943	510.44
419.166	508.44
419.389	556.44
419.611	522.44
419.834	537.44
420.057	536.44
420.28	522.44
420.503	507.44
420.726	521.44
420.948	536.44
421.171	570.44
421.394	577.44
421.617	526.44
421.839	493.44
422.062	511.44
422.285	521.44
422.507	575.44
422.73	629.44
422.953	612.44
423.175	563.44
423.398	530.44
423.621	524.44
423.843	538.44
424.066	564.44
424.288	547.44
424.511	575.44
424.733	609.44
424.956	696.44
425.178	632.44
425.401	606.44
425.623	648.44
425.846	568.44
426.068	532.44
426.291	538.44
426.513	533.44
426.735	557.44
426.958	564.44
427.18	632.44
427.402	757.44
427.625	811.44
427.847	688.44
428.069	611.44
428.292	555.44
428.514	516.44
428.736	500.44
428.958	489.44
429.181	499.44
429.403	493.44
429.625	490.44
429.847	536.44
430.069	600.44
430.292	555.44
430.514	516.44
430.736	504.44
430.958	489.44
431.18	485.44
431.402	487.44
431.624	461.44
431.846	479.44
432.068	466.44
432.29	470.44
432.512	460.44
432.734	493.44
432.956	477.44
433.178	487.44
433.4	479.44
433.622	462.44
433.844	464.44
434.066	474.44
434.287	501.44
434.509	497.44
434.731	496.44
434.953	515.44
435.175	516.44
435.397	541.44
435.618	521.44
435.84	549.44
436.062	632.44
436.284	700.44
436.505	591.44
436.727	514.44
436.949	495.44
437.17	503.44
437.392	502.44
437.614	491.44
437.835	522.44
438.057	587.44
438.278	691.44
438.5	679.44
438.721	765.44
438.943	748.44
439.165	560.44
439.386	531.44
439.608	536.44
439.829	536.44
440.05	553.44
440.272	576.44
440.493	556.44
440.715	516.44
440.936	520.44
441.158	509.44
441.379	488.44
441.6	521.44
441.822	528.44
442.043	573.44
442.264	621.44
442.486	669.44
442.707	582.44
442.928	544.44
443.149	542.44
443.371	585.44
443.592	592.44
443.813	689.44
444.034	745.44
444.255	598.44
444.476	561.44
444.698	552.44
444.919	544.44
445.14	640.44
445.361	614.44
445.582	556.44
445.803	611.44
446.024	684.44
446.245	696.44
446.466	635.44
446.687	546.44
446.908	525.44
447.129	504.44
447.35	513.44
447.571	509.44
447.792	484.44
448.013	490.44
448.234	503.44
448.455	542.44
448.675	629.44
448.896	725.44
449.117	619.44
449.338	588.44
449.559	689.44
449.779	798.44
450	602.44
450.221	536.44
450.442	503.44
450.662	484.44
450.883	468.44
451.104	476.44
451.324	453.44
451.545	463.44
451.766	448.44
451.986	434.44
452.207	443.44
452.428	429.44
452.648	450.44
452.869	455.44
453.089	429.44
453.31	462.44
453.53	445.44
453.751	424.44
453.971	414.44
454.192	431.44
454.412	440.44
454.633	431.44
454.853	426.44
455.073	420.44
455.294	458.44
455.514	502.44
455.734	494.44
455.955	418.44
456.175	407.44
456.395	413.44
456.616	430.44
456.836	397.44
457.056	422.44
457.276	404.44
457.497	431.44
457.717	410.44
457.937	426.44
458.157	430.44
458.377	414.44
458.598	441.44
458.818	470.44
459.038	536.44
459.258	568.44
459.478	522.44
459.698	465.44
459.918	471.44
460.138	482.44
460.358	475.44
460.578	479.44
460.798	488.44
461.018	523.44
461.238	505.44
461.458	498.44
461.678	502.44
461.898	490.44
462.118	504.44
462.338	514.44
462.558	520.44
462.777	545.44
462.997	550.44
463.217	555.44
463.437	594.44
463.657	565.44
463.876	564.44
464.096	529.44
464.316	530.44
464.536	529.44
464.755	545.44
464.975	529.44
465.195	542.44
465.414	566.44
465.634	537.44
465.854	482.44
466.073	500.44
466.293	478.44
466.512	477.44
466.732	462.44
466.951	464.44
467.171	463.44
467.391	461.44
467.61	462.44
467.829	472.44
468.049	458.44
468.268	438.44
468.488	460.44
468.707	445.44
468.927	448.44
469.146	428.44
469.365	446.44
469.585	438.44
469.804	443.44
470.023	466.44
470.243	455.44
470.462	458.44
470.681	474.44
470.901	487.44
471.12	444.44
471.339	475.44
471.558	473.44
471.777	457.44
471.997	457.44
472.216	446.44
472.435	466.44
472.654	450.44
472.873	437.44
473.092	448.44
473.311	439.44
473.53	441.44
473.749	458.44
473.968	491.44
474.187	568.44
474.406	588.44
474.625	502.44
474.844	475.44
475.063	464.44
475.282	454.44
475.501	464.44
475.72	516.44
475.939	463.44
476.158	494.44
476.377	459.44
476.596	478.44
476.814	484.44
477.033	473.44
477.252	501.44
477.471	488.44
477.69	506.44
477.908	522.44
478.127	483.44
478.346	504.44
478.564	520.44
478.783	521.44
479.002	532.44
479.22	561.44
479.439	524.44
479.658	514.44
479.876	558.44
480.095	566.44
480.313	582.44
480.532	600.44
480.751	566.44
480.969	538.44
481.188	581.44
481.406	605.44
481.624	546.44
481.843	553.44
482.061	548.44
482.28	522.44
482.498	547.44
482.717	557.44
482.935	530.44
483.153	532.44
483.372	520.44
483.59	531.44
483.808	526.44
484.027	523.44
484.245	538.44
484.463	545.44
484.681	527.44
484.9	553.44
485.118	570.44
485.336	540.44
485.554	540.44
485.772	556.44
485.99	548.44
486.209	542.44
486.427	570.44
486.645	570.44
486.863	587.44
487.081	573.44
487.299	598.44
487.517	583.44
487.735	562.44
487.953	574.44
488.171	559.44
488.389	558.44
488.607	580.44
488.825	573.44
489.043	579.44
489.261	591.44
489.479	584.44
489.696	585.44
489.914	585.44
490.132	586.44
490.35	582.44
490.568	587.44
490.786	588.44
491.003	589.44
491.221	616.44
491.439	631.44
491.657	619.44
491.874	619.44
492.092	631.44
492.31	639.44
492.527	640.44
492.745	636.44
492.963	633.44
493.18	629.44
493.398	638.44
493.615	665.44
493.833	670.44
494.05	656.44
494.268	676.44
494.485	664.44
494.703	648.44
494.92	646.44
495.138	656.44
495.355	668.44
495.573	648.44
495.79	673.44
496.008	668.44
496.225	685.44
496.442	684.44
496.66	683.44
496.877	665.44
497.094	681.44
497.312	702.44
497.529	692.44
497.746	696.44
497.963	736.44
498.181	740.44
498.398	740.44
498.615	756.44
498.832	764.44
499.049	808.44
499.267	847.44
499.484	878.44
499.701	914.44
499.918	945.44
500.135	1006.44
500.352	1082.44
500.569	1080.44
500.786	1104.44
501.003	1112.44
501.22	1026.44
501.437	980.44
501.654	947.44
