Data from 1976.PennyLincolnUp.Lamp.En5.5.200Scan.071719.P1.Changed Mount._HRD10591_15-59-35-860.txt Node
Date: Thu Jul 18 15:59:35 EDT 2019
User: cochatt
Spectrometer: HR+D1059
Trigger mode: 1
Integration Time (sec): 1.000000E-1
Scans to average: 1
Electric dark correction enabled: true
Nonlinearity correction enabled: false
Boxcar width: 0
XAxis mode: Wavelengths
Number of Pixels in Spectrum: 2048
>>>>>Begin Spectral Data<<<<<
223.165	-6.31
223.4	-6.31
223.635	-6.31
223.869	-31.31
224.104	-14.31
224.338	-12.31
224.573	-16.31
224.808	-3.31
225.042	-10.31
225.277	-1.31
225.511	-11.31
225.746	3.69
225.98	1.69
226.215	12.69
226.449	24.69
226.683	5.69
226.918	25.69
227.152	32.69
227.387	46.69
227.621	35.69
227.856	52.69
228.09	63.69
228.324	57.69
228.559	67.69
228.793	64.69
229.027	94.69
229.262	110.69
229.496	111.69
229.73	121.69
229.964	139.69
230.199	110.69
230.433	106.69
230.667	101.69
230.901	106.69
231.136	112.69
231.37	110.69
231.604	110.69
231.838	108.69
232.072	109.69
232.306	117.69
232.541	112.69
232.775	95.69
233.009	104.69
233.243	117.69
233.477	108.69
233.711	123.69
233.945	126.69
234.179	101.69
234.413	97.69
234.647	117.69
234.881	128.69
235.115	112.69
235.349	100.69
235.583	107.69
235.817	121.69
236.051	125.69
236.285	140.69
236.519	122.69
236.753	118.69
236.987	127.69
237.221	149.69
237.455	185.69
237.689	173.69
237.922	136.69
238.156	130.69
238.39	121.69
238.624	118.69
238.858	152.69
239.091	135.69
239.325	142.69
239.559	120.69
239.793	110.69
240.027	131.69
240.26	144.69
240.494	146.69
240.728	135.69
240.961	138.69
241.195	138.69
241.429	129.69
241.662	126.69
241.896	121.69
242.13	144.69
242.363	128.69
242.597	123.69
242.83	141.69
243.064	126.69
243.298	140.69
243.531	151.69
243.765	144.69
243.998	123.69
244.232	139.69
244.465	136.69
244.699	149.69
244.932	140.69
245.166	149.69
245.399	129.69
245.633	136.69
245.866	169.69
246.099	142.69
246.333	150.69
246.566	143.69
246.8	156.69
247.033	154.69
247.266	154.69
247.5	165.69
247.733	150.69
247.966	166.69
248.2	176.69
248.433	159.69
248.666	171.69
248.899	183.69
249.133	181.69
249.366	206.69
249.599	168.69
249.832	156.69
250.066	174.69
250.299	158.69
250.532	182.69
250.765	191.69
250.998	185.69
251.231	205.69
251.465	210.69
251.698	206.69
251.931	182.69
252.164	173.69
252.397	191.69
252.63	182.69
252.863	193.69
253.096	172.69
253.329	190.69
253.562	197.69
253.795	206.69
254.028	216.69
254.261	201.69
254.494	208.69
254.727	239.69
254.96	235.69
255.193	220.69
255.426	220.69
255.659	204.69
255.892	212.69
256.124	202.69
256.357	211.69
256.59	197.69
256.823	207.69
257.056	192.69
257.289	199.69
257.521	192.69
257.754	186.69
257.987	187.69
258.22	190.69
258.452	189.69
258.685	197.69
258.918	225.69
259.151	195.69
259.383	206.69
259.616	204.69
259.849	192.69
260.081	223.69
260.314	208.69
260.547	237.69
260.779	244.69
261.012	210.69
261.244	217.69
261.477	213.69
261.71	214.69
261.942	218.69
262.175	222.69
262.407	209.69
262.64	214.69
262.872	207.69
263.105	213.69
263.337	200.69
263.57	209.69
263.802	191.69
264.035	222.69
264.267	219.69
264.499	184.69
264.732	212.69
264.964	199.69
265.197	195.69
265.429	216.69
265.661	205.69
265.894	206.69
266.126	204.69
266.358	196.69
266.591	204.69
266.823	211.69
267.055	216.69
267.287	204.69
267.52	201.69
267.752	230.69
267.984	221.69
268.216	233.69
268.448	227.69
268.681	221.69
268.913	240.69
269.145	230.69
269.377	259.69
269.609	238.69
269.841	252.69
270.073	262.69
270.306	266.69
270.538	277.69
270.77	296.69
271.002	261.69
271.234	272.69
271.466	272.69
271.698	285.69
271.93	297.69
272.162	305.69
272.394	289.69
272.626	287.69
272.858	262.69
273.09	259.69
273.322	236.69
273.553	236.69
273.785	250.69
274.017	245.69
274.249	252.69
274.481	238.69
274.713	257.69
274.945	253.69
275.176	263.69
275.408	257.69
275.64	244.69
275.872	247.69
276.104	253.69
276.335	251.69
276.567	268.69
276.799	281.69
277.031	282.69
277.262	277.69
277.494	309.69
277.726	270.69
277.957	266.69
278.189	256.69
278.421	266.69
278.652	246.69
278.884	260.69
279.115	259.69
279.347	273.69
279.579	238.69
279.81	256.69
280.042	272.69
280.273	260.69
280.505	265.69
280.736	259.69
280.968	244.69
281.199	248.69
281.431	268.69
281.662	260.69
281.894	277.69
282.125	266.69
282.356	273.69
282.588	271.69
282.819	295.69
283.051	278.69
283.282	253.69
283.513	246.69
283.745	267.69
283.976	279.69
284.207	273.69
284.439	275.69
284.67	261.69
284.901	260.69
285.132	265.69
285.364	261.69
285.595	272.69
285.826	260.69
286.057	286.69
286.288	272.69
286.52	285.69
286.751	272.69
286.982	281.69
287.213	277.69
287.444	297.69
287.675	279.69
287.906	277.69
288.138	301.69
288.369	285.69
288.6	297.69
288.831	308.69
289.062	276.69
289.293	273.69
289.524	286.69
289.755	267.69
289.986	286.69
290.217	276.69
290.448	274.69
290.679	292.69
290.91	277.69
291.141	254.69
291.371	266.69
291.602	268.69
291.833	289.69
292.064	287.69
292.295	280.69
292.526	272.69
292.757	283.69
292.987	282.69
293.218	284.69
293.449	296.69
293.68	278.69
293.91	273.69
294.141	291.69
294.372	274.69
294.603	263.69
294.833	300.69
295.064	307.69
295.295	285.69
295.525	312.69
295.756	266.69
295.987	296.69
296.217	307.69
296.448	321.69
296.679	304.69
296.909	306.69
297.14	311.69
297.37	308.69
297.601	303.69
297.831	317.69
298.062	313.69
298.292	309.69
298.523	307.69
298.753	299.69
298.984	294.69
299.214	302.69
299.445	307.69
299.675	300.69
299.905	302.69
300.136	303.69
300.366	299.69
300.597	307.69
300.827	304.69
301.057	313.69
301.288	305.69
301.518	295.69
301.748	313.69
301.979	327.69
302.209	333.69
302.439	325.69
302.669	300.69
302.9	331.69
303.13	319.69
303.36	330.69
303.59	322.69
303.82	330.69
304.051	334.69
304.281	325.69
304.511	333.69
304.741	317.69
304.971	331.69
305.201	319.69
305.431	325.69
305.661	320.69
305.891	306.69
306.121	315.69
306.352	316.69
306.582	321.69
306.812	326.69
307.042	317.69
307.272	319.69
307.502	339.69
307.731	331.69
307.961	337.69
308.191	314.69
308.421	325.69
308.651	337.69
308.881	315.69
309.111	329.69
309.341	325.69
309.571	331.69
309.8	336.69
310.03	337.69
310.26	321.69
310.49	344.69
310.72	347.69
310.949	357.69
311.179	368.69
311.409	359.69
311.639	335.69
311.868	348.69
312.098	371.69
312.328	352.69
312.557	363.69
312.787	347.69
313.017	358.69
313.246	345.69
313.476	346.69
313.706	349.69
313.935	375.69
314.165	347.69
314.394	365.69
314.624	357.69
314.853	358.69
315.083	361.69
315.312	363.69
315.542	346.69
315.771	370.69
316.001	362.69
316.23	334.69
316.46	343.69
316.689	342.69
316.919	351.69
317.148	351.69
317.377	358.69
317.607	349.69
317.836	348.69
318.065	344.69
318.295	360.69
318.524	338.69
318.753	374.69
318.983	368.69
319.212	361.69
319.441	346.69
319.67	362.69
319.9	376.69
320.129	363.69
320.358	356.69
320.587	371.69
320.816	379.69
321.046	359.69
321.275	369.69
321.504	374.69
321.733	374.69
321.962	382.69
322.191	399.69
322.42	382.69
322.649	390.69
322.878	406.69
323.108	419.69
323.337	397.69
323.566	404.69
323.795	421.69
324.024	455.69
324.253	520.69
324.482	667.69
324.71	1008.69
324.939	1519.69
325.168	1319.69
325.397	686.69
325.626	521.69
325.855	433.69
326.084	416.69
326.313	415.69
326.542	397.69
326.77	439.69
326.999	487.69
327.228	670.69
327.457	951.69
327.686	1163.69
327.914	760.69
328.143	545.69
328.372	476.69
328.6	453.69
328.829	462.69
329.058	457.69
329.287	455.69
329.515	444.69
329.744	428.69
329.972	422.69
330.201	438.69
330.43	461.69
330.658	467.69
330.887	483.69
331.115	480.69
331.344	437.69
331.572	447.69
331.801	427.69
332.03	431.69
332.258	415.69
332.486	431.69
332.715	418.69
332.943	415.69
333.172	427.69
333.4	436.69
333.629	437.69
333.857	463.69
334.085	467.69
334.314	475.69
334.542	463.69
334.771	493.69
334.999	442.69
335.227	453.69
335.455	449.69
335.684	405.69
335.912	435.69
336.14	420.69
336.369	430.69
336.597	434.69
336.825	453.69
337.053	441.69
337.281	424.69
337.51	396.69
337.738	407.69
337.966	413.69
338.194	426.69
338.422	405.69
338.65	443.69
338.878	409.69
339.106	411.69
339.334	418.69
339.562	410.69
339.79	397.69
340.018	409.69
340.246	413.69
340.474	416.69
340.702	413.69
340.93	404.69
341.158	419.69
341.386	402.69
341.614	417.69
341.842	392.69
342.07	401.69
342.298	391.69
342.526	388.69
342.754	400.69
342.981	392.69
343.209	383.69
343.437	427.69
343.665	417.69
343.893	435.69
344.12	415.69
344.348	419.69
344.576	404.69
344.804	427.69
345.031	439.69
345.259	412.69
345.487	415.69
345.714	399.69
345.942	402.69
346.17	407.69
346.397	393.69
346.625	389.69
346.853	379.69
347.08	383.69
347.308	382.69
347.535	393.69
347.763	391.69
347.99	410.69
348.218	407.69
348.445	395.69
348.673	388.69
348.9	377.69
349.128	411.69
349.355	385.69
349.583	371.69
349.81	376.69
350.037	392.69
350.265	377.69
350.492	390.69
350.72	366.69
350.947	381.69
351.174	377.69
351.402	384.69
351.629	395.69
351.856	391.69
352.083	405.69
352.311	394.69
352.538	389.69
352.765	403.69
352.992	401.69
353.22	383.69
353.447	369.69
353.674	373.69
353.901	368.69
354.128	383.69
354.355	380.69
354.583	363.69
354.81	376.69
355.037	387.69
355.264	375.69
355.491	370.69
355.718	364.69
355.945	365.69
356.172	373.69
356.399	363.69
356.626	371.69
356.853	371.69
357.08	360.69
357.307	385.69
357.534	355.69
357.761	375.69
357.988	381.69
358.215	367.69
358.441	377.69
358.668	373.69
358.895	394.69
359.122	379.69
359.349	368.69
359.576	371.69
359.802	393.69
360.029	404.69
360.256	405.69
360.483	419.69
360.709	383.69
360.936	383.69
361.163	384.69
361.39	393.69
361.616	390.69
361.843	372.69
362.07	384.69
362.296	372.69
362.523	388.69
362.749	396.69
362.976	390.69
363.203	387.69
363.429	382.69
363.656	390.69
363.882	381.69
364.109	382.69
364.335	374.69
364.562	375.69
364.788	348.69
365.015	375.69
365.241	361.69
365.468	375.69
365.694	382.69
365.92	373.69
366.147	381.69
366.373	391.69
366.599	373.69
366.826	375.69
367.052	374.69
367.278	377.69
367.505	386.69
367.731	383.69
367.957	352.69
368.184	372.69
368.41	374.69
368.636	394.69
368.862	390.69
369.089	387.69
369.315	364.69
369.541	375.69
369.767	383.69
369.993	394.69
370.219	371.69
370.445	371.69
370.672	380.69
370.898	389.69
371.124	375.69
371.35	386.69
371.576	385.69
371.802	393.69
372.028	375.69
372.254	394.69
372.48	390.69
372.706	390.69
372.932	384.69
373.158	380.69
373.384	388.69
373.61	385.69
373.835	378.69
374.061	396.69
374.287	386.69
374.513	389.69
374.739	396.69
374.965	398.69
375.191	395.69
375.416	404.69
375.642	404.69
375.868	406.69
376.094	384.69
376.319	381.69
376.545	387.69
376.771	393.69
376.997	393.69
377.222	385.69
377.448	402.69
377.674	376.69
377.899	374.69
378.125	384.69
378.35	389.69
378.576	382.69
378.802	375.69
379.027	392.69
379.253	373.69
379.478	383.69
379.704	391.69
379.929	395.69
380.155	402.69
380.38	381.69
380.606	406.69
380.831	398.69
381.057	385.69
381.282	388.69
381.507	368.69
381.733	413.69
381.958	377.69
382.184	402.69
382.409	373.69
382.634	396.69
382.86	395.69
383.085	400.69
383.31	414.69
383.535	411.69
383.761	415.69
383.986	420.69
384.211	436.69
384.436	426.69
384.662	424.69
384.887	434.69
385.112	427.69
385.337	431.69
385.562	432.69
385.787	427.69
386.013	445.69
386.238	466.69
386.463	441.69
386.688	447.69
386.913	433.69
387.138	434.69
387.363	437.69
387.588	422.69
387.813	436.69
388.038	430.69
388.263	449.69
388.488	452.69
388.713	427.69
388.938	443.69
389.163	433.69
389.387	449.69
389.612	415.69
389.837	425.69
390.062	409.69
390.287	441.69
390.512	436.69
390.736	441.69
390.961	429.69
391.186	411.69
391.411	420.69
391.636	445.69
391.86	467.69
392.085	474.69
392.31	453.69
392.534	449.69
392.759	428.69
392.984	454.69
393.208	440.69
393.433	450.69
393.658	436.69
393.882	425.69
394.107	441.69
394.331	447.69
394.556	431.69
394.78	460.69
395.005	439.69
395.229	434.69
395.454	443.69
395.678	450.69
395.903	457.69
396.127	470.69
396.352	508.69
396.576	458.69
396.801	458.69
397.025	443.69
397.249	462.69
397.474	464.69
397.698	454.69
397.922	465.69
398.147	479.69
398.371	507.69
398.595	516.69
398.82	507.69
399.044	535.69
399.268	527.69
399.492	567.69
399.717	592.69
399.941	623.69
400.165	633.69
400.389	625.69
400.613	579.69
400.837	533.69
401.062	527.69
401.286	507.69
401.51	502.69
401.734	506.69
401.958	513.69
402.182	501.69
402.406	502.69
402.63	487.69
402.854	521.69
403.078	508.69
403.302	515.69
403.526	507.69
403.75	525.69
403.974	515.69
404.198	517.69
404.422	525.69
404.645	528.69
404.869	526.69
405.093	567.69
405.317	590.69
405.541	606.69
405.765	557.69
405.988	541.69
406.212	537.69
406.436	547.69
406.66	540.69
406.883	544.69
407.107	604.69
407.331	619.69
407.555	657.69
407.778	691.69
408.002	596.69
408.226	598.69
408.449	555.69
408.673	558.69
408.896	583.69
409.12	600.69
409.344	602.69
409.567	561.69
409.791	529.69
410.014	526.69
410.238	526.69
410.461	520.69
410.685	533.69
410.908	527.69
411.132	575.69
411.355	581.69
411.578	579.69
411.802	535.69
412.025	520.69
412.249	513.69
412.472	533.69
412.695	581.69
412.919	553.69
413.142	519.69
413.365	515.69
413.589	516.69
413.812	510.69
414.035	491.69
414.258	496.69
414.482	492.69
414.705	489.69
414.928	506.69
415.151	498.69
415.374	483.69
415.597	469.69
415.821	480.69
416.044	491.69
416.267	469.69
416.49	501.69
416.713	462.69
416.936	471.69
417.159	460.69
417.382	485.69
417.605	513.69
417.828	502.69
418.051	515.69
418.274	500.69
418.497	495.69
418.72	495.69
418.943	495.69
419.166	501.69
419.389	530.69
419.611	520.69
419.834	514.69
420.057	523.69
420.28	511.69
420.503	500.69
420.726	511.69
420.948	493.69
421.171	541.69
421.394	586.69
421.617	525.69
421.839	517.69
422.062	517.69
422.285	502.69
422.507	569.69
422.73	616.69
422.953	621.69
423.175	550.69
423.398	535.69
423.621	540.69
423.843	519.69
424.066	546.69
424.288	547.69
424.511	566.69
424.733	604.69
424.956	671.69
425.178	645.69
425.401	623.69
425.623	637.69
425.846	579.69
426.068	557.69
426.291	514.69
426.513	491.69
426.735	538.69
426.958	547.69
427.18	618.69
427.402	725.69
427.625	819.69
427.847	684.69
428.069	589.69
428.292	543.69
428.514	496.69
428.736	499.69
428.958	486.69
429.181	482.69
429.403	493.69
429.625	488.69
429.847	526.69
430.069	575.69
430.292	580.69
430.514	506.69
430.736	485.69
430.958	500.69
431.18	474.69
431.402	457.69
431.624	458.69
431.846	464.69
432.068	472.69
432.29	465.69
432.512	478.69
432.734	482.69
432.956	482.69
433.178	491.69
433.4	484.69
433.622	482.69
433.844	457.69
434.066	460.69
434.287	458.69
434.509	500.69
434.731	493.69
434.953	503.69
435.175	497.69
435.397	569.69
435.618	529.69
435.84	555.69
436.062	637.69
436.284	687.69
436.505	562.69
436.727	534.69
436.949	492.69
437.17	475.69
437.392	496.69
437.614	488.69
437.835	484.69
438.057	580.69
438.278	673.69
438.5	658.69
438.721	771.69
438.943	750.69
439.165	570.69
439.386	509.69
439.608	517.69
439.829	531.69
440.05	541.69
440.272	556.69
440.493	546.69
440.715	517.69
440.936	491.69
441.158	490.69
441.379	504.69
441.6	526.69
441.822	523.69
442.043	542.69
442.264	606.69
442.486	663.69
442.707	574.69
442.928	535.69
443.149	533.69
443.371	560.69
443.592	612.69
443.813	666.69
444.034	725.69
444.255	612.69
444.476	553.69
444.698	561.69
444.919	564.69
445.14	633.69
445.361	592.69
445.582	569.69
445.803	596.69
446.024	691.69
446.245	717.69
446.466	640.69
446.687	562.69
446.908	520.69
447.129	483.69
447.35	489.69
447.571	497.69
447.792	484.69
448.013	469.69
448.234	499.69
448.455	525.69
448.675	624.69
448.896	726.69
449.117	608.69
449.338	567.69
449.559	675.69
449.779	778.69
450	618.69
450.221	522.69
450.442	481.69
450.662	485.69
450.883	465.69
451.104	452.69
451.324	468.69
451.545	433.69
451.766	421.69
451.986	424.69
452.207	437.69
452.428	428.69
452.648	434.69
452.869	455.69
453.089	447.69
453.31	445.69
453.53	435.69
453.751	443.69
453.971	425.69
454.192	441.69
454.412	435.69
454.633	424.69
454.853	401.69
455.073	425.69
455.294	455.69
455.514	490.69
455.734	482.69
455.955	451.69
456.175	426.69
456.395	419.69
456.616	424.69
456.836	412.69
457.056	405.69
457.276	409.69
457.497	430.69
457.717	420.69
457.937	417.69
458.157	425.69
458.377	420.69
458.598	448.69
458.818	456.69
459.038	504.69
459.258	538.69
459.478	490.69
459.698	468.69
459.918	458.69
460.138	469.69
460.358	487.69
460.578	487.69
460.798	519.69
461.018	504.69
461.238	495.69
461.458	478.69
461.678	485.69
461.898	517.69
462.118	479.69
462.338	506.69
462.558	495.69
462.777	553.69
462.997	557.69
463.217	549.69
463.437	573.69
463.657	541.69
463.876	535.69
464.096	537.69
464.316	545.69
464.536	534.69
464.755	511.69
464.975	527.69
465.195	532.69
465.414	544.69
465.634	531.69
465.854	494.69
466.073	475.69
466.293	452.69
466.512	455.69
466.732	431.69
466.951	463.69
467.171	472.69
467.391	448.69
467.61	446.69
467.829	448.69
468.049	443.69
468.268	449.69
468.488	445.69
468.707	436.69
468.927	435.69
469.146	440.69
469.365	452.69
469.585	455.69
469.804	456.69
470.023	462.69
470.243	452.69
470.462	461.69
470.681	473.69
470.901	472.69
471.12	460.69
471.339	458.69
471.558	459.69
471.777	467.69
471.997	438.69
472.216	451.69
472.435	451.69
472.654	470.69
472.873	472.69
473.092	447.69
473.311	446.69
473.53	440.69
473.749	462.69
473.968	490.69
474.187	551.69
474.406	571.69
474.625	497.69
474.844	471.69
475.063	463.69
475.282	448.69
475.501	453.69
475.72	473.69
475.939	460.69
476.158	466.69
476.377	463.69
476.596	463.69
476.814	462.69
477.033	478.69
477.252	490.69
477.471	510.69
477.69	528.69
477.908	502.69
478.127	514.69
478.346	517.69
478.564	515.69
478.783	526.69
479.002	536.69
479.22	517.69
479.439	524.69
479.658	546.69
479.876	541.69
480.095	555.69
480.313	598.69
480.532	560.69
480.751	577.69
480.969	572.69
481.188	585.69
481.406	583.69
481.624	565.69
481.843	524.69
482.061	533.69
482.28	530.69
482.498	529.69
482.717	508.69
482.935	529.69
483.153	528.69
483.372	524.69
483.59	522.69
483.808	507.69
484.027	497.69
484.245	510.69
484.463	515.69
484.681	547.69
484.9	556.69
485.118	538.69
485.336	542.69
485.554	549.69
485.772	544.69
485.99	520.69
486.209	563.69
486.427	536.69
486.645	556.69
486.863	551.69
487.081	579.69
487.299	577.69
487.517	564.69
487.735	542.69
487.953	547.69
488.171	578.69
488.389	576.69
488.607	578.69
488.825	556.69
489.043	571.69
489.261	542.69
489.479	560.69
489.696	581.69
489.914	579.69
490.132	571.69
490.35	573.69
490.568	579.69
490.786	599.69
491.003	578.69
491.221	597.69
491.439	605.69
491.657	627.69
491.874	652.69
492.092	614.69
492.31	637.69
492.527	627.69
492.745	641.69
492.963	636.69
493.18	636.69
493.398	637.69
493.615	658.69
493.833	667.69
494.05	664.69
494.268	641.69
494.485	651.69
494.703	669.69
494.92	658.69
495.138	642.69
495.355	636.69
495.573	661.69
495.79	648.69
496.008	669.69
496.225	660.69
496.442	672.69
496.66	638.69
496.877	679.69
497.094	672.69
497.312	653.69
497.529	677.69
497.746	710.69
497.963	707.69
498.181	709.69
498.398	743.69
498.615	779.69
498.832	759.69
499.049	808.69
499.267	843.69
499.484	869.69
499.701	907.69
499.918	926.69
500.135	1013.69
500.352	1055.69
500.569	1062.69
500.786	1077.69
501.003	1072.69
501.22	1027.69
501.437	976.69
501.654	947.69
