Data from 1976.PennyLincolnUp.Lamp.En5.5.200Scan.071719.P1.Changed Mount._HRD10591_16-01-36-861.txt Node
Date: Thu Jul 18 16:01:36 EDT 2019
User: cochatt
Spectrometer: HR+D1059
Trigger mode: 1
Integration Time (sec): 1.000000E-1
Scans to average: 1
Electric dark correction enabled: true
Nonlinearity correction enabled: false
Boxcar width: 0
XAxis mode: Wavelengths
Number of Pixels in Spectrum: 2048
>>>>>Begin Spectral Data<<<<<
223.165	-22.56
223.4	-22.56
223.635	-22.56
223.869	-12.56
224.104	-23.56
224.338	-9.56
224.573	-14.56
224.808	-14.56
225.042	-11.56
225.277	-4.56
225.511	-3.56
225.746	3.44
225.98	11.44
226.215	13.44
226.449	10.44
226.683	20.44
226.918	24.44
227.152	33.44
227.387	33.44
227.621	35.44
227.856	38.44
228.09	46.44
228.324	47.44
228.559	37.44
228.793	56.44
229.027	80.44
229.262	105.44
229.496	105.44
229.73	116.44
229.964	151.44
230.199	139.44
230.433	109.44
230.667	122.44
230.901	135.44
231.136	109.44
231.37	102.44
231.604	114.44
231.838	117.44
232.072	119.44
232.306	110.44
232.541	122.44
232.775	98.44
233.009	110.44
233.243	129.44
233.477	127.44
233.711	123.44
233.945	100.44
234.179	108.44
234.413	123.44
234.647	120.44
234.881	115.44
235.115	116.44
235.349	122.44
235.583	118.44
235.817	98.44
236.051	127.44
236.285	121.44
236.519	121.44
236.753	139.44
236.987	135.44
237.221	175.44
237.455	231.44
237.689	184.44
237.922	149.44
238.156	146.44
238.39	143.44
238.624	130.44
238.858	134.44
239.091	114.44
239.325	124.44
239.559	127.44
239.793	129.44
240.027	143.44
240.26	142.44
240.494	173.44
240.728	163.44
240.961	158.44
241.195	139.44
241.429	152.44
241.662	144.44
241.896	146.44
242.13	133.44
242.363	132.44
242.597	144.44
242.83	151.44
243.064	136.44
243.298	141.44
243.531	147.44
243.765	134.44
243.998	152.44
244.232	141.44
244.465	152.44
244.699	155.44
244.932	133.44
245.166	148.44
245.399	156.44
245.633	150.44
245.866	141.44
246.099	141.44
246.333	146.44
246.566	157.44
246.8	168.44
247.033	161.44
247.266	156.44
247.5	168.44
247.733	185.44
247.966	186.44
248.2	178.44
248.433	181.44
248.666	180.44
248.899	188.44
249.133	219.44
249.366	199.44
249.599	187.44
249.832	184.44
250.066	195.44
250.299	173.44
250.532	178.44
250.765	211.44
250.998	226.44
251.231	225.44
251.465	216.44
251.698	204.44
251.931	199.44
252.164	197.44
252.397	198.44
252.63	212.44
252.863	220.44
253.096	235.44
253.329	222.44
253.562	221.44
253.795	234.44
254.028	224.44
254.261	223.44
254.494	229.44
254.727	245.44
254.96	290.44
255.193	264.44
255.426	273.44
255.659	236.44
255.892	240.44
256.124	243.44
256.357	253.44
256.59	249.44
256.823	237.44
257.056	237.44
257.289	212.44
257.521	215.44
257.754	225.44
257.987	225.44
258.22	221.44
258.452	205.44
258.685	198.44
258.918	212.44
259.151	236.44
259.383	214.44
259.616	214.44
259.849	221.44
260.081	255.44
260.314	264.44
260.547	269.44
260.779	275.44
261.012	253.44
261.244	241.44
261.477	245.44
261.71	219.44
261.942	227.44
262.175	231.44
262.407	244.44
262.64	218.44
262.872	226.44
263.105	222.44
263.337	228.44
263.57	218.44
263.802	230.44
264.035	213.44
264.267	221.44
264.499	216.44
264.732	243.44
264.964	203.44
265.197	222.44
265.429	221.44
265.661	223.44
265.894	228.44
266.126	218.44
266.358	221.44
266.591	240.44
266.823	243.44
267.055	234.44
267.287	253.44
267.52	235.44
267.752	242.44
267.984	245.44
268.216	247.44
268.448	259.44
268.681	248.44
268.913	246.44
269.145	301.44
269.377	290.44
269.609	298.44
269.841	293.44
270.073	312.44
270.306	316.44
270.538	330.44
270.77	307.44
271.002	309.44
271.234	327.44
271.466	308.44
271.698	323.44
271.93	323.44
272.162	344.44
272.394	332.44
272.626	316.44
272.858	278.44
273.09	289.44
273.322	296.44
273.553	277.44
273.785	286.44
274.017	283.44
274.249	285.44
274.481	286.44
274.713	274.44
274.945	301.44
275.176	288.44
275.408	280.44
275.64	301.44
275.872	289.44
276.104	280.44
276.335	291.44
276.567	288.44
276.799	301.44
277.031	313.44
277.262	318.44
277.494	338.44
277.726	316.44
277.957	312.44
278.189	305.44
278.421	300.44
278.652	293.44
278.884	298.44
279.115	280.44
279.347	278.44
279.579	284.44
279.81	288.44
280.042	298.44
280.273	279.44
280.505	304.44
280.736	279.44
280.968	295.44
281.199	301.44
281.431	296.44
281.662	296.44
281.894	293.44
282.125	291.44
282.356	286.44
282.588	316.44
282.819	307.44
283.051	291.44
283.282	301.44
283.513	297.44
283.745	302.44
283.976	297.44
284.207	299.44
284.439	316.44
284.67	320.44
284.901	285.44
285.132	312.44
285.364	305.44
285.595	303.44
285.826	305.44
286.057	301.44
286.288	287.44
286.52	300.44
286.751	321.44
286.982	319.44
287.213	307.44
287.444	320.44
287.675	325.44
287.906	313.44
288.138	325.44
288.369	325.44
288.6	342.44
288.831	313.44
289.062	310.44
289.293	329.44
289.524	320.44
289.755	294.44
289.986	321.44
290.217	324.44
290.448	321.44
290.679	334.44
290.91	311.44
291.141	312.44
291.371	324.44
291.602	313.44
291.833	326.44
292.064	317.44
292.295	313.44
292.526	313.44
292.757	325.44
292.987	313.44
293.218	337.44
293.449	318.44
293.68	318.44
293.91	311.44
294.141	303.44
294.372	308.44
294.603	325.44
294.833	312.44
295.064	320.44
295.295	325.44
295.525	315.44
295.756	348.44
295.987	357.44
296.217	337.44
296.448	353.44
296.679	334.44
296.909	330.44
297.14	301.44
297.37	322.44
297.601	332.44
297.831	319.44
298.062	332.44
298.292	323.44
298.523	317.44
298.753	327.44
298.984	345.44
299.214	337.44
299.445	361.44
299.675	353.44
299.905	349.44
300.136	337.44
300.366	317.44
300.597	345.44
300.827	333.44
301.057	346.44
301.288	361.44
301.518	353.44
301.748	366.44
301.979	358.44
302.209	339.44
302.439	376.44
302.669	372.44
302.9	345.44
303.13	361.44
303.36	346.44
303.59	356.44
303.82	365.44
304.051	373.44
304.281	365.44
304.511	354.44
304.741	360.44
304.971	348.44
305.201	361.44
305.431	373.44
305.661	360.44
305.891	359.44
306.121	357.44
306.352	360.44
306.582	347.44
306.812	371.44
307.042	349.44
307.272	356.44
307.502	365.44
307.731	369.44
307.961	365.44
308.191	361.44
308.421	371.44
308.651	384.44
308.881	359.44
309.111	358.44
309.341	378.44
309.571	382.44
309.8	369.44
310.03	404.44
310.26	404.44
310.49	381.44
310.72	388.44
310.949	404.44
311.179	410.44
311.409	406.44
311.639	394.44
311.868	393.44
312.098	409.44
312.328	393.44
312.557	422.44
312.787	406.44
313.017	413.44
313.246	404.44
313.476	386.44
313.706	407.44
313.935	397.44
314.165	406.44
314.394	441.44
314.624	412.44
314.853	419.44
315.083	434.44
315.312	428.44
315.542	411.44
315.771	398.44
316.001	373.44
316.23	407.44
316.46	404.44
316.689	396.44
316.919	398.44
317.148	395.44
317.377	413.44
317.607	392.44
317.836	396.44
318.065	372.44
318.295	403.44
318.524	416.44
318.753	409.44
318.983	398.44
319.212	394.44
319.441	401.44
319.67	423.44
319.9	409.44
320.129	409.44
320.358	397.44
320.587	409.44
320.816	421.44
321.046	424.44
321.275	428.44
321.504	419.44
321.733	410.44
321.962	419.44
322.191	429.44
322.42	435.44
322.649	441.44
322.878	472.44
323.108	485.44
323.337	472.44
323.566	487.44
323.795	542.44
324.024	571.44
324.253	683.44
324.482	905.44
324.71	1404.44
324.939	2045.44
325.168	1794.44
325.397	922.44
325.626	636.44
325.855	531.44
326.084	501.44
326.313	499.44
326.542	526.44
326.77	542.44
326.999	637.44
327.228	839.44
327.457	1288.44
327.686	1591.44
327.914	1032.44
328.143	686.44
328.372	605.44
328.6	584.44
328.829	550.44
329.058	575.44
329.287	595.44
329.515	554.44
329.744	509.44
329.972	511.44
330.201	538.44
330.43	589.44
330.658	606.44
330.887	595.44
331.115	592.44
331.344	505.44
331.572	493.44
331.801	524.44
332.03	515.44
332.258	512.44
332.486	491.44
332.715	498.44
332.943	474.44
333.172	480.44
333.4	498.44
333.629	502.44
333.857	521.44
334.085	544.44
334.314	537.44
334.542	583.44
334.771	581.44
334.999	530.44
335.227	523.44
335.455	501.44
335.684	505.44
335.912	501.44
336.14	515.44
336.369	485.44
336.597	463.44
336.825	460.44
337.053	485.44
337.281	463.44
337.51	469.44
337.738	477.44
337.966	475.44
338.194	478.44
338.422	484.44
338.65	461.44
338.878	451.44
339.106	453.44
339.334	456.44
339.562	471.44
339.79	467.44
340.018	457.44
340.246	466.44
340.474	489.44
340.702	453.44
340.93	473.44
341.158	463.44
341.386	440.44
341.614	449.44
341.842	456.44
342.07	448.44
342.298	452.44
342.526	473.44
342.754	452.44
342.981	447.44
343.209	444.44
343.437	459.44
343.665	468.44
343.893	477.44
344.12	510.44
344.348	480.44
344.576	478.44
344.804	477.44
345.031	495.44
345.259	469.44
345.487	474.44
345.714	438.44
345.942	447.44
346.17	440.44
346.397	431.44
346.625	448.44
346.853	432.44
347.08	460.44
347.308	444.44
347.535	459.44
347.763	460.44
347.99	450.44
348.218	452.44
348.445	462.44
348.673	457.44
348.9	445.44
349.128	440.44
349.355	426.44
349.583	442.44
349.81	436.44
350.037	419.44
350.265	456.44
350.492	436.44
350.72	419.44
350.947	418.44
351.174	424.44
351.402	441.44
351.629	429.44
351.856	436.44
352.083	468.44
352.311	469.44
352.538	462.44
352.765	447.44
352.992	442.44
353.22	429.44
353.447	426.44
353.674	433.44
353.901	416.44
354.128	429.44
354.355	419.44
354.583	421.44
354.81	443.44
355.037	422.44
355.264	410.44
355.491	406.44
355.718	411.44
355.945	393.44
356.172	408.44
356.399	403.44
356.626	404.44
356.853	416.44
357.08	405.44
357.307	435.44
357.534	392.44
357.761	413.44
357.988	445.44
358.215	417.44
358.441	399.44
358.668	404.44
358.895	425.44
359.122	426.44
359.349	441.44
359.576	438.44
359.802	469.44
360.029	480.44
360.256	490.44
360.483	467.44
360.709	455.44
360.936	458.44
361.163	439.44
361.39	442.44
361.616	444.44
361.843	434.44
362.07	444.44
362.296	441.44
362.523	432.44
362.749	435.44
362.976	444.44
363.203	434.44
363.429	422.44
363.656	429.44
363.882	411.44
364.109	411.44
364.335	405.44
364.562	416.44
364.788	427.44
365.015	423.44
365.241	426.44
365.468	444.44
365.694	437.44
365.92	431.44
366.147	420.44
366.373	431.44
366.599	428.44
366.826	418.44
367.052	402.44
367.278	418.44
367.505	411.44
367.731	420.44
367.957	423.44
368.184	413.44
368.41	420.44
368.636	426.44
368.862	435.44
369.089	454.44
369.315	429.44
369.541	421.44
369.767	436.44
369.993	414.44
370.219	439.44
370.445	415.44
370.672	411.44
370.898	416.44
371.124	430.44
371.35	423.44
371.576	436.44
371.802	446.44
372.028	421.44
372.254	419.44
372.48	435.44
372.706	412.44
372.932	445.44
373.158	437.44
373.384	447.44
373.61	447.44
373.835	424.44
374.061	433.44
374.287	429.44
374.513	428.44
374.739	443.44
374.965	444.44
375.191	448.44
375.416	437.44
375.642	444.44
375.868	441.44
376.094	424.44
376.319	425.44
376.545	430.44
376.771	426.44
376.997	426.44
377.222	424.44
377.448	441.44
377.674	421.44
377.899	401.44
378.125	428.44
378.35	420.44
378.576	413.44
378.802	396.44
379.027	436.44
379.253	420.44
379.478	414.44
379.704	423.44
379.929	428.44
380.155	426.44
380.38	420.44
380.606	426.44
380.831	432.44
381.057	425.44
381.282	416.44
381.507	454.44
381.733	439.44
381.958	444.44
382.184	436.44
382.409	439.44
382.634	449.44
382.86	448.44
383.085	453.44
383.31	450.44
383.535	434.44
383.761	471.44
383.986	443.44
384.211	462.44
384.436	449.44
384.662	461.44
384.887	478.44
385.112	452.44
385.337	469.44
385.562	470.44
385.787	471.44
386.013	500.44
386.238	491.44
386.463	491.44
386.688	493.44
386.913	472.44
387.138	470.44
387.363	460.44
387.588	474.44
387.813	504.44
388.038	468.44
388.263	468.44
388.488	456.44
388.713	480.44
388.938	473.44
389.163	473.44
389.387	482.44
389.612	464.44
389.837	462.44
390.062	456.44
390.287	485.44
390.512	477.44
390.736	465.44
390.961	468.44
391.186	475.44
391.411	492.44
391.636	501.44
391.86	496.44
392.085	508.44
392.31	499.44
392.534	482.44
392.759	516.44
392.984	496.44
393.208	489.44
393.433	493.44
393.658	490.44
393.882	483.44
394.107	488.44
394.331	516.44
394.556	493.44
394.78	473.44
395.005	462.44
395.229	486.44
395.454	517.44
395.678	518.44
395.903	525.44
396.127	516.44
396.352	517.44
396.576	513.44
396.801	502.44
397.025	498.44
397.249	478.44
397.474	516.44
397.698	508.44
397.922	522.44
398.147	537.44
398.371	539.44
398.595	535.44
398.82	539.44
399.044	565.44
399.268	589.44
399.492	657.44
399.717	642.44
399.941	695.44
400.165	696.44
400.389	711.44
400.613	642.44
400.837	601.44
401.062	580.44
401.286	561.44
401.51	562.44
401.734	567.44
401.958	569.44
402.182	567.44
402.406	587.44
402.63	563.44
402.854	566.44
403.078	594.44
403.302	588.44
403.526	563.44
403.75	573.44
403.974	598.44
404.198	560.44
404.422	595.44
404.645	588.44
404.869	616.44
405.093	641.44
405.317	685.44
405.541	708.44
405.765	644.44
405.988	602.44
406.212	612.44
406.436	616.44
406.66	647.44
406.883	617.44
407.107	654.44
407.331	692.44
407.555	758.44
407.778	769.44
408.002	711.44
408.226	644.44
408.449	645.44
408.673	634.44
408.896	655.44
409.12	700.44
409.344	668.44
409.567	621.44
409.791	601.44
410.014	594.44
410.238	572.44
410.461	596.44
410.685	580.44
410.908	581.44
411.132	625.44
411.355	642.44
411.578	623.44
411.802	581.44
412.025	560.44
412.249	593.44
412.472	591.44
412.695	646.44
412.919	649.44
413.142	597.44
413.365	590.44
413.589	564.44
413.812	557.44
414.035	529.44
414.258	520.44
414.482	533.44
414.705	548.44
414.928	552.44
415.151	564.44
415.374	541.44
415.597	542.44
415.821	529.44
416.044	554.44
416.267	541.44
416.49	532.44
416.713	534.44
416.936	535.44
417.159	536.44
417.382	542.44
417.605	551.44
417.828	542.44
418.051	552.44
418.274	550.44
418.497	565.44
418.72	563.44
418.943	541.44
419.166	582.44
419.389	608.44
419.611	598.44
419.834	560.44
420.057	614.44
420.28	588.44
420.503	578.44
420.726	568.44
420.948	580.44
421.171	617.44
421.394	655.44
421.617	575.44
421.839	576.44
422.062	548.44
422.285	572.44
422.507	632.44
422.73	716.44
422.953	705.44
423.175	614.44
423.398	597.44
423.621	602.44
423.843	652.44
424.066	602.44
424.288	590.44
424.511	607.44
424.733	644.44
424.956	786.44
425.178	710.44
425.401	704.44
425.623	777.44
425.846	660.44
426.068	610.44
426.291	605.44
426.513	594.44
426.735	582.44
426.958	644.44
427.18	722.44
427.402	859.44
427.625	952.44
427.847	806.44
428.069	711.44
428.292	654.44
428.514	582.44
428.736	583.44
428.958	544.44
429.181	551.44
429.403	566.44
429.625	578.44
429.847	595.44
430.069	676.44
430.292	667.44
430.514	579.44
430.736	554.44
430.958	574.44
431.18	535.44
431.402	554.44
431.624	529.44
431.846	539.44
432.068	548.44
432.29	522.44
432.512	510.44
432.734	526.44
432.956	533.44
433.178	549.44
433.4	538.44
433.622	540.44
433.844	538.44
434.066	531.44
434.287	544.44
434.509	523.44
434.731	548.44
434.953	557.44
435.175	582.44
435.397	589.44
435.618	582.44
435.84	619.44
436.062	726.44
436.284	793.44
436.505	676.44
436.727	620.44
436.949	576.44
437.17	562.44
437.392	563.44
437.614	557.44
437.835	590.44
438.057	688.44
438.278	814.44
438.5	810.44
438.721	881.44
438.943	857.44
439.165	681.44
439.386	630.44
439.608	600.44
439.829	610.44
440.05	609.44
440.272	681.44
440.493	630.44
440.715	597.44
440.936	574.44
441.158	566.44
441.379	559.44
441.6	596.44
441.822	615.44
442.043	647.44
442.264	708.44
442.486	757.44
442.707	645.44
442.928	630.44
443.149	624.44
443.371	632.44
443.592	695.44
443.813	776.44
444.034	850.44
444.255	726.44
444.476	640.44
444.698	617.44
444.919	634.44
445.14	722.44
445.361	694.44
445.582	659.44
445.803	700.44
446.024	778.44
446.245	820.44
446.466	750.44
446.687	630.44
446.908	578.44
447.129	571.44
447.35	544.44
447.571	539.44
447.792	538.44
448.013	555.44
448.234	539.44
448.455	606.44
448.675	736.44
448.896	846.44
449.117	734.44
449.338	672.44
449.559	786.44
449.779	896.44
450	710.44
450.221	595.44
450.442	536.44
450.662	529.44
450.883	530.44
451.104	551.44
451.324	535.44
451.545	494.44
451.766	475.44
451.986	469.44
452.207	476.44
452.428	478.44
452.648	489.44
452.869	490.44
453.089	489.44
453.31	510.44
453.53	499.44
453.751	469.44
453.971	486.44
454.192	512.44
454.412	486.44
454.633	494.44
454.853	479.44
455.073	482.44
455.294	510.44
455.514	580.44
455.734	565.44
455.955	492.44
456.175	462.44
456.395	454.44
456.616	440.44
456.836	478.44
457.056	486.44
457.276	437.44
457.497	459.44
457.717	472.44
457.937	455.44
458.157	478.44
458.377	460.44
458.598	516.44
458.818	564.44
459.038	637.44
459.258	644.44
459.478	582.44
459.698	521.44
459.918	540.44
460.138	545.44
460.358	542.44
460.578	564.44
460.798	564.44
461.018	563.44
461.238	553.44
461.458	540.44
461.678	544.44
461.898	548.44
462.118	568.44
462.338	577.44
462.558	578.44
462.777	585.44
462.997	607.44
463.217	622.44
463.437	634.44
463.657	609.44
463.876	605.44
464.096	609.44
464.316	582.44
464.536	604.44
464.755	596.44
464.975	598.44
465.195	586.44
465.414	655.44
465.634	610.44
465.854	525.44
466.073	522.44
466.293	536.44
466.512	501.44
466.732	505.44
466.951	497.44
467.171	505.44
467.391	512.44
467.61	493.44
467.829	511.44
468.049	540.44
468.268	525.44
468.488	505.44
468.707	517.44
468.927	483.44
469.146	504.44
469.365	505.44
469.585	482.44
469.804	504.44
470.023	525.44
470.243	506.44
470.462	515.44
470.681	536.44
470.901	532.44
471.12	497.44
471.339	498.44
471.558	508.44
471.777	521.44
471.997	487.44
472.216	524.44
472.435	542.44
472.654	527.44
472.873	496.44
473.092	501.44
473.311	501.44
473.53	523.44
473.749	521.44
473.968	560.44
474.187	676.44
474.406	660.44
474.625	576.44
474.844	530.44
475.063	517.44
475.282	507.44
475.501	508.44
475.72	523.44
475.939	517.44
476.158	522.44
476.377	527.44
476.596	512.44
476.814	545.44
477.033	540.44
477.252	523.44
477.471	532.44
477.69	526.44
477.908	553.44
478.127	560.44
478.346	573.44
478.564	548.44
478.783	590.44
479.002	572.44
479.22	599.44
479.439	602.44
479.658	626.44
479.876	602.44
480.095	621.44
480.313	664.44
480.532	636.44
480.751	629.44
480.969	653.44
481.188	678.44
481.406	682.44
481.624	629.44
481.843	639.44
482.061	598.44
482.28	600.44
482.498	578.44
482.717	589.44
482.935	600.44
483.153	590.44
483.372	574.44
483.59	579.44
483.808	592.44
484.027	607.44
484.245	610.44
484.463	599.44
484.681	598.44
484.9	633.44
485.118	605.44
485.336	612.44
485.554	594.44
485.772	600.44
485.99	614.44
486.209	633.44
486.427	609.44
486.645	634.44
486.863	632.44
487.081	648.44
487.299	639.44
487.517	633.44
487.735	617.44
487.953	645.44
488.171	636.44
488.389	640.44
488.607	650.44
488.825	646.44
489.043	632.44
489.261	659.44
489.479	651.44
489.696	613.44
489.914	630.44
490.132	664.44
490.35	661.44
490.568	668.44
490.786	689.44
491.003	682.44
491.221	704.44
491.439	681.44
491.657	704.44
491.874	724.44
492.092	722.44
492.31	745.44
492.527	742.44
492.745	738.44
492.963	733.44
493.18	739.44
493.398	744.44
493.615	745.44
493.833	727.44
494.05	742.44
494.268	733.44
494.485	748.44
494.703	740.44
494.92	737.44
495.138	733.44
495.355	768.44
495.573	775.44
495.79	736.44
496.008	744.44
496.225	752.44
496.442	787.44
496.66	760.44
496.877	764.44
497.094	769.44
497.312	779.44
497.529	790.44
497.746	775.44
497.963	813.44
498.181	840.44
498.398	841.44
498.615	834.44
498.832	864.44
499.049	889.44
499.267	938.44
499.484	951.44
499.701	1010.44
499.918	1056.44
500.135	1092.44
500.352	1160.44
500.569	1201.44
500.786	1208.44
501.003	1167.44
501.22	1111.44
501.437	1100.44
501.654	1045.44
