Data from 1976.PennyLincolnUp.Lamp.En5.5.200Scan.071719.P1.Changed Mount._HRD10591_16-00-06-860.txt Node
Date: Thu Jul 18 16:00:06 EDT 2019
User: cochatt
Spectrometer: HR+D1059
Trigger mode: 1
Integration Time (sec): 1.000000E-1
Scans to average: 1
Electric dark correction enabled: true
Nonlinearity correction enabled: false
Boxcar width: 0
XAxis mode: Wavelengths
Number of Pixels in Spectrum: 2048
>>>>>Begin Spectral Data<<<<<
223.165	-10.5
223.4	-10.5
223.635	-10.5
223.869	-11.5
224.104	-25.5
224.338	-15.5
224.573	-19.5
224.808	-5.5
225.042	-2.5
225.277	-0.5
225.511	-5.5
225.746	11.5
225.98	-0.5
226.215	6.5
226.449	6.5
226.683	25.5
226.918	22.5
227.152	24.5
227.387	27.5
227.621	42.5
227.856	47.5
228.09	54.5
228.324	42.5
228.559	60.5
228.793	63.5
229.027	97.5
229.262	100.5
229.496	105.5
229.73	132.5
229.964	139.5
230.199	126.5
230.433	108.5
230.667	114.5
230.901	100.5
231.136	109.5
231.37	110.5
231.604	114.5
231.838	115.5
232.072	106.5
232.306	114.5
232.541	105.5
232.775	98.5
233.009	109.5
233.243	106.5
233.477	125.5
233.711	105.5
233.945	110.5
234.179	125.5
234.413	132.5
234.647	97.5
234.881	110.5
235.115	112.5
235.349	114.5
235.583	121.5
235.817	125.5
236.051	104.5
236.285	112.5
236.519	112.5
236.753	124.5
236.987	140.5
237.221	165.5
237.455	192.5
237.689	177.5
237.922	144.5
238.156	130.5
238.39	136.5
238.624	124.5
238.858	122.5
239.091	122.5
239.325	114.5
239.559	129.5
239.793	128.5
240.027	126.5
240.26	140.5
240.494	167.5
240.728	149.5
240.961	152.5
241.195	148.5
241.429	148.5
241.662	131.5
241.896	136.5
242.13	146.5
242.363	126.5
242.597	140.5
242.83	130.5
243.064	143.5
243.298	140.5
243.531	142.5
243.765	136.5
243.998	154.5
244.232	133.5
244.465	152.5
244.699	144.5
244.932	155.5
245.166	144.5
245.399	140.5
245.633	144.5
245.866	147.5
246.099	145.5
246.333	142.5
246.566	163.5
246.8	165.5
247.033	155.5
247.266	162.5
247.5	154.5
247.733	175.5
247.966	159.5
248.2	176.5
248.433	157.5
248.666	176.5
248.899	178.5
249.133	202.5
249.366	210.5
249.599	197.5
249.832	182.5
250.066	180.5
250.299	175.5
250.532	187.5
250.765	184.5
250.998	230.5
251.231	217.5
251.465	197.5
251.698	215.5
251.931	188.5
252.164	188.5
252.397	193.5
252.63	208.5
252.863	204.5
253.096	237.5
253.329	210.5
253.562	216.5
253.795	226.5
254.028	217.5
254.261	193.5
254.494	226.5
254.727	231.5
254.96	261.5
255.193	263.5
255.426	248.5
255.659	212.5
255.892	228.5
256.124	240.5
256.357	226.5
256.59	210.5
256.823	222.5
257.056	213.5
257.289	203.5
257.521	218.5
257.754	213.5
257.987	201.5
258.22	192.5
258.452	209.5
258.685	219.5
258.918	206.5
259.151	212.5
259.383	221.5
259.616	221.5
259.849	237.5
260.081	245.5
260.314	237.5
260.547	272.5
260.779	238.5
261.012	242.5
261.244	226.5
261.477	232.5
261.71	206.5
261.942	209.5
262.175	220.5
262.407	217.5
262.64	228.5
262.872	221.5
263.105	214.5
263.337	216.5
263.57	218.5
263.802	226.5
264.035	217.5
264.267	225.5
264.499	232.5
264.732	220.5
264.964	218.5
265.197	225.5
265.429	217.5
265.661	219.5
265.894	227.5
266.126	208.5
266.358	216.5
266.591	203.5
266.823	224.5
267.055	225.5
267.287	218.5
267.52	229.5
267.752	236.5
267.984	230.5
268.216	223.5
268.448	232.5
268.681	236.5
268.913	237.5
269.145	267.5
269.377	280.5
269.609	272.5
269.841	272.5
270.073	269.5
270.306	284.5
270.538	291.5
270.77	315.5
271.002	297.5
271.234	285.5
271.466	307.5
271.698	312.5
271.93	295.5
272.162	308.5
272.394	312.5
272.626	298.5
272.858	323.5
273.09	289.5
273.322	277.5
273.553	285.5
273.785	274.5
274.017	258.5
274.249	248.5
274.481	268.5
274.713	265.5
274.945	274.5
275.176	270.5
275.408	277.5
275.64	279.5
275.872	271.5
276.104	269.5
276.335	266.5
276.567	280.5
276.799	294.5
277.031	305.5
277.262	314.5
277.494	331.5
277.726	287.5
277.957	297.5
278.189	269.5
278.421	267.5
278.652	269.5
278.884	271.5
279.115	273.5
279.347	284.5
279.579	262.5
279.81	268.5
280.042	275.5
280.273	280.5
280.505	273.5
280.736	266.5
280.968	261.5
281.199	287.5
281.431	256.5
281.662	289.5
281.894	270.5
282.125	278.5
282.356	297.5
282.588	294.5
282.819	316.5
283.051	289.5
283.282	297.5
283.513	296.5
283.745	311.5
283.976	284.5
284.207	273.5
284.439	301.5
284.67	296.5
284.901	304.5
285.132	291.5
285.364	299.5
285.595	282.5
285.826	276.5
286.057	302.5
286.288	304.5
286.52	301.5
286.751	280.5
286.982	317.5
287.213	300.5
287.444	314.5
287.675	299.5
287.906	327.5
288.138	316.5
288.369	323.5
288.6	313.5
288.831	312.5
289.062	293.5
289.293	296.5
289.524	277.5
289.755	282.5
289.986	298.5
290.217	293.5
290.448	304.5
290.679	301.5
290.91	308.5
291.141	296.5
291.371	303.5
291.602	302.5
291.833	308.5
292.064	309.5
292.295	299.5
292.526	315.5
292.757	306.5
292.987	318.5
293.218	304.5
293.449	317.5
293.68	315.5
293.91	309.5
294.141	326.5
294.372	329.5
294.603	317.5
294.833	310.5
295.064	289.5
295.295	298.5
295.525	320.5
295.756	326.5
295.987	314.5
296.217	331.5
296.448	342.5
296.679	318.5
296.909	334.5
297.14	318.5
297.37	313.5
297.601	300.5
297.831	320.5
298.062	310.5
298.292	308.5
298.523	336.5
298.753	313.5
298.984	332.5
299.214	321.5
299.445	336.5
299.675	318.5
299.905	320.5
300.136	330.5
300.366	312.5
300.597	326.5
300.827	333.5
301.057	326.5
301.288	350.5
301.518	331.5
301.748	318.5
301.979	340.5
302.209	337.5
302.439	337.5
302.669	367.5
302.9	333.5
303.13	323.5
303.36	346.5
303.59	338.5
303.82	358.5
304.051	335.5
304.281	352.5
304.511	330.5
304.741	346.5
304.971	339.5
305.201	355.5
305.431	347.5
305.661	346.5
305.891	342.5
306.121	336.5
306.352	355.5
306.582	339.5
306.812	349.5
307.042	346.5
307.272	335.5
307.502	340.5
307.731	366.5
307.961	338.5
308.191	338.5
308.421	345.5
308.651	360.5
308.881	327.5
309.111	341.5
309.341	337.5
309.571	363.5
309.8	375.5
310.03	377.5
310.26	372.5
310.49	385.5
310.72	366.5
310.949	369.5
311.179	395.5
311.409	404.5
311.639	380.5
311.868	377.5
312.098	376.5
312.328	359.5
312.557	393.5
312.787	390.5
313.017	402.5
313.246	377.5
313.476	378.5
313.706	389.5
313.935	382.5
314.165	384.5
314.394	408.5
314.624	377.5
314.853	398.5
315.083	389.5
315.312	392.5
315.542	390.5
315.771	370.5
316.001	390.5
316.23	385.5
316.46	383.5
316.689	389.5
316.919	397.5
317.148	393.5
317.377	398.5
317.607	389.5
317.836	368.5
318.065	381.5
318.295	383.5
318.524	370.5
318.753	379.5
318.983	392.5
319.212	394.5
319.441	377.5
319.67	382.5
319.9	397.5
320.129	371.5
320.358	381.5
320.587	393.5
320.816	387.5
321.046	390.5
321.275	401.5
321.504	402.5
321.733	394.5
321.962	403.5
322.191	405.5
322.42	402.5
322.649	408.5
322.878	425.5
323.108	438.5
323.337	470.5
323.566	458.5
323.795	487.5
324.024	510.5
324.253	589.5
324.482	802.5
324.71	1223.5
324.939	1806.5
325.168	1576.5
325.397	800.5
325.626	560.5
325.855	504.5
326.084	472.5
326.313	476.5
326.542	471.5
326.77	482.5
326.999	559.5
327.228	734.5
327.457	1122.5
327.686	1351.5
327.914	884.5
328.143	604.5
328.372	554.5
328.6	520.5
328.829	519.5
329.058	489.5
329.287	528.5
329.515	506.5
329.744	496.5
329.972	481.5
330.201	496.5
330.43	514.5
330.658	536.5
330.887	550.5
331.115	510.5
331.344	470.5
331.572	454.5
331.801	485.5
332.03	480.5
332.258	459.5
332.486	448.5
332.715	450.5
332.943	459.5
333.172	471.5
333.4	496.5
333.629	490.5
333.857	479.5
334.085	490.5
334.314	516.5
334.542	526.5
334.771	548.5
334.999	514.5
335.227	479.5
335.455	474.5
335.684	454.5
335.912	470.5
336.14	465.5
336.369	457.5
336.597	481.5
336.825	489.5
337.053	468.5
337.281	466.5
337.51	429.5
337.738	462.5
337.966	458.5
338.194	462.5
338.422	442.5
338.65	435.5
338.878	436.5
339.106	441.5
339.334	448.5
339.562	423.5
339.79	434.5
340.018	441.5
340.246	429.5
340.474	427.5
340.702	424.5
340.93	430.5
341.158	419.5
341.386	421.5
341.614	443.5
341.842	428.5
342.07	440.5
342.298	441.5
342.526	416.5
342.754	394.5
342.981	431.5
343.209	441.5
343.437	430.5
343.665	462.5
343.893	457.5
344.12	473.5
344.348	446.5
344.576	453.5
344.804	448.5
345.031	454.5
345.259	448.5
345.487	443.5
345.714	432.5
345.942	410.5
346.17	427.5
346.397	437.5
346.625	425.5
346.853	430.5
347.08	424.5
347.308	429.5
347.535	430.5
347.763	436.5
347.99	427.5
348.218	424.5
348.445	447.5
348.673	429.5
348.9	409.5
349.128	409.5
349.355	390.5
349.583	410.5
349.81	425.5
350.037	397.5
350.265	420.5
350.492	404.5
350.72	418.5
350.947	403.5
351.174	416.5
351.402	401.5
351.629	422.5
351.856	410.5
352.083	408.5
352.311	426.5
352.538	438.5
352.765	422.5
352.992	421.5
353.22	417.5
353.447	405.5
353.674	416.5
353.901	404.5
354.128	402.5
354.355	405.5
354.583	404.5
354.81	417.5
355.037	399.5
355.264	401.5
355.491	393.5
355.718	399.5
355.945	414.5
356.172	393.5
356.399	378.5
356.626	403.5
356.853	398.5
357.08	398.5
357.307	404.5
357.534	389.5
357.761	390.5
357.988	406.5
358.215	417.5
358.441	379.5
358.668	391.5
358.895	416.5
359.122	412.5
359.349	421.5
359.576	426.5
359.802	444.5
360.029	448.5
360.256	455.5
360.483	448.5
360.709	424.5
360.936	409.5
361.163	419.5
361.39	404.5
361.616	420.5
361.843	400.5
362.07	432.5
362.296	418.5
362.523	421.5
362.749	407.5
362.976	413.5
363.203	433.5
363.429	412.5
363.656	414.5
363.882	395.5
364.109	423.5
364.335	386.5
364.562	380.5
364.788	403.5
365.015	408.5
365.241	390.5
365.468	400.5
365.694	424.5
365.92	401.5
366.147	422.5
366.373	422.5
366.599	408.5
366.826	396.5
367.052	396.5
367.278	398.5
367.505	371.5
367.731	388.5
367.957	405.5
368.184	403.5
368.41	407.5
368.636	417.5
368.862	408.5
369.089	400.5
369.315	429.5
369.541	390.5
369.767	408.5
369.993	409.5
370.219	431.5
370.445	412.5
370.672	410.5
370.898	395.5
371.124	417.5
371.35	404.5
371.576	436.5
371.802	412.5
372.028	396.5
372.254	420.5
372.48	380.5
372.706	423.5
372.932	427.5
373.158	413.5
373.384	429.5
373.61	410.5
373.835	411.5
374.061	413.5
374.287	418.5
374.513	410.5
374.739	436.5
374.965	413.5
375.191	419.5
375.416	424.5
375.642	406.5
375.868	416.5
376.094	420.5
376.319	401.5
376.545	399.5
376.771	414.5
376.997	418.5
377.222	392.5
377.448	415.5
377.674	424.5
377.899	421.5
378.125	410.5
378.35	400.5
378.576	423.5
378.802	412.5
379.027	401.5
379.253	436.5
379.478	416.5
379.704	423.5
379.929	403.5
380.155	415.5
380.38	407.5
380.606	420.5
380.831	427.5
381.057	406.5
381.282	407.5
381.507	426.5
381.733	427.5
381.958	441.5
382.184	410.5
382.409	416.5
382.634	423.5
382.86	425.5
383.085	437.5
383.31	460.5
383.535	417.5
383.761	442.5
383.986	427.5
384.211	450.5
384.436	436.5
384.662	443.5
384.887	451.5
385.112	446.5
385.337	460.5
385.562	459.5
385.787	481.5
386.013	476.5
386.238	493.5
386.463	465.5
386.688	459.5
386.913	456.5
387.138	490.5
387.363	468.5
387.588	452.5
387.813	462.5
388.038	444.5
388.263	458.5
388.488	475.5
388.713	461.5
388.938	460.5
389.163	440.5
389.387	455.5
389.612	448.5
389.837	463.5
390.062	468.5
390.287	452.5
390.512	454.5
390.736	448.5
390.961	464.5
391.186	466.5
391.411	476.5
391.636	468.5
391.86	470.5
392.085	493.5
392.31	494.5
392.534	473.5
392.759	447.5
392.984	471.5
393.208	476.5
393.433	461.5
393.658	470.5
393.882	488.5
394.107	462.5
394.331	475.5
394.556	434.5
394.78	462.5
395.005	468.5
395.229	456.5
395.454	521.5
395.678	497.5
395.903	489.5
396.127	491.5
396.352	493.5
396.576	463.5
396.801	481.5
397.025	484.5
397.249	519.5
397.474	497.5
397.698	506.5
397.922	539.5
398.147	521.5
398.371	534.5
398.595	524.5
398.82	542.5
399.044	563.5
399.268	573.5
399.492	613.5
399.717	643.5
399.941	670.5
400.165	683.5
400.389	648.5
400.613	612.5
400.837	571.5
401.062	550.5
401.286	549.5
401.51	549.5
401.734	544.5
401.958	546.5
402.182	549.5
402.406	573.5
402.63	571.5
402.854	554.5
403.078	533.5
403.302	537.5
403.526	574.5
403.75	558.5
403.974	561.5
404.198	576.5
404.422	577.5
404.645	572.5
404.869	595.5
405.093	599.5
405.317	641.5
405.541	657.5
405.765	605.5
405.988	617.5
406.212	580.5
406.436	605.5
406.66	630.5
406.883	594.5
407.107	605.5
407.331	668.5
407.555	725.5
407.778	733.5
408.002	691.5
408.226	634.5
408.449	612.5
408.673	605.5
408.896	628.5
409.12	693.5
409.344	665.5
409.567	570.5
409.791	563.5
410.014	562.5
410.238	579.5
410.461	568.5
410.685	581.5
410.908	561.5
411.132	612.5
411.355	611.5
411.578	634.5
411.802	582.5
412.025	544.5
412.249	566.5
412.472	593.5
412.695	630.5
412.919	613.5
413.142	570.5
413.365	533.5
413.589	542.5
413.812	527.5
414.035	546.5
414.258	530.5
414.482	511.5
414.705	526.5
414.928	519.5
415.151	523.5
415.374	534.5
415.597	527.5
415.821	497.5
416.044	520.5
416.267	513.5
416.49	497.5
416.713	503.5
416.936	516.5
417.159	509.5
417.382	534.5
417.605	514.5
417.828	539.5
418.051	568.5
418.274	556.5
418.497	532.5
418.72	554.5
418.943	546.5
419.166	539.5
419.389	563.5
419.611	569.5
419.834	548.5
420.057	576.5
420.28	544.5
420.503	531.5
420.726	566.5
420.948	547.5
421.171	594.5
421.394	637.5
421.617	571.5
421.839	560.5
422.062	552.5
422.285	552.5
422.507	620.5
422.73	659.5
422.953	658.5
423.175	581.5
423.398	560.5
423.621	555.5
423.843	592.5
424.066	608.5
424.288	587.5
424.511	583.5
424.733	649.5
424.956	727.5
425.178	703.5
425.401	680.5
425.623	698.5
425.846	643.5
426.068	570.5
426.291	564.5
426.513	543.5
426.735	572.5
426.958	595.5
427.18	680.5
427.402	826.5
427.625	898.5
427.847	760.5
428.069	640.5
428.292	586.5
428.514	543.5
428.736	520.5
428.958	555.5
429.181	515.5
429.403	531.5
429.625	537.5
429.847	566.5
430.069	626.5
430.292	624.5
430.514	541.5
430.736	510.5
430.958	519.5
431.18	485.5
431.402	516.5
431.624	490.5
431.846	486.5
432.068	515.5
432.29	518.5
432.512	509.5
432.734	527.5
432.956	523.5
433.178	518.5
433.4	537.5
433.622	520.5
433.844	499.5
434.066	482.5
434.287	515.5
434.509	549.5
434.731	534.5
434.953	540.5
435.175	554.5
435.397	555.5
435.618	551.5
435.84	609.5
436.062	677.5
436.284	713.5
436.505	602.5
436.727	577.5
436.949	546.5
437.17	546.5
437.392	530.5
437.614	524.5
437.835	566.5
438.057	641.5
438.278	743.5
438.5	728.5
438.721	843.5
438.943	793.5
439.165	599.5
439.386	572.5
439.608	589.5
439.829	566.5
440.05	571.5
440.272	636.5
440.493	593.5
440.715	549.5
440.936	554.5
441.158	550.5
441.379	534.5
441.6	526.5
441.822	572.5
442.043	597.5
442.264	704.5
442.486	725.5
442.707	604.5
442.928	590.5
443.149	589.5
443.371	617.5
443.592	644.5
443.813	710.5
444.034	772.5
444.255	694.5
444.476	611.5
444.698	632.5
444.919	612.5
445.14	733.5
445.361	638.5
445.582	612.5
445.803	685.5
446.024	763.5
446.245	755.5
446.466	686.5
446.687	609.5
446.908	566.5
447.129	518.5
447.35	535.5
447.571	539.5
447.792	517.5
448.013	522.5
448.234	522.5
448.455	557.5
448.675	670.5
448.896	825.5
449.117	695.5
449.338	649.5
449.559	730.5
449.779	860.5
450	690.5
450.221	555.5
450.442	540.5
450.662	515.5
450.883	482.5
451.104	519.5
451.324	502.5
451.545	493.5
451.766	487.5
451.986	458.5
452.207	451.5
452.428	459.5
452.648	467.5
452.869	467.5
453.089	463.5
453.31	479.5
453.53	478.5
453.751	466.5
453.971	468.5
454.192	467.5
454.412	465.5
454.633	467.5
454.853	453.5
455.073	473.5
455.294	477.5
455.514	536.5
455.734	532.5
455.955	458.5
456.175	442.5
456.395	453.5
456.616	432.5
456.836	436.5
457.056	432.5
457.276	439.5
457.497	449.5
457.717	449.5
457.937	441.5
458.157	452.5
458.377	459.5
458.598	476.5
458.818	514.5
459.038	591.5
459.258	607.5
459.478	524.5
459.698	525.5
459.918	507.5
460.138	489.5
460.358	500.5
460.578	511.5
460.798	539.5
461.018	547.5
461.238	529.5
461.458	536.5
461.678	508.5
461.898	526.5
462.118	532.5
462.338	552.5
462.558	542.5
462.777	553.5
462.997	595.5
463.217	589.5
463.437	596.5
463.657	602.5
463.876	579.5
464.096	576.5
464.316	565.5
464.536	570.5
464.755	557.5
464.975	571.5
465.195	570.5
465.414	616.5
465.634	570.5
465.854	527.5
466.073	516.5
466.293	499.5
466.512	480.5
466.732	486.5
466.951	477.5
467.171	494.5
467.391	482.5
467.61	483.5
467.829	484.5
468.049	481.5
468.268	492.5
468.488	485.5
468.707	454.5
468.927	462.5
469.146	449.5
469.365	483.5
469.585	472.5
469.804	481.5
470.023	512.5
470.243	494.5
470.462	493.5
470.681	526.5
470.901	508.5
471.12	489.5
471.339	489.5
471.558	471.5
471.777	481.5
471.997	484.5
472.216	497.5
472.435	512.5
472.654	496.5
472.873	473.5
473.092	491.5
473.311	474.5
473.53	486.5
473.749	508.5
473.968	516.5
474.187	588.5
474.406	633.5
474.625	540.5
474.844	490.5
475.063	489.5
475.282	469.5
475.501	478.5
475.72	500.5
475.939	490.5
476.158	481.5
476.377	503.5
476.596	514.5
476.814	509.5
477.033	503.5
477.252	501.5
477.471	514.5
477.69	527.5
477.908	523.5
478.127	542.5
478.346	559.5
478.564	549.5
478.783	564.5
479.002	551.5
479.22	536.5
479.439	584.5
479.658	558.5
479.876	572.5
480.095	599.5
480.313	640.5
480.532	605.5
480.751	611.5
480.969	609.5
481.188	632.5
481.406	636.5
481.624	606.5
481.843	606.5
482.061	555.5
482.28	590.5
482.498	567.5
482.717	573.5
482.935	554.5
483.153	574.5
483.372	568.5
483.59	548.5
483.808	578.5
484.027	568.5
484.245	569.5
484.463	577.5
484.681	575.5
484.9	580.5
485.118	594.5
485.336	570.5
485.554	569.5
485.772	580.5
485.99	573.5
486.209	585.5
486.427	606.5
486.645	574.5
486.863	596.5
487.081	611.5
487.299	610.5
487.517	590.5
487.735	618.5
487.953	619.5
488.171	598.5
488.389	604.5
488.607	602.5
488.825	633.5
489.043	613.5
489.261	622.5
489.479	612.5
489.696	633.5
489.914	603.5
490.132	630.5
490.35	649.5
490.568	640.5
490.786	632.5
491.003	661.5
491.221	652.5
491.439	684.5
491.657	658.5
491.874	662.5
492.092	694.5
492.31	699.5
492.527	701.5
492.745	710.5
492.963	662.5
493.18	685.5
493.398	694.5
493.615	722.5
493.833	719.5
494.05	717.5
494.268	719.5
494.485	704.5
494.703	722.5
494.92	733.5
495.138	714.5
495.355	732.5
495.573	712.5
495.79	718.5
496.008	728.5
496.225	725.5
496.442	747.5
496.66	723.5
496.877	712.5
497.094	719.5
497.312	735.5
497.529	743.5
497.746	749.5
497.963	766.5
498.181	781.5
498.398	802.5
498.615	820.5
498.832	841.5
499.049	882.5
499.267	894.5
499.484	929.5
499.701	974.5
499.918	1002.5
500.135	1063.5
500.352	1125.5
500.569	1170.5
500.786	1181.5
501.003	1133.5
501.22	1122.5
501.437	1023.5
501.654	984.5
501.871	946.5
502.088	932.5
502.305	894.5
502.522	847.5
502.739	838.5
502.956	778.5
503.172	805.5
503.389	771.5
503.606	749.5
503.823	770.5
504.04	737.5
504.256	744.5
504.473	746.5
504.69	738.5
504.907	758.5
505.123	713.5
505.34	732.5
505.557	714.5
505.773	699.5
505.99	685.5
506.207	674.5
506.423	679.5
506.64	689.5
506.856	670.5
507.073	672.5
507.289	649.5
507.506	652.5
507.722	664.5
507.939	654.5
508.155	639.5
508.372	631.5
508.588	630.5
508.805	599.5
509.021	637.5
509.238	647.5
509.454	633.5
509.67	629.5
509.887	628.5
510.103	622.5
510.319	624.5
510.536	670.5
510.752	983.5
510.968	842.5
511.184	624.5
511.401	606.5
511.617	600.5
511.833	598.5
512.049	596.5
512.265	580.5
512.481	590.5
512.698	594.5
512.914	597.5
513.13	585.5
513.346	575.5
513.562	586.5
513.778	586.5
513.994	583.5
514.21	584.5
514.426	588.5
514.642	639.5
514.858	653.5
515.074	671.5
515.29	754.5
515.506	989.5
515.721	868.5
515.937	690.5
516.153	635.5
516.369	618.5
516.585	621.5
516.801	631.5
517.016	628.5
517.232	614.5
517.448	640.5
517.664	642.5
517.879	654.5
518.095	654.5
518.311	666.5
518.527	628.5
518.742	629.5
518.958	625.5
519.173	601.5
519.389	606.5
519.605	601.5
