Data from 1976.PennyLincolnUp.Lamp.En5.5.200Scan.071719.P1.Changed Mount._HRD10591_16-01-57-862.txt Node
Date: Thu Jul 18 16:01:57 EDT 2019
User: cochatt
Spectrometer: HR+D1059
Trigger mode: 1
Integration Time (sec): 1.000000E-1
Scans to average: 1
Electric dark correction enabled: true
Nonlinearity correction enabled: false
Boxcar width: 0
XAxis mode: Wavelengths
Number of Pixels in Spectrum: 2048
>>>>>Begin Spectral Data<<<<<
223.165	-7.31
223.4	-7.31
223.635	-7.31
223.869	-23.31
224.104	-20.31
224.338	-11.31
224.573	-26.31
224.808	-8.31
225.042	-14.31
225.277	-3.31
225.511	3.69
225.746	7.69
225.98	5.69
226.215	9.69
226.449	23.69
226.683	14.69
226.918	17.69
227.152	31.69
227.387	39.69
227.621	37.69
227.856	38.69
228.09	53.69
228.324	51.69
228.559	55.69
228.793	73.69
229.027	94.69
229.262	119.69
229.496	127.69
229.73	127.69
229.964	140.69
230.199	133.69
230.433	111.69
230.667	115.69
230.901	112.69
231.136	104.69
231.37	111.69
231.604	119.69
231.838	120.69
232.072	114.69
232.306	100.69
232.541	117.69
232.775	113.69
233.009	103.69
233.243	124.69
233.477	112.69
233.711	116.69
233.945	99.69
234.179	119.69
234.413	124.69
234.647	114.69
234.881	113.69
235.115	113.69
235.349	109.69
235.583	116.69
235.817	129.69
236.051	132.69
236.285	130.69
236.519	131.69
236.753	122.69
236.987	131.69
237.221	170.69
237.455	247.69
237.689	197.69
237.922	147.69
238.156	127.69
238.39	136.69
238.624	127.69
238.858	146.69
239.091	140.69
239.325	111.69
239.559	133.69
239.793	129.69
240.027	140.69
240.26	139.69
240.494	164.69
240.728	162.69
240.961	149.69
241.195	149.69
241.429	151.69
241.662	135.69
241.896	150.69
242.13	135.69
242.363	135.69
242.597	141.69
242.83	146.69
243.064	137.69
243.298	145.69
243.531	135.69
243.765	151.69
243.998	135.69
244.232	132.69
244.465	136.69
244.699	142.69
244.932	144.69
245.166	146.69
245.399	132.69
245.633	153.69
245.866	135.69
246.099	131.69
246.333	148.69
246.566	146.69
246.8	166.69
247.033	169.69
247.266	163.69
247.5	168.69
247.733	169.69
247.966	179.69
248.2	187.69
248.433	181.69
248.666	173.69
248.899	187.69
249.133	203.69
249.366	206.69
249.599	193.69
249.832	205.69
250.066	183.69
250.299	187.69
250.532	200.69
250.765	201.69
250.998	223.69
251.231	242.69
251.465	217.69
251.698	221.69
251.931	212.69
252.164	209.69
252.397	191.69
252.63	220.69
252.863	212.69
253.096	245.69
253.329	238.69
253.562	235.69
253.795	243.69
254.028	225.69
254.261	206.69
254.494	231.69
254.727	263.69
254.96	285.69
255.193	287.69
255.426	262.69
255.659	230.69
255.892	240.69
256.124	236.69
256.357	239.69
256.59	229.69
256.823	212.69
257.056	236.69
257.289	211.69
257.521	214.69
257.754	229.69
257.987	211.69
258.22	209.69
258.452	203.69
258.685	217.69
258.918	208.69
259.151	218.69
259.383	215.69
259.616	229.69
259.849	244.69
260.081	254.69
260.314	267.69
260.547	270.69
260.779	256.69
261.012	257.69
261.244	234.69
261.477	239.69
261.71	239.69
261.942	249.69
262.175	236.69
262.407	245.69
262.64	243.69
262.872	233.69
263.105	226.69
263.337	226.69
263.57	217.69
263.802	233.69
264.035	227.69
264.267	233.69
264.499	234.69
264.732	222.69
264.964	224.69
265.197	230.69
265.429	233.69
265.661	237.69
265.894	227.69
266.126	231.69
266.358	228.69
266.591	228.69
266.823	235.69
267.055	249.69
267.287	244.69
267.52	251.69
267.752	268.69
267.984	232.69
268.216	254.69
268.448	265.69
268.681	242.69
268.913	277.69
269.145	269.69
269.377	298.69
269.609	289.69
269.841	287.69
270.073	291.69
270.306	329.69
270.538	331.69
270.77	328.69
271.002	329.69
271.234	296.69
271.466	322.69
271.698	329.69
271.93	322.69
272.162	331.69
272.394	330.69
272.626	331.69
272.858	312.69
273.09	284.69
273.322	277.69
273.553	269.69
273.785	284.69
274.017	269.69
274.249	289.69
274.481	282.69
274.713	275.69
274.945	301.69
275.176	297.69
275.408	283.69
275.64	276.69
275.872	290.69
276.104	305.69
276.335	298.69
276.567	288.69
276.799	299.69
277.031	330.69
277.262	345.69
277.494	357.69
277.726	332.69
277.957	305.69
278.189	312.69
278.421	309.69
278.652	281.69
278.884	305.69
279.115	293.69
279.347	280.69
279.579	278.69
279.81	295.69
280.042	308.69
280.273	285.69
280.505	312.69
280.736	278.69
280.968	296.69
281.199	288.69
281.431	297.69
281.662	301.69
281.894	306.69
282.125	287.69
282.356	308.69
282.588	327.69
282.819	317.69
283.051	330.69
283.282	297.69
283.513	299.69
283.745	300.69
283.976	291.69
284.207	319.69
284.439	330.69
284.67	316.69
284.901	300.69
285.132	298.69
285.364	313.69
285.595	306.69
285.826	318.69
286.057	325.69
286.288	327.69
286.52	297.69
286.751	295.69
286.982	312.69
287.213	306.69
287.444	308.69
287.675	307.69
287.906	331.69
288.138	346.69
288.369	331.69
288.6	343.69
288.831	347.69
289.062	320.69
289.293	336.69
289.524	335.69
289.755	347.69
289.986	305.69
290.217	319.69
290.448	327.69
290.679	324.69
290.91	331.69
291.141	313.69
291.371	316.69
291.602	324.69
291.833	325.69
292.064	319.69
292.295	312.69
292.526	325.69
292.757	303.69
292.987	325.69
293.218	312.69
293.449	321.69
293.68	341.69
293.91	295.69
294.141	327.69
294.372	341.69
294.603	317.69
294.833	338.69
295.064	325.69
295.295	329.69
295.525	322.69
295.756	333.69
295.987	325.69
296.217	358.69
296.448	381.69
296.679	357.69
296.909	320.69
297.14	332.69
297.37	332.69
297.601	336.69
297.831	331.69
298.062	312.69
298.292	347.69
298.523	346.69
298.753	349.69
298.984	348.69
299.214	337.69
299.445	349.69
299.675	331.69
299.905	325.69
300.136	355.69
300.366	341.69
300.597	332.69
300.827	356.69
301.057	347.69
301.288	343.69
301.518	344.69
301.748	352.69
301.979	369.69
302.209	377.69
302.439	370.69
302.669	362.69
302.9	369.69
303.13	339.69
303.36	346.69
303.59	358.69
303.82	380.69
304.051	361.69
304.281	359.69
304.511	359.69
304.741	373.69
304.971	351.69
305.201	346.69
305.431	348.69
305.661	361.69
305.891	368.69
306.121	361.69
306.352	393.69
306.582	377.69
306.812	365.69
307.042	362.69
307.272	355.69
307.502	374.69
307.731	359.69
307.961	354.69
308.191	363.69
308.421	348.69
308.651	364.69
308.881	360.69
309.111	357.69
309.341	378.69
309.571	387.69
309.8	390.69
310.03	396.69
310.26	399.69
310.49	397.69
310.72	411.69
310.949	413.69
311.179	406.69
311.409	387.69
311.639	408.69
311.868	401.69
312.098	406.69
312.328	426.69
312.557	418.69
312.787	453.69
313.017	434.69
313.246	446.69
313.476	398.69
313.706	416.69
313.935	416.69
314.165	427.69
314.394	458.69
314.624	446.69
314.853	427.69
315.083	385.69
315.312	395.69
315.542	413.69
315.771	402.69
316.001	407.69
316.23	415.69
316.46	396.69
316.689	407.69
316.919	412.69
317.148	435.69
317.377	428.69
317.607	428.69
317.836	414.69
318.065	392.69
318.295	388.69
318.524	385.69
318.753	416.69
318.983	426.69
319.212	417.69
319.441	410.69
319.67	413.69
319.9	420.69
320.129	420.69
320.358	405.69
320.587	393.69
320.816	422.69
321.046	432.69
321.275	446.69
321.504	429.69
321.733	429.69
321.962	437.69
322.191	431.69
322.42	445.69
322.649	465.69
322.878	473.69
323.108	490.69
323.337	484.69
323.566	515.69
323.795	533.69
324.024	562.69
324.253	637.69
324.482	885.69
324.71	1401.69
324.939	2097.69
325.168	1835.69
325.397	917.69
325.626	619.69
325.855	550.69
326.084	543.69
326.313	510.69
326.542	505.69
326.77	557.69
326.999	633.69
327.228	839.69
327.457	1257.69
327.686	1587.69
327.914	1025.69
328.143	675.69
328.372	603.69
328.6	605.69
328.829	571.69
329.058	588.69
329.287	595.69
329.515	561.69
329.744	543.69
329.972	523.69
330.201	525.69
330.43	576.69
330.658	595.69
330.887	628.69
331.115	610.69
331.344	540.69
331.572	515.69
331.801	506.69
332.03	523.69
332.258	509.69
332.486	518.69
332.715	483.69
332.943	518.69
333.172	516.69
333.4	503.69
333.629	533.69
333.857	532.69
334.085	543.69
334.314	566.69
334.542	581.69
334.771	568.69
334.999	540.69
335.227	511.69
335.455	519.69
335.684	519.69
335.912	518.69
336.14	487.69
336.369	495.69
336.597	498.69
336.825	516.69
337.053	467.69
337.281	481.69
337.51	462.69
337.738	493.69
337.966	465.69
338.194	483.69
338.422	478.69
338.65	486.69
338.878	466.69
339.106	467.69
339.334	474.69
339.562	480.69
339.79	489.69
340.018	468.69
340.246	480.69
340.474	455.69
340.702	481.69
340.93	489.69
341.158	448.69
341.386	467.69
341.614	453.69
341.842	478.69
342.07	461.69
342.298	475.69
342.526	453.69
342.754	448.69
342.981	434.69
343.209	439.69
343.437	463.69
343.665	486.69
343.893	497.69
344.12	506.69
344.348	497.69
344.576	467.69
344.804	482.69
345.031	499.69
345.259	498.69
345.487	474.69
345.714	469.69
345.942	442.69
346.17	456.69
346.397	428.69
346.625	460.69
346.853	442.69
347.08	451.69
347.308	452.69
347.535	459.69
347.763	467.69
347.99	474.69
348.218	471.69
348.445	472.69
348.673	458.69
348.9	464.69
349.128	435.69
349.355	459.69
349.583	432.69
349.81	439.69
350.037	427.69
350.265	425.69
350.492	434.69
350.72	431.69
350.947	447.69
351.174	442.69
351.402	450.69
351.629	459.69
351.856	445.69
352.083	439.69
352.311	462.69
352.538	468.69
352.765	473.69
352.992	447.69
353.22	456.69
353.447	454.69
353.674	431.69
353.901	425.69
354.128	433.69
354.355	402.69
354.583	439.69
354.81	434.69
355.037	417.69
355.264	437.69
355.491	421.69
355.718	404.69
355.945	426.69
356.172	415.69
356.399	419.69
356.626	418.69
356.853	424.69
357.08	426.69
357.307	424.69
357.534	420.69
357.761	403.69
357.988	394.69
358.215	449.69
358.441	426.69
358.668	427.69
358.895	437.69
359.122	421.69
359.349	438.69
359.576	452.69
359.802	489.69
360.029	482.69
360.256	498.69
360.483	454.69
360.709	457.69
360.936	460.69
361.163	457.69
361.39	457.69
361.616	457.69
361.843	447.69
362.07	444.69
362.296	446.69
362.523	442.69
362.749	441.69
362.976	455.69
363.203	435.69
363.429	432.69
363.656	423.69
363.882	432.69
364.109	434.69
364.335	428.69
364.562	429.69
364.788	419.69
365.015	422.69
365.241	421.69
365.468	457.69
365.694	454.69
365.92	450.69
366.147	451.69
366.373	408.69
366.599	440.69
366.826	426.69
367.052	410.69
367.278	451.69
367.505	440.69
367.731	423.69
367.957	423.69
368.184	440.69
368.41	439.69
368.636	451.69
368.862	441.69
369.089	447.69
369.315	437.69
369.541	451.69
369.767	411.69
369.993	431.69
370.219	432.69
370.445	426.69
370.672	450.69
370.898	438.69
371.124	431.69
371.35	449.69
371.576	423.69
371.802	424.69
372.028	413.69
372.254	436.69
372.48	432.69
372.706	457.69
372.932	426.69
373.158	447.69
373.384	448.69
373.61	435.69
373.835	443.69
374.061	434.69
374.287	449.69
374.513	443.69
374.739	453.69
374.965	472.69
375.191	448.69
375.416	460.69
375.642	457.69
375.868	449.69
376.094	430.69
376.319	436.69
376.545	409.69
376.771	417.69
376.997	413.69
377.222	422.69
377.448	445.69
377.674	441.69
377.899	430.69
378.125	437.69
378.35	440.69
378.576	434.69
378.802	437.69
379.027	422.69
379.253	445.69
379.478	449.69
379.704	440.69
379.929	458.69
380.155	429.69
380.38	423.69
380.606	428.69
380.831	436.69
381.057	440.69
381.282	415.69
381.507	446.69
381.733	457.69
381.958	441.69
382.184	455.69
382.409	445.69
382.634	452.69
382.86	434.69
383.085	449.69
383.31	455.69
383.535	473.69
383.761	445.69
383.986	464.69
384.211	473.69
384.436	475.69
384.662	470.69
384.887	463.69
385.112	472.69
385.337	496.69
385.562	488.69
385.787	496.69
386.013	507.69
386.238	473.69
386.463	488.69
386.688	472.69
386.913	483.69
387.138	479.69
387.363	485.69
387.588	477.69
387.813	479.69
388.038	475.69
388.263	485.69
388.488	483.69
388.713	474.69
388.938	491.69
389.163	492.69
389.387	504.69
389.612	482.69
389.837	466.69
390.062	475.69
390.287	473.69
390.512	479.69
390.736	470.69
390.961	483.69
391.186	482.69
391.411	491.69
391.636	510.69
391.86	491.69
392.085	528.69
392.31	492.69
392.534	492.69
392.759	496.69
392.984	491.69
393.208	457.69
393.433	475.69
393.658	479.69
393.882	487.69
394.107	499.69
394.331	524.69
394.556	499.69
394.78	499.69
395.005	482.69
395.229	475.69
395.454	501.69
395.678	529.69
395.903	536.69
396.127	547.69
396.352	559.69
396.576	520.69
396.801	526.69
397.025	500.69
397.249	509.69
397.474	524.69
397.698	526.69
397.922	527.69
398.147	543.69
398.371	564.69
398.595	541.69
398.82	560.69
399.044	583.69
399.268	599.69
399.492	650.69
399.717	723.69
399.941	721.69
400.165	741.69
400.389	713.69
400.613	655.69
400.837	607.69
401.062	585.69
401.286	581.69
401.51	580.69
401.734	555.69
401.958	573.69
402.182	584.69
402.406	572.69
402.63	599.69
402.854	588.69
403.078	603.69
403.302	588.69
403.526	603.69
403.75	585.69
403.974	596.69
404.198	578.69
404.422	599.69
404.645	617.69
404.869	612.69
405.093	641.69
405.317	706.69
405.541	724.69
405.765	674.69
405.988	632.69
406.212	617.69
406.436	616.69
406.66	675.69
406.883	660.69
407.107	653.69
407.331	685.69
407.555	791.69
407.778	783.69
408.002	722.69
408.226	677.69
408.449	663.69
408.673	647.69
408.896	634.69
409.12	725.69
409.344	711.69
409.567	623.69
409.791	604.69
410.014	588.69
410.238	601.69
410.461	609.69
410.685	606.69
410.908	590.69
411.132	635.69
411.355	676.69
411.578	653.69
411.802	597.69
412.025	599.69
412.249	616.69
412.472	626.69
412.695	667.69
412.919	643.69
413.142	603.69
413.365	581.69
413.589	575.69
413.812	571.69
414.035	546.69
414.258	554.69
414.482	573.69
414.705	580.69
414.928	579.69
415.151	552.69
415.374	545.69
415.597	568.69
415.821	577.69
416.044	571.69
416.267	547.69
416.49	554.69
416.713	562.69
416.936	567.69
417.159	541.69
417.382	561.69
417.605	562.69
417.828	577.69
418.051	597.69
418.274	565.69
418.497	556.69
418.72	565.69
418.943	561.69
419.166	570.69
419.389	635.69
419.611	601.69
419.834	599.69
420.057	603.69
420.28	586.69
420.503	595.69
420.726	583.69
420.948	584.69
421.171	668.69
421.394	685.69
421.617	605.69
421.839	580.69
422.062	573.69
422.285	577.69
422.507	658.69
422.73	731.69
422.953	707.69
423.175	648.69
423.398	612.69
423.621	599.69
423.843	630.69
424.066	633.69
424.288	612.69
424.511	639.69
424.733	695.69
424.956	770.69
425.178	733.69
425.401	738.69
425.623	777.69
425.846	680.69
426.068	628.69
426.291	610.69
426.513	600.69
426.735	584.69
426.958	660.69
427.18	747.69
427.402	885.69
427.625	968.69
427.847	844.69
428.069	727.69
428.292	666.69
428.514	610.69
428.736	591.69
428.958	579.69
429.181	567.69
429.403	553.69
429.625	571.69
429.847	598.69
430.069	683.69
430.292	662.69
430.514	584.69
430.736	575.69
430.958	561.69
431.18	553.69
431.402	547.69
431.624	536.69
431.846	533.69
432.068	547.69
432.29	538.69
432.512	527.69
432.734	574.69
432.956	550.69
433.178	556.69
433.4	551.69
433.622	547.69
433.844	562.69
434.066	554.69
434.287	538.69
434.509	540.69
434.731	567.69
434.953	588.69
435.175	582.69
435.397	579.69
435.618	600.69
435.84	663.69
436.062	741.69
436.284	817.69
436.505	691.69
436.727	626.69
436.949	575.69
437.17	570.69
437.392	570.69
437.614	592.69
437.835	617.69
438.057	670.69
438.278	800.69
438.5	809.69
438.721	879.69
438.943	843.69
439.165	649.69
439.386	587.69
439.608	624.69
439.829	614.69
440.05	639.69
440.272	694.69
440.493	639.69
440.715	603.69
440.936	583.69
441.158	569.69
441.379	590.69
441.6	577.69
441.822	603.69
442.043	645.69
442.264	747.69
442.486	801.69
442.707	706.69
442.928	625.69
443.149	619.69
443.371	663.69
443.592	691.69
443.813	799.69
444.034	877.69
444.255	709.69
444.476	669.69
444.698	669.69
444.919	632.69
445.14	755.69
445.361	699.69
445.582	702.69
445.803	728.69
446.024	817.69
446.245	821.69
446.466	756.69
446.687	646.69
446.908	609.69
447.129	611.69
447.35	555.69
447.571	538.69
447.792	545.69
448.013	546.69
448.234	567.69
448.455	619.69
448.675	746.69
448.896	877.69
449.117	753.69
449.338	672.69
449.559	769.69
449.779	900.69
450	737.69
450.221	620.69
450.442	559.69
450.662	563.69
450.883	561.69
451.104	533.69
451.324	547.69
451.545	523.69
451.766	516.69
451.986	490.69
452.207	483.69
452.428	497.69
452.648	506.69
452.869	500.69
453.089	498.69
453.31	509.69
453.53	495.69
453.751	497.69
453.971	488.69
454.192	511.69
454.412	483.69
454.633	498.69
454.853	501.69
455.073	493.69
455.294	508.69
455.514	576.69
455.734	573.69
455.955	495.69
456.175	495.69
456.395	468.69
456.616	468.69
456.836	484.69
457.056	459.69
457.276	459.69
457.497	455.69
457.717	495.69
457.937	478.69
458.157	473.69
458.377	487.69
458.598	505.69
458.818	549.69
459.038	612.69
459.258	645.69
459.478	573.69
459.698	518.69
459.918	529.69
460.138	528.69
460.358	549.69
460.578	559.69
460.798	554.69
461.018	580.69
461.238	552.69
461.458	536.69
461.678	563.69
461.898	546.69
462.118	551.69
462.338	549.69
462.558	585.69
462.777	593.69
462.997	632.69
463.217	614.69
463.437	649.69
463.657	632.69
463.876	623.69
464.096	608.69
464.316	600.69
464.536	589.69
464.755	608.69
464.975	608.69
465.195	646.69
465.414	685.69
465.634	586.69
465.854	575.69
466.073	545.69
466.293	552.69
466.512	530.69
466.732	502.69
466.951	507.69
467.171	508.69
467.391	514.69
467.61	533.69
467.829	531.69
468.049	524.69
468.268	521.69
468.488	526.69
468.707	503.69
468.927	480.69
469.146	494.69
469.365	509.69
469.585	516.69
469.804	477.69
470.023	544.69
470.243	500.69
470.462	547.69
470.681	533.69
470.901	537.69
471.12	531.69
471.339	500.69
471.558	525.69
471.777	531.69
471.997	529.69
472.216	525.69
472.435	556.69
472.654	531.69
472.873	519.69
473.092	514.69
473.311	508.69
473.53	530.69
473.749	516.69
473.968	566.69
474.187	669.69
474.406	681.69
474.625	572.69
474.844	529.69
475.063	506.69
475.282	508.69
475.501	514.69
475.72	531.69
475.939	545.69
476.158	537.69
476.377	518.69
476.596	521.69
476.814	556.69
477.033	531.69
477.252	564.69
477.471	556.69
477.69	553.69
477.908	548.69
478.127	554.69
478.346	555.69
478.564	592.69
478.783	574.69
479.002	581.69
479.22	617.69
479.439	603.69
479.658	610.69
479.876	640.69
480.095	612.69
480.313	654.69
480.532	646.69
480.751	642.69
480.969	669.69
481.188	690.69
481.406	722.69
481.624	655.69
481.843	608.69
482.061	588.69
482.28	585.69
482.498	623.69
482.717	610.69
482.935	593.69
483.153	610.69
483.372	612.69
483.59	606.69
483.808	590.69
484.027	608.69
484.245	620.69
484.463	592.69
484.681	614.69
484.9	595.69
485.118	625.69
485.336	627.69
485.554	610.69
485.772	625.69
485.99	626.69
486.209	618.69
486.427	639.69
486.645	635.69
486.863	651.69
487.081	653.69
487.299	659.69
487.517	646.69
487.735	649.69
487.953	646.69
488.171	637.69
488.389	646.69
488.607	643.69
488.825	645.69
489.043	632.69
489.261	633.69
489.479	651.69
489.696	665.69
489.914	685.69
490.132	670.69
490.35	672.69
490.568	658.69
490.786	690.69
491.003	712.69
491.221	715.69
491.439	721.69
491.657	707.69
491.874	710.69
492.092	747.69
492.31	745.69
492.527	746.69
492.745	762.69
492.963	753.69
493.18	746.69
493.398	759.69
493.615	766.69
493.833	752.69
494.05	782.69
494.268	754.69
494.485	753.69
494.703	751.69
494.92	762.69
495.138	753.69
495.355	772.69
495.573	781.69
495.79	760.69
496.008	774.69
496.225	772.69
496.442	777.69
496.66	773.69
496.877	762.69
497.094	779.69
497.312	776.69
497.529	809.69
497.746	818.69
497.963	844.69
498.181	839.69
498.398	859.69
498.615	853.69
498.832	908.69
499.049	933.69
499.267	964.69
499.484	967.69
499.701	1020.69
499.918	1091.69
500.135	1171.69
500.352	1235.69
500.569	1246.69
500.786	1234.69
501.003	1235.69
501.22	1157.69
501.437	1128.69
501.654	1065.69
