Data from 1976.PennyLincolnUp.Lamp.En5.5.200Scan.071719.P1.Changed Mount._HRD10591_15-59-54-860.txt Node
Date: Thu Jul 18 15:59:54 EDT 2019
User: cochatt
Spectrometer: HR+D1059
Trigger mode: 1
Integration Time (sec): 1.000000E-1
Scans to average: 1
Electric dark correction enabled: true
Nonlinearity correction enabled: false
Boxcar width: 0
XAxis mode: Wavelengths
Number of Pixels in Spectrum: 2048
>>>>>Begin Spectral Data<<<<<
223.165	-20.25
223.4	-20.25
223.635	-20.25
223.869	-12.25
224.104	-14.25
224.338	-13.25
224.573	-26.25
224.808	-17.25
225.042	-10.25
225.277	0.75
225.511	5.75
225.746	-0.25
225.98	12.75
226.215	8.75
226.449	6.75
226.683	10.75
226.918	31.75
227.152	36.75
227.387	37.75
227.621	35.75
227.856	46.75
228.09	42.75
228.324	56.75
228.559	53.75
228.793	50.75
229.027	85.75
229.262	96.75
229.496	110.75
229.73	129.75
229.964	132.75
230.199	124.75
230.433	110.75
230.667	102.75
230.901	107.75
231.136	103.75
231.37	111.75
231.604	108.75
231.838	101.75
232.072	110.75
232.306	113.75
232.541	105.75
232.775	108.75
233.009	119.75
233.243	113.75
233.477	111.75
233.711	123.75
233.945	122.75
234.179	106.75
234.413	121.75
234.647	121.75
234.881	112.75
235.115	130.75
235.349	118.75
235.583	125.75
235.817	114.75
236.051	122.75
236.285	125.75
236.519	119.75
236.753	103.75
236.987	140.75
237.221	157.75
237.455	190.75
237.689	180.75
237.922	135.75
238.156	146.75
238.39	130.75
238.624	129.75
238.858	120.75
239.091	122.75
239.325	123.75
239.559	120.75
239.793	137.75
240.027	133.75
240.26	142.75
240.494	147.75
240.728	137.75
240.961	138.75
241.195	143.75
241.429	133.75
241.662	126.75
241.896	127.75
242.13	133.75
242.363	142.75
242.597	124.75
242.83	135.75
243.064	134.75
243.298	138.75
243.531	142.75
243.765	146.75
243.998	159.75
244.232	134.75
244.465	144.75
244.699	147.75
244.932	144.75
245.166	140.75
245.399	138.75
245.633	146.75
245.866	129.75
246.099	142.75
246.333	138.75
246.566	148.75
246.8	144.75
247.033	154.75
247.266	154.75
247.5	149.75
247.733	179.75
247.966	161.75
248.2	159.75
248.433	165.75
248.666	168.75
248.899	179.75
249.133	178.75
249.366	187.75
249.599	178.75
249.832	169.75
250.066	183.75
250.299	169.75
250.532	185.75
250.765	195.75
250.998	209.75
251.231	198.75
251.465	205.75
251.698	189.75
251.931	195.75
252.164	179.75
252.397	200.75
252.63	185.75
252.863	195.75
253.096	197.75
253.329	215.75
253.562	212.75
253.795	204.75
254.028	205.75
254.261	211.75
254.494	203.75
254.727	235.75
254.96	255.75
255.193	255.75
255.426	231.75
255.659	225.75
255.892	225.75
256.124	222.75
256.357	212.75
256.59	222.75
256.823	201.75
257.056	197.75
257.289	203.75
257.521	183.75
257.754	206.75
257.987	192.75
258.22	204.75
258.452	194.75
258.685	215.75
258.918	202.75
259.151	213.75
259.383	206.75
259.616	220.75
259.849	211.75
260.081	221.75
260.314	241.75
260.547	241.75
260.779	231.75
261.012	232.75
261.244	229.75
261.477	215.75
261.71	205.75
261.942	223.75
262.175	228.75
262.407	229.75
262.64	220.75
262.872	223.75
263.105	187.75
263.337	212.75
263.57	213.75
263.802	220.75
264.035	215.75
264.267	217.75
264.499	227.75
264.732	218.75
264.964	206.75
265.197	215.75
265.429	213.75
265.661	214.75
265.894	204.75
266.126	218.75
266.358	222.75
266.591	215.75
266.823	219.75
267.055	225.75
267.287	226.75
267.52	219.75
267.752	241.75
267.984	233.75
268.216	232.75
268.448	239.75
268.681	224.75
268.913	234.75
269.145	260.75
269.377	268.75
269.609	280.75
269.841	270.75
270.073	250.75
270.306	269.75
270.538	294.75
270.77	294.75
271.002	288.75
271.234	264.75
271.466	262.75
271.698	291.75
271.93	299.75
272.162	304.75
272.394	291.75
272.626	302.75
272.858	283.75
273.09	275.75
273.322	285.75
273.553	255.75
273.785	264.75
274.017	242.75
274.249	257.75
274.481	267.75
274.713	263.75
274.945	268.75
275.176	257.75
275.408	260.75
275.64	259.75
275.872	270.75
276.104	261.75
276.335	272.75
276.567	263.75
276.799	286.75
277.031	293.75
277.262	305.75
277.494	308.75
277.726	297.75
277.957	283.75
278.189	275.75
278.421	277.75
278.652	269.75
278.884	276.75
279.115	279.75
279.347	269.75
279.579	262.75
279.81	275.75
280.042	273.75
280.273	266.75
280.505	273.75
280.736	263.75
280.968	262.75
281.199	267.75
281.431	286.75
281.662	278.75
281.894	269.75
282.125	259.75
282.356	276.75
282.588	307.75
282.819	286.75
283.051	292.75
283.282	285.75
283.513	294.75
283.745	282.75
283.976	307.75
284.207	278.75
284.439	293.75
284.67	282.75
284.901	291.75
285.132	292.75
285.364	305.75
285.595	310.75
285.826	287.75
286.057	279.75
286.288	287.75
286.52	306.75
286.751	293.75
286.982	283.75
287.213	292.75
287.444	284.75
287.675	263.75
287.906	299.75
288.138	306.75
288.369	292.75
288.6	300.75
288.831	299.75
289.062	286.75
289.293	300.75
289.524	292.75
289.755	301.75
289.986	294.75
290.217	301.75
290.448	287.75
290.679	301.75
290.91	287.75
291.141	314.75
291.371	305.75
291.602	301.75
291.833	291.75
292.064	312.75
292.295	298.75
292.526	278.75
292.757	287.75
292.987	318.75
293.218	300.75
293.449	313.75
293.68	297.75
293.91	284.75
294.141	289.75
294.372	287.75
294.603	295.75
294.833	295.75
295.064	295.75
295.295	302.75
295.525	297.75
295.756	293.75
295.987	300.75
296.217	302.75
296.448	285.75
296.679	308.75
296.909	305.75
297.14	323.75
297.37	290.75
297.601	294.75
297.831	314.75
298.062	298.75
298.292	289.75
298.523	292.75
298.753	317.75
298.984	325.75
299.214	313.75
299.445	315.75
299.675	315.75
299.905	325.75
300.136	299.75
300.366	315.75
300.597	323.75
300.827	310.75
301.057	345.75
301.288	329.75
301.518	324.75
301.748	305.75
301.979	332.75
302.209	311.75
302.439	340.75
302.669	343.75
302.9	326.75
303.13	329.75
303.36	332.75
303.59	344.75
303.82	334.75
304.051	348.75
304.281	345.75
304.511	318.75
304.741	337.75
304.971	334.75
305.201	326.75
305.431	334.75
305.661	336.75
305.891	323.75
306.121	333.75
306.352	327.75
306.582	350.75
306.812	360.75
307.042	317.75
307.272	313.75
307.502	323.75
307.731	339.75
307.961	315.75
308.191	326.75
308.421	334.75
308.651	343.75
308.881	326.75
309.111	346.75
309.341	337.75
309.571	339.75
309.8	349.75
310.03	359.75
310.26	363.75
310.49	344.75
310.72	357.75
310.949	367.75
311.179	377.75
311.409	360.75
311.639	355.75
311.868	361.75
312.098	388.75
312.328	376.75
312.557	378.75
312.787	363.75
313.017	375.75
313.246	373.75
313.476	364.75
313.706	381.75
313.935	393.75
314.165	380.75
314.394	380.75
314.624	382.75
314.853	376.75
315.083	350.75
315.312	382.75
315.542	370.75
315.771	385.75
316.001	360.75
316.23	376.75
316.46	362.75
316.689	365.75
316.919	363.75
317.148	378.75
317.377	392.75
317.607	371.75
317.836	377.75
318.065	377.75
318.295	372.75
318.524	374.75
318.753	373.75
318.983	371.75
319.212	367.75
319.441	386.75
319.67	381.75
319.9	385.75
320.129	359.75
320.358	373.75
320.587	368.75
320.816	379.75
321.046	383.75
321.275	387.75
321.504	394.75
321.733	402.75
321.962	397.75
322.191	383.75
322.42	405.75
322.649	411.75
322.878	423.75
323.108	430.75
323.337	436.75
323.566	449.75
323.795	465.75
324.024	486.75
324.253	570.75
324.482	741.75
324.71	1130.75
324.939	1621.75
325.168	1438.75
325.397	734.75
325.626	540.75
325.855	468.75
326.084	455.75
326.313	439.75
326.542	431.75
326.77	460.75
326.999	526.75
327.228	691.75
327.457	1029.75
327.686	1220.75
327.914	855.75
328.143	554.75
328.372	513.75
328.6	502.75
328.829	465.75
329.058	469.75
329.287	494.75
329.515	476.75
329.744	462.75
329.972	466.75
330.201	459.75
330.43	472.75
330.658	493.75
330.887	517.75
331.115	501.75
331.344	481.75
331.572	458.75
331.801	478.75
332.03	454.75
332.258	438.75
332.486	448.75
332.715	442.75
332.943	461.75
333.172	445.75
333.4	444.75
333.629	479.75
333.857	467.75
334.085	489.75
334.314	500.75
334.542	489.75
334.771	501.75
334.999	479.75
335.227	456.75
335.455	467.75
335.684	459.75
335.912	448.75
336.14	432.75
336.369	451.75
336.597	446.75
336.825	455.75
337.053	461.75
337.281	426.75
337.51	437.75
337.738	443.75
337.966	438.75
338.194	447.75
338.422	420.75
338.65	411.75
338.878	416.75
339.106	409.75
339.334	409.75
339.562	451.75
339.79	427.75
340.018	426.75
340.246	416.75
340.474	421.75
340.702	421.75
340.93	462.75
341.158	429.75
341.386	417.75
341.614	418.75
341.842	427.75
342.07	432.75
342.298	435.75
342.526	403.75
342.754	429.75
342.981	389.75
343.209	413.75
343.437	412.75
343.665	452.75
343.893	443.75
344.12	452.75
344.348	436.75
344.576	431.75
344.804	453.75
345.031	437.75
345.259	419.75
345.487	439.75
345.714	400.75
345.942	419.75
346.17	418.75
346.397	398.75
346.625	411.75
346.853	397.75
347.08	407.75
347.308	418.75
347.535	422.75
347.763	422.75
347.99	398.75
348.218	414.75
348.445	407.75
348.673	399.75
348.9	412.75
349.128	393.75
349.355	406.75
349.583	381.75
349.81	386.75
350.037	367.75
350.265	403.75
350.492	389.75
350.72	391.75
350.947	405.75
351.174	393.75
351.402	404.75
351.629	423.75
351.856	385.75
352.083	395.75
352.311	428.75
352.538	418.75
352.765	405.75
352.992	406.75
353.22	400.75
353.447	398.75
353.674	401.75
353.901	411.75
354.128	378.75
354.355	406.75
354.583	409.75
354.81	380.75
355.037	387.75
355.264	378.75
355.491	379.75
355.718	376.75
355.945	363.75
356.172	385.75
356.399	387.75
356.626	382.75
356.853	392.75
357.08	395.75
357.307	388.75
357.534	378.75
357.761	369.75
357.988	384.75
358.215	380.75
358.441	385.75
358.668	388.75
358.895	396.75
359.122	388.75
359.349	398.75
359.576	382.75
359.802	423.75
360.029	435.75
360.256	439.75
360.483	418.75
360.709	409.75
360.936	422.75
361.163	405.75
361.39	382.75
361.616	389.75
361.843	379.75
362.07	396.75
362.296	407.75
362.523	420.75
362.749	395.75
362.976	383.75
363.203	421.75
363.429	395.75
363.656	381.75
363.882	390.75
364.109	383.75
364.335	382.75
364.562	385.75
364.788	382.75
365.015	394.75
365.241	391.75
365.468	390.75
365.694	401.75
365.92	402.75
366.147	379.75
366.373	382.75
366.599	370.75
366.826	381.75
367.052	399.75
367.278	385.75
367.505	380.75
367.731	403.75
367.957	387.75
368.184	387.75
368.41	398.75
368.636	410.75
368.862	418.75
369.089	402.75
369.315	402.75
369.541	381.75
369.767	391.75
369.993	394.75
370.219	402.75
370.445	366.75
370.672	398.75
370.898	410.75
371.124	384.75
371.35	402.75
371.576	404.75
371.802	403.75
372.028	379.75
372.254	390.75
372.48	377.75
372.706	393.75
372.932	412.75
373.158	417.75
373.384	406.75
373.61	398.75
373.835	395.75
374.061	403.75
374.287	414.75
374.513	418.75
374.739	417.75
374.965	403.75
375.191	415.75
375.416	409.75
375.642	405.75
375.868	404.75
376.094	393.75
376.319	393.75
376.545	384.75
376.771	391.75
376.997	412.75
377.222	390.75
377.448	401.75
377.674	381.75
377.899	398.75
378.125	397.75
378.35	402.75
378.576	377.75
378.802	390.75
379.027	395.75
379.253	392.75
379.478	410.75
379.704	397.75
379.929	389.75
380.155	399.75
380.38	391.75
380.606	397.75
380.831	388.75
381.057	411.75
381.282	419.75
381.507	398.75
381.733	393.75
381.958	391.75
382.184	398.75
382.409	406.75
382.634	421.75
382.86	405.75
383.085	423.75
383.31	415.75
383.535	417.75
383.761	411.75
383.986	426.75
384.211	422.75
384.436	436.75
384.662	445.75
384.887	441.75
385.112	438.75
385.337	453.75
385.562	452.75
385.787	445.75
386.013	461.75
386.238	435.75
386.463	437.75
386.688	447.75
386.913	448.75
387.138	441.75
387.363	462.75
387.588	433.75
387.813	441.75
388.038	467.75
388.263	460.75
388.488	439.75
388.713	471.75
388.938	455.75
389.163	440.75
389.387	440.75
389.612	442.75
389.837	447.75
390.062	462.75
390.287	446.75
390.512	436.75
390.736	447.75
390.961	456.75
391.186	435.75
391.411	494.75
391.636	480.75
391.86	488.75
392.085	472.75
392.31	476.75
392.534	476.75
392.759	473.75
392.984	463.75
393.208	449.75
393.433	449.75
393.658	443.75
393.882	451.75
394.107	478.75
394.331	459.75
394.556	458.75
394.78	456.75
395.005	474.75
395.229	433.75
395.454	463.75
395.678	472.75
395.903	482.75
396.127	490.75
396.352	492.75
396.576	474.75
396.801	455.75
397.025	478.75
397.249	484.75
397.474	474.75
397.698	463.75
397.922	495.75
398.147	504.75
398.371	525.75
398.595	509.75
398.82	530.75
399.044	536.75
399.268	564.75
399.492	581.75
399.717	620.75
399.941	646.75
400.165	653.75
400.389	640.75
400.613	574.75
400.837	563.75
401.062	510.75
401.286	545.75
401.51	549.75
401.734	519.75
401.958	509.75
402.182	523.75
402.406	533.75
402.63	515.75
402.854	527.75
403.078	509.75
403.302	543.75
403.526	545.75
403.75	535.75
403.974	542.75
404.198	533.75
404.422	535.75
404.645	565.75
404.869	538.75
405.093	566.75
405.317	603.75
405.541	674.75
405.765	588.75
405.988	590.75
406.212	555.75
406.436	559.75
406.66	595.75
406.883	577.75
407.107	595.75
407.331	637.75
407.555	677.75
407.778	699.75
408.002	658.75
408.226	609.75
408.449	604.75
408.673	586.75
408.896	602.75
409.12	666.75
409.344	627.75
409.567	576.75
409.791	537.75
410.014	541.75
410.238	521.75
410.461	541.75
410.685	529.75
410.908	545.75
411.132	586.75
411.355	625.75
411.578	601.75
411.802	547.75
412.025	545.75
412.249	557.75
412.472	553.75
412.695	594.75
412.919	600.75
413.142	536.75
413.365	538.75
413.589	558.75
413.812	520.75
414.035	520.75
414.258	507.75
414.482	522.75
414.705	522.75
414.928	495.75
415.151	515.75
415.374	501.75
415.597	521.75
415.821	512.75
416.044	535.75
416.267	531.75
416.49	504.75
416.713	517.75
416.936	494.75
417.159	475.75
417.382	520.75
417.605	505.75
417.828	523.75
418.051	522.75
418.274	520.75
418.497	492.75
418.72	503.75
418.943	492.75
419.166	542.75
419.389	556.75
419.611	535.75
419.834	551.75
420.057	552.75
420.28	540.75
420.503	519.75
420.726	536.75
420.948	529.75
421.171	585.75
421.394	579.75
421.617	547.75
421.839	511.75
422.062	519.75
422.285	515.75
422.507	581.75
422.73	651.75
422.953	632.75
423.175	581.75
423.398	567.75
423.621	527.75
423.843	550.75
424.066	576.75
424.288	562.75
424.511	571.75
424.733	624.75
424.956	686.75
425.178	664.75
425.401	675.75
425.623	698.75
425.846	617.75
426.068	540.75
426.291	529.75
426.513	548.75
426.735	548.75
426.958	573.75
427.18	683.75
427.402	798.75
427.625	875.75
427.847	715.75
428.069	624.75
428.292	575.75
428.514	545.75
428.736	525.75
428.958	503.75
429.181	529.75
429.403	510.75
429.625	524.75
429.847	542.75
430.069	596.75
430.292	601.75
430.514	511.75
430.736	521.75
430.958	492.75
431.18	497.75
431.402	489.75
431.624	497.75
431.846	487.75
432.068	485.75
432.29	477.75
432.512	497.75
432.734	487.75
432.956	473.75
433.178	495.75
433.4	498.75
433.622	501.75
433.844	504.75
434.066	498.75
434.287	485.75
434.509	473.75
434.731	495.75
434.953	524.75
435.175	516.75
435.397	542.75
435.618	558.75
435.84	589.75
436.062	653.75
436.284	750.75
436.505	616.75
436.727	550.75
436.949	507.75
437.17	498.75
437.392	492.75
437.614	523.75
437.835	566.75
438.057	617.75
438.278	700.75
438.5	701.75
438.721	789.75
438.943	767.75
439.165	613.75
439.386	533.75
439.608	550.75
439.829	540.75
440.05	573.75
440.272	609.75
440.493	563.75
440.715	538.75
440.936	538.75
441.158	506.75
441.379	512.75
441.6	545.75
441.822	575.75
442.043	570.75
442.264	652.75
442.486	711.75
442.707	593.75
442.928	558.75
443.149	575.75
443.371	594.75
443.592	611.75
443.813	712.75
444.034	773.75
444.255	634.75
444.476	580.75
444.698	590.75
444.919	598.75
445.14	686.75
445.361	625.75
445.582	587.75
445.803	623.75
446.024	727.75
446.245	731.75
446.466	648.75
446.687	585.75
446.908	551.75
447.129	526.75
447.35	532.75
447.571	503.75
447.792	501.75
448.013	511.75
448.234	496.75
448.455	541.75
448.675	671.75
448.896	783.75
449.117	647.75
449.338	610.75
449.559	704.75
449.779	805.75
450	665.75
450.221	539.75
450.442	500.75
450.662	501.75
450.883	474.75
451.104	503.75
451.324	478.75
451.545	486.75
451.766	459.75
451.986	445.75
452.207	439.75
452.428	430.75
452.648	458.75
452.869	447.75
453.089	465.75
453.31	467.75
453.53	455.75
453.751	453.75
453.971	463.75
454.192	480.75
454.412	447.75
454.633	423.75
454.853	449.75
455.073	451.75
455.294	447.75
455.514	516.75
455.734	513.75
455.955	465.75
456.175	419.75
456.395	428.75
456.616	428.75
456.836	436.75
457.056	425.75
457.276	430.75
457.497	417.75
457.717	430.75
457.937	439.75
458.157	450.75
458.377	436.75
458.598	469.75
458.818	495.75
459.038	551.75
459.258	583.75
459.478	518.75
459.698	487.75
459.918	491.75
460.138	500.75
460.358	503.75
460.578	503.75
460.798	521.75
461.018	509.75
461.238	483.75
461.458	486.75
461.678	502.75
461.898	505.75
462.118	534.75
462.338	521.75
462.558	529.75
462.777	534.75
462.997	570.75
463.217	564.75
463.437	591.75
463.657	571.75
463.876	564.75
464.096	545.75
464.316	547.75
464.536	549.75
464.755	550.75
464.975	551.75
465.195	568.75
465.414	594.75
465.634	543.75
465.854	513.75
466.073	503.75
466.293	480.75
466.512	482.75
466.732	460.75
466.951	450.75
467.171	450.75
467.391	472.75
467.61	461.75
467.829	476.75
468.049	471.75
468.268	472.75
468.488	463.75
468.707	453.75
468.927	474.75
469.146	455.75
469.365	466.75
469.585	463.75
469.804	464.75
470.023	470.75
470.243	478.75
470.462	477.75
470.681	500.75
470.901	486.75
471.12	478.75
471.339	486.75
471.558	480.75
471.777	467.75
471.997	484.75
472.216	466.75
472.435	481.75
472.654	479.75
472.873	452.75
473.092	486.75
473.311	491.75
473.53	462.75
473.749	475.75
473.968	489.75
474.187	571.75
474.406	603.75
474.625	514.75
474.844	489.75
475.063	483.75
475.282	473.75
475.501	487.75
475.72	487.75
475.939	488.75
476.158	474.75
476.377	470.75
476.596	455.75
476.814	494.75
477.033	503.75
477.252	510.75
477.471	502.75
477.69	499.75
477.908	525.75
478.127	513.75
478.346	522.75
478.564	524.75
478.783	537.75
479.002	522.75
479.22	564.75
479.439	555.75
479.658	567.75
479.876	577.75
480.095	552.75
480.313	596.75
480.532	575.75
480.751	590.75
480.969	591.75
481.188	597.75
481.406	628.75
481.624	569.75
481.843	555.75
482.061	543.75
482.28	558.75
482.498	540.75
482.717	522.75
482.935	559.75
483.153	540.75
483.372	545.75
483.59	556.75
483.808	551.75
484.027	547.75
484.245	553.75
484.463	563.75
484.681	555.75
484.9	550.75
485.118	559.75
485.336	543.75
485.554	563.75
485.772	574.75
485.99	547.75
486.209	561.75
486.427	566.75
486.645	596.75
486.863	582.75
487.081	587.75
487.299	578.75
487.517	574.75
487.735	581.75
487.953	592.75
488.171	587.75
488.389	580.75
488.607	575.75
488.825	612.75
489.043	590.75
489.261	587.75
489.479	589.75
489.696	583.75
489.914	598.75
490.132	608.75
490.35	613.75
490.568	619.75
490.786	631.75
491.003	633.75
491.221	615.75
491.439	675.75
491.657	641.75
491.874	659.75
492.092	669.75
492.31	670.75
492.527	682.75
492.745	682.75
492.963	674.75
493.18	682.75
493.398	689.75
493.615	667.75
493.833	678.75
494.05	697.75
494.268	669.75
494.485	687.75
494.703	707.75
494.92	685.75
495.138	701.75
495.355	665.75
495.573	666.75
495.79	693.75
496.008	683.75
496.225	690.75
496.442	694.75
496.66	694.75
496.877	695.75
497.094	715.75
497.312	701.75
497.529	725.75
497.746	716.75
497.963	738.75
498.181	767.75
498.398	781.75
498.615	778.75
498.832	824.75
499.049	813.75
499.267	845.75
499.484	885.75
499.701	942.75
499.918	976.75
500.135	1025.75
500.352	1103.75
500.569	1111.75
500.786	1129.75
501.003	1110.75
501.22	1045.75
501.437	996.75
501.654	962.75
