Data from 1976.PennyLincolnUp.Lamp.En5.5.200Scan.071719.P1.Changed Mount._HRD10591_15-59-26-860.txt Node
Date: Thu Jul 18 15:59:26 EDT 2019
User: cochatt
Spectrometer: HR+D1059
Trigger mode: 1
Integration Time (sec): 1.000000E-1
Scans to average: 1
Electric dark correction enabled: true
Nonlinearity correction enabled: false
Boxcar width: 0
XAxis mode: Wavelengths
Number of Pixels in Spectrum: 2048
>>>>>Begin Spectral Data<<<<<
223.165	2.12
223.4	2.12
223.635	2.12
223.869	-16.88
224.104	-16.88
224.338	-12.88
224.573	-9.88
224.808	-10.88
225.042	-2.88
225.277	-12.88
225.511	-6.88
225.746	-7.88
225.98	8.12
226.215	1.12
226.449	18.12
226.683	20.12
226.918	29.12
227.152	19.12
227.387	42.12
227.621	45.12
227.856	52.12
228.09	47.12
228.324	51.12
228.559	44.12
228.793	71.12
229.027	98.12
229.262	95.12
229.496	91.12
229.73	105.12
229.964	110.12
230.199	93.12
230.433	100.12
230.667	107.12
230.901	100.12
231.136	95.12
231.37	109.12
231.604	108.12
231.838	102.12
232.072	101.12
232.306	113.12
232.541	106.12
232.775	109.12
233.009	107.12
233.243	109.12
233.477	99.12
233.711	104.12
233.945	107.12
234.179	108.12
234.413	113.12
234.647	110.12
234.881	118.12
235.115	115.12
235.349	114.12
235.583	116.12
235.817	121.12
236.051	107.12
236.285	117.12
236.519	110.12
236.753	115.12
236.987	140.12
237.221	150.12
237.455	173.12
237.689	166.12
237.922	128.12
238.156	124.12
238.39	117.12
238.624	121.12
238.858	103.12
239.091	110.12
239.325	121.12
239.559	127.12
239.793	125.12
240.027	125.12
240.26	129.12
240.494	134.12
240.728	137.12
240.961	147.12
241.195	131.12
241.429	140.12
241.662	137.12
241.896	117.12
242.13	125.12
242.363	133.12
242.597	121.12
242.83	125.12
243.064	123.12
243.298	132.12
243.531	135.12
243.765	134.12
243.998	132.12
244.232	147.12
244.465	153.12
244.699	127.12
244.932	121.12
245.166	134.12
245.399	130.12
245.633	145.12
245.866	137.12
246.099	144.12
246.333	129.12
246.566	139.12
246.8	150.12
247.033	162.12
247.266	157.12
247.5	147.12
247.733	165.12
247.966	152.12
248.2	159.12
248.433	164.12
248.666	174.12
248.899	188.12
249.133	185.12
249.366	187.12
249.599	178.12
249.832	161.12
250.066	173.12
250.299	159.12
250.532	173.12
250.765	182.12
250.998	187.12
251.231	197.12
251.465	187.12
251.698	184.12
251.931	188.12
252.164	178.12
252.397	180.12
252.63	167.12
252.863	207.12
253.096	200.12
253.329	194.12
253.562	201.12
253.795	195.12
254.028	208.12
254.261	202.12
254.494	215.12
254.727	216.12
254.96	232.12
255.193	221.12
255.426	207.12
255.659	202.12
255.892	218.12
256.124	213.12
256.357	200.12
256.59	196.12
256.823	203.12
257.056	202.12
257.289	183.12
257.521	188.12
257.754	188.12
257.987	210.12
258.22	185.12
258.452	181.12
258.685	206.12
258.918	187.12
259.151	195.12
259.383	210.12
259.616	199.12
259.849	197.12
260.081	199.12
260.314	219.12
260.547	222.12
260.779	225.12
261.012	220.12
261.244	213.12
261.477	203.12
261.71	215.12
261.942	208.12
262.175	211.12
262.407	214.12
262.64	215.12
262.872	197.12
263.105	188.12
263.337	205.12
263.57	201.12
263.802	209.12
264.035	207.12
264.267	215.12
264.499	200.12
264.732	201.12
264.964	212.12
265.197	194.12
265.429	209.12
265.661	214.12
265.894	209.12
266.126	228.12
266.358	204.12
266.591	213.12
266.823	223.12
267.055	210.12
267.287	218.12
267.52	230.12
267.752	212.12
267.984	222.12
268.216	218.12
268.448	213.12
268.681	214.12
268.913	239.12
269.145	237.12
269.377	254.12
269.609	247.12
269.841	264.12
270.073	227.12
270.306	265.12
270.538	276.12
270.77	275.12
271.002	271.12
271.234	257.12
271.466	273.12
271.698	252.12
271.93	276.12
272.162	289.12
272.394	280.12
272.626	259.12
272.858	265.12
273.09	263.12
273.322	260.12
273.553	264.12
273.785	254.12
274.017	242.12
274.249	283.12
274.481	259.12
274.713	251.12
274.945	253.12
275.176	263.12
275.408	242.12
275.64	257.12
275.872	251.12
276.104	247.12
276.335	249.12
276.567	259.12
276.799	266.12
277.031	282.12
277.262	276.12
277.494	293.12
277.726	280.12
277.957	263.12
278.189	261.12
278.421	259.12
278.652	252.12
278.884	274.12
279.115	268.12
279.347	269.12
279.579	268.12
279.81	277.12
280.042	255.12
280.273	272.12
280.505	257.12
280.736	267.12
280.968	262.12
281.199	250.12
281.431	282.12
281.662	273.12
281.894	266.12
282.125	280.12
282.356	298.12
282.588	283.12
282.819	281.12
283.051	291.12
283.282	290.12
283.513	261.12
283.745	275.12
283.976	281.12
284.207	271.12
284.439	281.12
284.67	267.12
284.901	270.12
285.132	282.12
285.364	268.12
285.595	268.12
285.826	249.12
286.057	286.12
286.288	285.12
286.52	288.12
286.751	263.12
286.982	292.12
287.213	275.12
287.444	289.12
287.675	304.12
287.906	313.12
288.138	301.12
288.369	298.12
288.6	302.12
288.831	298.12
289.062	302.12
289.293	310.12
289.524	298.12
289.755	293.12
289.986	311.12
290.217	285.12
290.448	281.12
290.679	302.12
290.91	306.12
291.141	271.12
291.371	295.12
291.602	308.12
291.833	293.12
292.064	273.12
292.295	292.12
292.526	264.12
292.757	274.12
292.987	278.12
293.218	299.12
293.449	301.12
293.68	285.12
293.91	290.12
294.141	314.12
294.372	294.12
294.603	281.12
294.833	306.12
295.064	279.12
295.295	297.12
295.525	299.12
295.756	299.12
295.987	285.12
296.217	308.12
296.448	305.12
296.679	299.12
296.909	298.12
297.14	321.12
297.37	310.12
297.601	297.12
297.831	297.12
298.062	294.12
298.292	300.12
298.523	331.12
298.753	311.12
298.984	300.12
299.214	312.12
299.445	311.12
299.675	323.12
299.905	295.12
300.136	311.12
300.366	302.12
300.597	311.12
300.827	318.12
301.057	333.12
301.288	325.12
301.518	334.12
301.748	317.12
301.979	321.12
302.209	318.12
302.439	329.12
302.669	325.12
302.9	318.12
303.13	318.12
303.36	328.12
303.59	342.12
303.82	325.12
304.051	338.12
304.281	338.12
304.511	330.12
304.741	345.12
304.971	309.12
305.201	309.12
305.431	331.12
305.661	346.12
305.891	330.12
306.121	336.12
306.352	333.12
306.582	327.12
306.812	317.12
307.042	333.12
307.272	314.12
307.502	319.12
307.731	330.12
307.961	330.12
308.191	333.12
308.421	329.12
308.651	321.12
308.881	330.12
309.111	344.12
309.341	358.12
309.571	362.12
309.8	350.12
310.03	360.12
310.26	352.12
310.49	347.12
310.72	339.12
310.949	359.12
311.179	360.12
311.409	351.12
311.639	356.12
311.868	345.12
312.098	356.12
312.328	349.12
312.557	359.12
312.787	389.12
313.017	363.12
313.246	369.12
313.476	360.12
313.706	361.12
313.935	373.12
314.165	370.12
314.394	350.12
314.624	373.12
314.853	353.12
315.083	350.12
315.312	348.12
315.542	367.12
315.771	369.12
316.001	358.12
316.23	350.12
316.46	341.12
316.689	351.12
316.919	362.12
317.148	374.12
317.377	367.12
317.607	369.12
317.836	352.12
318.065	377.12
318.295	359.12
318.524	352.12
318.753	369.12
318.983	367.12
319.212	354.12
319.441	358.12
319.67	379.12
319.9	371.12
320.129	362.12
320.358	361.12
320.587	376.12
320.816	377.12
321.046	391.12
321.275	372.12
321.504	345.12
321.733	373.12
321.962	366.12
322.191	373.12
322.42	389.12
322.649	388.12
322.878	403.12
323.108	403.12
323.337	409.12
323.566	425.12
323.795	447.12
324.024	455.12
324.253	516.12
324.482	685.12
324.71	1089.12
324.939	1585.12
325.168	1379.12
325.397	697.12
325.626	504.12
325.855	430.12
326.084	415.12
326.313	437.12
326.542	412.12
326.77	457.12
326.999	513.12
327.228	677.12
327.457	979.12
327.686	1229.12
327.914	779.12
328.143	544.12
328.372	482.12
328.6	486.12
328.829	450.12
329.058	456.12
329.287	458.12
329.515	453.12
329.744	430.12
329.972	448.12
330.201	446.12
330.43	465.12
330.658	500.12
330.887	502.12
331.115	492.12
331.344	445.12
331.572	451.12
331.801	444.12
332.03	420.12
332.258	419.12
332.486	445.12
332.715	423.12
332.943	438.12
333.172	437.12
333.4	439.12
333.629	458.12
333.857	450.12
334.085	474.12
334.314	471.12
334.542	472.12
334.771	501.12
334.999	471.12
335.227	445.12
335.455	452.12
335.684	445.12
335.912	433.12
336.14	435.12
336.369	454.12
336.597	433.12
336.825	445.12
337.053	426.12
337.281	429.12
337.51	428.12
337.738	417.12
337.966	421.12
338.194	440.12
338.422	423.12
338.65	433.12
338.878	422.12
339.106	403.12
339.334	412.12
339.562	408.12
339.79	415.12
340.018	408.12
340.246	416.12
340.474	425.12
340.702	412.12
340.93	410.12
341.158	414.12
341.386	393.12
341.614	430.12
341.842	416.12
342.07	406.12
342.298	426.12
342.526	409.12
342.754	397.12
342.981	385.12
343.209	415.12
343.437	403.12
343.665	429.12
343.893	452.12
344.12	453.12
344.348	435.12
344.576	430.12
344.804	428.12
345.031	406.12
345.259	423.12
345.487	426.12
345.714	439.12
345.942	409.12
346.17	411.12
346.397	407.12
346.625	398.12
346.853	396.12
347.08	409.12
347.308	409.12
347.535	404.12
347.763	396.12
347.99	397.12
348.218	406.12
348.445	402.12
348.673	400.12
348.9	377.12
349.128	401.12
349.355	374.12
349.583	387.12
349.81	405.12
350.037	400.12
350.265	367.12
350.492	387.12
350.72	385.12
350.947	403.12
351.174	388.12
351.402	404.12
351.629	410.12
351.856	393.12
352.083	385.12
352.311	400.12
352.538	405.12
352.765	409.12
352.992	382.12
353.22	399.12
353.447	387.12
353.674	406.12
353.901	366.12
354.128	374.12
354.355	380.12
354.583	381.12
354.81	410.12
355.037	381.12
355.264	375.12
355.491	380.12
355.718	379.12
355.945	376.12
356.172	380.12
356.399	379.12
356.626	406.12
356.853	363.12
357.08	388.12
357.307	377.12
357.534	375.12
357.761	383.12
357.988	389.12
358.215	377.12
358.441	389.12
358.668	372.12
358.895	390.12
359.122	392.12
359.349	393.12
359.576	396.12
359.802	408.12
360.029	419.12
360.256	429.12
360.483	426.12
360.709	377.12
360.936	378.12
361.163	405.12
361.39	387.12
361.616	407.12
361.843	378.12
362.07	393.12
362.296	385.12
362.523	386.12
362.749	398.12
362.976	381.12
363.203	384.12
363.429	385.12
363.656	387.12
363.882	384.12
364.109	365.12
364.335	375.12
364.562	382.12
364.788	380.12
365.015	386.12
365.241	383.12
365.468	383.12
365.694	400.12
365.92	390.12
366.147	401.12
366.373	395.12
366.599	387.12
366.826	384.12
367.052	371.12
367.278	386.12
367.505	361.12
367.731	389.12
367.957	374.12
368.184	382.12
368.41	397.12
368.636	381.12
368.862	395.12
369.089	399.12
369.315	391.12
369.541	385.12
369.767	405.12
369.993	393.12
370.219	384.12
370.445	407.12
370.672	391.12
370.898	402.12
371.124	387.12
371.35	405.12
371.576	407.12
371.802	399.12
372.028	401.12
372.254	401.12
372.48	386.12
372.706	403.12
372.932	398.12
373.158	408.12
373.384	399.12
373.61	393.12
373.835	405.12
374.061	413.12
374.287	411.12
374.513	400.12
374.739	425.12
374.965	414.12
375.191	437.12
375.416	404.12
375.642	414.12
375.868	404.12
376.094	411.12
376.319	395.12
376.545	396.12
376.771	390.12
376.997	390.12
377.222	420.12
377.448	410.12
377.674	400.12
377.899	401.12
378.125	418.12
378.35	390.12
378.576	395.12
378.802	392.12
379.027	412.12
379.253	409.12
379.478	396.12
379.704	395.12
379.929	406.12
380.155	404.12
380.38	418.12
380.606	394.12
380.831	407.12
381.057	412.12
381.282	407.12
381.507	409.12
381.733	438.12
381.958	406.12
382.184	430.12
382.409	438.12
382.634	421.12
382.86	412.12
383.085	412.12
383.31	444.12
383.535	455.12
383.761	462.12
383.986	428.12
384.211	434.12
384.436	429.12
384.662	441.12
384.887	455.12
385.112	466.12
385.337	459.12
385.562	472.12
385.787	448.12
386.013	437.12
386.238	471.12
386.463	481.12
386.688	481.12
386.913	453.12
387.138	475.12
387.363	476.12
387.588	450.12
387.813	450.12
388.038	483.12
388.263	501.12
388.488	466.12
388.713	469.12
388.938	423.12
389.163	440.12
389.387	464.12
389.612	449.12
389.837	436.12
390.062	421.12
390.287	439.12
390.512	463.12
390.736	436.12
390.961	448.12
391.186	451.12
391.411	446.12
391.636	450.12
391.86	459.12
392.085	476.12
392.31	470.12
392.534	465.12
392.759	464.12
392.984	460.12
393.208	461.12
393.433	444.12
393.658	476.12
393.882	438.12
394.107	462.12
394.331	451.12
394.556	459.12
394.78	468.12
395.005	452.12
395.229	459.12
395.454	482.12
395.678	470.12
395.903	491.12
396.127	499.12
396.352	493.12
396.576	475.12
396.801	466.12
397.025	464.12
397.249	475.12
397.474	473.12
397.698	491.12
397.922	519.12
398.147	499.12
398.371	488.12
398.595	525.12
398.82	527.12
399.044	542.12
399.268	557.12
399.492	587.12
399.717	643.12
399.941	637.12
400.165	670.12
400.389	652.12
400.613	604.12
400.837	562.12
401.062	541.12
401.286	516.12
401.51	509.12
401.734	537.12
401.958	537.12
402.182	531.12
402.406	525.12
402.63	533.12
402.854	513.12
403.078	527.12
403.302	528.12
403.526	553.12
403.75	547.12
403.974	545.12
404.198	550.12
404.422	548.12
404.645	538.12
404.869	542.12
405.093	584.12
405.317	602.12
405.541	616.12
405.765	552.12
405.988	533.12
406.212	589.12
406.436	573.12
406.66	570.12
406.883	580.12
407.107	610.12
407.331	644.12
407.555	722.12
407.778	719.12
408.002	644.12
408.226	605.12
408.449	605.12
408.673	616.12
408.896	600.12
409.12	668.12
409.344	606.12
409.567	564.12
409.791	549.12
410.014	558.12
410.238	566.12
410.461	555.12
410.685	549.12
410.908	554.12
411.132	574.12
411.355	628.12
411.578	575.12
411.802	550.12
412.025	549.12
412.249	547.12
412.472	550.12
412.695	561.12
412.919	586.12
413.142	531.12
413.365	521.12
413.589	527.12
413.812	509.12
414.035	525.12
414.258	526.12
414.482	524.12
414.705	505.12
414.928	506.12
415.151	502.12
415.374	511.12
415.597	498.12
415.821	491.12
416.044	481.12
416.267	510.12
416.49	479.12
416.713	515.12
416.936	502.12
417.159	494.12
417.382	502.12
417.605	505.12
417.828	515.12
418.051	511.12
418.274	511.12
418.497	518.12
418.72	511.12
418.943	497.12
419.166	528.12
419.389	553.12
419.611	553.12
419.834	531.12
420.057	566.12
420.28	548.12
420.503	527.12
420.726	526.12
420.948	538.12
421.171	564.12
421.394	609.12
421.617	552.12
421.839	553.12
422.062	542.12
422.285	523.12
422.507	581.12
422.73	630.12
422.953	621.12
423.175	559.12
423.398	557.12
423.621	524.12
423.843	546.12
424.066	553.12
424.288	551.12
424.511	554.12
424.733	602.12
424.956	662.12
425.178	645.12
425.401	644.12
425.623	634.12
425.846	587.12
426.068	549.12
426.291	525.12
426.513	523.12
426.735	513.12
426.958	572.12
427.18	638.12
427.402	744.12
427.625	825.12
427.847	698.12
428.069	608.12
428.292	549.12
428.514	520.12
428.736	515.12
428.958	518.12
429.181	525.12
429.403	502.12
429.625	501.12
429.847	523.12
430.069	573.12
430.292	584.12
430.514	531.12
430.736	490.12
430.958	506.12
431.18	498.12
431.402	474.12
431.624	462.12
431.846	468.12
432.068	484.12
432.29	489.12
432.512	494.12
432.734	484.12
432.956	493.12
433.178	507.12
433.4	505.12
433.622	500.12
433.844	490.12
434.066	490.12
434.287	490.12
434.509	494.12
434.731	476.12
434.953	479.12
435.175	519.12
435.397	550.12
435.618	558.12
435.84	568.12
436.062	653.12
436.284	715.12
436.505	588.12
436.727	537.12
436.949	525.12
437.17	500.12
437.392	502.12
437.614	509.12
437.835	530.12
438.057	594.12
438.278	692.12
438.5	698.12
438.721	756.12
438.943	731.12
439.165	579.12
439.386	528.12
439.608	550.12
439.829	540.12
440.05	553.12
440.272	598.12
440.493	565.12
440.715	516.12
440.936	539.12
441.158	505.12
441.379	517.12
441.6	514.12
441.822	532.12
442.043	557.12
442.264	639.12
442.486	673.12
442.707	582.12
442.928	565.12
443.149	553.12
443.371	551.12
443.592	585.12
443.813	677.12
444.034	755.12
444.255	635.12
444.476	591.12
444.698	568.12
444.919	547.12
445.14	677.12
445.361	632.12
445.582	589.12
445.803	609.12
446.024	698.12
446.245	699.12
446.466	634.12
446.687	574.12
446.908	531.12
447.129	531.12
447.35	515.12
447.571	495.12
447.792	477.12
448.013	450.12
448.234	493.12
448.455	537.12
448.675	639.12
448.896	728.12
449.117	644.12
449.338	608.12
449.559	694.12
449.779	798.12
450	605.12
450.221	518.12
450.442	500.12
450.662	471.12
450.883	472.12
451.104	457.12
451.324	503.12
451.545	467.12
451.766	462.12
451.986	443.12
452.207	447.12
452.428	462.12
452.648	443.12
452.869	435.12
453.089	461.12
453.31	448.12
453.53	460.12
453.751	427.12
453.971	437.12
454.192	449.12
454.412	451.12
454.633	438.12
454.853	450.12
455.073	436.12
455.294	463.12
455.514	492.12
455.734	507.12
455.955	451.12
456.175	441.12
456.395	422.12
456.616	437.12
456.836	439.12
457.056	430.12
457.276	410.12
457.497	410.12
457.717	427.12
457.937	438.12
458.157	426.12
458.377	457.12
458.598	453.12
458.818	469.12
459.038	550.12
459.258	559.12
459.478	510.12
459.698	509.12
459.918	485.12
460.138	485.12
460.358	516.12
460.578	498.12
460.798	513.12
461.018	523.12
461.238	505.12
461.458	510.12
461.678	506.12
461.898	512.12
462.118	545.12
462.338	523.12
462.558	570.12
462.777	581.12
462.997	577.12
463.217	590.12
463.437	592.12
463.657	570.12
463.876	561.12
464.096	565.12
464.316	567.12
464.536	563.12
464.755	575.12
464.975	573.12
465.195	558.12
465.414	579.12
465.634	533.12
465.854	502.12
466.073	505.12
466.293	495.12
466.512	494.12
466.732	487.12
466.951	473.12
467.171	477.12
467.391	475.12
467.61	471.12
467.829	477.12
468.049	458.12
468.268	445.12
468.488	442.12
468.707	443.12
468.927	452.12
469.146	464.12
469.365	453.12
469.585	472.12
469.804	461.12
470.023	473.12
470.243	486.12
470.462	483.12
470.681	494.12
470.901	468.12
471.12	501.12
471.339	478.12
471.558	476.12
471.777	475.12
471.997	473.12
472.216	466.12
472.435	494.12
472.654	461.12
472.873	476.12
473.092	475.12
473.311	484.12
473.53	477.12
473.749	470.12
473.968	495.12
474.187	576.12
474.406	585.12
474.625	475.12
474.844	466.12
475.063	480.12
475.282	475.12
475.501	471.12
475.72	494.12
475.939	486.12
476.158	492.12
476.377	499.12
476.596	481.12
476.814	493.12
477.033	490.12
477.252	471.12
477.471	499.12
477.69	511.12
477.908	511.12
478.127	519.12
478.346	531.12
478.564	516.12
478.783	508.12
479.002	554.12
479.22	534.12
479.439	571.12
479.658	561.12
479.876	587.12
480.095	594.12
480.313	605.12
480.532	595.12
480.751	575.12
480.969	596.12
481.188	603.12
481.406	611.12
481.624	573.12
481.843	553.12
482.061	543.12
482.28	557.12
482.498	545.12
482.717	554.12
482.935	561.12
483.153	541.12
483.372	553.12
483.59	551.12
483.808	563.12
484.027	553.12
484.245	569.12
484.463	571.12
484.681	551.12
484.9	573.12
485.118	570.12
485.336	558.12
485.554	580.12
485.772	584.12
485.99	592.12
486.209	587.12
486.427	581.12
486.645	579.12
486.863	598.12
487.081	590.12
487.299	590.12
487.517	595.12
487.735	577.12
487.953	578.12
488.171	577.12
488.389	593.12
488.607	586.12
488.825	584.12
489.043	590.12
489.261	581.12
489.479	589.12
489.696	587.12
489.914	619.12
490.132	594.12
490.35	598.12
490.568	631.12
490.786	631.12
491.003	637.12
491.221	643.12
491.439	637.12
491.657	636.12
491.874	651.12
492.092	664.12
492.31	656.12
492.527	660.12
492.745	650.12
492.963	673.12
493.18	659.12
493.398	656.12
493.615	666.12
493.833	660.12
494.05	668.12
494.268	661.12
494.485	671.12
494.703	659.12
494.92	700.12
495.138	678.12
495.355	687.12
495.573	653.12
495.79	671.12
496.008	675.12
496.225	683.12
496.442	699.12
496.66	695.12
496.877	703.12
497.094	689.12
497.312	729.12
497.529	722.12
497.746	741.12
497.963	758.12
498.181	749.12
498.398	805.12
498.615	783.12
498.832	823.12
499.049	846.12
499.267	876.12
499.484	917.12
499.701	965.12
499.918	1025.12
500.135	1043.12
500.352	1103.12
500.569	1166.12
500.786	1129.12
501.003	1121.12
501.22	1064.12
501.437	996.12
501.654	994.12
501.871	924.12
