Data from 1976.PennyLincolnUp.Lamp.En5.5.200Scan.071719.P1.Changed Mount._HRD10591_16-01-18-861.txt Node
Date: Thu Jul 18 16:01:18 EDT 2019
User: cochatt
Spectrometer: HR+D1059
Trigger mode: 1
Integration Time (sec): 1.000000E-1
Scans to average: 1
Electric dark correction enabled: true
Nonlinearity correction enabled: false
Boxcar width: 0
XAxis mode: Wavelengths
Number of Pixels in Spectrum: 2048
>>>>>Begin Spectral Data<<<<<
223.165	-18.69
223.4	-18.69
223.635	-18.69
223.869	-24.69
224.104	-15.69
224.338	-16.69
224.573	-18.69
224.808	-13.69
225.042	-7.69
225.277	2.31
225.511	0.31
225.746	5.31
225.98	16.31
226.215	5.31
226.449	18.31
226.683	18.31
226.918	29.31
227.152	20.31
227.387	29.31
227.621	37.31
227.856	41.31
228.09	53.31
228.324	44.31
228.559	64.31
228.793	70.31
229.027	94.31
229.262	98.31
229.496	117.31
229.73	144.31
229.964	152.31
230.199	108.31
230.433	112.31
230.667	134.31
230.901	99.31
231.136	124.31
231.37	117.31
231.604	116.31
231.838	111.31
232.072	129.31
232.306	112.31
232.541	116.31
232.775	112.31
233.009	107.31
233.243	124.31
233.477	120.31
233.711	127.31
233.945	121.31
234.179	114.31
234.413	116.31
234.647	109.31
234.881	124.31
235.115	107.31
235.349	113.31
235.583	126.31
235.817	121.31
236.051	114.31
236.285	127.31
236.519	125.31
236.753	115.31
236.987	137.31
237.221	156.31
237.455	235.31
237.689	170.31
237.922	147.31
238.156	131.31
238.39	141.31
238.624	134.31
238.858	124.31
239.091	127.31
239.325	132.31
239.559	124.31
239.793	135.31
240.027	140.31
240.26	129.31
240.494	152.31
240.728	142.31
240.961	141.31
241.195	146.31
241.429	138.31
241.662	134.31
241.896	135.31
242.13	133.31
242.363	130.31
242.597	138.31
242.83	126.31
243.064	140.31
243.298	142.31
243.531	155.31
243.765	145.31
243.998	160.31
244.232	159.31
244.465	133.31
244.699	155.31
244.932	148.31
245.166	142.31
245.399	156.31
245.633	160.31
245.866	124.31
246.099	151.31
246.333	146.31
246.566	159.31
246.8	155.31
247.033	167.31
247.266	163.31
247.5	156.31
247.733	159.31
247.966	170.31
248.2	166.31
248.433	150.31
248.666	173.31
248.899	201.31
249.133	190.31
249.366	214.31
249.599	186.31
249.832	171.31
250.066	186.31
250.299	184.31
250.532	204.31
250.765	201.31
250.998	225.31
251.231	247.31
251.465	203.31
251.698	210.31
251.931	195.31
252.164	201.31
252.397	205.31
252.63	198.31
252.863	214.31
253.096	197.31
253.329	215.31
253.562	226.31
253.795	221.31
254.028	218.31
254.261	226.31
254.494	235.31
254.727	263.31
254.96	249.31
255.193	269.31
255.426	258.31
255.659	238.31
255.892	236.31
256.124	236.31
256.357	233.31
256.59	234.31
256.823	217.31
257.056	211.31
257.289	220.31
257.521	224.31
257.754	216.31
257.987	225.31
258.22	208.31
258.452	208.31
258.685	196.31
258.918	214.31
259.151	212.31
259.383	230.31
259.616	221.31
259.849	231.31
260.081	229.31
260.314	250.31
260.547	254.31
260.779	269.31
261.012	231.31
261.244	255.31
261.477	212.31
261.71	240.31
261.942	242.31
262.175	231.31
262.407	235.31
262.64	219.31
262.872	214.31
263.105	220.31
263.337	225.31
263.57	219.31
263.802	218.31
264.035	233.31
264.267	205.31
264.499	235.31
264.732	217.31
264.964	215.31
265.197	221.31
265.429	236.31
265.661	217.31
265.894	218.31
266.126	230.31
266.358	222.31
266.591	236.31
266.823	251.31
267.055	240.31
267.287	228.31
267.52	237.31
267.752	241.31
267.984	229.31
268.216	246.31
268.448	251.31
268.681	253.31
268.913	261.31
269.145	271.31
269.377	277.31
269.609	267.31
269.841	268.31
270.073	277.31
270.306	300.31
270.538	335.31
270.77	302.31
271.002	318.31
271.234	295.31
271.466	304.31
271.698	323.31
271.93	326.31
272.162	326.31
272.394	344.31
272.626	307.31
272.858	310.31
273.09	269.31
273.322	282.31
273.553	258.31
273.785	283.31
274.017	282.31
274.249	297.31
274.481	285.31
274.713	274.31
274.945	286.31
275.176	301.31
275.408	263.31
275.64	255.31
275.872	270.31
276.104	272.31
276.335	264.31
276.567	279.31
276.799	318.31
277.031	328.31
277.262	336.31
277.494	323.31
277.726	317.31
277.957	306.31
278.189	289.31
278.421	308.31
278.652	284.31
278.884	273.31
279.115	288.31
279.347	290.31
279.579	299.31
279.81	265.31
280.042	289.31
280.273	284.31
280.505	268.31
280.736	273.31
280.968	276.31
281.199	298.31
281.431	282.31
281.662	277.31
281.894	298.31
282.125	302.31
282.356	319.31
282.588	331.31
282.819	332.31
283.051	305.31
283.282	277.31
283.513	299.31
283.745	301.31
283.976	318.31
284.207	314.31
284.439	314.31
284.67	302.31
284.901	310.31
285.132	286.31
285.364	296.31
285.595	282.31
285.826	302.31
286.057	322.31
286.288	299.31
286.52	309.31
286.751	300.31
286.982	320.31
287.213	293.31
287.444	308.31
287.675	296.31
287.906	330.31
288.138	331.31
288.369	333.31
288.6	337.31
288.831	326.31
289.062	317.31
289.293	307.31
289.524	334.31
289.755	323.31
289.986	316.31
290.217	324.31
290.448	325.31
290.679	336.31
290.91	337.31
291.141	309.31
291.371	322.31
291.602	312.31
291.833	304.31
292.064	304.31
292.295	305.31
292.526	304.31
292.757	313.31
292.987	315.31
293.218	327.31
293.449	332.31
293.68	318.31
293.91	316.31
294.141	327.31
294.372	311.31
294.603	312.31
294.833	317.31
295.064	317.31
295.295	317.31
295.525	330.31
295.756	347.31
295.987	335.31
296.217	340.31
296.448	354.31
296.679	334.31
296.909	334.31
297.14	328.31
297.37	331.31
297.601	318.31
297.831	332.31
298.062	344.31
298.292	331.31
298.523	338.31
298.753	307.31
298.984	330.31
299.214	326.31
299.445	331.31
299.675	318.31
299.905	348.31
300.136	336.31
300.366	331.31
300.597	363.31
300.827	348.31
301.057	346.31
301.288	332.31
301.518	338.31
301.748	354.31
301.979	353.31
302.209	365.31
302.439	362.31
302.669	349.31
302.9	323.31
303.13	342.31
303.36	350.31
303.59	373.31
303.82	361.31
304.051	357.31
304.281	361.31
304.511	348.31
304.741	358.31
304.971	347.31
305.201	361.31
305.431	342.31
305.661	376.31
305.891	358.31
306.121	357.31
306.352	370.31
306.582	365.31
306.812	353.31
307.042	347.31
307.272	370.31
307.502	378.31
307.731	359.31
307.961	364.31
308.191	361.31
308.421	368.31
308.651	362.31
308.881	370.31
309.111	361.31
309.341	361.31
309.571	380.31
309.8	394.31
310.03	407.31
310.26	401.31
310.49	372.31
310.72	398.31
310.949	413.31
311.179	402.31
311.409	383.31
311.639	385.31
311.868	391.31
312.098	398.31
312.328	394.31
312.557	419.31
312.787	411.31
313.017	427.31
313.246	404.31
313.476	385.31
313.706	382.31
313.935	429.31
314.165	429.31
314.394	438.31
314.624	420.31
314.853	390.31
315.083	406.31
315.312	392.31
315.542	410.31
315.771	385.31
316.001	402.31
316.23	394.31
316.46	406.31
316.689	404.31
316.919	426.31
317.148	396.31
317.377	405.31
317.607	400.31
317.836	403.31
318.065	415.31
318.295	404.31
318.524	408.31
318.753	408.31
318.983	393.31
319.212	397.31
319.441	406.31
319.67	416.31
319.9	397.31
320.129	419.31
320.358	403.31
320.587	419.31
320.816	420.31
321.046	395.31
321.275	431.31
321.504	420.31
321.733	409.31
321.962	416.31
322.191	422.31
322.42	444.31
322.649	448.31
322.878	445.31
323.108	468.31
323.337	483.31
323.566	485.31
323.795	500.31
324.024	581.31
324.253	649.31
324.482	894.31
324.71	1340.31
324.939	1971.31
325.168	1748.31
325.397	890.31
325.626	608.31
325.855	507.31
326.084	531.31
326.313	499.31
326.542	497.31
326.77	533.31
326.999	618.31
327.228	822.31
327.457	1221.31
327.686	1525.31
327.914	1012.31
328.143	659.31
328.372	605.31
328.6	573.31
328.829	553.31
329.058	565.31
329.287	579.31
329.515	545.31
329.744	529.31
329.972	530.31
330.201	551.31
330.43	551.31
330.658	600.31
330.887	601.31
331.115	590.31
331.344	536.31
331.572	481.31
331.801	503.31
332.03	493.31
332.258	492.31
332.486	476.31
332.715	490.31
332.943	474.31
333.172	484.31
333.4	489.31
333.629	514.31
333.857	527.31
334.085	537.31
334.314	545.31
334.542	561.31
334.771	554.31
334.999	516.31
335.227	517.31
335.455	497.31
335.684	516.31
335.912	499.31
336.14	490.31
336.369	472.31
336.597	488.31
336.825	465.31
337.053	485.31
337.281	487.31
337.51	489.31
337.738	478.31
337.966	475.31
338.194	478.31
338.422	461.31
338.65	462.31
338.878	461.31
339.106	453.31
339.334	485.31
339.562	440.31
339.79	444.31
340.018	446.31
340.246	469.31
340.474	436.31
340.702	460.31
340.93	473.31
341.158	471.31
341.386	458.31
341.614	445.31
341.842	451.31
342.07	440.31
342.298	445.31
342.526	444.31
342.754	443.31
342.981	446.31
343.209	454.31
343.437	452.31
343.665	479.31
343.893	489.31
344.12	474.31
344.348	476.31
344.576	486.31
344.804	485.31
345.031	459.31
345.259	482.31
345.487	484.31
345.714	460.31
345.942	433.31
346.17	449.31
346.397	425.31
346.625	409.31
346.853	441.31
347.08	452.31
347.308	468.31
347.535	437.31
347.763	445.31
347.99	449.31
348.218	453.31
348.445	453.31
348.673	443.31
348.9	457.31
349.128	441.31
349.355	420.31
349.583	431.31
349.81	414.31
350.037	429.31
350.265	424.31
350.492	439.31
350.72	413.31
350.947	441.31
351.174	427.31
351.402	434.31
351.629	442.31
351.856	428.31
352.083	447.31
352.311	441.31
352.538	414.31
352.765	432.31
352.992	424.31
353.22	449.31
353.447	428.31
353.674	446.31
353.901	399.31
354.128	427.31
354.355	416.31
354.583	427.31
354.81	416.31
355.037	395.31
355.264	421.31
355.491	404.31
355.718	389.31
355.945	416.31
356.172	404.31
356.399	420.31
356.626	427.31
356.853	408.31
357.08	397.31
357.307	418.31
357.534	406.31
357.761	389.31
357.988	434.31
358.215	426.31
358.441	415.31
358.668	435.31
358.895	405.31
359.122	407.31
359.349	424.31
359.576	437.31
359.802	448.31
360.029	461.31
360.256	462.31
360.483	458.31
360.709	433.31
360.936	421.31
361.163	440.31
361.39	445.31
361.616	439.31
361.843	439.31
362.07	434.31
362.296	432.31
362.523	431.31
362.749	430.31
362.976	452.31
363.203	429.31
363.429	421.31
363.656	410.31
363.882	418.31
364.109	430.31
364.335	412.31
364.562	424.31
364.788	394.31
365.015	412.31
365.241	411.31
365.468	409.31
365.694	410.31
365.92	421.31
366.147	424.31
366.373	426.31
366.599	421.31
366.826	402.31
367.052	424.31
367.278	431.31
367.505	439.31
367.731	419.31
367.957	418.31
368.184	427.31
368.41	418.31
368.636	422.31
368.862	425.31
369.089	427.31
369.315	440.31
369.541	448.31
369.767	430.31
369.993	424.31
370.219	420.31
370.445	427.31
370.672	412.31
370.898	411.31
371.124	408.31
371.35	441.31
371.576	427.31
371.802	420.31
372.028	429.31
372.254	426.31
372.48	441.31
372.706	426.31
372.932	418.31
373.158	442.31
373.384	439.31
373.61	426.31
373.835	434.31
374.061	421.31
374.287	444.31
374.513	425.31
374.739	422.31
374.965	427.31
375.191	431.31
375.416	426.31
375.642	425.31
375.868	421.31
376.094	417.31
376.319	397.31
376.545	419.31
376.771	435.31
376.997	425.31
377.222	436.31
377.448	434.31
377.674	429.31
377.899	419.31
378.125	436.31
378.35	412.31
378.576	407.31
378.802	424.31
379.027	440.31
379.253	437.31
379.478	418.31
379.704	409.31
379.929	414.31
380.155	449.31
380.38	418.31
380.606	412.31
380.831	412.31
381.057	436.31
381.282	436.31
381.507	438.31
381.733	439.31
381.958	421.31
382.184	447.31
382.409	408.31
382.634	431.31
382.86	422.31
383.085	440.31
383.31	444.31
383.535	434.31
383.761	441.31
383.986	455.31
384.211	449.31
384.436	458.31
384.662	464.31
384.887	467.31
385.112	438.31
385.337	451.31
385.562	460.31
385.787	476.31
386.013	486.31
386.238	488.31
386.463	474.31
386.688	477.31
386.913	469.31
387.138	475.31
387.363	470.31
387.588	481.31
387.813	480.31
388.038	477.31
388.263	440.31
388.488	475.31
388.713	458.31
388.938	456.31
389.163	481.31
389.387	497.31
389.612	506.31
389.837	478.31
390.062	474.31
390.287	471.31
390.512	466.31
390.736	486.31
390.961	461.31
391.186	504.31
391.411	460.31
391.636	498.31
391.86	516.31
392.085	489.31
392.31	498.31
392.534	482.31
392.759	475.31
392.984	468.31
393.208	466.31
393.433	486.31
393.658	474.31
393.882	486.31
394.107	497.31
394.331	468.31
394.556	496.31
394.78	494.31
395.005	476.31
395.229	474.31
395.454	493.31
395.678	501.31
395.903	512.31
396.127	527.31
396.352	548.31
396.576	490.31
396.801	507.31
397.025	508.31
397.249	521.31
397.474	502.31
397.698	502.31
397.922	552.31
398.147	555.31
398.371	530.31
398.595	543.31
398.82	562.31
399.044	571.31
399.268	588.31
399.492	644.31
399.717	689.31
399.941	685.31
400.165	697.31
400.389	689.31
400.613	618.31
400.837	615.31
401.062	566.31
401.286	566.31
401.51	568.31
401.734	536.31
401.958	560.31
402.182	551.31
402.406	566.31
402.63	576.31
402.854	573.31
403.078	582.31
403.302	571.31
403.526	573.31
403.75	592.31
403.974	588.31
404.198	565.31
404.422	582.31
404.645	597.31
404.869	599.31
405.093	630.31
405.317	670.31
405.541	685.31
405.765	655.31
405.988	622.31
406.212	627.31
406.436	632.31
406.66	641.31
406.883	623.31
407.107	664.31
407.331	700.31
407.555	744.31
407.778	759.31
408.002	673.31
408.226	634.31
408.449	651.31
408.673	626.31
408.896	656.31
409.12	698.31
409.344	650.31
409.567	611.31
409.791	597.31
410.014	580.31
410.238	570.31
410.461	568.31
410.685	591.31
410.908	593.31
411.132	632.31
411.355	644.31
411.578	637.31
411.802	596.31
412.025	576.31
412.249	596.31
412.472	599.31
412.695	604.31
412.919	650.31
413.142	578.31
413.365	557.31
413.589	545.31
413.812	570.31
414.035	554.31
414.258	554.31
414.482	518.31
414.705	545.31
414.928	550.31
415.151	545.31
415.374	531.31
415.597	530.31
415.821	530.31
416.044	539.31
416.267	548.31
416.49	559.31
416.713	538.31
416.936	533.31
417.159	543.31
417.382	571.31
417.605	560.31
417.828	555.31
418.051	569.31
418.274	572.31
418.497	544.31
418.72	534.31
418.943	538.31
419.166	585.31
419.389	591.31
419.611	589.31
419.834	604.31
420.057	580.31
420.28	587.31
420.503	552.31
420.726	572.31
420.948	590.31
421.171	609.31
421.394	652.31
421.617	574.31
421.839	560.31
422.062	566.31
422.285	577.31
422.507	640.31
422.73	700.31
422.953	684.31
423.175	624.31
423.398	591.31
423.621	597.31
423.843	636.31
424.066	588.31
424.288	595.31
424.511	627.31
424.733	651.31
424.956	780.31
425.178	721.31
425.401	708.31
425.623	744.31
425.846	632.31
426.068	609.31
426.291	584.31
426.513	592.31
426.735	608.31
426.958	654.31
427.18	708.31
427.402	855.31
427.625	910.31
427.847	792.31
428.069	706.31
428.292	652.31
428.514	601.31
428.736	578.31
428.958	582.31
429.181	560.31
429.403	542.31
429.625	557.31
429.847	592.31
430.069	655.31
430.292	670.31
430.514	583.31
430.736	545.31
430.958	523.31
431.18	536.31
431.402	528.31
431.624	496.31
431.846	516.31
432.068	509.31
432.29	519.31
432.512	525.31
432.734	549.31
432.956	541.31
433.178	527.31
433.4	540.31
433.622	528.31
433.844	516.31
434.066	524.31
434.287	524.31
434.509	533.31
434.731	534.31
434.953	563.31
435.175	565.31
435.397	629.31
435.618	608.31
435.84	625.31
436.062	722.31
436.284	792.31
436.505	677.31
436.727	605.31
436.949	566.31
437.17	547.31
437.392	547.31
437.614	555.31
437.835	571.31
438.057	673.31
438.278	794.31
438.5	748.31
438.721	853.31
438.943	813.31
439.165	665.31
439.386	614.31
439.608	598.31
439.829	588.31
440.05	609.31
440.272	644.31
440.493	615.31
440.715	588.31
440.936	560.31
441.158	580.31
441.379	564.31
441.6	567.31
441.822	600.31
442.043	637.31
442.264	733.31
442.486	744.31
442.707	637.31
442.928	622.31
443.149	608.31
443.371	629.31
443.592	672.31
443.813	762.31
444.034	857.31
444.255	706.31
444.476	629.31
444.698	624.31
444.919	602.31
445.14	730.31
445.361	652.31
445.582	665.31
445.803	697.31
446.024	804.31
446.245	786.31
446.466	733.31
446.687	635.31
446.908	593.31
447.129	567.31
447.35	557.31
447.571	544.31
447.792	544.31
448.013	554.31
448.234	546.31
448.455	602.31
448.675	736.31
448.896	819.31
449.117	692.31
449.338	657.31
449.559	786.31
449.779	892.31
450	701.31
450.221	586.31
450.442	516.31
450.662	526.31
450.883	509.31
451.104	541.31
451.324	540.31
451.545	505.31
451.766	510.31
451.986	485.31
452.207	482.31
452.428	464.31
452.648	460.31
452.869	472.31
453.089	496.31
453.31	486.31
453.53	498.31
453.751	477.31
453.971	480.31
454.192	509.31
454.412	498.31
454.633	476.31
454.853	476.31
455.073	491.31
455.294	488.31
455.514	562.31
455.734	549.31
455.955	479.31
456.175	461.31
456.395	463.31
456.616	448.31
456.836	471.31
457.056	459.31
457.276	451.31
457.497	459.31
457.717	469.31
457.937	459.31
458.157	472.31
458.377	476.31
458.598	509.31
458.818	548.31
459.038	588.31
459.258	648.31
459.478	544.31
459.698	521.31
459.918	526.31
460.138	512.31
460.358	544.31
460.578	537.31
460.798	550.31
461.018	539.31
461.238	549.31
461.458	545.31
461.678	570.31
461.898	541.31
462.118	526.31
462.338	546.31
462.558	572.31
462.777	570.31
462.997	584.31
463.217	630.31
463.437	628.31
463.657	626.31
463.876	610.31
464.096	596.31
464.316	586.31
464.536	588.31
464.755	587.31
464.975	587.31
465.195	604.31
465.414	623.31
465.634	580.31
465.854	578.31
466.073	546.31
466.293	511.31
466.512	506.31
466.732	504.31
466.951	482.31
467.171	482.31
467.391	493.31
467.61	500.31
467.829	493.31
468.049	493.31
468.268	513.31
468.488	486.31
468.707	483.31
468.927	507.31
469.146	464.31
469.365	502.31
469.585	508.31
469.804	494.31
470.023	530.31
470.243	536.31
470.462	521.31
470.681	517.31
470.901	531.31
471.12	514.31
471.339	522.31
471.558	513.31
471.777	491.31
471.997	493.31
472.216	517.31
472.435	543.31
472.654	520.31
472.873	496.31
473.092	515.31
473.311	492.31
473.53	514.31
473.749	500.31
473.968	537.31
474.187	627.31
474.406	642.31
474.625	568.31
474.844	516.31
475.063	542.31
475.282	516.31
475.501	512.31
475.72	528.31
475.939	501.31
476.158	508.31
476.377	501.31
476.596	508.31
476.814	534.31
477.033	538.31
477.252	528.31
477.471	528.31
477.69	556.31
477.908	540.31
478.127	550.31
478.346	552.31
478.564	557.31
478.783	554.31
479.002	564.31
479.22	572.31
479.439	591.31
479.658	599.31
479.876	588.31
480.095	620.31
480.313	666.31
480.532	638.31
480.751	627.31
480.969	632.31
481.188	655.31
481.406	701.31
481.624	648.31
481.843	608.31
482.061	589.31
482.28	593.31
482.498	572.31
482.717	567.31
482.935	579.31
483.153	583.31
483.372	574.31
483.59	594.31
483.808	588.31
484.027	588.31
484.245	579.31
484.463	578.31
484.681	607.31
484.9	629.31
485.118	592.31
485.336	609.31
485.554	587.31
485.772	605.31
485.99	613.31
486.209	595.31
486.427	595.31
486.645	622.31
486.863	621.31
487.081	638.31
487.299	639.31
487.517	630.31
487.735	624.31
487.953	624.31
488.171	642.31
488.389	644.31
488.607	651.31
488.825	615.31
489.043	636.31
489.261	643.31
489.479	637.31
489.696	645.31
489.914	630.31
490.132	641.31
490.35	640.31
490.568	661.31
490.786	654.31
491.003	670.31
491.221	677.31
491.439	699.31
491.657	724.31
491.874	706.31
492.092	713.31
492.31	702.31
492.527	706.31
492.745	704.31
492.963	724.31
493.18	715.31
493.398	729.31
493.615	752.31
493.833	717.31
494.05	690.31
494.268	744.31
494.485	730.31
494.703	729.31
494.92	727.31
495.138	717.31
495.355	749.31
495.573	740.31
495.79	727.31
496.008	737.31
496.225	759.31
496.442	751.31
496.66	746.31
496.877	745.31
497.094	764.31
497.312	760.31
497.529	786.31
497.746	798.31
497.963	797.31
498.181	811.31
498.398	824.31
498.615	841.31
498.832	912.31
499.049	897.31
499.267	907.31
499.484	974.31
499.701	994.31
499.918	1021.31
500.135	1121.31
500.352	1178.31
500.569	1178.31
500.786	1207.31
501.003	1133.31
501.22	1113.31
501.437	1061.31
501.654	1044.31
