Data from 1976.PennyLincolnUp.Lamp.En5.5.200Scan.071719.P1.Changed Mount._HRD10591_16-00-14-860.txt Node
Date: Thu Jul 18 16:00:14 EDT 2019
User: cochatt
Spectrometer: HR+D1059
Trigger mode: 1
Integration Time (sec): 1.000000E-1
Scans to average: 1
Electric dark correction enabled: true
Nonlinearity correction enabled: false
Boxcar width: 0
XAxis mode: Wavelengths
Number of Pixels in Spectrum: 2048
>>>>>Begin Spectral Data<<<<<
223.165	-23.69
223.4	-23.69
223.635	-23.69
223.869	-39.69
224.104	-21.69
224.338	-7.69
224.573	-13.69
224.808	-25.69
225.042	3.31
225.277	-5.69
225.511	-4.69
225.746	8.31
225.98	15.31
226.215	16.31
226.449	17.31
226.683	28.31
226.918	22.31
227.152	31.31
227.387	35.31
227.621	31.31
227.856	35.31
228.09	44.31
228.324	35.31
228.559	51.31
228.793	66.31
229.027	87.31
229.262	116.31
229.496	126.31
229.73	128.31
229.964	135.31
230.199	128.31
230.433	106.31
230.667	95.31
230.901	117.31
231.136	116.31
231.37	120.31
231.604	108.31
231.838	118.31
232.072	102.31
232.306	119.31
232.541	107.31
232.775	107.31
233.009	105.31
233.243	110.31
233.477	123.31
233.711	118.31
233.945	116.31
234.179	123.31
234.413	125.31
234.647	127.31
234.881	104.31
235.115	113.31
235.349	117.31
235.583	135.31
235.817	125.31
236.051	125.31
236.285	125.31
236.519	131.31
236.753	123.31
236.987	148.31
237.221	172.31
237.455	221.31
237.689	182.31
237.922	142.31
238.156	137.31
238.39	126.31
238.624	126.31
238.858	127.31
239.091	123.31
239.325	125.31
239.559	130.31
239.793	139.31
240.027	128.31
240.26	133.31
240.494	134.31
240.728	153.31
240.961	154.31
241.195	145.31
241.429	150.31
241.662	144.31
241.896	136.31
242.13	148.31
242.363	127.31
242.597	123.31
242.83	139.31
243.064	139.31
243.298	158.31
243.531	135.31
243.765	124.31
243.998	160.31
244.232	150.31
244.465	145.31
244.699	150.31
244.932	144.31
245.166	141.31
245.399	143.31
245.633	143.31
245.866	151.31
246.099	150.31
246.333	138.31
246.566	160.31
246.8	143.31
247.033	164.31
247.266	158.31
247.5	146.31
247.733	163.31
247.966	171.31
248.2	173.31
248.433	180.31
248.666	180.31
248.899	178.31
249.133	184.31
249.366	198.31
249.599	192.31
249.832	168.31
250.066	182.31
250.299	184.31
250.532	186.31
250.765	198.31
250.998	228.31
251.231	208.31
251.465	222.31
251.698	206.31
251.931	203.31
252.164	189.31
252.397	202.31
252.63	190.31
252.863	182.31
253.096	203.31
253.329	221.31
253.562	222.31
253.795	211.31
254.028	224.31
254.261	215.31
254.494	219.31
254.727	252.31
254.96	277.31
255.193	240.31
255.426	234.31
255.659	244.31
255.892	232.31
256.124	227.31
256.357	236.31
256.59	226.31
256.823	216.31
257.056	229.31
257.289	227.31
257.521	223.31
257.754	227.31
257.987	214.31
258.22	196.31
258.452	204.31
258.685	192.31
258.918	190.31
259.151	217.31
259.383	226.31
259.616	215.31
259.849	234.31
260.081	227.31
260.314	238.31
260.547	262.31
260.779	257.31
261.012	229.31
261.244	205.31
261.477	232.31
261.71	231.31
261.942	213.31
262.175	224.31
262.407	242.31
262.64	220.31
262.872	219.31
263.105	222.31
263.337	231.31
263.57	224.31
263.802	207.31
264.035	228.31
264.267	208.31
264.499	214.31
264.732	221.31
264.964	236.31
265.197	215.31
265.429	228.31
265.661	233.31
265.894	232.31
266.126	231.31
266.358	230.31
266.591	215.31
266.823	211.31
267.055	225.31
267.287	244.31
267.52	246.31
267.752	231.31
267.984	223.31
268.216	231.31
268.448	218.31
268.681	221.31
268.913	238.31
269.145	262.31
269.377	271.31
269.609	277.31
269.841	272.31
270.073	263.31
270.306	301.31
270.538	294.31
270.77	280.31
271.002	306.31
271.234	290.31
271.466	287.31
271.698	299.31
271.93	319.31
272.162	313.31
272.394	318.31
272.626	320.31
272.858	277.31
273.09	297.31
273.322	274.31
273.553	266.31
273.785	280.31
274.017	261.31
274.249	279.31
274.481	258.31
274.713	280.31
274.945	276.31
275.176	281.31
275.408	260.31
275.64	276.31
275.872	264.31
276.104	262.31
276.335	280.31
276.567	277.31
276.799	288.31
277.031	300.31
277.262	315.31
277.494	320.31
277.726	296.31
277.957	293.31
278.189	294.31
278.421	293.31
278.652	291.31
278.884	265.31
279.115	277.31
279.347	285.31
279.579	272.31
279.81	271.31
280.042	283.31
280.273	279.31
280.505	279.31
280.736	273.31
280.968	284.31
281.199	263.31
281.431	285.31
281.662	275.31
281.894	272.31
282.125	284.31
282.356	294.31
282.588	299.31
282.819	316.31
283.051	301.31
283.282	275.31
283.513	291.31
283.745	277.31
283.976	293.31
284.207	307.31
284.439	303.31
284.67	293.31
284.901	304.31
285.132	294.31
285.364	299.31
285.595	296.31
285.826	310.31
286.057	287.31
286.288	306.31
286.52	290.31
286.751	294.31
286.982	326.31
287.213	301.31
287.444	298.31
287.675	319.31
287.906	309.31
288.138	312.31
288.369	315.31
288.6	336.31
288.831	323.31
289.062	302.31
289.293	324.31
289.524	313.31
289.755	323.31
289.986	313.31
290.217	313.31
290.448	315.31
290.679	304.31
290.91	300.31
291.141	320.31
291.371	312.31
291.602	288.31
291.833	286.31
292.064	293.31
292.295	300.31
292.526	310.31
292.757	293.31
292.987	303.31
293.218	288.31
293.449	315.31
293.68	303.31
293.91	308.31
294.141	304.31
294.372	302.31
294.603	295.31
294.833	312.31
295.064	324.31
295.295	308.31
295.525	300.31
295.756	318.31
295.987	312.31
296.217	321.31
296.448	317.31
296.679	327.31
296.909	312.31
297.14	308.31
297.37	313.31
297.601	326.31
297.831	324.31
298.062	308.31
298.292	327.31
298.523	324.31
298.753	324.31
298.984	315.31
299.214	317.31
299.445	323.31
299.675	318.31
299.905	334.31
300.136	323.31
300.366	344.31
300.597	318.31
300.827	356.31
301.057	334.31
301.288	354.31
301.518	354.31
301.748	342.31
301.979	330.31
302.209	331.31
302.439	339.31
302.669	332.31
302.9	326.31
303.13	328.31
303.36	339.31
303.59	344.31
303.82	343.31
304.051	348.31
304.281	356.31
304.511	344.31
304.741	346.31
304.971	344.31
305.201	353.31
305.431	332.31
305.661	350.31
305.891	346.31
306.121	344.31
306.352	334.31
306.582	355.31
306.812	335.31
307.042	342.31
307.272	362.31
307.502	320.31
307.731	369.31
307.961	352.31
308.191	340.31
308.421	376.31
308.651	344.31
308.881	350.31
309.111	342.31
309.341	366.31
309.571	354.31
309.8	358.31
310.03	355.31
310.26	369.31
310.49	377.31
310.72	395.31
310.949	374.31
311.179	373.31
311.409	365.31
311.639	376.31
311.868	373.31
312.098	389.31
312.328	383.31
312.557	395.31
312.787	414.31
313.017	408.31
313.246	399.31
313.476	385.31
313.706	380.31
313.935	373.31
314.165	370.31
314.394	384.31
314.624	387.31
314.853	386.31
315.083	381.31
315.312	372.31
315.542	375.31
315.771	379.31
316.001	379.31
316.23	365.31
316.46	358.31
316.689	370.31
316.919	370.31
317.148	384.31
317.377	390.31
317.607	390.31
317.836	399.31
318.065	383.31
318.295	375.31
318.524	383.31
318.753	378.31
318.983	381.31
319.212	406.31
319.441	378.31
319.67	379.31
319.9	387.31
320.129	380.31
320.358	387.31
320.587	403.31
320.816	404.31
321.046	400.31
321.275	395.31
321.504	414.31
321.733	403.31
321.962	421.31
322.191	428.31
322.42	406.31
322.649	422.31
322.878	437.31
323.108	423.31
323.337	438.31
323.566	466.31
323.795	484.31
324.024	497.31
324.253	586.31
324.482	808.31
324.71	1199.31
324.939	1733.31
325.168	1544.31
325.397	805.31
325.626	573.31
325.855	519.31
326.084	468.31
326.313	454.31
326.542	475.31
326.77	493.31
326.999	571.31
327.228	746.31
327.457	1074.31
327.686	1316.31
327.914	890.31
328.143	612.31
328.372	556.31
328.6	529.31
328.829	521.31
329.058	524.31
329.287	550.31
329.515	491.31
329.744	491.31
329.972	480.31
330.201	494.31
330.43	524.31
330.658	534.31
330.887	566.31
331.115	525.31
331.344	506.31
331.572	452.31
331.801	466.31
332.03	472.31
332.258	475.31
332.486	464.31
332.715	454.31
332.943	462.31
333.172	486.31
333.4	470.31
333.629	464.31
333.857	493.31
334.085	492.31
334.314	504.31
334.542	523.31
334.771	540.31
334.999	520.31
335.227	492.31
335.455	473.31
335.684	459.31
335.912	450.31
336.14	453.31
336.369	456.31
336.597	453.31
336.825	473.31
337.053	460.31
337.281	460.31
337.51	454.31
337.738	467.31
337.966	444.31
338.194	452.31
338.422	439.31
338.65	440.31
338.878	436.31
339.106	431.31
339.334	442.31
339.562	430.31
339.79	445.31
340.018	445.31
340.246	434.31
340.474	436.31
340.702	418.31
340.93	420.31
341.158	454.31
341.386	447.31
341.614	438.31
341.842	420.31
342.07	440.31
342.298	443.31
342.526	421.31
342.754	428.31
342.981	438.31
343.209	429.31
343.437	450.31
343.665	427.31
343.893	451.31
344.12	480.31
344.348	470.31
344.576	456.31
344.804	428.31
345.031	447.31
345.259	455.31
345.487	449.31
345.714	457.31
345.942	412.31
346.17	429.31
346.397	422.31
346.625	430.31
346.853	418.31
347.08	417.31
347.308	430.31
347.535	436.31
347.763	404.31
347.99	394.31
348.218	453.31
348.445	424.31
348.673	427.31
348.9	414.31
349.128	426.31
349.355	410.31
349.583	397.31
349.81	398.31
350.037	406.31
350.265	413.31
350.492	395.31
350.72	397.31
350.947	400.31
351.174	427.31
351.402	424.31
351.629	420.31
351.856	418.31
352.083	431.31
352.311	414.31
352.538	414.31
352.765	440.31
352.992	405.31
353.22	411.31
353.447	407.31
353.674	412.31
353.901	415.31
354.128	386.31
354.355	408.31
354.583	405.31
354.81	408.31
355.037	395.31
355.264	392.31
355.491	402.31
355.718	390.31
355.945	389.31
356.172	410.31
356.399	398.31
356.626	391.31
356.853	377.31
357.08	392.31
357.307	416.31
357.534	399.31
357.761	404.31
357.988	410.31
358.215	409.31
358.441	390.31
358.668	414.31
358.895	416.31
359.122	397.31
359.349	376.31
359.576	419.31
359.802	426.31
360.029	463.31
360.256	439.31
360.483	439.31
360.709	438.31
360.936	412.31
361.163	423.31
361.39	413.31
361.616	410.31
361.843	401.31
362.07	408.31
362.296	411.31
362.523	424.31
362.749	427.31
362.976	414.31
363.203	410.31
363.429	404.31
363.656	401.31
363.882	407.31
364.109	392.31
364.335	436.31
364.562	382.31
364.788	393.31
365.015	400.31
365.241	411.31
365.468	404.31
365.694	394.31
365.92	411.31
366.147	392.31
366.373	394.31
366.599	409.31
366.826	410.31
367.052	408.31
367.278	394.31
367.505	384.31
367.731	408.31
367.957	385.31
368.184	410.31
368.41	409.31
368.636	422.31
368.862	413.31
369.089	407.31
369.315	395.31
369.541	407.31
369.767	394.31
369.993	415.31
370.219	400.31
370.445	422.31
370.672	420.31
370.898	427.31
371.124	406.31
371.35	406.31
371.576	411.31
371.802	419.31
372.028	435.31
372.254	403.31
372.48	400.31
372.706	410.31
372.932	406.31
373.158	405.31
373.384	416.31
373.61	403.31
373.835	417.31
374.061	436.31
374.287	426.31
374.513	413.31
374.739	431.31
374.965	425.31
375.191	450.31
375.416	452.31
375.642	415.31
375.868	422.31
376.094	417.31
376.319	399.31
376.545	406.31
376.771	402.31
376.997	395.31
377.222	404.31
377.448	401.31
377.674	427.31
377.899	427.31
378.125	401.31
378.35	418.31
378.576	402.31
378.802	405.31
379.027	404.31
379.253	404.31
379.478	386.31
379.704	403.31
379.929	428.31
380.155	429.31
380.38	417.31
380.606	407.31
380.831	411.31
381.057	406.31
381.282	426.31
381.507	425.31
381.733	406.31
381.958	426.31
382.184	432.31
382.409	414.31
382.634	434.31
382.86	414.31
383.085	454.31
383.31	436.31
383.535	424.31
383.761	432.31
383.986	456.31
384.211	435.31
384.436	448.31
384.662	438.31
384.887	439.31
385.112	460.31
385.337	449.31
385.562	447.31
385.787	463.31
386.013	471.31
386.238	460.31
386.463	466.31
386.688	465.31
386.913	461.31
387.138	477.31
387.363	457.31
387.588	482.31
387.813	463.31
388.038	455.31
388.263	453.31
388.488	453.31
388.713	458.31
388.938	452.31
389.163	462.31
389.387	460.31
389.612	437.31
389.837	447.31
390.062	450.31
390.287	451.31
390.512	448.31
390.736	447.31
390.961	457.31
391.186	467.31
391.411	450.31
391.636	469.31
391.86	493.31
392.085	491.31
392.31	465.31
392.534	453.31
392.759	473.31
392.984	472.31
393.208	468.31
393.433	483.31
393.658	459.31
393.882	467.31
394.107	451.31
394.331	444.31
394.556	491.31
394.78	449.31
395.005	459.31
395.229	467.31
395.454	474.31
395.678	491.31
395.903	496.31
396.127	489.31
396.352	486.31
396.576	493.31
396.801	466.31
397.025	471.31
397.249	474.31
397.474	484.31
397.698	487.31
397.922	506.31
398.147	512.31
398.371	532.31
398.595	532.31
398.82	528.31
399.044	537.31
399.268	555.31
399.492	595.31
399.717	621.31
399.941	686.31
400.165	648.31
400.389	676.31
400.613	611.31
400.837	574.31
401.062	539.31
401.286	535.31
401.51	519.31
401.734	531.31
401.958	545.31
402.182	525.31
402.406	538.31
402.63	540.31
402.854	539.31
403.078	538.31
403.302	552.31
403.526	558.31
403.75	564.31
403.974	544.31
404.198	559.31
404.422	546.31
404.645	572.31
404.869	566.31
405.093	607.31
405.317	618.31
405.541	690.31
405.765	622.31
405.988	593.31
406.212	593.31
406.436	612.31
406.66	599.31
406.883	586.31
407.107	611.31
407.331	670.31
407.555	735.31
407.778	734.31
408.002	664.31
408.226	600.31
408.449	610.31
408.673	606.31
408.896	601.31
409.12	648.31
409.344	619.31
409.567	593.31
409.791	578.31
410.014	568.31
410.238	564.31
410.461	547.31
410.685	568.31
410.908	571.31
411.132	608.31
411.355	611.31
411.578	582.31
411.802	556.31
412.025	568.31
412.249	541.31
412.472	567.31
412.695	611.31
412.919	624.31
413.142	578.31
413.365	546.31
413.589	558.31
413.812	546.31
414.035	516.31
414.258	540.31
414.482	507.31
414.705	520.31
414.928	524.31
415.151	535.31
415.374	522.31
415.597	530.31
415.821	514.31
416.044	517.31
416.267	528.31
416.49	515.31
416.713	507.31
416.936	500.31
417.159	519.31
417.382	507.31
417.605	507.31
417.828	527.31
418.051	536.31
418.274	527.31
418.497	531.31
418.72	498.31
418.943	514.31
419.166	527.31
419.389	558.31
419.611	576.31
419.834	552.31
420.057	539.31
420.28	555.31
420.503	547.31
420.726	532.31
420.948	557.31
421.171	601.31
421.394	626.31
421.617	560.31
421.839	543.31
422.062	532.31
422.285	556.31
422.507	600.31
422.73	679.31
422.953	658.31
423.175	597.31
423.398	548.31
423.621	570.31
423.843	586.31
424.066	593.31
424.288	580.31
424.511	613.31
424.733	638.31
424.956	717.31
425.178	664.31
425.401	664.31
425.623	700.31
425.846	607.31
426.068	584.31
426.291	566.31
426.513	574.31
426.735	568.31
426.958	599.31
427.18	651.31
427.402	817.31
427.625	871.31
427.847	750.31
428.069	630.31
428.292	583.31
428.514	551.31
428.736	548.31
428.958	520.31
429.181	514.31
429.403	513.31
429.625	528.31
429.847	566.31
430.069	638.31
430.292	635.31
430.514	542.31
430.736	518.31
430.958	499.31
431.18	490.31
431.402	514.31
431.624	502.31
431.846	492.31
432.068	507.31
432.29	493.31
432.512	504.31
432.734	503.31
432.956	501.31
433.178	519.31
433.4	496.31
433.622	501.31
433.844	498.31
434.066	508.31
434.287	488.31
434.509	500.31
434.731	503.31
434.953	503.31
435.175	538.31
435.397	552.31
435.618	554.31
435.84	595.31
436.062	670.31
436.284	755.31
436.505	615.31
436.727	559.31
436.949	546.31
437.17	541.31
437.392	518.31
437.614	507.31
437.835	586.31
438.057	658.31
438.278	746.31
438.5	708.31
438.721	803.31
438.943	755.31
439.165	636.31
439.386	560.31
439.608	574.31
439.829	564.31
440.05	569.31
440.272	620.31
440.493	602.31
440.715	547.31
440.936	540.31
441.158	530.31
441.379	528.31
441.6	530.31
441.822	551.31
442.043	596.31
442.264	664.31
442.486	711.31
442.707	628.31
442.928	581.31
443.149	596.31
443.371	598.31
443.592	637.31
443.813	760.31
444.034	780.31
444.255	664.31
444.476	592.31
444.698	598.31
444.919	593.31
445.14	714.31
445.361	648.31
445.582	598.31
445.803	658.31
446.024	762.31
446.245	749.31
446.466	702.31
446.687	609.31
446.908	578.31
447.129	540.31
447.35	512.31
447.571	519.31
447.792	518.31
448.013	501.31
448.234	546.31
448.455	572.31
448.675	686.31
448.896	798.31
449.117	668.31
449.338	627.31
449.559	739.31
449.779	808.31
450	651.31
450.221	567.31
450.442	520.31
450.662	504.31
450.883	495.31
451.104	529.31
451.324	494.31
451.545	495.31
451.766	474.31
451.986	468.31
452.207	461.31
452.428	451.31
452.648	468.31
452.869	488.31
453.089	464.31
453.31	479.31
453.53	474.31
453.751	460.31
453.971	472.31
454.192	465.31
454.412	451.31
454.633	453.31
454.853	441.31
455.073	444.31
455.294	484.31
455.514	542.31
455.734	549.31
455.955	464.31
456.175	436.31
456.395	442.31
456.616	437.31
456.836	427.31
457.056	422.31
457.276	440.31
457.497	454.31
457.717	440.31
457.937	441.31
458.157	460.31
458.377	451.31
458.598	456.31
458.818	506.31
459.038	556.31
459.258	602.31
459.478	518.31
459.698	506.31
459.918	500.31
460.138	507.31
460.358	547.31
460.578	519.31
460.798	516.31
461.018	538.31
461.238	536.31
461.458	529.31
461.678	532.31
461.898	520.31
462.118	524.31
462.338	559.31
462.558	546.31
462.777	577.31
462.997	563.31
463.217	591.31
463.437	625.31
463.657	580.31
463.876	557.31
464.096	564.31
464.316	560.31
464.536	568.31
464.755	574.31
464.975	539.31
465.195	578.31
465.414	618.31
465.634	572.31
465.854	532.31
466.073	508.31
466.293	509.31
466.512	494.31
466.732	480.31
466.951	503.31
467.171	476.31
467.391	462.31
467.61	485.31
467.829	500.31
468.049	502.31
468.268	475.31
468.488	470.31
468.707	467.31
468.927	452.31
469.146	459.31
469.365	485.31
469.585	475.31
469.804	486.31
470.023	476.31
470.243	480.31
470.462	491.31
470.681	493.31
470.901	480.31
471.12	483.31
471.339	480.31
471.558	479.31
471.777	506.31
471.997	492.31
472.216	478.31
472.435	498.31
472.654	487.31
472.873	459.31
473.092	468.31
473.311	482.31
473.53	473.31
473.749	460.31
473.968	512.31
474.187	617.31
474.406	635.31
474.625	507.31
474.844	492.31
475.063	491.31
475.282	482.31
475.501	479.31
475.72	485.31
475.939	499.31
476.158	510.31
476.377	481.31
476.596	483.31
476.814	529.31
477.033	504.31
477.252	505.31
477.471	503.31
477.69	534.31
477.908	537.31
478.127	557.31
478.346	539.31
478.564	543.31
478.783	556.31
479.002	560.31
479.22	545.31
479.439	551.31
479.658	571.31
479.876	571.31
480.095	587.31
480.313	609.31
480.532	586.31
480.751	597.31
480.969	598.31
481.188	622.31
481.406	638.31
481.624	603.31
481.843	585.31
482.061	581.31
482.28	572.31
482.498	553.31
482.717	543.31
482.935	575.31
483.153	568.31
483.372	557.31
483.59	578.31
483.808	553.31
484.027	582.31
484.245	558.31
484.463	562.31
484.681	573.31
484.9	564.31
485.118	571.31
485.336	604.31
485.554	579.31
485.772	573.31
485.99	572.31
486.209	571.31
486.427	558.31
486.645	602.31
486.863	614.31
487.081	592.31
487.299	582.31
487.517	608.31
487.735	600.31
487.953	623.31
488.171	595.31
488.389	595.31
488.607	603.31
488.825	612.31
489.043	610.31
489.261	611.31
489.479	611.31
489.696	596.31
489.914	616.31
490.132	608.31
490.35	615.31
490.568	643.31
490.786	628.31
491.003	630.31
491.221	650.31
491.439	678.31
491.657	678.31
491.874	687.31
492.092	689.31
492.31	677.31
492.527	691.31
492.745	722.31
492.963	665.31
493.18	698.31
493.398	698.31
493.615	692.31
493.833	702.31
494.05	684.31
494.268	686.31
494.485	701.31
494.703	707.31
494.92	702.31
495.138	698.31
495.355	705.31
495.573	690.31
495.79	710.31
496.008	715.31
496.225	701.31
496.442	711.31
496.66	718.31
496.877	700.31
497.094	730.31
497.312	727.31
497.529	741.31
497.746	751.31
497.963	750.31
498.181	802.31
498.398	808.31
498.615	823.31
498.832	834.31
499.049	885.31
499.267	900.31
499.484	942.31
499.701	968.31
499.918	1013.31
500.135	1068.31
500.352	1117.31
500.569	1146.31
500.786	1175.31
501.003	1127.31
501.22	1068.31
501.437	984.31
501.654	968.31
