Data from 1976.PennyLincolnUp.Lamp.En5.5.200Scan.071719.P1.Changed Mount._HRD10591_16-00-46-861.txt Node
Date: Thu Jul 18 16:00:46 EDT 2019
User: cochatt
Spectrometer: HR+D1059
Trigger mode: 1
Integration Time (sec): 1.000000E-1
Scans to average: 1
Electric dark correction enabled: true
Nonlinearity correction enabled: false
Boxcar width: 0
XAxis mode: Wavelengths
Number of Pixels in Spectrum: 2048
>>>>>Begin Spectral Data<<<<<
223.165	-10.31
223.4	-10.31
223.635	-10.31
223.869	-21.31
224.104	-11.31
224.338	-15.31
224.573	-11.31
224.808	-8.31
225.042	-7.31
225.277	-8.31
225.511	2.69
225.746	5.69
225.98	8.69
226.215	21.69
226.449	5.69
226.683	5.69
226.918	23.69
227.152	19.69
227.387	31.69
227.621	41.69
227.856	41.69
228.09	43.69
228.324	30.69
228.559	51.69
228.793	61.69
229.027	109.69
229.262	90.69
229.496	131.69
229.73	123.69
229.964	149.69
230.199	113.69
230.433	109.69
230.667	101.69
230.901	117.69
231.136	118.69
231.37	119.69
231.604	115.69
231.838	115.69
232.072	132.69
232.306	104.69
232.541	115.69
232.775	108.69
233.009	102.69
233.243	113.69
233.477	115.69
233.711	116.69
233.945	117.69
234.179	117.69
234.413	120.69
234.647	123.69
234.881	109.69
235.115	94.69
235.349	119.69
235.583	121.69
235.817	128.69
236.051	121.69
236.285	131.69
236.519	126.69
236.753	125.69
236.987	139.69
237.221	180.69
237.455	216.69
237.689	183.69
237.922	143.69
238.156	127.69
238.39	142.69
238.624	105.69
238.858	116.69
239.091	119.69
239.325	131.69
239.559	113.69
239.793	136.69
240.027	121.69
240.26	128.69
240.494	143.69
240.728	166.69
240.961	167.69
241.195	159.69
241.429	141.69
241.662	131.69
241.896	133.69
242.13	118.69
242.363	121.69
242.597	140.69
242.83	149.69
243.064	132.69
243.298	135.69
243.531	138.69
243.765	156.69
243.998	126.69
244.232	127.69
244.465	138.69
244.699	157.69
244.932	137.69
245.166	143.69
245.399	153.69
245.633	155.69
245.866	140.69
246.099	128.69
246.333	152.69
246.566	151.69
246.8	156.69
247.033	141.69
247.266	147.69
247.5	163.69
247.733	179.69
247.966	169.69
248.2	182.69
248.433	172.69
248.666	155.69
248.899	199.69
249.133	187.69
249.366	199.69
249.599	192.69
249.832	175.69
250.066	187.69
250.299	175.69
250.532	179.69
250.765	199.69
250.998	218.69
251.231	217.69
251.465	223.69
251.698	201.69
251.931	179.69
252.164	189.69
252.397	197.69
252.63	199.69
252.863	209.69
253.096	210.69
253.329	224.69
253.562	224.69
253.795	196.69
254.028	217.69
254.261	217.69
254.494	234.69
254.727	234.69
254.96	278.69
255.193	275.69
255.426	255.69
255.659	227.69
255.892	226.69
256.124	212.69
256.357	236.69
256.59	219.69
256.823	219.69
257.056	217.69
257.289	211.69
257.521	208.69
257.754	205.69
257.987	205.69
258.22	193.69
258.452	211.69
258.685	209.69
258.918	203.69
259.151	205.69
259.383	218.69
259.616	216.69
259.849	208.69
260.081	231.69
260.314	239.69
260.547	253.69
260.779	243.69
261.012	227.69
261.244	222.69
261.477	203.69
261.71	235.69
261.942	231.69
262.175	228.69
262.407	231.69
262.64	219.69
262.872	218.69
263.105	226.69
263.337	212.69
263.57	213.69
263.802	218.69
264.035	209.69
264.267	226.69
264.499	217.69
264.732	201.69
264.964	212.69
265.197	211.69
265.429	225.69
265.661	215.69
265.894	215.69
266.126	215.69
266.358	225.69
266.591	230.69
266.823	235.69
267.055	235.69
267.287	230.69
267.52	232.69
267.752	242.69
267.984	235.69
268.216	239.69
268.448	231.69
268.681	241.69
268.913	265.69
269.145	259.69
269.377	291.69
269.609	267.69
269.841	266.69
270.073	275.69
270.306	255.69
270.538	311.69
270.77	325.69
271.002	303.69
271.234	295.69
271.466	315.69
271.698	308.69
271.93	309.69
272.162	315.69
272.394	328.69
272.626	283.69
272.858	273.69
273.09	287.69
273.322	284.69
273.553	283.69
273.785	273.69
274.017	260.69
274.249	267.69
274.481	275.69
274.713	248.69
274.945	272.69
275.176	283.69
275.408	273.69
275.64	282.69
275.872	272.69
276.104	265.69
276.335	281.69
276.567	273.69
276.799	294.69
277.031	312.69
277.262	313.69
277.494	315.69
277.726	324.69
277.957	310.69
278.189	299.69
278.421	288.69
278.652	272.69
278.884	274.69
279.115	283.69
279.347	280.69
279.579	280.69
279.81	262.69
280.042	287.69
280.273	289.69
280.505	268.69
280.736	282.69
280.968	269.69
281.199	281.69
281.431	269.69
281.662	281.69
281.894	284.69
282.125	275.69
282.356	283.69
282.588	300.69
282.819	313.69
283.051	290.69
283.282	292.69
283.513	296.69
283.745	276.69
283.976	298.69
284.207	282.69
284.439	278.69
284.67	308.69
284.901	299.69
285.132	298.69
285.364	307.69
285.595	273.69
285.826	277.69
286.057	304.69
286.288	290.69
286.52	287.69
286.751	306.69
286.982	287.69
287.213	287.69
287.444	319.69
287.675	300.69
287.906	305.69
288.138	334.69
288.369	323.69
288.6	328.69
288.831	328.69
289.062	318.69
289.293	292.69
289.524	305.69
289.755	315.69
289.986	291.69
290.217	294.69
290.448	300.69
290.679	301.69
290.91	295.69
291.141	300.69
291.371	309.69
291.602	316.69
291.833	305.69
292.064	300.69
292.295	310.69
292.526	320.69
292.757	292.69
292.987	301.69
293.218	300.69
293.449	323.69
293.68	321.69
293.91	307.69
294.141	324.69
294.372	315.69
294.603	293.69
294.833	313.69
295.064	307.69
295.295	312.69
295.525	318.69
295.756	319.69
295.987	321.69
296.217	335.69
296.448	331.69
296.679	336.69
296.909	300.69
297.14	307.69
297.37	311.69
297.601	324.69
297.831	318.69
298.062	336.69
298.292	319.69
298.523	329.69
298.753	323.69
298.984	315.69
299.214	328.69
299.445	311.69
299.675	335.69
299.905	324.69
300.136	349.69
300.366	327.69
300.597	314.69
300.827	346.69
301.057	341.69
301.288	337.69
301.518	340.69
301.748	335.69
301.979	355.69
302.209	344.69
302.439	351.69
302.669	340.69
302.9	336.69
303.13	320.69
303.36	347.69
303.59	344.69
303.82	332.69
304.051	341.69
304.281	349.69
304.511	368.69
304.741	338.69
304.971	341.69
305.201	364.69
305.431	337.69
305.661	346.69
305.891	357.69
306.121	333.69
306.352	342.69
306.582	338.69
306.812	340.69
307.042	341.69
307.272	372.69
307.502	342.69
307.731	356.69
307.961	340.69
308.191	332.69
308.421	353.69
308.651	365.69
308.881	336.69
309.111	351.69
309.341	353.69
309.571	375.69
309.8	365.69
310.03	376.69
310.26	379.69
310.49	387.69
310.72	393.69
310.949	387.69
311.179	387.69
311.409	371.69
311.639	371.69
311.868	375.69
312.098	405.69
312.328	393.69
312.557	389.69
312.787	389.69
313.017	401.69
313.246	406.69
313.476	383.69
313.706	372.69
313.935	390.69
314.165	390.69
314.394	404.69
314.624	403.69
314.853	384.69
315.083	377.69
315.312	390.69
315.542	379.69
315.771	391.69
316.001	391.69
316.23	377.69
316.46	385.69
316.689	392.69
316.919	392.69
317.148	389.69
317.377	400.69
317.607	400.69
317.836	383.69
318.065	377.69
318.295	385.69
318.524	383.69
318.753	394.69
318.983	377.69
319.212	392.69
319.441	377.69
319.67	387.69
319.9	378.69
320.129	386.69
320.358	370.69
320.587	393.69
320.816	405.69
321.046	403.69
321.275	385.69
321.504	407.69
321.733	405.69
321.962	394.69
322.191	421.69
322.42	417.69
322.649	447.69
322.878	442.69
323.108	452.69
323.337	459.69
323.566	458.69
323.795	500.69
324.024	513.69
324.253	616.69
324.482	847.69
324.71	1258.69
324.939	1843.69
325.168	1605.69
325.397	835.69
325.626	579.69
325.855	492.69
326.084	482.69
326.313	467.69
326.542	475.69
326.77	497.69
326.999	577.69
327.228	774.69
327.457	1146.69
327.686	1367.69
327.914	894.69
328.143	634.69
328.372	568.69
328.6	545.69
328.829	531.69
329.058	539.69
329.287	542.69
329.515	531.69
329.744	494.69
329.972	486.69
330.201	503.69
330.43	531.69
330.658	547.69
330.887	565.69
331.115	552.69
331.344	501.69
331.572	479.69
331.801	479.69
332.03	490.69
332.258	472.69
332.486	483.69
332.715	459.69
332.943	475.69
333.172	460.69
333.4	487.69
333.629	498.69
333.857	485.69
334.085	504.69
334.314	518.69
334.542	545.69
334.771	542.69
334.999	518.69
335.227	499.69
335.455	472.69
335.684	473.69
335.912	460.69
336.14	476.69
336.369	464.69
336.597	452.69
336.825	465.69
337.053	450.69
337.281	436.69
337.51	465.69
337.738	460.69
337.966	443.69
338.194	474.69
338.422	446.69
338.65	450.69
338.878	478.69
339.106	449.69
339.334	434.69
339.562	446.69
339.79	438.69
340.018	440.69
340.246	431.69
340.474	445.69
340.702	467.69
340.93	448.69
341.158	457.69
341.386	427.69
341.614	447.69
341.842	437.69
342.07	444.69
342.298	428.69
342.526	422.69
342.754	427.69
342.981	420.69
343.209	415.69
343.437	441.69
343.665	436.69
343.893	454.69
344.12	468.69
344.348	467.69
344.576	455.69
344.804	451.69
345.031	456.69
345.259	457.69
345.487	444.69
345.714	435.69
345.942	425.69
346.17	436.69
346.397	425.69
346.625	436.69
346.853	428.69
347.08	451.69
347.308	426.69
347.535	420.69
347.763	430.69
347.99	431.69
348.218	435.69
348.445	429.69
348.673	436.69
348.9	423.69
349.128	419.69
349.355	397.69
349.583	411.69
349.81	428.69
350.037	400.69
350.265	404.69
350.492	413.69
350.72	424.69
350.947	417.69
351.174	416.69
351.402	405.69
351.629	407.69
351.856	424.69
352.083	435.69
352.311	419.69
352.538	448.69
352.765	430.69
352.992	440.69
353.22	421.69
353.447	407.69
353.674	406.69
353.901	426.69
354.128	406.69
354.355	398.69
354.583	393.69
354.81	391.69
355.037	410.69
355.264	405.69
355.491	391.69
355.718	380.69
355.945	388.69
356.172	394.69
356.399	396.69
356.626	403.69
356.853	396.69
357.08	402.69
357.307	389.69
357.534	401.69
357.761	401.69
357.988	397.69
358.215	404.69
358.441	405.69
358.668	390.69
358.895	394.69
359.122	394.69
359.349	402.69
359.576	420.69
359.802	429.69
360.029	472.69
360.256	442.69
360.483	435.69
360.709	423.69
360.936	425.69
361.163	412.69
361.39	419.69
361.616	423.69
361.843	420.69
362.07	419.69
362.296	418.69
362.523	426.69
362.749	417.69
362.976	406.69
363.203	417.69
363.429	405.69
363.656	420.69
363.882	407.69
364.109	397.69
364.335	413.69
364.562	426.69
364.788	425.69
365.015	403.69
365.241	412.69
365.468	398.69
365.694	408.69
365.92	409.69
366.147	391.69
366.373	391.69
366.599	391.69
366.826	419.69
367.052	412.69
367.278	398.69
367.505	407.69
367.731	415.69
367.957	404.69
368.184	420.69
368.41	410.69
368.636	410.69
368.862	420.69
369.089	443.69
369.315	415.69
369.541	409.69
369.767	396.69
369.993	405.69
370.219	413.69
370.445	399.69
370.672	409.69
370.898	416.69
371.124	408.69
371.35	432.69
371.576	431.69
371.802	424.69
372.028	424.69
372.254	415.69
372.48	405.69
372.706	431.69
372.932	405.69
373.158	412.69
373.384	433.69
373.61	435.69
373.835	403.69
374.061	435.69
374.287	392.69
374.513	430.69
374.739	421.69
374.965	401.69
375.191	440.69
375.416	422.69
375.642	420.69
375.868	431.69
376.094	437.69
376.319	427.69
376.545	407.69
376.771	405.69
376.997	411.69
377.222	412.69
377.448	415.69
377.674	416.69
377.899	415.69
378.125	396.69
378.35	396.69
378.576	419.69
378.802	408.69
379.027	416.69
379.253	409.69
379.478	407.69
379.704	417.69
379.929	408.69
380.155	406.69
380.38	388.69
380.606	405.69
380.831	395.69
381.057	439.69
381.282	436.69
381.507	423.69
381.733	416.69
381.958	403.69
382.184	411.69
382.409	435.69
382.634	432.69
382.86	423.69
383.085	416.69
383.31	429.69
383.535	417.69
383.761	435.69
383.986	424.69
384.211	441.69
384.436	473.69
384.662	440.69
384.887	467.69
385.112	424.69
385.337	452.69
385.562	444.69
385.787	450.69
386.013	473.69
386.238	471.69
386.463	488.69
386.688	457.69
386.913	471.69
387.138	435.69
387.363	464.69
387.588	451.69
387.813	459.69
388.038	456.69
388.263	446.69
388.488	473.69
388.713	459.69
388.938	451.69
389.163	443.69
389.387	445.69
389.612	433.69
389.837	443.69
390.062	461.69
390.287	462.69
390.512	433.69
390.736	449.69
390.961	454.69
391.186	460.69
391.411	439.69
391.636	441.69
391.86	475.69
392.085	477.69
392.31	500.69
392.534	476.69
392.759	466.69
392.984	464.69
393.208	472.69
393.433	442.69
393.658	459.69
393.882	478.69
394.107	476.69
394.331	475.69
394.556	461.69
394.78	446.69
395.005	468.69
395.229	489.69
395.454	495.69
395.678	482.69
395.903	517.69
396.127	523.69
396.352	501.69
396.576	481.69
396.801	485.69
397.025	488.69
397.249	499.69
397.474	485.69
397.698	499.69
397.922	520.69
398.147	508.69
398.371	531.69
398.595	540.69
398.82	546.69
399.044	561.69
399.268	596.69
399.492	609.69
399.717	656.69
399.941	676.69
400.165	690.69
400.389	683.69
400.613	602.69
400.837	564.69
401.062	556.69
401.286	567.69
401.51	541.69
401.734	533.69
401.958	523.69
402.182	530.69
402.406	536.69
402.63	555.69
402.854	547.69
403.078	542.69
403.302	555.69
403.526	557.69
403.75	568.69
403.974	553.69
404.198	582.69
404.422	579.69
404.645	584.69
404.869	593.69
405.093	607.69
405.317	643.69
405.541	651.69
405.765	611.69
405.988	600.69
406.212	596.69
406.436	613.69
406.66	619.69
406.883	601.69
407.107	622.69
407.331	660.69
407.555	730.69
407.778	736.69
408.002	697.69
408.226	632.69
408.449	617.69
408.673	632.69
408.896	647.69
409.12	696.69
409.344	680.69
409.567	601.69
409.791	572.69
410.014	571.69
410.238	560.69
410.461	545.69
410.685	582.69
410.908	592.69
411.132	608.69
411.355	646.69
411.578	607.69
411.802	567.69
412.025	567.69
412.249	557.69
412.472	617.69
412.695	621.69
412.919	602.69
413.142	575.69
413.365	556.69
413.589	551.69
413.812	536.69
414.035	536.69
414.258	527.69
414.482	519.69
414.705	529.69
414.928	519.69
415.151	537.69
415.374	527.69
415.597	511.69
415.821	517.69
416.044	511.69
416.267	486.69
416.49	533.69
416.713	535.69
416.936	543.69
417.159	517.69
417.382	556.69
417.605	519.69
417.828	519.69
418.051	537.69
418.274	540.69
418.497	529.69
418.72	530.69
418.943	512.69
419.166	553.69
419.389	584.69
419.611	581.69
419.834	559.69
420.057	555.69
420.28	563.69
420.503	534.69
420.726	560.69
420.948	555.69
421.171	594.69
421.394	647.69
421.617	578.69
421.839	553.69
422.062	577.69
422.285	556.69
422.507	591.69
422.73	675.69
422.953	649.69
423.175	610.69
423.398	557.69
423.621	553.69
423.843	596.69
424.066	595.69
424.288	571.69
424.511	601.69
424.733	651.69
424.956	703.69
425.178	695.69
425.401	666.69
425.623	705.69
425.846	633.69
426.068	595.69
426.291	569.69
426.513	586.69
426.735	577.69
426.958	619.69
427.18	705.69
427.402	817.69
427.625	903.69
427.847	779.69
428.069	659.69
428.292	595.69
428.514	565.69
428.736	543.69
428.958	565.69
429.181	549.69
429.403	544.69
429.625	537.69
429.847	568.69
430.069	633.69
430.292	633.69
430.514	535.69
430.736	525.69
430.958	524.69
431.18	519.69
431.402	511.69
431.624	491.69
431.846	499.69
432.068	505.69
432.29	511.69
432.512	516.69
432.734	541.69
432.956	509.69
433.178	524.69
433.4	532.69
433.622	502.69
433.844	523.69
434.066	496.69
434.287	519.69
434.509	500.69
434.731	510.69
434.953	551.69
435.175	551.69
435.397	568.69
435.618	556.69
435.84	589.69
436.062	715.69
436.284	763.69
436.505	636.69
436.727	571.69
436.949	529.69
437.17	522.69
437.392	520.69
437.614	528.69
437.835	566.69
438.057	665.69
438.278	746.69
438.5	727.69
438.721	840.69
438.943	824.69
439.165	633.69
439.386	581.69
439.608	561.69
439.829	563.69
440.05	605.69
440.272	624.69
440.493	583.69
440.715	555.69
440.936	539.69
441.158	537.69
441.379	526.69
441.6	548.69
441.822	580.69
442.043	624.69
442.264	691.69
442.486	724.69
442.707	630.69
442.928	601.69
443.149	609.69
443.371	586.69
443.592	639.69
443.813	723.69
444.034	822.69
444.255	659.69
444.476	601.69
444.698	577.69
444.919	625.69
445.14	741.69
445.361	678.69
445.582	622.69
445.803	673.69
446.024	775.69
446.245	761.69
446.466	696.69
446.687	616.69
446.908	565.69
447.129	517.69
447.35	537.69
447.571	513.69
447.792	520.69
448.013	531.69
448.234	550.69
448.455	579.69
448.675	682.69
448.896	827.69
449.117	671.69
449.338	641.69
449.559	757.69
449.779	855.69
450	679.69
450.221	569.69
450.442	518.69
450.662	501.69
450.883	524.69
451.104	565.69
451.324	521.69
451.545	478.69
451.766	468.69
451.986	481.69
452.207	467.69
452.428	463.69
452.648	457.69
452.869	489.69
453.089	482.69
453.31	497.69
453.53	467.69
453.751	456.69
453.971	487.69
454.192	481.69
454.412	473.69
454.633	468.69
454.853	471.69
455.073	451.69
455.294	489.69
455.514	532.69
455.734	538.69
455.955	483.69
456.175	433.69
456.395	434.69
456.616	435.69
456.836	443.69
457.056	432.69
457.276	431.69
457.497	428.69
457.717	451.69
457.937	448.69
458.157	449.69
458.377	453.69
458.598	456.69
458.818	520.69
459.038	584.69
459.258	604.69
459.478	533.69
459.698	513.69
459.918	504.69
460.138	507.69
460.358	505.69
460.578	537.69
460.798	520.69
461.018	540.69
461.238	521.69
461.458	501.69
461.678	548.69
461.898	515.69
462.118	525.69
462.338	543.69
462.558	546.69
462.777	545.69
462.997	588.69
463.217	579.69
463.437	601.69
463.657	602.69
463.876	554.69
464.096	589.69
464.316	578.69
464.536	561.69
464.755	549.69
464.975	563.69
465.195	552.69
465.414	593.69
465.634	593.69
465.854	540.69
466.073	509.69
466.293	504.69
466.512	495.69
466.732	487.69
466.951	487.69
467.171	475.69
467.391	482.69
467.61	488.69
467.829	494.69
468.049	492.69
468.268	482.69
468.488	486.69
468.707	475.69
468.927	491.69
469.146	453.69
469.365	463.69
469.585	451.69
469.804	480.69
470.023	476.69
470.243	488.69
470.462	492.69
470.681	503.69
470.901	482.69
471.12	490.69
471.339	497.69
471.558	494.69
471.777	481.69
471.997	476.69
472.216	511.69
472.435	531.69
472.654	507.69
472.873	473.69
473.092	465.69
473.311	465.69
473.53	489.69
473.749	482.69
473.968	551.69
474.187	624.69
474.406	635.69
474.625	539.69
474.844	502.69
475.063	488.69
475.282	499.69
475.501	507.69
475.72	500.69
475.939	509.69
476.158	497.69
476.377	492.69
476.596	485.69
476.814	503.69
477.033	517.69
477.252	497.69
477.471	520.69
477.69	524.69
477.908	526.69
478.127	539.69
478.346	563.69
478.564	542.69
478.783	535.69
479.002	549.69
479.22	561.69
479.439	557.69
479.658	582.69
479.876	595.69
480.095	597.69
480.313	623.69
480.532	617.69
480.751	594.69
480.969	591.69
481.188	640.69
481.406	672.69
481.624	595.69
481.843	567.69
482.061	568.69
482.28	547.69
482.498	548.69
482.717	563.69
482.935	529.69
483.153	574.69
483.372	577.69
483.59	568.69
483.808	576.69
484.027	547.69
484.245	570.69
484.463	583.69
484.681	568.69
484.9	562.69
485.118	580.69
485.336	567.69
485.554	589.69
485.772	583.69
485.99	594.69
486.209	587.69
486.427	596.69
486.645	595.69
486.863	609.69
487.081	594.69
487.299	605.69
487.517	602.69
487.735	616.69
487.953	617.69
488.171	610.69
488.389	617.69
488.607	586.69
488.825	600.69
489.043	606.69
489.261	628.69
489.479	615.69
489.696	616.69
489.914	632.69
490.132	626.69
490.35	646.69
490.568	631.69
490.786	657.69
491.003	663.69
491.221	676.69
491.439	664.69
491.657	684.69
491.874	683.69
492.092	733.69
492.31	699.69
492.527	698.69
492.745	706.69
492.963	708.69
493.18	712.69
493.398	718.69
493.615	716.69
493.833	709.69
494.05	713.69
494.268	696.69
494.485	711.69
494.703	727.69
494.92	705.69
495.138	727.69
495.355	726.69
495.573	706.69
495.79	696.69
496.008	717.69
496.225	740.69
496.442	707.69
496.66	716.69
496.877	715.69
497.094	715.69
497.312	742.69
497.529	738.69
497.746	753.69
497.963	760.69
498.181	804.69
498.398	822.69
498.615	815.69
498.832	864.69
499.049	858.69
499.267	902.69
499.484	926.69
499.701	961.69
499.918	1047.69
500.135	1091.69
500.352	1167.69
500.569	1172.69
500.786	1163.69
501.003	1160.69
501.22	1086.69
501.437	1053.69
501.654	996.69
