Data from 1976.PennyLincolnUp.Lamp.En5.5.200Scan.071719.P1.Changed Mount._HRD10591_16-00-24-860.txt Node
Date: Thu Jul 18 16:00:24 EDT 2019
User: cochatt
Spectrometer: HR+D1059
Trigger mode: 1
Integration Time (sec): 1.000000E-1
Scans to average: 1
Electric dark correction enabled: true
Nonlinearity correction enabled: false
Boxcar width: 0
XAxis mode: Wavelengths
Number of Pixels in Spectrum: 2048
>>>>>Begin Spectral Data<<<<<
223.165	-21.31
223.4	-21.31
223.635	-21.31
223.869	-25.31
224.104	-9.31
224.338	-13.31
224.573	-11.31
224.808	-31.31
225.042	0.69
225.277	1.69
225.511	7.69
225.746	5.69
225.98	8.69
226.215	10.69
226.449	9.69
226.683	17.69
226.918	25.69
227.152	23.69
227.387	29.69
227.621	28.69
227.856	28.69
228.09	44.69
228.324	50.69
228.559	53.69
228.793	61.69
229.027	85.69
229.262	100.69
229.496	101.69
229.73	116.69
229.964	138.69
230.199	120.69
230.433	110.69
230.667	92.69
230.901	109.69
231.136	116.69
231.37	108.69
231.604	106.69
231.838	110.69
232.072	103.69
232.306	115.69
232.541	120.69
232.775	106.69
233.009	101.69
233.243	116.69
233.477	120.69
233.711	120.69
233.945	116.69
234.179	125.69
234.413	110.69
234.647	101.69
234.881	123.69
235.115	119.69
235.349	110.69
235.583	126.69
235.817	116.69
236.051	125.69
236.285	121.69
236.519	122.69
236.753	140.69
236.987	140.69
237.221	157.69
237.455	203.69
237.689	178.69
237.922	139.69
238.156	139.69
238.39	123.69
238.624	122.69
238.858	124.69
239.091	121.69
239.325	123.69
239.559	133.69
239.793	133.69
240.027	126.69
240.26	125.69
240.494	153.69
240.728	140.69
240.961	142.69
241.195	141.69
241.429	139.69
241.662	130.69
241.896	125.69
242.13	130.69
242.363	142.69
242.597	134.69
242.83	142.69
243.064	137.69
243.298	140.69
243.531	153.69
243.765	132.69
243.998	153.69
244.232	143.69
244.465	135.69
244.699	141.69
244.932	142.69
245.166	156.69
245.399	146.69
245.633	152.69
245.866	147.69
246.099	149.69
246.333	166.69
246.566	157.69
246.8	155.69
247.033	149.69
247.266	159.69
247.5	155.69
247.733	169.69
247.966	176.69
248.2	163.69
248.433	171.69
248.666	170.69
248.899	172.69
249.133	191.69
249.366	208.69
249.599	197.69
249.832	170.69
250.066	186.69
250.299	189.69
250.532	184.69
250.765	197.69
250.998	190.69
251.231	218.69
251.465	201.69
251.698	196.69
251.931	201.69
252.164	201.69
252.397	176.69
252.63	180.69
252.863	219.69
253.096	207.69
253.329	231.69
253.562	214.69
253.795	201.69
254.028	217.69
254.261	219.69
254.494	222.69
254.727	258.69
254.96	292.69
255.193	252.69
255.426	231.69
255.659	206.69
255.892	235.69
256.124	238.69
256.357	215.69
256.59	206.69
256.823	220.69
257.056	220.69
257.289	202.69
257.521	204.69
257.754	212.69
257.987	208.69
258.22	209.69
258.452	211.69
258.685	212.69
258.918	215.69
259.151	198.69
259.383	222.69
259.616	227.69
259.849	228.69
260.081	233.69
260.314	237.69
260.547	257.69
260.779	232.69
261.012	228.69
261.244	198.69
261.477	226.69
261.71	226.69
261.942	221.69
262.175	230.69
262.407	218.69
262.64	219.69
262.872	218.69
263.105	220.69
263.337	232.69
263.57	221.69
263.802	224.69
264.035	224.69
264.267	222.69
264.499	218.69
264.732	214.69
264.964	219.69
265.197	227.69
265.429	226.69
265.661	225.69
265.894	204.69
266.126	212.69
266.358	220.69
266.591	212.69
266.823	226.69
267.055	232.69
267.287	237.69
267.52	241.69
267.752	249.69
267.984	248.69
268.216	233.69
268.448	229.69
268.681	233.69
268.913	249.69
269.145	262.69
269.377	276.69
269.609	289.69
269.841	266.69
270.073	260.69
270.306	293.69
270.538	301.69
270.77	294.69
271.002	300.69
271.234	268.69
271.466	285.69
271.698	308.69
271.93	309.69
272.162	319.69
272.394	319.69
272.626	313.69
272.858	307.69
273.09	263.69
273.322	261.69
273.553	264.69
273.785	267.69
274.017	269.69
274.249	287.69
274.481	271.69
274.713	259.69
274.945	257.69
275.176	276.69
275.408	281.69
275.64	273.69
275.872	270.69
276.104	260.69
276.335	256.69
276.567	278.69
276.799	294.69
277.031	304.69
277.262	323.69
277.494	302.69
277.726	325.69
277.957	301.69
278.189	283.69
278.421	263.69
278.652	268.69
278.884	265.69
279.115	290.69
279.347	259.69
279.579	277.69
279.81	275.69
280.042	271.69
280.273	273.69
280.505	255.69
280.736	279.69
280.968	285.69
281.199	284.69
281.431	271.69
281.662	287.69
281.894	291.69
282.125	294.69
282.356	295.69
282.588	290.69
282.819	301.69
283.051	298.69
283.282	288.69
283.513	289.69
283.745	281.69
283.976	299.69
284.207	309.69
284.439	283.69
284.67	291.69
284.901	290.69
285.132	307.69
285.364	285.69
285.595	270.69
285.826	295.69
286.057	320.69
286.288	298.69
286.52	317.69
286.751	304.69
286.982	314.69
287.213	286.69
287.444	313.69
287.675	305.69
287.906	293.69
288.138	308.69
288.369	327.69
288.6	322.69
288.831	328.69
289.062	312.69
289.293	309.69
289.524	302.69
289.755	314.69
289.986	292.69
290.217	293.69
290.448	307.69
290.679	298.69
290.91	298.69
291.141	306.69
291.371	316.69
291.602	307.69
291.833	295.69
292.064	291.69
292.295	327.69
292.526	295.69
292.757	312.69
292.987	306.69
293.218	305.69
293.449	280.69
293.68	295.69
293.91	317.69
294.141	302.69
294.372	312.69
294.603	314.69
294.833	305.69
295.064	308.69
295.295	300.69
295.525	320.69
295.756	328.69
295.987	329.69
296.217	342.69
296.448	349.69
296.679	320.69
296.909	322.69
297.14	338.69
297.37	343.69
297.601	307.69
297.831	333.69
298.062	326.69
298.292	327.69
298.523	325.69
298.753	314.69
298.984	317.69
299.214	332.69
299.445	339.69
299.675	315.69
299.905	323.69
300.136	320.69
300.366	329.69
300.597	321.69
300.827	348.69
301.057	300.69
301.288	341.69
301.518	346.69
301.748	352.69
301.979	350.69
302.209	356.69
302.439	348.69
302.669	369.69
302.9	352.69
303.13	324.69
303.36	350.69
303.59	349.69
303.82	353.69
304.051	340.69
304.281	340.69
304.511	338.69
304.741	334.69
304.971	330.69
305.201	351.69
305.431	347.69
305.661	373.69
305.891	347.69
306.121	339.69
306.352	362.69
306.582	345.69
306.812	356.69
307.042	352.69
307.272	342.69
307.502	323.69
307.731	356.69
307.961	336.69
308.191	340.69
308.421	365.69
308.651	376.69
308.881	359.69
309.111	354.69
309.341	373.69
309.571	357.69
309.8	324.69
310.03	383.69
310.26	373.69
310.49	360.69
310.72	400.69
310.949	386.69
311.179	407.69
311.409	387.69
311.639	389.69
311.868	377.69
312.098	384.69
312.328	382.69
312.557	416.69
312.787	404.69
313.017	403.69
313.246	406.69
313.476	372.69
313.706	383.69
313.935	381.69
314.165	396.69
314.394	404.69
314.624	408.69
314.853	395.69
315.083	387.69
315.312	387.69
315.542	378.69
315.771	390.69
316.001	365.69
316.23	370.69
316.46	379.69
316.689	381.69
316.919	397.69
317.148	392.69
317.377	394.69
317.607	384.69
317.836	391.69
318.065	394.69
318.295	391.69
318.524	398.69
318.753	385.69
318.983	377.69
319.212	385.69
319.441	380.69
319.67	402.69
319.9	398.69
320.129	367.69
320.358	408.69
320.587	406.69
320.816	404.69
321.046	394.69
321.275	414.69
321.504	398.69
321.733	394.69
321.962	404.69
322.191	428.69
322.42	425.69
322.649	422.69
322.878	432.69
323.108	442.69
323.337	458.69
323.566	466.69
323.795	476.69
324.024	519.69
324.253	606.69
324.482	816.69
324.71	1183.69
324.939	1736.69
325.168	1578.69
325.397	782.69
325.626	557.69
325.855	490.69
326.084	474.69
326.313	474.69
326.542	474.69
326.77	510.69
326.999	571.69
327.228	730.69
327.457	1114.69
327.686	1367.69
327.914	916.69
328.143	616.69
328.372	554.69
328.6	557.69
328.829	515.69
329.058	550.69
329.287	532.69
329.515	526.69
329.744	476.69
329.972	487.69
330.201	500.69
330.43	534.69
330.658	537.69
330.887	545.69
331.115	567.69
331.344	507.69
331.572	490.69
331.801	461.69
332.03	485.69
332.258	483.69
332.486	449.69
332.715	469.69
332.943	456.69
333.172	476.69
333.4	485.69
333.629	490.69
333.857	492.69
334.085	518.69
334.314	527.69
334.542	535.69
334.771	542.69
334.999	510.69
335.227	497.69
335.455	477.69
335.684	484.69
335.912	468.69
336.14	462.69
336.369	484.69
336.597	482.69
336.825	477.69
337.053	455.69
337.281	441.69
337.51	470.69
337.738	471.69
337.966	453.69
338.194	460.69
338.422	442.69
338.65	431.69
338.878	456.69
339.106	433.69
339.334	432.69
339.562	433.69
339.79	404.69
340.018	432.69
340.246	436.69
340.474	445.69
340.702	444.69
340.93	452.69
341.158	447.69
341.386	458.69
341.614	428.69
341.842	427.69
342.07	442.69
342.298	439.69
342.526	435.69
342.754	448.69
342.981	430.69
343.209	432.69
343.437	453.69
343.665	430.69
343.893	474.69
344.12	491.69
344.348	468.69
344.576	436.69
344.804	473.69
345.031	442.69
345.259	462.69
345.487	443.69
345.714	448.69
345.942	414.69
346.17	417.69
346.397	416.69
346.625	419.69
346.853	428.69
347.08	434.69
347.308	420.69
347.535	430.69
347.763	414.69
347.99	439.69
348.218	446.69
348.445	438.69
348.673	438.69
348.9	408.69
349.128	436.69
349.355	404.69
349.583	432.69
349.81	428.69
350.037	405.69
350.265	421.69
350.492	421.69
350.72	405.69
350.947	417.69
351.174	398.69
351.402	416.69
351.629	429.69
351.856	416.69
352.083	433.69
352.311	434.69
352.538	459.69
352.765	440.69
352.992	426.69
353.22	421.69
353.447	426.69
353.674	424.69
353.901	392.69
354.128	392.69
354.355	410.69
354.583	410.69
354.81	410.69
355.037	413.69
355.264	398.69
355.491	400.69
355.718	398.69
355.945	407.69
356.172	409.69
356.399	388.69
356.626	394.69
356.853	372.69
357.08	393.69
357.307	392.69
357.534	381.69
357.761	397.69
357.988	388.69
358.215	390.69
358.441	416.69
358.668	388.69
358.895	409.69
359.122	421.69
359.349	408.69
359.576	425.69
359.802	430.69
360.029	438.69
360.256	473.69
360.483	452.69
360.709	420.69
360.936	411.69
361.163	405.69
361.39	424.69
361.616	428.69
361.843	406.69
362.07	409.69
362.296	439.69
362.523	431.69
362.749	413.69
362.976	417.69
363.203	413.69
363.429	396.69
363.656	405.69
363.882	412.69
364.109	387.69
364.335	422.69
364.562	420.69
364.788	384.69
365.015	425.69
365.241	396.69
365.468	409.69
365.694	398.69
365.92	403.69
366.147	403.69
366.373	412.69
366.599	402.69
366.826	412.69
367.052	407.69
367.278	409.69
367.505	408.69
367.731	419.69
367.957	377.69
368.184	416.69
368.41	416.69
368.636	416.69
368.862	419.69
369.089	402.69
369.315	430.69
369.541	400.69
369.767	430.69
369.993	416.69
370.219	396.69
370.445	410.69
370.672	402.69
370.898	424.69
371.124	406.69
371.35	394.69
371.576	378.69
371.802	404.69
372.028	406.69
372.254	419.69
372.48	414.69
372.706	412.69
372.932	428.69
373.158	411.69
373.384	430.69
373.61	414.69
373.835	423.69
374.061	420.69
374.287	423.69
374.513	438.69
374.739	434.69
374.965	433.69
375.191	436.69
375.416	439.69
375.642	437.69
375.868	441.69
376.094	421.69
376.319	423.69
376.545	441.69
376.771	436.69
376.997	412.69
377.222	424.69
377.448	421.69
377.674	411.69
377.899	419.69
378.125	397.69
378.35	424.69
378.576	425.69
378.802	420.69
379.027	405.69
379.253	434.69
379.478	412.69
379.704	416.69
379.929	418.69
380.155	413.69
380.38	413.69
380.606	419.69
380.831	420.69
381.057	428.69
381.282	400.69
381.507	433.69
381.733	428.69
381.958	428.69
382.184	455.69
382.409	410.69
382.634	432.69
382.86	438.69
383.085	413.69
383.31	448.69
383.535	416.69
383.761	429.69
383.986	434.69
384.211	459.69
384.436	452.69
384.662	429.69
384.887	470.69
385.112	467.69
385.337	453.69
385.562	467.69
385.787	466.69
386.013	484.69
386.238	463.69
386.463	470.69
386.688	436.69
386.913	450.69
387.138	469.69
387.363	457.69
387.588	456.69
387.813	473.69
388.038	438.69
388.263	460.69
388.488	479.69
388.713	458.69
388.938	454.69
389.163	457.69
389.387	461.69
389.612	457.69
389.837	480.69
390.062	452.69
390.287	460.69
390.512	458.69
390.736	487.69
390.961	461.69
391.186	460.69
391.411	495.69
391.636	478.69
391.86	470.69
392.085	498.69
392.31	483.69
392.534	485.69
392.759	483.69
392.984	471.69
393.208	483.69
393.433	476.69
393.658	462.69
393.882	479.69
394.107	476.69
394.331	466.69
394.556	454.69
394.78	479.69
395.005	470.69
395.229	488.69
395.454	492.69
395.678	478.69
395.903	487.69
396.127	496.69
396.352	511.69
396.576	501.69
396.801	482.69
397.025	503.69
397.249	485.69
397.474	501.69
397.698	525.69
397.922	523.69
398.147	522.69
398.371	532.69
398.595	526.69
398.82	526.69
399.044	570.69
399.268	575.69
399.492	610.69
399.717	648.69
399.941	659.69
400.165	664.69
400.389	678.69
400.613	610.69
400.837	571.69
401.062	575.69
401.286	550.69
401.51	521.69
401.734	542.69
401.958	548.69
402.182	560.69
402.406	550.69
402.63	550.69
402.854	552.69
403.078	564.69
403.302	555.69
403.526	572.69
403.75	563.69
403.974	563.69
404.198	555.69
404.422	572.69
404.645	577.69
404.869	585.69
405.093	619.69
405.317	625.69
405.541	682.69
405.765	622.69
405.988	596.69
406.212	582.69
406.436	613.69
406.66	600.69
406.883	580.69
407.107	650.69
407.331	665.69
407.555	740.69
407.778	728.69
408.002	664.69
408.226	632.69
408.449	616.69
408.673	617.69
408.896	638.69
409.12	698.69
409.344	638.69
409.567	582.69
409.791	554.69
410.014	574.69
410.238	553.69
410.461	576.69
410.685	589.69
410.908	581.69
411.132	626.69
411.355	621.69
411.578	638.69
411.802	596.69
412.025	540.69
412.249	544.69
412.472	588.69
412.695	609.69
412.919	590.69
413.142	574.69
413.365	554.69
413.589	538.69
413.812	543.69
414.035	532.69
414.258	532.69
414.482	536.69
414.705	528.69
414.928	532.69
415.151	537.69
415.374	527.69
415.597	520.69
415.821	542.69
416.044	516.69
416.267	532.69
416.49	525.69
416.713	501.69
416.936	536.69
417.159	524.69
417.382	541.69
417.605	521.69
417.828	548.69
418.051	570.69
418.274	550.69
418.497	524.69
418.72	532.69
418.943	538.69
419.166	536.69
419.389	587.69
419.611	574.69
419.834	554.69
420.057	566.69
420.28	572.69
420.503	554.69
420.726	556.69
420.948	560.69
421.171	574.69
421.394	640.69
421.617	586.69
421.839	562.69
422.062	563.69
422.285	567.69
422.507	598.69
422.73	693.69
422.953	628.69
423.175	580.69
423.398	563.69
423.621	561.69
423.843	590.69
424.066	602.69
424.288	594.69
424.511	585.69
424.733	666.69
424.956	729.69
425.178	681.69
425.401	688.69
425.623	708.69
425.846	633.69
426.068	589.69
426.291	580.69
426.513	573.69
426.735	573.69
426.958	602.69
427.18	669.69
427.402	812.69
427.625	865.69
427.847	777.69
428.069	670.69
428.292	633.69
428.514	572.69
428.736	540.69
428.958	534.69
429.181	547.69
429.403	523.69
429.625	531.69
429.847	577.69
430.069	600.69
430.292	617.69
430.514	557.69
430.736	541.69
430.958	517.69
431.18	522.69
431.402	514.69
431.624	503.69
431.846	502.69
432.068	511.69
432.29	503.69
432.512	514.69
432.734	528.69
432.956	502.69
433.178	510.69
433.4	509.69
433.622	505.69
433.844	513.69
434.066	506.69
434.287	518.69
434.509	501.69
434.731	552.69
434.953	542.69
435.175	544.69
435.397	578.69
435.618	574.69
435.84	605.69
436.062	685.69
436.284	729.69
436.505	640.69
436.727	573.69
436.949	534.69
437.17	526.69
437.392	530.69
437.614	536.69
437.835	545.69
438.057	679.69
438.278	737.69
438.5	738.69
438.721	818.69
438.943	774.69
439.165	621.69
439.386	583.69
439.608	592.69
439.829	572.69
440.05	600.69
440.272	633.69
440.493	594.69
440.715	564.69
440.936	558.69
441.158	535.69
441.379	540.69
441.6	548.69
441.822	598.69
442.043	586.69
442.264	688.69
442.486	698.69
442.707	632.69
442.928	569.69
443.149	575.69
443.371	601.69
443.592	651.69
443.813	739.69
444.034	805.69
444.255	670.69
444.476	616.69
444.698	605.69
444.919	619.69
445.14	716.69
445.361	657.69
445.582	617.69
445.803	677.69
446.024	766.69
446.245	760.69
446.466	706.69
446.687	593.69
446.908	586.69
447.129	522.69
447.35	545.69
447.571	525.69
447.792	520.69
448.013	543.69
448.234	533.69
448.455	603.69
448.675	670.69
448.896	790.69
449.117	661.69
449.338	646.69
449.559	734.69
449.779	832.69
450	690.69
450.221	565.69
450.442	526.69
450.662	503.69
450.883	500.69
451.104	523.69
451.324	507.69
451.545	474.69
451.766	484.69
451.986	442.69
452.207	464.69
452.428	461.69
452.648	486.69
452.869	477.69
453.089	470.69
453.31	496.69
453.53	470.69
453.751	473.69
453.971	464.69
454.192	496.69
454.412	442.69
454.633	462.69
454.853	457.69
455.073	457.69
455.294	461.69
455.514	550.69
455.734	544.69
455.955	473.69
456.175	462.69
456.395	464.69
456.616	445.69
456.836	461.69
457.056	452.69
457.276	422.69
457.497	437.69
457.717	438.69
457.937	461.69
458.157	469.69
458.377	477.69
458.598	478.69
458.818	518.69
459.038	580.69
459.258	634.69
459.478	534.69
459.698	486.69
459.918	500.69
460.138	513.69
460.358	523.69
460.578	521.69
460.798	505.69
461.018	504.69
461.238	544.69
461.458	533.69
461.678	530.69
461.898	515.69
462.118	535.69
462.338	548.69
462.558	569.69
462.777	564.69
462.997	562.69
463.217	588.69
463.437	600.69
463.657	593.69
463.876	580.69
464.096	605.69
464.316	560.69
464.536	572.69
464.755	592.69
464.975	572.69
465.195	588.69
465.414	602.69
465.634	570.69
465.854	531.69
466.073	526.69
466.293	513.69
466.512	493.69
466.732	484.69
466.951	474.69
467.171	491.69
467.391	488.69
467.61	474.69
467.829	500.69
468.049	491.69
468.268	484.69
468.488	484.69
468.707	478.69
468.927	474.69
469.146	477.69
469.365	482.69
469.585	486.69
469.804	500.69
470.023	497.69
470.243	498.69
470.462	492.69
470.681	512.69
470.901	502.69
471.12	502.69
471.339	496.69
471.558	480.69
471.777	476.69
471.997	489.69
472.216	485.69
472.435	517.69
472.654	492.69
472.873	491.69
473.092	466.69
473.311	498.69
473.53	491.69
473.749	501.69
473.968	532.69
474.187	629.69
474.406	633.69
474.625	548.69
474.844	500.69
475.063	492.69
475.282	505.69
475.501	498.69
475.72	493.69
475.939	489.69
476.158	497.69
476.377	517.69
476.596	508.69
476.814	500.69
477.033	521.69
477.252	521.69
477.471	506.69
477.69	514.69
477.908	560.69
478.127	545.69
478.346	531.69
478.564	537.69
478.783	568.69
479.002	572.69
479.22	580.69
479.439	587.69
479.658	575.69
479.876	582.69
480.095	616.69
480.313	634.69
480.532	606.69
480.751	599.69
480.969	619.69
481.188	649.69
481.406	700.69
481.624	636.69
481.843	584.69
482.061	587.69
482.28	574.69
482.498	580.69
482.717	568.69
482.935	549.69
483.153	554.69
483.372	577.69
483.59	560.69
483.808	568.69
484.027	573.69
484.245	568.69
484.463	562.69
484.681	594.69
484.9	600.69
485.118	610.69
485.336	562.69
485.554	581.69
485.772	552.69
485.99	596.69
486.209	588.69
486.427	588.69
486.645	583.69
486.863	633.69
487.081	609.69
487.299	617.69
487.517	608.69
487.735	604.69
487.953	601.69
488.171	602.69
488.389	585.69
488.607	616.69
488.825	604.69
489.043	604.69
489.261	621.69
489.479	607.69
489.696	642.69
489.914	616.69
490.132	632.69
490.35	640.69
490.568	637.69
490.786	646.69
491.003	642.69
491.221	688.69
491.439	674.69
491.657	684.69
491.874	697.69
492.092	686.69
492.31	697.69
492.527	706.69
492.745	687.69
492.963	695.69
493.18	724.69
493.398	692.69
493.615	714.69
493.833	712.69
494.05	705.69
494.268	736.69
494.485	717.69
494.703	700.69
494.92	711.69
495.138	724.69
495.355	725.69
495.573	714.69
495.79	721.69
496.008	745.69
496.225	751.69
496.442	717.69
496.66	725.69
496.877	714.69
497.094	749.69
497.312	724.69
497.529	730.69
497.746	724.69
497.963	750.69
498.181	805.69
498.398	817.69
498.615	810.69
498.832	836.69
499.049	853.69
499.267	889.69
499.484	932.69
499.701	977.69
499.918	1040.69
500.135	1062.69
500.352	1144.69
500.569	1155.69
500.786	1164.69
501.003	1165.69
501.22	1094.69
501.437	1057.69
501.654	997.69
