Data from 1976.PennyLincolnUp.Lamp.En5.5.200Scan.071719.P1.Changed Mount._HRD10591_15-59-52-860.txt Node
Date: Thu Jul 18 15:59:52 EDT 2019
User: cochatt
Spectrometer: HR+D1059
Trigger mode: 1
Integration Time (sec): 1.000000E-1
Scans to average: 1
Electric dark correction enabled: true
Nonlinearity correction enabled: false
Boxcar width: 0
XAxis mode: Wavelengths
Number of Pixels in Spectrum: 2048
>>>>>Begin Spectral Data<<<<<
223.165	-8.06
223.4	-8.06
223.635	-8.06
223.869	-13.06
224.104	-10.06
224.338	-11.06
224.573	-29.06
224.808	-11.06
225.042	-4.06
225.277	1.94
225.511	-6.06
225.746	-3.06
225.98	5.94
226.215	12.94
226.449	5.94
226.683	20.94
226.918	21.94
227.152	25.94
227.387	37.94
227.621	35.94
227.856	53.94
228.09	51.94
228.324	49.94
228.559	52.94
228.793	69.94
229.027	71.94
229.262	109.94
229.496	117.94
229.73	122.94
229.964	139.94
230.199	124.94
230.433	109.94
230.667	114.94
230.901	110.94
231.136	99.94
231.37	111.94
231.604	102.94
231.838	107.94
232.072	110.94
232.306	102.94
232.541	99.94
232.775	106.94
233.009	119.94
233.243	137.94
233.477	116.94
233.711	118.94
233.945	107.94
234.179	120.94
234.413	117.94
234.647	109.94
234.881	113.94
235.115	117.94
235.349	110.94
235.583	116.94
235.817	112.94
236.051	133.94
236.285	133.94
236.519	119.94
236.753	131.94
236.987	129.94
237.221	170.94
237.455	195.94
237.689	181.94
237.922	135.94
238.156	120.94
238.39	142.94
238.624	133.94
238.858	126.94
239.091	125.94
239.325	130.94
239.559	121.94
239.793	127.94
240.027	130.94
240.26	145.94
240.494	154.94
240.728	153.94
240.961	162.94
241.195	147.94
241.429	135.94
241.662	131.94
241.896	127.94
242.13	123.94
242.363	126.94
242.597	125.94
242.83	141.94
243.064	139.94
243.298	142.94
243.531	136.94
243.765	129.94
243.998	134.94
244.232	152.94
244.465	137.94
244.699	142.94
244.932	151.94
245.166	141.94
245.399	136.94
245.633	147.94
245.866	135.94
246.099	154.94
246.333	143.94
246.566	158.94
246.8	142.94
247.033	167.94
247.266	156.94
247.5	159.94
247.733	170.94
247.966	161.94
248.2	162.94
248.433	165.94
248.666	175.94
248.899	176.94
249.133	190.94
249.366	182.94
249.599	181.94
249.832	174.94
250.066	168.94
250.299	175.94
250.532	183.94
250.765	201.94
250.998	219.94
251.231	220.94
251.465	199.94
251.698	198.94
251.931	190.94
252.164	197.94
252.397	194.94
252.63	192.94
252.863	200.94
253.096	214.94
253.329	213.94
253.562	218.94
253.795	203.94
254.028	218.94
254.261	202.94
254.494	208.94
254.727	249.94
254.96	266.94
255.193	243.94
255.426	230.94
255.659	221.94
255.892	220.94
256.124	219.94
256.357	221.94
256.59	217.94
256.823	215.94
257.056	227.94
257.289	214.94
257.521	203.94
257.754	203.94
257.987	194.94
258.22	199.94
258.452	209.94
258.685	215.94
258.918	219.94
259.151	202.94
259.383	210.94
259.616	202.94
259.849	207.94
260.081	226.94
260.314	241.94
260.547	250.94
260.779	236.94
261.012	230.94
261.244	224.94
261.477	228.94
261.71	202.94
261.942	211.94
262.175	217.94
262.407	214.94
262.64	207.94
262.872	207.94
263.105	215.94
263.337	202.94
263.57	210.94
263.802	214.94
264.035	205.94
264.267	197.94
264.499	215.94
264.732	227.94
264.964	219.94
265.197	220.94
265.429	236.94
265.661	224.94
265.894	212.94
266.126	210.94
266.358	207.94
266.591	218.94
266.823	220.94
267.055	231.94
267.287	233.94
267.52	203.94
267.752	221.94
267.984	232.94
268.216	227.94
268.448	241.94
268.681	214.94
268.913	241.94
269.145	259.94
269.377	260.94
269.609	275.94
269.841	260.94
270.073	279.94
270.306	271.94
270.538	306.94
270.77	284.94
271.002	299.94
271.234	265.94
271.466	299.94
271.698	292.94
271.93	295.94
272.162	303.94
272.394	309.94
272.626	275.94
272.858	268.94
273.09	272.94
273.322	274.94
273.553	268.94
273.785	278.94
274.017	247.94
274.249	271.94
274.481	282.94
274.713	236.94
274.945	268.94
275.176	259.94
275.408	262.94
275.64	246.94
275.872	268.94
276.104	258.94
276.335	262.94
276.567	259.94
276.799	270.94
277.031	285.94
277.262	327.94
277.494	305.94
277.726	311.94
277.957	286.94
278.189	281.94
278.421	302.94
278.652	265.94
278.884	266.94
279.115	264.94
279.347	275.94
279.579	260.94
279.81	270.94
280.042	278.94
280.273	272.94
280.505	264.94
280.736	283.94
280.968	261.94
281.199	272.94
281.431	269.94
281.662	278.94
281.894	281.94
282.125	286.94
282.356	284.94
282.588	296.94
282.819	290.94
283.051	268.94
283.282	276.94
283.513	290.94
283.745	291.94
283.976	279.94
284.207	275.94
284.439	292.94
284.67	297.94
284.901	300.94
285.132	274.94
285.364	284.94
285.595	298.94
285.826	279.94
286.057	285.94
286.288	292.94
286.52	273.94
286.751	295.94
286.982	283.94
287.213	269.94
287.444	302.94
287.675	302.94
287.906	314.94
288.138	311.94
288.369	321.94
288.6	303.94
288.831	310.94
289.062	305.94
289.293	291.94
289.524	310.94
289.755	289.94
289.986	300.94
290.217	279.94
290.448	314.94
290.679	305.94
290.91	305.94
291.141	308.94
291.371	318.94
291.602	298.94
291.833	301.94
292.064	273.94
292.295	313.94
292.526	299.94
292.757	284.94
292.987	301.94
293.218	314.94
293.449	301.94
293.68	299.94
293.91	290.94
294.141	305.94
294.372	291.94
294.603	309.94
294.833	300.94
295.064	284.94
295.295	294.94
295.525	313.94
295.756	318.94
295.987	306.94
296.217	321.94
296.448	320.94
296.679	327.94
296.909	300.94
297.14	309.94
297.37	311.94
297.601	329.94
297.831	324.94
298.062	287.94
298.292	317.94
298.523	328.94
298.753	315.94
298.984	303.94
299.214	337.94
299.445	301.94
299.675	321.94
299.905	326.94
300.136	326.94
300.366	309.94
300.597	321.94
300.827	334.94
301.057	344.94
301.288	340.94
301.518	338.94
301.748	328.94
301.979	341.94
302.209	317.94
302.439	343.94
302.669	337.94
302.9	330.94
303.13	336.94
303.36	350.94
303.59	360.94
303.82	356.94
304.051	348.94
304.281	340.94
304.511	335.94
304.741	335.94
304.971	343.94
305.201	345.94
305.431	347.94
305.661	352.94
305.891	321.94
306.121	338.94
306.352	325.94
306.582	327.94
306.812	313.94
307.042	327.94
307.272	333.94
307.502	335.94
307.731	358.94
307.961	344.94
308.191	317.94
308.421	345.94
308.651	347.94
308.881	325.94
309.111	355.94
309.341	357.94
309.571	358.94
309.8	363.94
310.03	354.94
310.26	370.94
310.49	352.94
310.72	374.94
310.949	381.94
311.179	388.94
311.409	370.94
311.639	371.94
311.868	380.94
312.098	381.94
312.328	369.94
312.557	365.94
312.787	360.94
313.017	405.94
313.246	389.94
313.476	381.94
313.706	366.94
313.935	387.94
314.165	378.94
314.394	390.94
314.624	386.94
314.853	372.94
315.083	383.94
315.312	392.94
315.542	375.94
315.771	362.94
316.001	373.94
316.23	360.94
316.46	362.94
316.689	363.94
316.919	376.94
317.148	386.94
317.377	381.94
317.607	351.94
317.836	381.94
318.065	351.94
318.295	365.94
318.524	383.94
318.753	346.94
318.983	379.94
319.212	402.94
319.441	382.94
319.67	356.94
319.9	356.94
320.129	382.94
320.358	389.94
320.587	379.94
320.816	388.94
321.046	387.94
321.275	389.94
321.504	395.94
321.733	399.94
321.962	384.94
322.191	405.94
322.42	412.94
322.649	403.94
322.878	415.94
323.108	418.94
323.337	422.94
323.566	454.94
323.795	463.94
324.024	491.94
324.253	590.94
324.482	772.94
324.71	1161.94
324.939	1682.94
325.168	1499.94
325.397	749.94
325.626	572.94
325.855	477.94
326.084	456.94
326.313	437.94
326.542	457.94
326.77	492.94
326.999	569.94
327.228	718.94
327.457	1031.94
327.686	1271.94
327.914	861.94
328.143	575.94
328.372	553.94
328.6	511.94
328.829	488.94
329.058	518.94
329.287	499.94
329.515	494.94
329.744	467.94
329.972	453.94
330.201	485.94
330.43	491.94
330.658	503.94
330.887	541.94
331.115	535.94
331.344	482.94
331.572	479.94
331.801	477.94
332.03	438.94
332.258	463.94
332.486	455.94
332.715	431.94
332.943	459.94
333.172	467.94
333.4	461.94
333.629	463.94
333.857	485.94
334.085	464.94
334.314	490.94
334.542	485.94
334.771	505.94
334.999	476.94
335.227	470.94
335.455	462.94
335.684	453.94
335.912	458.94
336.14	449.94
336.369	443.94
336.597	479.94
336.825	457.94
337.053	463.94
337.281	417.94
337.51	428.94
337.738	436.94
337.966	441.94
338.194	443.94
338.422	419.94
338.65	428.94
338.878	426.94
339.106	433.94
339.334	419.94
339.562	435.94
339.79	412.94
340.018	427.94
340.246	437.94
340.474	435.94
340.702	452.94
340.93	437.94
341.158	431.94
341.386	422.94
341.614	426.94
341.842	430.94
342.07	435.94
342.298	424.94
342.526	420.94
342.754	429.94
342.981	418.94
343.209	438.94
343.437	446.94
343.665	447.94
343.893	428.94
344.12	460.94
344.348	450.94
344.576	443.94
344.804	462.94
345.031	422.94
345.259	460.94
345.487	434.94
345.714	413.94
345.942	397.94
346.17	402.94
346.397	417.94
346.625	412.94
346.853	424.94
347.08	399.94
347.308	393.94
347.535	408.94
347.763	413.94
347.99	440.94
348.218	397.94
348.445	418.94
348.673	420.94
348.9	418.94
349.128	398.94
349.355	401.94
349.583	398.94
349.81	389.94
350.037	414.94
350.265	398.94
350.492	400.94
350.72	414.94
350.947	409.94
351.174	397.94
351.402	429.94
351.629	411.94
351.856	400.94
352.083	410.94
352.311	419.94
352.538	423.94
352.765	416.94
352.992	425.94
353.22	404.94
353.447	423.94
353.674	403.94
353.901	403.94
354.128	410.94
354.355	398.94
354.583	393.94
354.81	381.94
355.037	393.94
355.264	385.94
355.491	380.94
355.718	372.94
355.945	365.94
356.172	383.94
356.399	389.94
356.626	389.94
356.853	384.94
357.08	377.94
357.307	395.94
357.534	377.94
357.761	366.94
357.988	379.94
358.215	394.94
358.441	380.94
358.668	366.94
358.895	406.94
359.122	366.94
359.349	399.94
359.576	412.94
359.802	408.94
360.029	453.94
360.256	452.94
360.483	423.94
360.709	397.94
360.936	422.94
361.163	402.94
361.39	400.94
361.616	414.94
361.843	391.94
362.07	402.94
362.296	411.94
362.523	403.94
362.749	413.94
362.976	416.94
363.203	387.94
363.429	396.94
363.656	398.94
363.882	394.94
364.109	397.94
364.335	397.94
364.562	407.94
364.788	394.94
365.015	391.94
365.241	393.94
365.468	395.94
365.694	396.94
365.92	389.94
366.147	394.94
366.373	391.94
366.599	395.94
366.826	396.94
367.052	382.94
367.278	412.94
367.505	391.94
367.731	387.94
367.957	404.94
368.184	408.94
368.41	404.94
368.636	406.94
368.862	416.94
369.089	411.94
369.315	405.94
369.541	417.94
369.767	385.94
369.993	410.94
370.219	397.94
370.445	411.94
370.672	402.94
370.898	412.94
371.124	383.94
371.35	398.94
371.576	375.94
371.802	381.94
372.028	390.94
372.254	413.94
372.48	401.94
372.706	411.94
372.932	407.94
373.158	409.94
373.384	410.94
373.61	410.94
373.835	403.94
374.061	412.94
374.287	404.94
374.513	405.94
374.739	408.94
374.965	419.94
375.191	424.94
375.416	417.94
375.642	408.94
375.868	405.94
376.094	387.94
376.319	383.94
376.545	395.94
376.771	407.94
376.997	393.94
377.222	399.94
377.448	410.94
377.674	400.94
377.899	400.94
378.125	417.94
378.35	388.94
378.576	385.94
378.802	396.94
379.027	415.94
379.253	390.94
379.478	394.94
379.704	409.94
379.929	409.94
380.155	400.94
380.38	430.94
380.606	415.94
380.831	390.94
381.057	411.94
381.282	400.94
381.507	411.94
381.733	406.94
381.958	381.94
382.184	388.94
382.409	407.94
382.634	405.94
382.86	403.94
383.085	418.94
383.31	426.94
383.535	413.94
383.761	437.94
383.986	420.94
384.211	433.94
384.436	430.94
384.662	449.94
384.887	435.94
385.112	455.94
385.337	428.94
385.562	437.94
385.787	433.94
386.013	455.94
386.238	440.94
386.463	433.94
386.688	456.94
386.913	450.94
387.138	458.94
387.363	463.94
387.588	443.94
387.813	451.94
388.038	454.94
388.263	450.94
388.488	470.94
388.713	433.94
388.938	472.94
389.163	436.94
389.387	465.94
389.612	457.94
389.837	445.94
390.062	450.94
390.287	443.94
390.512	451.94
390.736	465.94
390.961	442.94
391.186	426.94
391.411	441.94
391.636	448.94
391.86	490.94
392.085	469.94
392.31	462.94
392.534	442.94
392.759	441.94
392.984	449.94
393.208	472.94
393.433	450.94
393.658	453.94
393.882	448.94
394.107	453.94
394.331	461.94
394.556	430.94
394.78	460.94
395.005	466.94
395.229	446.94
395.454	491.94
395.678	455.94
395.903	482.94
396.127	501.94
396.352	491.94
396.576	477.94
396.801	470.94
397.025	464.94
397.249	473.94
397.474	491.94
397.698	491.94
397.922	480.94
398.147	506.94
398.371	506.94
398.595	524.94
398.82	543.94
399.044	549.94
399.268	563.94
399.492	581.94
399.717	628.94
399.941	663.94
400.165	666.94
400.389	649.94
400.613	617.94
400.837	537.94
401.062	524.94
401.286	532.94
401.51	534.94
401.734	529.94
401.958	532.94
402.182	539.94
402.406	526.94
402.63	528.94
402.854	551.94
403.078	529.94
403.302	567.94
403.526	554.94
403.75	541.94
403.974	581.94
404.198	547.94
404.422	575.94
404.645	546.94
404.869	552.94
405.093	575.94
405.317	633.94
405.541	643.94
405.765	574.94
405.988	580.94
406.212	577.94
406.436	597.94
406.66	597.94
406.883	575.94
407.107	606.94
407.331	645.94
407.555	689.94
407.778	714.94
408.002	646.94
408.226	622.94
408.449	607.94
408.673	607.94
408.896	606.94
409.12	651.94
409.344	627.94
409.567	577.94
409.791	551.94
410.014	537.94
410.238	526.94
410.461	549.94
410.685	565.94
410.908	579.94
411.132	592.94
411.355	612.94
411.578	591.94
411.802	550.94
412.025	526.94
412.249	563.94
412.472	552.94
412.695	574.94
412.919	587.94
413.142	547.94
413.365	540.94
413.589	519.94
413.812	533.94
414.035	506.94
414.258	523.94
414.482	520.94
414.705	512.94
414.928	500.94
415.151	491.94
415.374	517.94
415.597	523.94
415.821	493.94
416.044	493.94
416.267	513.94
416.49	525.94
416.713	520.94
416.936	505.94
417.159	502.94
417.382	526.94
417.605	529.94
417.828	524.94
418.051	541.94
418.274	532.94
418.497	511.94
418.72	489.94
418.943	481.94
419.166	534.94
419.389	569.94
419.611	580.94
419.834	542.94
420.057	535.94
420.28	538.94
420.503	527.94
420.726	515.94
420.948	522.94
421.171	595.94
421.394	612.94
421.617	563.94
421.839	541.94
422.062	532.94
422.285	566.94
422.507	619.94
422.73	675.94
422.953	638.94
423.175	573.94
423.398	547.94
423.621	567.94
423.843	589.94
424.066	560.94
424.288	547.94
424.511	571.94
424.733	621.94
424.956	673.94
425.178	689.94
425.401	690.94
425.623	702.94
425.846	611.94
426.068	571.94
426.291	545.94
426.513	565.94
426.735	561.94
426.958	600.94
427.18	671.94
427.402	795.94
427.625	853.94
427.847	744.94
428.069	641.94
428.292	606.94
428.514	541.94
428.736	522.94
428.958	491.94
429.181	492.94
429.403	516.94
429.625	534.94
429.847	554.94
430.069	619.94
430.292	608.94
430.514	520.94
430.736	521.94
430.958	519.94
431.18	496.94
431.402	496.94
431.624	491.94
431.846	494.94
432.068	494.94
432.29	498.94
432.512	483.94
432.734	493.94
432.956	495.94
433.178	529.94
433.4	497.94
433.622	502.94
433.844	494.94
434.066	491.94
434.287	486.94
434.509	514.94
434.731	531.94
434.953	526.94
435.175	524.94
435.397	563.94
435.618	544.94
435.84	595.94
436.062	677.94
436.284	756.94
436.505	606.94
436.727	563.94
436.949	540.94
437.17	531.94
437.392	529.94
437.614	544.94
437.835	528.94
438.057	639.94
438.278	743.94
438.5	735.94
438.721	809.94
438.943	748.94
439.165	593.94
439.386	570.94
439.608	561.94
439.829	541.94
440.05	589.94
440.272	613.94
440.493	587.94
440.715	538.94
440.936	518.94
441.158	507.94
441.379	533.94
441.6	526.94
441.822	529.94
442.043	573.94
442.264	666.94
442.486	713.94
442.707	606.94
442.928	573.94
443.149	563.94
443.371	570.94
443.592	635.94
443.813	718.94
444.034	783.94
444.255	646.94
444.476	610.94
444.698	591.94
444.919	582.94
445.14	722.94
445.361	631.94
445.582	620.94
445.803	661.94
446.024	762.94
446.245	761.94
446.466	701.94
446.687	587.94
446.908	551.94
447.129	535.94
447.35	502.94
447.571	516.94
447.792	519.94
448.013	489.94
448.234	537.94
448.455	550.94
448.675	675.94
448.896	760.94
449.117	633.94
449.338	629.94
449.559	715.94
449.779	841.94
450	653.94
450.221	537.94
450.442	500.94
450.662	469.94
450.883	499.94
451.104	520.94
451.324	478.94
451.545	487.94
451.766	473.94
451.986	450.94
452.207	453.94
452.428	443.94
452.648	422.94
452.869	460.94
453.089	454.94
453.31	491.94
453.53	455.94
453.751	474.94
453.971	496.94
454.192	473.94
454.412	454.94
454.633	432.94
454.853	440.94
455.073	442.94
455.294	458.94
455.514	530.94
455.734	523.94
455.955	450.94
456.175	431.94
456.395	433.94
456.616	428.94
456.836	418.94
457.056	420.94
457.276	419.94
457.497	423.94
457.717	418.94
457.937	449.94
458.157	435.94
458.377	441.94
458.598	470.94
458.818	503.94
459.038	542.94
459.258	584.94
459.478	515.94
459.698	485.94
459.918	491.94
460.138	506.94
460.358	515.94
460.578	507.94
460.798	511.94
461.018	523.94
461.238	514.94
461.458	503.94
461.678	491.94
461.898	521.94
462.118	528.94
462.338	542.94
462.558	528.94
462.777	523.94
462.997	573.94
463.217	575.94
463.437	593.94
463.657	572.94
463.876	577.94
464.096	569.94
464.316	568.94
464.536	555.94
464.755	557.94
464.975	556.94
465.195	571.94
465.414	601.94
465.634	567.94
465.854	517.94
466.073	498.94
466.293	483.94
466.512	463.94
466.732	485.94
466.951	476.94
467.171	468.94
467.391	509.94
467.61	486.94
467.829	459.94
468.049	468.94
468.268	460.94
468.488	459.94
468.707	467.94
468.927	475.94
469.146	465.94
469.365	466.94
469.585	453.94
469.804	460.94
470.023	480.94
470.243	491.94
470.462	461.94
470.681	488.94
470.901	482.94
471.12	478.94
471.339	490.94
471.558	468.94
471.777	482.94
471.997	463.94
472.216	481.94
472.435	474.94
472.654	498.94
472.873	475.94
473.092	464.94
473.311	500.94
473.53	485.94
473.749	468.94
473.968	497.94
474.187	612.94
474.406	629.94
474.625	523.94
474.844	499.94
475.063	478.94
475.282	480.94
475.501	465.94
475.72	488.94
475.939	477.94
476.158	462.94
476.377	511.94
476.596	488.94
476.814	488.94
477.033	502.94
477.252	494.94
477.471	519.94
477.69	527.94
477.908	519.94
478.127	519.94
478.346	527.94
478.564	522.94
478.783	530.94
479.002	543.94
479.22	561.94
479.439	537.94
479.658	552.94
479.876	558.94
480.095	583.94
480.313	598.94
480.532	614.94
480.751	589.94
480.969	599.94
481.188	617.94
481.406	632.94
481.624	591.94
481.843	573.94
482.061	545.94
482.28	546.94
482.498	526.94
482.717	538.94
482.935	558.94
483.153	551.94
483.372	539.94
483.59	546.94
483.808	550.94
484.027	563.94
484.245	540.94
484.463	571.94
484.681	545.94
484.9	559.94
485.118	563.94
485.336	558.94
485.554	579.94
485.772	553.94
485.99	579.94
486.209	551.94
486.427	580.94
486.645	563.94
486.863	577.94
487.081	580.94
487.299	600.94
487.517	593.94
487.735	595.94
487.953	591.94
488.171	567.94
488.389	574.94
488.607	597.94
488.825	595.94
489.043	590.94
489.261	603.94
489.479	574.94
489.696	600.94
489.914	586.94
490.132	596.94
490.35	620.94
490.568	616.94
490.786	628.94
491.003	626.94
491.221	633.94
491.439	639.94
491.657	647.94
491.874	690.94
492.092	658.94
492.31	698.94
492.527	692.94
492.745	667.94
492.963	659.94
493.18	668.94
493.398	719.94
493.615	708.94
493.833	731.94
494.05	705.94
494.268	705.94
494.485	648.94
494.703	681.94
494.92	695.94
495.138	691.94
495.355	705.94
495.573	697.94
495.79	664.94
496.008	695.94
496.225	677.94
496.442	702.94
496.66	705.94
496.877	694.94
497.094	711.94
497.312	713.94
497.529	729.94
497.746	729.94
497.963	756.94
498.181	773.94
498.398	768.94
498.615	783.94
498.832	819.94
499.049	861.94
499.267	860.94
499.484	906.94
499.701	953.94
499.918	996.94
500.135	1057.94
500.352	1133.94
500.569	1115.94
500.786	1159.94
501.003	1119.94
501.22	1042.94
501.437	1004.94
501.654	956.94
