Data from 1976.PennyLincolnUp.Lamp.En5.5.200Scan.071719.P1.Changed Mount._HRD10591_16-00-29-861.txt Node
Date: Thu Jul 18 16:00:29 EDT 2019
User: cochatt
Spectrometer: HR+D1059
Trigger mode: 1
Integration Time (sec): 1.000000E-1
Scans to average: 1
Electric dark correction enabled: true
Nonlinearity correction enabled: false
Boxcar width: 0
XAxis mode: Wavelengths
Number of Pixels in Spectrum: 2048
>>>>>Begin Spectral Data<<<<<
223.165	-27.25
223.4	-27.25
223.635	-27.25
223.869	-17.25
224.104	-19.25
224.338	-4.25
224.573	-23.25
224.808	-24.25
225.042	1.75
225.277	-1.25
225.511	8.75
225.746	-3.25
225.98	9.75
226.215	7.75
226.449	3.75
226.683	27.75
226.918	24.75
227.152	35.75
227.387	35.75
227.621	43.75
227.856	58.75
228.09	48.75
228.324	51.75
228.559	57.75
228.793	68.75
229.027	101.75
229.262	109.75
229.496	107.75
229.73	125.75
229.964	155.75
230.199	120.75
230.433	102.75
230.667	116.75
230.901	111.75
231.136	103.75
231.37	99.75
231.604	110.75
231.838	121.75
232.072	105.75
232.306	115.75
232.541	105.75
232.775	104.75
233.009	117.75
233.243	125.75
233.477	110.75
233.711	131.75
233.945	115.75
234.179	127.75
234.413	126.75
234.647	118.75
234.881	126.75
235.115	119.75
235.349	126.75
235.583	122.75
235.817	127.75
236.051	122.75
236.285	136.75
236.519	133.75
236.753	125.75
236.987	162.75
237.221	182.75
237.455	209.75
237.689	183.75
237.922	144.75
238.156	123.75
238.39	149.75
238.624	139.75
238.858	142.75
239.091	128.75
239.325	133.75
239.559	115.75
239.793	133.75
240.027	137.75
240.26	138.75
240.494	169.75
240.728	167.75
240.961	147.75
241.195	160.75
241.429	144.75
241.662	155.75
241.896	153.75
242.13	146.75
242.363	139.75
242.597	139.75
242.83	149.75
243.064	144.75
243.298	159.75
243.531	140.75
243.765	139.75
243.998	138.75
244.232	146.75
244.465	137.75
244.699	156.75
244.932	148.75
245.166	141.75
245.399	149.75
245.633	151.75
245.866	156.75
246.099	143.75
246.333	160.75
246.566	169.75
246.8	138.75
247.033	154.75
247.266	166.75
247.5	161.75
247.733	175.75
247.966	153.75
248.2	171.75
248.433	180.75
248.666	188.75
248.899	175.75
249.133	198.75
249.366	181.75
249.599	205.75
249.832	191.75
250.066	194.75
250.299	196.75
250.532	187.75
250.765	214.75
250.998	230.75
251.231	235.75
251.465	201.75
251.698	219.75
251.931	203.75
252.164	206.75
252.397	208.75
252.63	222.75
252.863	185.75
253.096	220.75
253.329	230.75
253.562	216.75
253.795	218.75
254.028	222.75
254.261	223.75
254.494	231.75
254.727	261.75
254.96	278.75
255.193	249.75
255.426	245.75
255.659	249.75
255.892	239.75
256.124	217.75
256.357	237.75
256.59	246.75
256.823	215.75
257.056	215.75
257.289	217.75
257.521	225.75
257.754	232.75
257.987	211.75
258.22	198.75
258.452	213.75
258.685	223.75
258.918	222.75
259.151	221.75
259.383	215.75
259.616	224.75
259.849	234.75
260.081	241.75
260.314	255.75
260.547	265.75
260.779	264.75
261.012	233.75
261.244	245.75
261.477	233.75
261.71	234.75
261.942	241.75
262.175	252.75
262.407	221.75
262.64	216.75
262.872	219.75
263.105	220.75
263.337	227.75
263.57	214.75
263.802	221.75
264.035	220.75
264.267	240.75
264.499	209.75
264.732	207.75
264.964	219.75
265.197	223.75
265.429	222.75
265.661	239.75
265.894	212.75
266.126	253.75
266.358	221.75
266.591	225.75
266.823	232.75
267.055	237.75
267.287	245.75
267.52	245.75
267.752	231.75
267.984	214.75
268.216	237.75
268.448	241.75
268.681	251.75
268.913	252.75
269.145	305.75
269.377	291.75
269.609	284.75
269.841	277.75
270.073	291.75
270.306	300.75
270.538	328.75
270.77	329.75
271.002	317.75
271.234	307.75
271.466	315.75
271.698	315.75
271.93	322.75
272.162	317.75
272.394	323.75
272.626	321.75
272.858	301.75
273.09	292.75
273.322	299.75
273.553	285.75
273.785	288.75
274.017	269.75
274.249	293.75
274.481	269.75
274.713	260.75
274.945	279.75
275.176	287.75
275.408	276.75
275.64	281.75
275.872	273.75
276.104	286.75
276.335	287.75
276.567	287.75
276.799	327.75
277.031	303.75
277.262	319.75
277.494	331.75
277.726	331.75
277.957	292.75
278.189	291.75
278.421	292.75
278.652	281.75
278.884	297.75
279.115	305.75
279.347	281.75
279.579	294.75
279.81	287.75
280.042	282.75
280.273	294.75
280.505	289.75
280.736	277.75
280.968	290.75
281.199	286.75
281.431	279.75
281.662	293.75
281.894	309.75
282.125	280.75
282.356	320.75
282.588	315.75
282.819	340.75
283.051	316.75
283.282	292.75
283.513	282.75
283.745	282.75
283.976	294.75
284.207	309.75
284.439	311.75
284.67	299.75
284.901	296.75
285.132	307.75
285.364	281.75
285.595	303.75
285.826	293.75
286.057	304.75
286.288	319.75
286.52	319.75
286.751	319.75
286.982	307.75
287.213	300.75
287.444	295.75
287.675	318.75
287.906	325.75
288.138	318.75
288.369	315.75
288.6	331.75
288.831	315.75
289.062	314.75
289.293	335.75
289.524	311.75
289.755	327.75
289.986	313.75
290.217	305.75
290.448	318.75
290.679	301.75
290.91	306.75
291.141	320.75
291.371	307.75
291.602	301.75
291.833	302.75
292.064	308.75
292.295	321.75
292.526	312.75
292.757	316.75
292.987	328.75
293.218	314.75
293.449	295.75
293.68	308.75
293.91	311.75
294.141	312.75
294.372	293.75
294.603	309.75
294.833	301.75
295.064	322.75
295.295	304.75
295.525	307.75
295.756	330.75
295.987	322.75
296.217	325.75
296.448	345.75
296.679	343.75
296.909	308.75
297.14	311.75
297.37	332.75
297.601	351.75
297.831	319.75
298.062	324.75
298.292	331.75
298.523	345.75
298.753	349.75
298.984	349.75
299.214	334.75
299.445	332.75
299.675	340.75
299.905	347.75
300.136	332.75
300.366	340.75
300.597	320.75
300.827	352.75
301.057	366.75
301.288	365.75
301.518	351.75
301.748	341.75
301.979	345.75
302.209	358.75
302.439	351.75
302.669	345.75
302.9	347.75
303.13	366.75
303.36	359.75
303.59	376.75
303.82	371.75
304.051	346.75
304.281	341.75
304.511	345.75
304.741	350.75
304.971	364.75
305.201	359.75
305.431	366.75
305.661	362.75
305.891	354.75
306.121	350.75
306.352	374.75
306.582	348.75
306.812	351.75
307.042	352.75
307.272	381.75
307.502	368.75
307.731	358.75
307.961	349.75
308.191	348.75
308.421	352.75
308.651	342.75
308.881	348.75
309.111	364.75
309.341	356.75
309.571	359.75
309.8	398.75
310.03	403.75
310.26	405.75
310.49	378.75
310.72	383.75
310.949	419.75
311.179	407.75
311.409	385.75
311.639	391.75
311.868	384.75
312.098	394.75
312.328	392.75
312.557	399.75
312.787	415.75
313.017	411.75
313.246	417.75
313.476	398.75
313.706	387.75
313.935	385.75
314.165	402.75
314.394	405.75
314.624	413.75
314.853	416.75
315.083	388.75
315.312	397.75
315.542	395.75
315.771	380.75
316.001	371.75
316.23	411.75
316.46	414.75
316.689	392.75
316.919	405.75
317.148	407.75
317.377	414.75
317.607	407.75
317.836	404.75
318.065	395.75
318.295	413.75
318.524	394.75
318.753	409.75
318.983	405.75
319.212	377.75
319.441	419.75
319.67	417.75
319.9	413.75
320.129	400.75
320.358	427.75
320.587	392.75
320.816	401.75
321.046	405.75
321.275	408.75
321.504	416.75
321.733	417.75
321.962	426.75
322.191	411.75
322.42	428.75
322.649	445.75
322.878	448.75
323.108	473.75
323.337	483.75
323.566	489.75
323.795	527.75
324.024	547.75
324.253	612.75
324.482	879.75
324.71	1285.75
324.939	1932.75
325.168	1692.75
325.397	863.75
325.626	602.75
325.855	540.75
326.084	481.75
326.313	478.75
326.542	495.75
326.77	532.75
326.999	603.75
327.228	793.75
327.457	1190.75
327.686	1432.75
327.914	967.75
328.143	655.75
328.372	584.75
328.6	545.75
328.829	526.75
329.058	578.75
329.287	550.75
329.515	526.75
329.744	511.75
329.972	513.75
330.201	508.75
330.43	561.75
330.658	588.75
330.887	592.75
331.115	549.75
331.344	500.75
331.572	499.75
331.801	499.75
332.03	520.75
332.258	495.75
332.486	479.75
332.715	484.75
332.943	474.75
333.172	489.75
333.4	495.75
333.629	510.75
333.857	528.75
334.085	519.75
334.314	542.75
334.542	551.75
334.771	572.75
334.999	515.75
335.227	522.75
335.455	516.75
335.684	466.75
335.912	476.75
336.14	458.75
336.369	454.75
336.597	487.75
336.825	478.75
337.053	485.75
337.281	473.75
337.51	444.75
337.738	479.75
337.966	483.75
338.194	487.75
338.422	480.75
338.65	492.75
338.878	479.75
339.106	441.75
339.334	471.75
339.562	448.75
339.79	459.75
340.018	462.75
340.246	457.75
340.474	480.75
340.702	457.75
340.93	451.75
341.158	452.75
341.386	475.75
341.614	459.75
341.842	459.75
342.07	463.75
342.298	453.75
342.526	451.75
342.754	440.75
342.981	450.75
343.209	437.75
343.437	460.75
343.665	447.75
343.893	474.75
344.12	477.75
344.348	513.75
344.576	467.75
344.804	467.75
345.031	470.75
345.259	477.75
345.487	465.75
345.714	451.75
345.942	455.75
346.17	438.75
346.397	425.75
346.625	429.75
346.853	448.75
347.08	448.75
347.308	424.75
347.535	431.75
347.763	451.75
347.99	453.75
348.218	438.75
348.445	436.75
348.673	458.75
348.9	455.75
349.128	432.75
349.355	429.75
349.583	410.75
349.81	404.75
350.037	423.75
350.265	425.75
350.492	413.75
350.72	416.75
350.947	417.75
351.174	447.75
351.402	451.75
351.629	447.75
351.856	428.75
352.083	429.75
352.311	432.75
352.538	446.75
352.765	430.75
352.992	448.75
353.22	441.75
353.447	433.75
353.674	441.75
353.901	429.75
354.128	400.75
354.355	423.75
354.583	408.75
354.81	437.75
355.037	432.75
355.264	413.75
355.491	419.75
355.718	405.75
355.945	412.75
356.172	417.75
356.399	421.75
356.626	390.75
356.853	411.75
357.08	386.75
357.307	435.75
357.534	405.75
357.761	429.75
357.988	425.75
358.215	398.75
358.441	425.75
358.668	411.75
358.895	417.75
359.122	420.75
359.349	443.75
359.576	437.75
359.802	433.75
360.029	483.75
360.256	469.75
360.483	463.75
360.709	436.75
360.936	436.75
361.163	430.75
361.39	432.75
361.616	444.75
361.843	452.75
362.07	452.75
362.296	440.75
362.523	412.75
362.749	421.75
362.976	408.75
363.203	418.75
363.429	426.75
363.656	437.75
363.882	422.75
364.109	442.75
364.335	421.75
364.562	416.75
364.788	432.75
365.015	420.75
365.241	413.75
365.468	424.75
365.694	455.75
365.92	433.75
366.147	422.75
366.373	444.75
366.599	419.75
366.826	411.75
367.052	411.75
367.278	436.75
367.505	411.75
367.731	424.75
367.957	421.75
368.184	439.75
368.41	419.75
368.636	430.75
368.862	446.75
369.089	427.75
369.315	421.75
369.541	425.75
369.767	417.75
369.993	426.75
370.219	426.75
370.445	409.75
370.672	423.75
370.898	408.75
371.124	427.75
371.35	431.75
371.576	438.75
371.802	430.75
372.028	423.75
372.254	423.75
372.48	407.75
372.706	443.75
372.932	417.75
373.158	439.75
373.384	427.75
373.61	438.75
373.835	424.75
374.061	420.75
374.287	435.75
374.513	440.75
374.739	421.75
374.965	431.75
375.191	452.75
375.416	448.75
375.642	407.75
375.868	444.75
376.094	432.75
376.319	427.75
376.545	421.75
376.771	430.75
376.997	430.75
377.222	427.75
377.448	430.75
377.674	429.75
377.899	423.75
378.125	428.75
378.35	421.75
378.576	434.75
378.802	413.75
379.027	421.75
379.253	439.75
379.478	423.75
379.704	437.75
379.929	419.75
380.155	430.75
380.38	425.75
380.606	418.75
380.831	424.75
381.057	443.75
381.282	436.75
381.507	430.75
381.733	415.75
381.958	432.75
382.184	429.75
382.409	423.75
382.634	425.75
382.86	417.75
383.085	445.75
383.31	437.75
383.535	428.75
383.761	448.75
383.986	465.75
384.211	446.75
384.436	440.75
384.662	461.75
384.887	465.75
385.112	468.75
385.337	473.75
385.562	462.75
385.787	480.75
386.013	505.75
386.238	498.75
386.463	454.75
386.688	489.75
386.913	467.75
387.138	484.75
387.363	473.75
387.588	458.75
387.813	480.75
388.038	483.75
388.263	494.75
388.488	473.75
388.713	470.75
388.938	455.75
389.163	479.75
389.387	492.75
389.612	471.75
389.837	483.75
390.062	480.75
390.287	468.75
390.512	456.75
390.736	483.75
390.961	475.75
391.186	462.75
391.411	489.75
391.636	488.75
391.86	499.75
392.085	485.75
392.31	504.75
392.534	492.75
392.759	507.75
392.984	491.75
393.208	484.75
393.433	492.75
393.658	484.75
393.882	482.75
394.107	492.75
394.331	497.75
394.556	489.75
394.78	478.75
395.005	501.75
395.229	495.75
395.454	503.75
395.678	493.75
395.903	495.75
396.127	529.75
396.352	520.75
396.576	517.75
396.801	494.75
397.025	513.75
397.249	491.75
397.474	523.75
397.698	519.75
397.922	524.75
398.147	531.75
398.371	555.75
398.595	544.75
398.82	547.75
399.044	574.75
399.268	617.75
399.492	613.75
399.717	679.75
399.941	711.75
400.165	676.75
400.389	712.75
400.613	653.75
400.837	600.75
401.062	554.75
401.286	543.75
401.51	569.75
401.734	555.75
401.958	547.75
402.182	609.75
402.406	557.75
402.63	554.75
402.854	553.75
403.078	581.75
403.302	579.75
403.526	590.75
403.75	587.75
403.974	566.75
404.198	563.75
404.422	568.75
404.645	601.75
404.869	617.75
405.093	618.75
405.317	650.75
405.541	696.75
405.765	631.75
405.988	597.75
406.212	623.75
406.436	638.75
406.66	633.75
406.883	623.75
407.107	643.75
407.331	706.75
407.555	747.75
407.778	773.75
408.002	680.75
408.226	625.75
408.449	629.75
408.673	623.75
408.896	661.75
409.12	703.75
409.344	673.75
409.567	625.75
409.791	596.75
410.014	575.75
410.238	577.75
410.461	599.75
410.685	581.75
410.908	591.75
411.132	630.75
411.355	641.75
411.578	629.75
411.802	579.75
412.025	561.75
412.249	587.75
412.472	619.75
412.695	635.75
412.919	611.75
413.142	599.75
413.365	578.75
413.589	567.75
413.812	549.75
414.035	537.75
414.258	544.75
414.482	552.75
414.705	545.75
414.928	556.75
415.151	527.75
415.374	542.75
415.597	541.75
415.821	544.75
416.044	540.75
416.267	538.75
416.49	543.75
416.713	545.75
416.936	527.75
417.159	537.75
417.382	540.75
417.605	537.75
417.828	547.75
418.051	573.75
418.274	541.75
418.497	534.75
418.72	534.75
418.943	520.75
419.166	569.75
419.389	591.75
419.611	590.75
419.834	581.75
420.057	589.75
420.28	568.75
420.503	571.75
420.726	579.75
420.948	582.75
421.171	620.75
421.394	673.75
421.617	565.75
421.839	570.75
422.062	560.75
422.285	572.75
422.507	659.75
422.73	711.75
422.953	705.75
423.175	604.75
423.398	613.75
423.621	599.75
423.843	602.75
424.066	622.75
424.288	581.75
424.511	622.75
424.733	661.75
424.956	735.75
425.178	711.75
425.401	693.75
425.623	740.75
425.846	639.75
426.068	601.75
426.291	588.75
426.513	611.75
426.735	590.75
426.958	653.75
427.18	715.75
427.402	843.75
427.625	911.75
427.847	773.75
428.069	687.75
428.292	636.75
428.514	586.75
428.736	581.75
428.958	549.75
429.181	523.75
429.403	546.75
429.625	567.75
429.847	599.75
430.069	640.75
430.292	653.75
430.514	557.75
430.736	534.75
430.958	525.75
431.18	523.75
431.402	519.75
431.624	521.75
431.846	501.75
432.068	522.75
432.29	520.75
432.512	552.75
432.734	561.75
432.956	544.75
433.178	534.75
433.4	546.75
433.622	530.75
433.844	517.75
434.066	503.75
434.287	507.75
434.509	516.75
434.731	555.75
434.953	557.75
435.175	583.75
435.397	594.75
435.618	613.75
435.84	649.75
436.062	711.75
436.284	775.75
436.505	665.75
436.727	588.75
436.949	565.75
437.17	581.75
437.392	537.75
437.614	550.75
437.835	593.75
438.057	690.75
438.278	794.75
438.5	781.75
438.721	851.75
438.943	826.75
439.165	644.75
439.386	607.75
439.608	578.75
439.829	615.75
440.05	631.75
440.272	639.75
440.493	644.75
440.715	566.75
440.936	584.75
441.158	554.75
441.379	537.75
441.6	569.75
441.822	596.75
442.043	633.75
442.264	701.75
442.486	779.75
442.707	663.75
442.928	616.75
443.149	613.75
443.371	638.75
443.592	663.75
443.813	783.75
444.034	821.75
444.255	711.75
444.476	618.75
444.698	619.75
444.919	630.75
445.14	743.75
445.361	663.75
445.582	648.75
445.803	693.75
446.024	819.75
446.245	790.75
446.466	710.75
446.687	637.75
446.908	591.75
447.129	560.75
447.35	546.75
447.571	538.75
447.792	527.75
448.013	537.75
448.234	554.75
448.455	607.75
448.675	704.75
448.896	840.75
449.117	718.75
449.338	687.75
449.559	776.75
449.779	892.75
450	706.75
450.221	571.75
450.442	539.75
450.662	547.75
450.883	534.75
451.104	522.75
451.324	542.75
451.545	526.75
451.766	501.75
451.986	470.75
452.207	484.75
452.428	492.75
452.648	481.75
452.869	483.75
453.089	488.75
453.31	509.75
453.53	503.75
453.751	487.75
453.971	482.75
454.192	495.75
454.412	479.75
454.633	468.75
454.853	476.75
455.073	461.75
455.294	505.75
455.514	565.75
455.734	546.75
455.955	477.75
456.175	462.75
456.395	443.75
456.616	446.75
456.836	445.75
457.056	458.75
457.276	443.75
457.497	442.75
457.717	453.75
457.937	458.75
458.157	469.75
458.377	462.75
458.598	495.75
458.818	538.75
459.038	613.75
459.258	652.75
459.478	554.75
459.698	517.75
459.918	529.75
460.138	519.75
460.358	564.75
460.578	565.75
460.798	546.75
461.018	549.75
461.238	552.75
461.458	542.75
461.678	522.75
461.898	553.75
462.118	552.75
462.338	573.75
462.558	564.75
462.777	584.75
462.997	637.75
463.217	629.75
463.437	638.75
463.657	592.75
463.876	599.75
464.096	583.75
464.316	576.75
464.536	595.75
464.755	583.75
464.975	606.75
465.195	603.75
465.414	640.75
465.634	593.75
465.854	567.75
466.073	534.75
466.293	516.75
466.512	526.75
466.732	504.75
466.951	495.75
467.171	507.75
467.391	502.75
467.61	519.75
467.829	528.75
468.049	529.75
468.268	513.75
468.488	493.75
468.707	487.75
468.927	484.75
469.146	478.75
469.365	475.75
469.585	475.75
469.804	494.75
470.023	483.75
470.243	493.75
470.462	512.75
470.681	510.75
470.901	526.75
471.12	516.75
471.339	507.75
471.558	522.75
471.777	513.75
471.997	499.75
472.216	492.75
472.435	521.75
472.654	528.75
472.873	502.75
473.092	518.75
473.311	474.75
473.53	492.75
473.749	532.75
473.968	544.75
474.187	642.75
474.406	670.75
474.625	587.75
474.844	541.75
475.063	512.75
475.282	502.75
475.501	517.75
475.72	521.75
475.939	510.75
476.158	525.75
476.377	515.75
476.596	533.75
476.814	513.75
477.033	535.75
477.252	535.75
477.471	540.75
477.69	550.75
477.908	533.75
478.127	567.75
478.346	572.75
478.564	582.75
478.783	581.75
479.002	588.75
479.22	583.75
479.439	598.75
479.658	616.75
479.876	617.75
480.095	600.75
480.313	644.75
480.532	630.75
480.751	649.75
480.969	620.75
481.188	659.75
481.406	679.75
481.624	621.75
481.843	596.75
482.061	583.75
482.28	610.75
482.498	596.75
482.717	592.75
482.935	596.75
483.153	587.75
483.372	569.75
483.59	583.75
483.808	589.75
484.027	580.75
484.245	599.75
484.463	616.75
484.681	617.75
484.9	614.75
485.118	614.75
485.336	621.75
485.554	617.75
485.772	610.75
485.99	630.75
486.209	624.75
486.427	604.75
486.645	624.75
486.863	644.75
487.081	613.75
487.299	630.75
487.517	636.75
487.735	609.75
487.953	629.75
488.171	620.75
488.389	608.75
488.607	638.75
488.825	608.75
489.043	624.75
489.261	654.75
489.479	636.75
489.696	639.75
489.914	641.75
490.132	667.75
490.35	662.75
490.568	627.75
490.786	685.75
491.003	684.75
491.221	708.75
491.439	682.75
491.657	697.75
491.874	723.75
492.092	727.75
492.31	724.75
492.527	700.75
492.745	725.75
492.963	722.75
493.18	740.75
493.398	733.75
493.615	746.75
493.833	750.75
494.05	730.75
494.268	771.75
494.485	755.75
494.703	732.75
494.92	747.75
495.138	726.75
495.355	747.75
495.573	758.75
495.79	747.75
496.008	740.75
496.225	755.75
496.442	748.75
496.66	740.75
496.877	760.75
497.094	765.75
497.312	748.75
497.529	796.75
497.746	789.75
497.963	797.75
498.181	843.75
498.398	862.75
498.615	837.75
498.832	848.75
499.049	888.75
499.267	913.75
499.484	982.75
499.701	1002.75
499.918	1050.75
500.135	1113.75
500.352	1185.75
500.569	1199.75
500.786	1219.75
501.003	1190.75
501.22	1134.75
501.437	1077.75
501.654	1033.75
