Data from 1976.PennyLincolnUp.Lamp.En5.5.200Scan.071719.P1.Changed Mount._HRD10591_16-01-25-861.txt Node
Date: Thu Jul 18 16:01:25 EDT 2019
User: cochatt
Spectrometer: HR+D1059
Trigger mode: 1
Integration Time (sec): 1.000000E-1
Scans to average: 1
Electric dark correction enabled: true
Nonlinearity correction enabled: false
Boxcar width: 0
XAxis mode: Wavelengths
Number of Pixels in Spectrum: 2048
>>>>>Begin Spectral Data<<<<<
223.165	-17.81
223.4	-17.81
223.635	-17.81
223.869	-8.81
224.104	-18.81
224.338	-19.81
224.573	-19.81
224.808	-22.81
225.042	-4.81
225.277	-12.81
225.511	-3.81
225.746	15.19
225.98	10.19
226.215	16.19
226.449	11.19
226.683	28.19
226.918	17.19
227.152	31.19
227.387	28.19
227.621	51.19
227.856	44.19
228.09	48.19
228.324	60.19
228.559	53.19
228.793	79.19
229.027	104.19
229.262	100.19
229.496	106.19
229.73	128.19
229.964	163.19
230.199	131.19
230.433	109.19
230.667	124.19
230.901	124.19
231.136	102.19
231.37	113.19
231.604	120.19
231.838	128.19
232.072	112.19
232.306	113.19
232.541	107.19
232.775	121.19
233.009	120.19
233.243	113.19
233.477	105.19
233.711	121.19
233.945	99.19
234.179	120.19
234.413	109.19
234.647	124.19
234.881	115.19
235.115	125.19
235.349	131.19
235.583	119.19
235.817	125.19
236.051	131.19
236.285	128.19
236.519	145.19
236.753	139.19
236.987	146.19
237.221	187.19
237.455	230.19
237.689	174.19
237.922	151.19
238.156	150.19
238.39	155.19
238.624	130.19
238.858	124.19
239.091	135.19
239.325	121.19
239.559	132.19
239.793	135.19
240.027	146.19
240.26	132.19
240.494	157.19
240.728	153.19
240.961	160.19
241.195	150.19
241.429	144.19
241.662	141.19
241.896	138.19
242.13	124.19
242.363	149.19
242.597	129.19
242.83	148.19
243.064	147.19
243.298	139.19
243.531	141.19
243.765	160.19
243.998	144.19
244.232	160.19
244.465	155.19
244.699	146.19
244.932	146.19
245.166	156.19
245.399	159.19
245.633	150.19
245.866	146.19
246.099	166.19
246.333	171.19
246.566	158.19
246.8	151.19
247.033	151.19
247.266	174.19
247.5	170.19
247.733	171.19
247.966	178.19
248.2	184.19
248.433	168.19
248.666	178.19
248.899	184.19
249.133	183.19
249.366	210.19
249.599	213.19
249.832	176.19
250.066	174.19
250.299	198.19
250.532	187.19
250.765	209.19
250.998	219.19
251.231	225.19
251.465	224.19
251.698	197.19
251.931	207.19
252.164	196.19
252.397	197.19
252.63	200.19
252.863	198.19
253.096	209.19
253.329	240.19
253.562	230.19
253.795	236.19
254.028	211.19
254.261	210.19
254.494	251.19
254.727	269.19
254.96	280.19
255.193	283.19
255.426	264.19
255.659	243.19
255.892	241.19
256.124	229.19
256.357	246.19
256.59	234.19
256.823	213.19
257.056	221.19
257.289	220.19
257.521	216.19
257.754	224.19
257.987	216.19
258.22	206.19
258.452	214.19
258.685	198.19
258.918	228.19
259.151	234.19
259.383	239.19
259.616	224.19
259.849	223.19
260.081	237.19
260.314	248.19
260.547	266.19
260.779	246.19
261.012	247.19
261.244	239.19
261.477	229.19
261.71	227.19
261.942	225.19
262.175	250.19
262.407	228.19
262.64	232.19
262.872	222.19
263.105	217.19
263.337	204.19
263.57	228.19
263.802	235.19
264.035	225.19
264.267	249.19
264.499	208.19
264.732	237.19
264.964	236.19
265.197	213.19
265.429	231.19
265.661	222.19
265.894	222.19
266.126	219.19
266.358	227.19
266.591	234.19
266.823	239.19
267.055	239.19
267.287	244.19
267.52	234.19
267.752	230.19
267.984	255.19
268.216	251.19
268.448	240.19
268.681	270.19
268.913	251.19
269.145	293.19
269.377	294.19
269.609	277.19
269.841	257.19
270.073	285.19
270.306	297.19
270.538	329.19
270.77	325.19
271.002	316.19
271.234	309.19
271.466	325.19
271.698	315.19
271.93	324.19
272.162	323.19
272.394	346.19
272.626	320.19
272.858	307.19
273.09	278.19
273.322	299.19
273.553	277.19
273.785	289.19
274.017	280.19
274.249	287.19
274.481	268.19
274.713	287.19
274.945	280.19
275.176	282.19
275.408	274.19
275.64	287.19
275.872	275.19
276.104	296.19
276.335	273.19
276.567	311.19
276.799	298.19
277.031	323.19
277.262	340.19
277.494	315.19
277.726	311.19
277.957	292.19
278.189	286.19
278.421	289.19
278.652	291.19
278.884	296.19
279.115	292.19
279.347	268.19
279.579	307.19
279.81	284.19
280.042	273.19
280.273	303.19
280.505	299.19
280.736	302.19
280.968	278.19
281.199	285.19
281.431	302.19
281.662	294.19
281.894	289.19
282.125	279.19
282.356	315.19
282.588	337.19
282.819	328.19
283.051	310.19
283.282	319.19
283.513	300.19
283.745	299.19
283.976	311.19
284.207	312.19
284.439	293.19
284.67	314.19
284.901	309.19
285.132	303.19
285.364	308.19
285.595	303.19
285.826	286.19
286.057	289.19
286.288	310.19
286.52	322.19
286.751	310.19
286.982	310.19
287.213	319.19
287.444	318.19
287.675	311.19
287.906	310.19
288.138	332.19
288.369	335.19
288.6	313.19
288.831	327.19
289.062	312.19
289.293	299.19
289.524	316.19
289.755	334.19
289.986	323.19
290.217	288.19
290.448	309.19
290.679	335.19
290.91	308.19
291.141	323.19
291.371	305.19
291.602	320.19
291.833	315.19
292.064	336.19
292.295	310.19
292.526	299.19
292.757	320.19
292.987	326.19
293.218	304.19
293.449	313.19
293.68	311.19
293.91	310.19
294.141	308.19
294.372	333.19
294.603	327.19
294.833	316.19
295.064	317.19
295.295	308.19
295.525	335.19
295.756	326.19
295.987	316.19
296.217	343.19
296.448	341.19
296.679	339.19
296.909	332.19
297.14	315.19
297.37	338.19
297.601	335.19
297.831	327.19
298.062	319.19
298.292	320.19
298.523	324.19
298.753	320.19
298.984	331.19
299.214	338.19
299.445	341.19
299.675	333.19
299.905	324.19
300.136	334.19
300.366	315.19
300.597	328.19
300.827	334.19
301.057	352.19
301.288	335.19
301.518	337.19
301.748	342.19
301.979	350.19
302.209	363.19
302.439	355.19
302.669	361.19
302.9	356.19
303.13	344.19
303.36	376.19
303.59	355.19
303.82	351.19
304.051	360.19
304.281	342.19
304.511	353.19
304.741	360.19
304.971	369.19
305.201	356.19
305.431	367.19
305.661	339.19
305.891	365.19
306.121	364.19
306.352	346.19
306.582	343.19
306.812	372.19
307.042	363.19
307.272	341.19
307.502	365.19
307.731	342.19
307.961	357.19
308.191	347.19
308.421	375.19
308.651	366.19
308.881	370.19
309.111	372.19
309.341	372.19
309.571	375.19
309.8	393.19
310.03	390.19
310.26	386.19
310.49	391.19
310.72	392.19
310.949	405.19
311.179	420.19
311.409	391.19
311.639	391.19
311.868	387.19
312.098	415.19
312.328	394.19
312.557	407.19
312.787	424.19
313.017	426.19
313.246	415.19
313.476	379.19
313.706	394.19
313.935	404.19
314.165	412.19
314.394	414.19
314.624	419.19
314.853	407.19
315.083	384.19
315.312	409.19
315.542	392.19
315.771	393.19
316.001	390.19
316.23	413.19
316.46	393.19
316.689	425.19
316.919	395.19
317.148	427.19
317.377	391.19
317.607	405.19
317.836	402.19
318.065	396.19
318.295	405.19
318.524	401.19
318.753	393.19
318.983	398.19
319.212	409.19
319.441	411.19
319.67	410.19
319.9	401.19
320.129	423.19
320.358	409.19
320.587	411.19
320.816	426.19
321.046	428.19
321.275	406.19
321.504	416.19
321.733	403.19
321.962	431.19
322.191	441.19
322.42	442.19
322.649	432.19
322.878	446.19
323.108	463.19
323.337	470.19
323.566	475.19
323.795	520.19
324.024	539.19
324.253	643.19
324.482	872.19
324.71	1321.19
324.939	2025.19
325.168	1746.19
325.397	880.19
325.626	614.19
325.855	504.19
326.084	500.19
326.313	472.19
326.542	491.19
326.77	535.19
326.999	618.19
327.228	835.19
327.457	1215.19
327.686	1504.19
327.914	960.19
328.143	658.19
328.372	603.19
328.6	587.19
328.829	557.19
329.058	547.19
329.287	571.19
329.515	541.19
329.744	539.19
329.972	529.19
330.201	543.19
330.43	557.19
330.658	579.19
330.887	611.19
331.115	602.19
331.344	550.19
331.572	535.19
331.801	515.19
332.03	497.19
332.258	485.19
332.486	502.19
332.715	479.19
332.943	490.19
333.172	482.19
333.4	475.19
333.629	525.19
333.857	512.19
334.085	520.19
334.314	511.19
334.542	527.19
334.771	565.19
334.999	516.19
335.227	509.19
335.455	477.19
335.684	509.19
335.912	487.19
336.14	483.19
336.369	476.19
336.597	497.19
336.825	485.19
337.053	482.19
337.281	452.19
337.51	468.19
337.738	457.19
337.966	468.19
338.194	473.19
338.422	472.19
338.65	476.19
338.878	466.19
339.106	455.19
339.334	445.19
339.562	473.19
339.79	455.19
340.018	465.19
340.246	449.19
340.474	488.19
340.702	458.19
340.93	442.19
341.158	450.19
341.386	446.19
341.614	452.19
341.842	452.19
342.07	444.19
342.298	446.19
342.526	440.19
342.754	443.19
342.981	447.19
343.209	436.19
343.437	451.19
343.665	459.19
343.893	468.19
344.12	484.19
344.348	479.19
344.576	491.19
344.804	470.19
345.031	454.19
345.259	453.19
345.487	456.19
345.714	455.19
345.942	447.19
346.17	453.19
346.397	439.19
346.625	441.19
346.853	414.19
347.08	426.19
347.308	434.19
347.535	435.19
347.763	430.19
347.99	435.19
348.218	431.19
348.445	462.19
348.673	431.19
348.9	455.19
349.128	443.19
349.355	406.19
349.583	437.19
349.81	407.19
350.037	408.19
350.265	424.19
350.492	443.19
350.72	435.19
350.947	425.19
351.174	443.19
351.402	438.19
351.629	441.19
351.856	428.19
352.083	421.19
352.311	436.19
352.538	441.19
352.765	459.19
352.992	428.19
353.22	426.19
353.447	429.19
353.674	428.19
353.901	427.19
354.128	430.19
354.355	400.19
354.583	429.19
354.81	427.19
355.037	435.19
355.264	409.19
355.491	416.19
355.718	422.19
355.945	396.19
356.172	414.19
356.399	401.19
356.626	397.19
356.853	415.19
357.08	400.19
357.307	401.19
357.534	418.19
357.761	411.19
357.988	405.19
358.215	394.19
358.441	411.19
358.668	425.19
358.895	415.19
359.122	429.19
359.349	431.19
359.576	414.19
359.802	449.19
360.029	459.19
360.256	480.19
360.483	479.19
360.709	445.19
360.936	431.19
361.163	426.19
361.39	443.19
361.616	430.19
361.843	415.19
362.07	439.19
362.296	429.19
362.523	428.19
362.749	421.19
362.976	430.19
363.203	428.19
363.429	429.19
363.656	440.19
363.882	420.19
364.109	424.19
364.335	404.19
364.562	425.19
364.788	438.19
365.015	415.19
365.241	407.19
365.468	427.19
365.694	432.19
365.92	426.19
366.147	429.19
366.373	421.19
366.599	430.19
366.826	427.19
367.052	419.19
367.278	421.19
367.505	389.19
367.731	420.19
367.957	419.19
368.184	415.19
368.41	415.19
368.636	415.19
368.862	444.19
369.089	433.19
369.315	416.19
369.541	427.19
369.767	425.19
369.993	409.19
370.219	439.19
370.445	425.19
370.672	411.19
370.898	432.19
371.124	413.19
371.35	431.19
371.576	440.19
371.802	428.19
372.028	399.19
372.254	420.19
372.48	448.19
372.706	444.19
372.932	442.19
373.158	436.19
373.384	445.19
373.61	437.19
373.835	441.19
374.061	436.19
374.287	425.19
374.513	421.19
374.739	425.19
374.965	445.19
375.191	441.19
375.416	438.19
375.642	430.19
375.868	436.19
376.094	424.19
376.319	432.19
376.545	420.19
376.771	413.19
376.997	422.19
377.222	407.19
377.448	415.19
377.674	409.19
377.899	413.19
378.125	414.19
378.35	424.19
378.576	413.19
378.802	429.19
379.027	404.19
379.253	418.19
379.478	423.19
379.704	409.19
379.929	398.19
380.155	417.19
380.38	416.19
380.606	425.19
380.831	421.19
381.057	428.19
381.282	406.19
381.507	437.19
381.733	457.19
381.958	424.19
382.184	437.19
382.409	435.19
382.634	430.19
382.86	416.19
383.085	449.19
383.31	428.19
383.535	443.19
383.761	432.19
383.986	440.19
384.211	453.19
384.436	451.19
384.662	460.19
384.887	461.19
385.112	453.19
385.337	455.19
385.562	469.19
385.787	472.19
386.013	499.19
386.238	475.19
386.463	478.19
386.688	462.19
386.913	467.19
387.138	491.19
387.363	470.19
387.588	472.19
387.813	455.19
388.038	466.19
388.263	462.19
388.488	462.19
388.713	456.19
388.938	470.19
389.163	479.19
389.387	464.19
389.612	478.19
389.837	457.19
390.062	476.19
390.287	472.19
390.512	468.19
390.736	452.19
390.961	479.19
391.186	475.19
391.411	476.19
391.636	488.19
391.86	489.19
392.085	496.19
392.31	486.19
392.534	503.19
392.759	503.19
392.984	496.19
393.208	465.19
393.433	487.19
393.658	478.19
393.882	473.19
394.107	480.19
394.331	483.19
394.556	471.19
394.78	470.19
395.005	488.19
395.229	473.19
395.454	486.19
395.678	491.19
395.903	514.19
396.127	525.19
396.352	528.19
396.576	515.19
396.801	505.19
397.025	476.19
397.249	511.19
397.474	495.19
397.698	512.19
397.922	521.19
398.147	551.19
398.371	538.19
398.595	530.19
398.82	548.19
399.044	542.19
399.268	591.19
399.492	625.19
399.717	655.19
399.941	686.19
400.165	709.19
400.389	701.19
400.613	609.19
400.837	583.19
401.062	575.19
401.286	552.19
401.51	557.19
401.734	565.19
401.958	547.19
402.182	563.19
402.406	570.19
402.63	574.19
402.854	558.19
403.078	565.19
403.302	599.19
403.526	574.19
403.75	594.19
403.974	572.19
404.198	567.19
404.422	581.19
404.645	604.19
404.869	585.19
405.093	625.19
405.317	689.19
405.541	698.19
405.765	627.19
405.988	588.19
406.212	638.19
406.436	610.19
406.66	635.19
406.883	602.19
407.107	649.19
407.331	680.19
407.555	782.19
407.778	757.19
408.002	693.19
408.226	661.19
408.449	631.19
408.673	612.19
408.896	648.19
409.12	686.19
409.344	685.19
409.567	589.19
409.791	587.19
410.014	588.19
410.238	569.19
410.461	576.19
410.685	577.19
410.908	593.19
411.132	628.19
411.355	680.19
411.578	660.19
411.802	562.19
412.025	573.19
412.249	606.19
412.472	611.19
412.695	629.19
412.919	607.19
413.142	577.19
413.365	570.19
413.589	570.19
413.812	541.19
414.035	536.19
414.258	541.19
414.482	528.19
414.705	529.19
414.928	555.19
415.151	549.19
415.374	535.19
415.597	547.19
415.821	556.19
416.044	556.19
416.267	555.19
416.49	544.19
416.713	522.19
416.936	563.19
417.159	550.19
417.382	557.19
417.605	550.19
417.828	557.19
418.051	583.19
418.274	552.19
418.497	552.19
418.72	547.19
418.943	533.19
419.166	564.19
419.389	604.19
419.611	576.19
419.834	587.19
420.057	585.19
420.28	575.19
420.503	573.19
420.726	568.19
420.948	567.19
421.171	614.19
421.394	664.19
421.617	587.19
421.839	581.19
422.062	574.19
422.285	588.19
422.507	628.19
422.73	699.19
422.953	691.19
423.175	603.19
423.398	591.19
423.621	579.19
423.843	601.19
424.066	623.19
424.288	633.19
424.511	641.19
424.733	663.19
424.956	757.19
425.178	738.19
425.401	709.19
425.623	746.19
425.846	653.19
426.068	610.19
426.291	588.19
426.513	586.19
426.735	615.19
426.958	654.19
427.18	727.19
427.402	845.19
427.625	944.19
427.847	803.19
428.069	713.19
428.292	602.19
428.514	573.19
428.736	565.19
428.958	523.19
429.181	530.19
429.403	541.19
429.625	572.19
429.847	593.19
430.069	648.19
430.292	640.19
430.514	563.19
430.736	524.19
430.958	550.19
431.18	530.19
431.402	517.19
431.624	543.19
431.846	541.19
432.068	520.19
432.29	521.19
432.512	507.19
432.734	544.19
432.956	530.19
433.178	521.19
433.4	528.19
433.622	521.19
433.844	557.19
434.066	530.19
434.287	527.19
434.509	529.19
434.731	559.19
434.953	547.19
435.175	568.19
435.397	591.19
435.618	590.19
435.84	616.19
436.062	712.19
436.284	794.19
436.505	665.19
436.727	604.19
436.949	572.19
437.17	551.19
437.392	533.19
437.614	561.19
437.835	591.19
438.057	685.19
438.278	791.19
438.5	769.19
438.721	859.19
438.943	832.19
439.165	649.19
439.386	609.19
439.608	585.19
439.829	583.19
440.05	620.19
440.272	647.19
440.493	631.19
440.715	589.19
440.936	563.19
441.158	573.19
441.379	563.19
441.6	552.19
441.822	594.19
442.043	652.19
442.264	721.19
442.486	742.19
442.707	656.19
442.928	618.19
443.149	593.19
443.371	623.19
443.592	678.19
443.813	760.19
444.034	820.19
444.255	691.19
444.476	652.19
444.698	638.19
444.919	620.19
445.14	719.19
445.361	655.19
445.582	628.19
445.803	717.19
446.024	789.19
446.245	797.19
446.466	727.19
446.687	638.19
446.908	591.19
447.129	551.19
447.35	533.19
447.571	519.19
447.792	525.19
448.013	548.19
448.234	571.19
448.455	603.19
448.675	715.19
448.896	865.19
449.117	712.19
449.338	679.19
449.559	775.19
449.779	894.19
450	698.19
450.221	594.19
450.442	567.19
450.662	527.19
450.883	528.19
451.104	545.19
451.324	527.19
451.545	511.19
451.766	481.19
451.986	489.19
452.207	492.19
452.428	481.19
452.648	484.19
452.869	489.19
453.089	490.19
453.31	497.19
453.53	493.19
453.751	477.19
453.971	489.19
454.192	484.19
454.412	474.19
454.633	478.19
454.853	465.19
455.073	486.19
455.294	525.19
455.514	562.19
455.734	567.19
455.955	481.19
456.175	460.19
456.395	475.19
456.616	467.19
456.836	463.19
457.056	464.19
457.276	455.19
457.497	447.19
457.717	462.19
457.937	467.19
458.157	463.19
458.377	464.19
458.598	494.19
458.818	547.19
459.038	616.19
459.258	625.19
459.478	560.19
459.698	514.19
459.918	534.19
460.138	535.19
460.358	540.19
460.578	525.19
460.798	535.19
461.018	547.19
461.238	534.19
461.458	547.19
461.678	517.19
461.898	541.19
462.118	535.19
462.338	573.19
462.558	573.19
462.777	592.19
462.997	583.19
463.217	620.19
463.437	614.19
463.657	616.19
463.876	594.19
464.096	587.19
464.316	566.19
464.536	564.19
464.755	592.19
464.975	558.19
465.195	616.19
465.414	648.19
465.634	604.19
465.854	551.19
466.073	527.19
466.293	510.19
466.512	535.19
466.732	486.19
466.951	507.19
467.171	507.19
467.391	493.19
467.61	507.19
467.829	511.19
468.049	513.19
468.268	511.19
468.488	475.19
468.707	499.19
468.927	493.19
469.146	483.19
469.365	502.19
469.585	494.19
469.804	501.19
470.023	502.19
470.243	500.19
470.462	485.19
470.681	517.19
470.901	520.19
471.12	517.19
471.339	515.19
471.558	500.19
471.777	504.19
471.997	483.19
472.216	511.19
472.435	527.19
472.654	534.19
472.873	483.19
473.092	517.19
473.311	498.19
473.53	524.19
473.749	520.19
473.968	540.19
474.187	656.19
474.406	672.19
474.625	547.19
474.844	549.19
475.063	502.19
475.282	507.19
475.501	517.19
475.72	502.19
475.939	507.19
476.158	519.19
476.377	522.19
476.596	533.19
476.814	533.19
477.033	543.19
477.252	550.19
477.471	527.19
477.69	534.19
477.908	554.19
478.127	565.19
478.346	543.19
478.564	576.19
478.783	563.19
479.002	591.19
479.22	584.19
479.439	578.19
479.658	616.19
479.876	609.19
480.095	615.19
480.313	631.19
480.532	624.19
480.751	622.19
480.969	617.19
481.188	687.19
481.406	672.19
481.624	632.19
481.843	605.19
482.061	610.19
482.28	583.19
482.498	577.19
482.717	572.19
482.935	588.19
483.153	582.19
483.372	598.19
483.59	600.19
483.808	586.19
484.027	592.19
484.245	574.19
484.463	599.19
484.681	588.19
484.9	599.19
485.118	613.19
485.336	609.19
485.554	620.19
485.772	623.19
485.99	618.19
486.209	612.19
486.427	630.19
486.645	619.19
486.863	639.19
487.081	638.19
487.299	650.19
487.517	627.19
487.735	645.19
487.953	617.19
488.171	632.19
488.389	623.19
488.607	657.19
488.825	605.19
489.043	627.19
489.261	619.19
489.479	626.19
489.696	632.19
489.914	640.19
490.132	652.19
490.35	623.19
490.568	645.19
490.786	668.19
491.003	681.19
491.221	700.19
491.439	720.19
491.657	697.19
491.874	673.19
492.092	700.19
492.31	725.19
492.527	707.19
492.745	728.19
492.963	715.19
493.18	729.19
493.398	726.19
493.615	732.19
493.833	741.19
494.05	735.19
494.268	748.19
494.485	748.19
494.703	723.19
494.92	739.19
495.138	719.19
495.355	744.19
495.573	735.19
495.79	732.19
496.008	739.19
496.225	724.19
496.442	772.19
496.66	743.19
496.877	732.19
497.094	743.19
497.312	732.19
497.529	755.19
497.746	786.19
497.963	797.19
498.181	833.19
498.398	819.19
498.615	823.19
498.832	871.19
499.049	873.19
499.267	917.19
499.484	935.19
499.701	977.19
499.918	1051.19
500.135	1115.19
500.352	1179.19
500.569	1186.19
500.786	1205.19
501.003	1153.19
501.22	1124.19
501.437	1059.19
501.654	1037.19
