Data from 1976.PennyLincolnUp.Lamp.En5.5.200Scan.071719.P1.Changed Mount._HRD10591_16-02-19-863.txt Node
Date: Thu Jul 18 16:02:19 EDT 2019
User: cochatt
Spectrometer: HR+D1059
Trigger mode: 1
Integration Time (sec): 1.000000E-1
Scans to average: 1
Electric dark correction enabled: true
Nonlinearity correction enabled: false
Boxcar width: 0
XAxis mode: Wavelengths
Number of Pixels in Spectrum: 2048
>>>>>Begin Spectral Data<<<<<
223.165	-15.62
223.4	-15.62
223.635	-15.62
223.869	0.38
224.104	-18.62
224.338	-12.62
224.573	-10.62
224.808	-20.62
225.042	-21.62
225.277	4.38
225.511	-11.62
225.746	-1.62
225.98	5.38
226.215	5.38
226.449	5.38
226.683	17.38
226.918	30.38
227.152	44.38
227.387	41.38
227.621	34.38
227.856	44.38
228.09	45.38
228.324	60.38
228.559	52.38
228.793	61.38
229.027	84.38
229.262	117.38
229.496	123.38
229.73	135.38
229.964	156.38
230.199	130.38
230.433	117.38
230.667	125.38
230.901	104.38
231.136	119.38
231.37	112.38
231.604	108.38
231.838	104.38
232.072	109.38
232.306	105.38
232.541	141.38
232.775	114.38
233.009	114.38
233.243	98.38
233.477	117.38
233.711	117.38
233.945	114.38
234.179	129.38
234.413	110.38
234.647	110.38
234.881	117.38
235.115	122.38
235.349	121.38
235.583	129.38
235.817	121.38
236.051	137.38
236.285	129.38
236.519	135.38
236.753	128.38
236.987	158.38
237.221	186.38
237.455	234.38
237.689	193.38
237.922	142.38
238.156	110.38
238.39	127.38
238.624	128.38
238.858	121.38
239.091	135.38
239.325	125.38
239.559	126.38
239.793	142.38
240.027	136.38
240.26	142.38
240.494	161.38
240.728	163.38
240.961	150.38
241.195	154.38
241.429	126.38
241.662	131.38
241.896	141.38
242.13	134.38
242.363	131.38
242.597	122.38
242.83	138.38
243.064	142.38
243.298	154.38
243.531	122.38
243.765	146.38
243.998	153.38
244.232	143.38
244.465	146.38
244.699	153.38
244.932	152.38
245.166	154.38
245.399	150.38
245.633	140.38
245.866	153.38
246.099	153.38
246.333	157.38
246.566	184.38
246.8	172.38
247.033	163.38
247.266	182.38
247.5	168.38
247.733	186.38
247.966	170.38
248.2	189.38
248.433	174.38
248.666	180.38
248.899	180.38
249.133	216.38
249.366	220.38
249.599	219.38
249.832	194.38
250.066	206.38
250.299	187.38
250.532	195.38
250.765	220.38
250.998	227.38
251.231	243.38
251.465	222.38
251.698	212.38
251.931	210.38
252.164	201.38
252.397	204.38
252.63	205.38
252.863	211.38
253.096	205.38
253.329	227.38
253.562	219.38
253.795	224.38
254.028	225.38
254.261	236.38
254.494	217.38
254.727	277.38
254.96	299.38
255.193	280.38
255.426	235.38
255.659	241.38
255.892	242.38
256.124	240.38
256.357	252.38
256.59	242.38
256.823	218.38
257.056	219.38
257.289	212.38
257.521	204.38
257.754	219.38
257.987	224.38
258.22	213.38
258.452	228.38
258.685	219.38
258.918	227.38
259.151	225.38
259.383	224.38
259.616	232.38
259.849	233.38
260.081	249.38
260.314	258.38
260.547	265.38
260.779	266.38
261.012	254.38
261.244	237.38
261.477	252.38
261.71	241.38
261.942	232.38
262.175	244.38
262.407	241.38
262.64	237.38
262.872	220.38
263.105	231.38
263.337	218.38
263.57	236.38
263.802	229.38
264.035	209.38
264.267	220.38
264.499	220.38
264.732	220.38
264.964	216.38
265.197	249.38
265.429	235.38
265.661	226.38
265.894	218.38
266.126	234.38
266.358	244.38
266.591	240.38
266.823	260.38
267.055	273.38
267.287	229.38
267.52	224.38
267.752	248.38
267.984	248.38
268.216	236.38
268.448	267.38
268.681	241.38
268.913	252.38
269.145	284.38
269.377	305.38
269.609	280.38
269.841	278.38
270.073	312.38
270.306	304.38
270.538	341.38
270.77	315.38
271.002	335.38
271.234	318.38
271.466	315.38
271.698	332.38
271.93	334.38
272.162	320.38
272.394	340.38
272.626	328.38
272.858	307.38
273.09	321.38
273.322	293.38
273.553	264.38
273.785	282.38
274.017	272.38
274.249	292.38
274.481	277.38
274.713	288.38
274.945	306.38
275.176	291.38
275.408	302.38
275.64	279.38
275.872	273.38
276.104	286.38
276.335	281.38
276.567	294.38
276.799	295.38
277.031	332.38
277.262	329.38
277.494	333.38
277.726	318.38
277.957	309.38
278.189	308.38
278.421	298.38
278.652	292.38
278.884	303.38
279.115	301.38
279.347	284.38
279.579	291.38
279.81	285.38
280.042	294.38
280.273	299.38
280.505	285.38
280.736	293.38
280.968	291.38
281.199	280.38
281.431	278.38
281.662	281.38
281.894	308.38
282.125	284.38
282.356	309.38
282.588	321.38
282.819	318.38
283.051	304.38
283.282	303.38
283.513	301.38
283.745	298.38
283.976	320.38
284.207	290.38
284.439	313.38
284.67	299.38
284.901	305.38
285.132	299.38
285.364	313.38
285.595	322.38
285.826	302.38
286.057	303.38
286.288	311.38
286.52	306.38
286.751	332.38
286.982	309.38
287.213	334.38
287.444	299.38
287.675	320.38
287.906	318.38
288.138	324.38
288.369	336.38
288.6	335.38
288.831	328.38
289.062	332.38
289.293	308.38
289.524	309.38
289.755	317.38
289.986	322.38
290.217	326.38
290.448	324.38
290.679	328.38
290.91	315.38
291.141	324.38
291.371	328.38
291.602	314.38
291.833	306.38
292.064	330.38
292.295	331.38
292.526	324.38
292.757	321.38
292.987	309.38
293.218	323.38
293.449	320.38
293.68	326.38
293.91	340.38
294.141	343.38
294.372	316.38
294.603	333.38
294.833	324.38
295.064	317.38
295.295	327.38
295.525	332.38
295.756	334.38
295.987	329.38
296.217	349.38
296.448	361.38
296.679	341.38
296.909	336.38
297.14	329.38
297.37	320.38
297.601	330.38
297.831	344.38
298.062	333.38
298.292	333.38
298.523	333.38
298.753	339.38
298.984	321.38
299.214	347.38
299.445	372.38
299.675	354.38
299.905	356.38
300.136	349.38
300.366	352.38
300.597	347.38
300.827	348.38
301.057	357.38
301.288	375.38
301.518	359.38
301.748	368.38
301.979	344.38
302.209	368.38
302.439	376.38
302.669	378.38
302.9	334.38
303.13	363.38
303.36	351.38
303.59	355.38
303.82	369.38
304.051	377.38
304.281	359.38
304.511	351.38
304.741	378.38
304.971	359.38
305.201	366.38
305.431	371.38
305.661	376.38
305.891	353.38
306.121	355.38
306.352	377.38
306.582	354.38
306.812	357.38
307.042	357.38
307.272	352.38
307.502	367.38
307.731	342.38
307.961	355.38
308.191	372.38
308.421	371.38
308.651	364.38
308.881	368.38
309.111	356.38
309.341	348.38
309.571	383.38
309.8	406.38
310.03	381.38
310.26	412.38
310.49	399.38
310.72	419.38
310.949	417.38
311.179	401.38
311.409	416.38
311.639	387.38
311.868	388.38
312.098	405.38
312.328	412.38
312.557	441.38
312.787	433.38
313.017	436.38
313.246	417.38
313.476	404.38
313.706	409.38
313.935	411.38
314.165	429.38
314.394	421.38
314.624	426.38
314.853	394.38
315.083	422.38
315.312	406.38
315.542	412.38
315.771	416.38
316.001	391.38
316.23	419.38
316.46	413.38
316.689	420.38
316.919	416.38
317.148	407.38
317.377	423.38
317.607	432.38
317.836	407.38
318.065	405.38
318.295	410.38
318.524	395.38
318.753	406.38
318.983	418.38
319.212	406.38
319.441	417.38
319.67	402.38
319.9	410.38
320.129	406.38
320.358	412.38
320.587	426.38
320.816	400.38
321.046	415.38
321.275	424.38
321.504	428.38
321.733	426.38
321.962	435.38
322.191	442.38
322.42	462.38
322.649	464.38
322.878	473.38
323.108	483.38
323.337	497.38
323.566	521.38
323.795	531.38
324.024	562.38
324.253	689.38
324.482	950.38
324.71	1402.38
324.939	2110.38
325.168	1842.38
325.397	905.38
325.626	630.38
325.855	542.38
326.084	527.38
326.313	501.38
326.542	499.38
326.77	546.38
326.999	633.38
327.228	855.38
327.457	1307.38
327.686	1554.38
327.914	1080.38
328.143	712.38
328.372	618.38
328.6	611.38
328.829	568.38
329.058	574.38
329.287	580.38
329.515	577.38
329.744	499.38
329.972	528.38
330.201	524.38
330.43	576.38
330.658	606.38
330.887	630.38
331.115	611.38
331.344	561.38
331.572	507.38
331.801	505.38
332.03	517.38
332.258	488.38
332.486	501.38
332.715	483.38
332.943	482.38
333.172	481.38
333.4	502.38
333.629	525.38
333.857	529.38
334.085	539.38
334.314	552.38
334.542	575.38
334.771	597.38
334.999	558.38
335.227	523.38
335.455	500.38
335.684	513.38
335.912	512.38
336.14	500.38
336.369	477.38
336.597	503.38
336.825	502.38
337.053	511.38
337.281	513.38
337.51	470.38
337.738	484.38
337.966	472.38
338.194	472.38
338.422	475.38
338.65	486.38
338.878	489.38
339.106	440.38
339.334	485.38
339.562	475.38
339.79	456.38
340.018	483.38
340.246	447.38
340.474	471.38
340.702	479.38
340.93	455.38
341.158	445.38
341.386	467.38
341.614	460.38
341.842	458.38
342.07	477.38
342.298	449.38
342.526	438.38
342.754	455.38
342.981	444.38
343.209	456.38
343.437	480.38
343.665	483.38
343.893	480.38
344.12	472.38
344.348	493.38
344.576	480.38
344.804	479.38
345.031	478.38
345.259	489.38
345.487	489.38
345.714	481.38
345.942	470.38
346.17	486.38
346.397	451.38
346.625	452.38
346.853	463.38
347.08	466.38
347.308	442.38
347.535	453.38
347.763	455.38
347.99	455.38
348.218	458.38
348.445	465.38
348.673	460.38
348.9	461.38
349.128	426.38
349.355	448.38
349.583	427.38
349.81	429.38
350.037	444.38
350.265	393.38
350.492	441.38
350.72	444.38
350.947	440.38
351.174	441.38
351.402	456.38
351.629	470.38
351.856	445.38
352.083	428.38
352.311	447.38
352.538	454.38
352.765	451.38
352.992	440.38
353.22	442.38
353.447	426.38
353.674	434.38
353.901	429.38
354.128	428.38
354.355	415.38
354.583	414.38
354.81	428.38
355.037	429.38
355.264	438.38
355.491	428.38
355.718	408.38
355.945	398.38
356.172	424.38
356.399	428.38
356.626	428.38
356.853	441.38
357.08	424.38
357.307	401.38
357.534	422.38
357.761	436.38
357.988	420.38
358.215	410.38
358.441	418.38
358.668	417.38
358.895	434.38
359.122	414.38
359.349	448.38
359.576	443.38
359.802	478.38
360.029	496.38
360.256	492.38
360.483	457.38
360.709	440.38
360.936	455.38
361.163	432.38
361.39	438.38
361.616	449.38
361.843	451.38
362.07	445.38
362.296	439.38
362.523	446.38
362.749	443.38
362.976	443.38
363.203	437.38
363.429	432.38
363.656	437.38
363.882	435.38
364.109	409.38
364.335	425.38
364.562	427.38
364.788	423.38
365.015	425.38
365.241	454.38
365.468	418.38
365.694	428.38
365.92	412.38
366.147	394.38
366.373	432.38
366.599	423.38
366.826	412.38
367.052	449.38
367.278	440.38
367.505	436.38
367.731	434.38
367.957	432.38
368.184	422.38
368.41	444.38
368.636	455.38
368.862	447.38
369.089	442.38
369.315	439.38
369.541	426.38
369.767	423.38
369.993	429.38
370.219	403.38
370.445	434.38
370.672	419.38
370.898	424.38
371.124	425.38
371.35	414.38
371.576	428.38
371.802	424.38
372.028	424.38
372.254	439.38
372.48	445.38
372.706	449.38
372.932	421.38
373.158	434.38
373.384	449.38
373.61	413.38
373.835	448.38
374.061	442.38
374.287	445.38
374.513	425.38
374.739	472.38
374.965	466.38
375.191	439.38
375.416	444.38
375.642	446.38
375.868	442.38
376.094	426.38
376.319	443.38
376.545	419.38
376.771	414.38
376.997	413.38
377.222	427.38
377.448	426.38
377.674	418.38
377.899	419.38
378.125	425.38
378.35	432.38
378.576	438.38
378.802	406.38
379.027	434.38
379.253	427.38
379.478	413.38
379.704	427.38
379.929	449.38
380.155	444.38
380.38	434.38
380.606	436.38
380.831	427.38
381.057	423.38
381.282	428.38
381.507	436.38
381.733	423.38
381.958	448.38
382.184	447.38
382.409	449.38
382.634	461.38
382.86	433.38
383.085	449.38
383.31	439.38
383.535	438.38
383.761	460.38
383.986	462.38
384.211	448.38
384.436	464.38
384.662	475.38
384.887	480.38
385.112	464.38
385.337	475.38
385.562	488.38
385.787	455.38
386.013	490.38
386.238	473.38
386.463	500.38
386.688	490.38
386.913	473.38
387.138	482.38
387.363	481.38
387.588	479.38
387.813	485.38
388.038	455.38
388.263	468.38
388.488	477.38
388.713	482.38
388.938	503.38
389.163	489.38
389.387	473.38
389.612	472.38
389.837	499.38
390.062	492.38
390.287	473.38
390.512	475.38
390.736	492.38
390.961	480.38
391.186	504.38
391.411	472.38
391.636	486.38
391.86	508.38
392.085	502.38
392.31	505.38
392.534	498.38
392.759	517.38
392.984	501.38
393.208	472.38
393.433	467.38
393.658	491.38
393.882	480.38
394.107	470.38
394.331	486.38
394.556	471.38
394.78	477.38
395.005	491.38
395.229	474.38
395.454	502.38
395.678	506.38
395.903	508.38
396.127	539.38
396.352	531.38
396.576	501.38
396.801	500.38
397.025	485.38
397.249	513.38
397.474	518.38
397.698	535.38
397.922	542.38
398.147	534.38
398.371	585.38
398.595	548.38
398.82	562.38
399.044	583.38
399.268	586.38
399.492	620.38
399.717	667.38
399.941	706.38
400.165	697.38
400.389	708.38
400.613	651.38
400.837	619.38
401.062	576.38
401.286	576.38
401.51	582.38
401.734	556.38
401.958	581.38
402.182	554.38
402.406	586.38
402.63	576.38
402.854	582.38
403.078	610.38
403.302	599.38
403.526	587.38
403.75	602.38
403.974	612.38
404.198	570.38
404.422	575.38
404.645	612.38
404.869	611.38
405.093	642.38
405.317	654.38
405.541	713.38
405.765	658.38
405.988	610.38
406.212	606.38
406.436	620.38
406.66	632.38
406.883	629.38
407.107	644.38
407.331	704.38
407.555	762.38
407.778	783.38
408.002	701.38
408.226	675.38
408.449	627.38
408.673	630.38
408.896	688.38
409.12	716.38
409.344	674.38
409.567	605.38
409.791	580.38
410.014	594.38
410.238	577.38
410.461	606.38
410.685	596.38
410.908	604.38
411.132	644.38
411.355	658.38
411.578	640.38
411.802	613.38
412.025	568.38
412.249	588.38
412.472	621.38
412.695	668.38
412.919	632.38
413.142	594.38
413.365	577.38
413.589	564.38
413.812	569.38
414.035	572.38
414.258	566.38
414.482	539.38
414.705	557.38
414.928	544.38
415.151	561.38
415.374	556.38
415.597	540.38
415.821	554.38
416.044	572.38
416.267	544.38
416.49	562.38
416.713	543.38
416.936	548.38
417.159	554.38
417.382	566.38
417.605	541.38
417.828	550.38
418.051	594.38
418.274	588.38
418.497	560.38
418.72	566.38
418.943	560.38
419.166	577.38
419.389	601.38
419.611	594.38
419.834	623.38
420.057	567.38
420.28	581.38
420.503	606.38
420.726	583.38
420.948	588.38
421.171	620.38
421.394	654.38
421.617	589.38
421.839	579.38
422.062	554.38
422.285	613.38
422.507	653.38
422.73	713.38
422.953	691.38
423.175	610.38
423.398	605.38
423.621	602.38
423.843	615.38
424.066	616.38
424.288	629.38
424.511	632.38
424.733	686.38
424.956	770.38
425.178	737.38
425.401	726.38
425.623	745.38
425.846	634.38
426.068	613.38
426.291	618.38
426.513	611.38
426.735	612.38
426.958	643.38
427.18	734.38
427.402	882.38
427.625	944.38
427.847	837.38
428.069	732.38
428.292	618.38
428.514	590.38
428.736	590.38
428.958	568.38
429.181	560.38
429.403	555.38
429.625	564.38
429.847	597.38
430.069	685.38
430.292	678.38
430.514	548.38
430.736	578.38
430.958	546.38
431.18	546.38
431.402	525.38
431.624	516.38
431.846	521.38
432.068	514.38
432.29	543.38
432.512	521.38
432.734	554.38
432.956	522.38
433.178	545.38
433.4	537.38
433.622	522.38
433.844	559.38
434.066	523.38
434.287	531.38
434.509	552.38
434.731	537.38
434.953	562.38
435.175	586.38
435.397	605.38
435.618	602.38
435.84	646.38
436.062	742.38
436.284	824.38
436.505	676.38
436.727	596.38
436.949	584.38
437.17	574.38
437.392	571.38
437.614	587.38
437.835	608.38
438.057	685.38
438.278	796.38
438.5	809.38
438.721	888.38
438.943	867.38
439.165	673.38
439.386	624.38
439.608	619.38
439.829	616.38
440.05	624.38
440.272	684.38
440.493	637.38
440.715	602.38
440.936	588.38
441.158	573.38
441.379	581.38
441.6	577.38
441.822	600.38
442.043	647.38
442.264	717.38
442.486	765.38
442.707	644.38
442.928	616.38
443.149	631.38
443.371	642.38
443.592	668.38
443.813	785.38
444.034	870.38
444.255	712.38
444.476	650.38
444.698	640.38
444.919	629.38
445.14	717.38
445.361	680.38
445.582	656.38
445.803	746.38
446.024	820.38
446.245	842.38
446.466	739.38
446.687	637.38
446.908	630.38
447.129	594.38
447.35	570.38
447.571	567.38
447.792	554.38
448.013	578.38
448.234	573.38
448.455	633.38
448.675	738.38
448.896	854.38
449.117	705.38
449.338	694.38
449.559	813.38
449.779	892.38
450	735.38
450.221	607.38
450.442	540.38
450.662	550.38
450.883	529.38
451.104	546.38
451.324	545.38
451.545	527.38
451.766	508.38
451.986	490.38
452.207	505.38
452.428	483.38
452.648	490.38
452.869	516.38
453.089	519.38
453.31	501.38
453.53	480.38
453.751	475.38
453.971	502.38
454.192	508.38
454.412	477.38
454.633	461.38
454.853	472.38
455.073	482.38
455.294	517.38
455.514	601.38
455.734	552.38
455.955	498.38
456.175	487.38
456.395	459.38
456.616	452.38
456.836	472.38
457.056	453.38
457.276	465.38
457.497	444.38
457.717	480.38
457.937	463.38
458.157	470.38
458.377	470.38
458.598	518.38
458.818	552.38
459.038	628.38
459.258	658.38
459.478	572.38
459.698	532.38
459.918	535.38
460.138	544.38
460.358	542.38
460.578	562.38
460.798	557.38
461.018	550.38
461.238	556.38
461.458	549.38
461.678	568.38
461.898	553.38
462.118	546.38
462.338	548.38
462.558	583.38
462.777	602.38
462.997	595.38
463.217	616.38
463.437	617.38
463.657	607.38
463.876	596.38
464.096	587.38
464.316	593.38
464.536	611.38
464.755	595.38
464.975	605.38
465.195	605.38
465.414	638.38
465.634	585.38
465.854	568.38
466.073	537.38
466.293	535.38
466.512	519.38
466.732	516.38
466.951	496.38
467.171	488.38
467.391	517.38
467.61	500.38
467.829	522.38
468.049	515.38
468.268	517.38
468.488	489.38
468.707	504.38
468.927	504.38
469.146	498.38
469.365	503.38
469.585	498.38
469.804	500.38
470.023	490.38
470.243	502.38
470.462	502.38
470.681	524.38
470.901	526.38
471.12	523.38
471.339	518.38
471.558	520.38
471.777	509.38
471.997	473.38
472.216	503.38
472.435	536.38
472.654	524.38
472.873	501.38
473.092	521.38
473.311	489.38
473.53	530.38
473.749	518.38
473.968	561.38
474.187	688.38
474.406	672.38
474.625	573.38
474.844	511.38
475.063	512.38
475.282	526.38
475.501	515.38
475.72	531.38
475.939	532.38
476.158	506.38
476.377	535.38
476.596	520.38
476.814	538.38
477.033	532.38
477.252	546.38
477.471	550.38
477.69	557.38
477.908	548.38
478.127	594.38
478.346	554.38
478.564	556.38
478.783	576.38
479.002	588.38
479.22	582.38
479.439	598.38
479.658	606.38
479.876	627.38
480.095	620.38
480.313	662.38
480.532	632.38
480.751	653.38
480.969	660.38
481.188	676.38
481.406	711.38
481.624	660.38
481.843	617.38
482.061	624.38
482.28	601.38
482.498	615.38
482.717	578.38
482.935	610.38
483.153	602.38
483.372	611.38
483.59	596.38
483.808	610.38
484.027	609.38
484.245	577.38
484.463	621.38
484.681	616.38
484.9	608.38
485.118	619.38
485.336	605.38
485.554	604.38
485.772	608.38
485.99	628.38
486.209	601.38
486.427	610.38
486.645	630.38
486.863	640.38
487.081	636.38
487.299	639.38
487.517	633.38
487.735	649.38
487.953	640.38
488.171	619.38
488.389	620.38
488.607	646.38
488.825	620.38
489.043	651.38
489.261	657.38
489.479	646.38
489.696	659.38
489.914	669.38
490.132	646.38
490.35	670.38
490.568	661.38
490.786	685.38
491.003	698.38
491.221	714.38
491.439	718.38
491.657	719.38
491.874	724.38
492.092	722.38
492.31	753.38
492.527	740.38
492.745	741.38
492.963	728.38
493.18	744.38
493.398	732.38
493.615	726.38
493.833	777.38
494.05	756.38
494.268	746.38
494.485	756.38
494.703	741.38
494.92	768.38
495.138	755.38
495.355	744.38
495.573	741.38
495.79	754.38
496.008	772.38
496.225	760.38
496.442	766.38
496.66	741.38
496.877	786.38
497.094	789.38
497.312	796.38
497.529	801.38
497.746	797.38
497.963	819.38
498.181	807.38
498.398	843.38
498.615	867.38
498.832	875.38
499.049	909.38
499.267	937.38
499.484	997.38
499.701	1027.38
499.918	1052.38
500.135	1152.38
500.352	1173.38
500.569	1240.38
500.786	1201.38
501.003	1214.38
501.22	1130.38
501.437	1093.38
501.654	1029.38
