Data from 1977.PennyLincolnUp.Lamp.En5.5.200Scan.071719.P1_HRD10591_16-08-00-865.txt Node
Date: Thu Jul 18 16:08:00 EDT 2019
User: cochatt
Spectrometer: HR+D1059
Trigger mode: 1
Integration Time (sec): 1.000000E-1
Scans to average: 1
Electric dark correction enabled: true
Nonlinearity correction enabled: false
Boxcar width: 0
XAxis mode: Wavelengths
Number of Pixels in Spectrum: 2048
>>>>>Begin Spectral Data<<<<<
223.165	-3.5
223.4	-3.5
223.635	-3.5
223.869	-21.5
224.104	-3.5
224.338	-14.5
224.573	-23.5
224.808	-18.5
225.042	-8.5
225.277	1.5
225.511	-1.5
225.746	-7.5
225.98	-3.5
226.215	2.5
226.449	19.5
226.683	29.5
226.918	29.5
227.152	23.5
227.387	25.5
227.621	48.5
227.856	44.5
228.09	48.5
228.324	52.5
228.559	53.5
228.793	74.5
229.027	89.5
229.262	111.5
229.496	131.5
229.73	134.5
229.964	134.5
230.199	122.5
230.433	110.5
230.667	114.5
230.901	118.5
231.136	108.5
231.37	103.5
231.604	105.5
231.838	122.5
232.072	131.5
232.306	107.5
232.541	104.5
232.775	101.5
233.009	127.5
233.243	109.5
233.477	123.5
233.711	115.5
233.945	107.5
234.179	107.5
234.413	103.5
234.647	115.5
234.881	112.5
235.115	115.5
235.349	115.5
235.583	108.5
235.817	127.5
236.051	127.5
236.285	113.5
236.519	130.5
236.753	139.5
236.987	133.5
237.221	167.5
237.455	215.5
237.689	173.5
237.922	133.5
238.156	141.5
238.39	131.5
238.624	124.5
238.858	119.5
239.091	125.5
239.325	124.5
239.559	125.5
239.793	128.5
240.027	143.5
240.26	127.5
240.494	159.5
240.728	140.5
240.961	158.5
241.195	151.5
241.429	137.5
241.662	126.5
241.896	140.5
242.13	133.5
242.363	124.5
242.597	129.5
242.83	133.5
243.064	122.5
243.298	145.5
243.531	122.5
243.765	129.5
243.998	151.5
244.232	131.5
244.465	144.5
244.699	131.5
244.932	131.5
245.166	152.5
245.399	143.5
245.633	156.5
245.866	151.5
246.099	144.5
246.333	146.5
246.566	157.5
246.8	155.5
247.033	161.5
247.266	172.5
247.5	165.5
247.733	172.5
247.966	170.5
248.2	163.5
248.433	144.5
248.666	173.5
248.899	188.5
249.133	199.5
249.366	203.5
249.599	200.5
249.832	186.5
250.066	179.5
250.299	161.5
250.532	191.5
250.765	189.5
250.998	227.5
251.231	236.5
251.465	210.5
251.698	199.5
251.931	190.5
252.164	206.5
252.397	196.5
252.63	200.5
252.863	207.5
253.096	218.5
253.329	222.5
253.562	228.5
253.795	202.5
254.028	213.5
254.261	208.5
254.494	240.5
254.727	258.5
254.96	284.5
255.193	263.5
255.426	247.5
255.659	227.5
255.892	235.5
256.124	229.5
256.357	214.5
256.59	222.5
256.823	232.5
257.056	218.5
257.289	214.5
257.521	219.5
257.754	216.5
257.987	214.5
258.22	212.5
258.452	207.5
258.685	204.5
258.918	205.5
259.151	217.5
259.383	230.5
259.616	239.5
259.849	239.5
260.081	236.5
260.314	246.5
260.547	263.5
260.779	249.5
261.012	243.5
261.244	234.5
261.477	226.5
261.71	227.5
261.942	230.5
262.175	216.5
262.407	227.5
262.64	226.5
262.872	209.5
263.105	231.5
263.337	223.5
263.57	233.5
263.802	222.5
264.035	212.5
264.267	215.5
264.499	228.5
264.732	217.5
264.964	215.5
265.197	224.5
265.429	225.5
265.661	219.5
265.894	221.5
266.126	257.5
266.358	232.5
266.591	248.5
266.823	229.5
267.055	229.5
267.287	238.5
267.52	232.5
267.752	226.5
267.984	237.5
268.216	247.5
268.448	243.5
268.681	237.5
268.913	261.5
269.145	268.5
269.377	278.5
269.609	301.5
269.841	281.5
270.073	266.5
270.306	300.5
270.538	329.5
270.77	335.5
271.002	326.5
271.234	315.5
271.466	311.5
271.698	310.5
271.93	339.5
272.162	315.5
272.394	319.5
272.626	292.5
272.858	287.5
273.09	303.5
273.322	294.5
273.553	284.5
273.785	278.5
274.017	284.5
274.249	279.5
274.481	279.5
274.713	286.5
274.945	270.5
275.176	286.5
275.408	285.5
275.64	262.5
275.872	267.5
276.104	279.5
276.335	296.5
276.567	301.5
276.799	304.5
277.031	325.5
277.262	340.5
277.494	329.5
277.726	317.5
277.957	296.5
278.189	287.5
278.421	289.5
278.652	298.5
278.884	283.5
279.115	291.5
279.347	289.5
279.579	271.5
279.81	267.5
280.042	276.5
280.273	284.5
280.505	287.5
280.736	279.5
280.968	285.5
281.199	295.5
281.431	319.5
281.662	293.5
281.894	279.5
282.125	289.5
282.356	314.5
282.588	313.5
282.819	329.5
283.051	307.5
283.282	311.5
283.513	294.5
283.745	285.5
283.976	305.5
284.207	323.5
284.439	288.5
284.67	292.5
284.901	294.5
285.132	311.5
285.364	307.5
285.595	297.5
285.826	291.5
286.057	309.5
286.288	303.5
286.52	325.5
286.751	316.5
286.982	297.5
287.213	323.5
287.444	307.5
287.675	314.5
287.906	314.5
288.138	317.5
288.369	327.5
288.6	320.5
288.831	326.5
289.062	326.5
289.293	324.5
289.524	327.5
289.755	318.5
289.986	321.5
290.217	310.5
290.448	316.5
290.679	331.5
290.91	339.5
291.141	312.5
291.371	337.5
291.602	320.5
291.833	309.5
292.064	297.5
292.295	310.5
292.526	307.5
292.757	318.5
292.987	322.5
293.218	327.5
293.449	308.5
293.68	332.5
293.91	321.5
294.141	315.5
294.372	320.5
294.603	317.5
294.833	322.5
295.064	321.5
295.295	292.5
295.525	283.5
295.756	317.5
295.987	337.5
296.217	348.5
296.448	351.5
296.679	352.5
296.909	339.5
297.14	326.5
297.37	340.5
297.601	326.5
297.831	335.5
298.062	335.5
298.292	329.5
298.523	325.5
298.753	346.5
298.984	343.5
299.214	331.5
299.445	342.5
299.675	335.5
299.905	338.5
300.136	309.5
300.366	350.5
300.597	343.5
300.827	344.5
301.057	348.5
301.288	344.5
301.518	349.5
301.748	345.5
301.979	368.5
302.209	356.5
302.439	357.5
302.669	358.5
302.9	361.5
303.13	346.5
303.36	343.5
303.59	350.5
303.82	358.5
304.051	374.5
304.281	357.5
304.511	359.5
304.741	376.5
304.971	357.5
305.201	357.5
305.431	344.5
305.661	351.5
305.891	349.5
306.121	341.5
306.352	335.5
306.582	357.5
306.812	350.5
307.042	351.5
307.272	347.5
307.502	357.5
307.731	347.5
307.961	359.5
308.191	341.5
308.421	363.5
308.651	362.5
308.881	346.5
309.111	368.5
309.341	378.5
309.571	360.5
309.8	383.5
310.03	389.5
310.26	394.5
310.49	387.5
310.72	403.5
310.949	412.5
311.179	413.5
311.409	398.5
311.639	405.5
311.868	393.5
312.098	402.5
312.328	393.5
312.557	409.5
312.787	416.5
313.017	421.5
313.246	417.5
313.476	391.5
313.706	410.5
313.935	414.5
314.165	405.5
314.394	416.5
314.624	406.5
314.853	397.5
315.083	390.5
315.312	407.5
315.542	395.5
315.771	424.5
316.001	395.5
316.23	382.5
316.46	388.5
316.689	423.5
316.919	392.5
317.148	422.5
317.377	405.5
317.607	397.5
317.836	379.5
318.065	407.5
318.295	394.5
318.524	378.5
318.753	388.5
318.983	396.5
319.212	406.5
319.441	407.5
319.67	413.5
319.9	389.5
320.129	406.5
320.358	393.5
320.587	413.5
320.816	403.5
321.046	427.5
321.275	407.5
321.504	403.5
321.733	405.5
321.962	437.5
322.191	427.5
322.42	441.5
322.649	443.5
322.878	462.5
323.108	441.5
323.337	474.5
323.566	483.5
323.795	508.5
324.024	560.5
324.253	655.5
324.482	895.5
324.71	1315.5
324.939	1844.5
325.168	1596.5
325.397	831.5
325.626	593.5
325.855	533.5
326.084	500.5
326.313	492.5
326.542	504.5
326.77	534.5
326.999	636.5
327.228	803.5
327.457	1175.5
327.686	1350.5
327.914	961.5
328.143	663.5
328.372	587.5
328.6	559.5
328.829	546.5
329.058	524.5
329.287	547.5
329.515	520.5
329.744	516.5
329.972	520.5
330.201	519.5
330.43	541.5
330.658	574.5
330.887	571.5
331.115	573.5
331.344	496.5
331.572	476.5
331.801	492.5
332.03	489.5
332.258	489.5
332.486	482.5
332.715	455.5
332.943	473.5
333.172	481.5
333.4	485.5
333.629	494.5
333.857	506.5
334.085	528.5
334.314	518.5
334.542	536.5
334.771	551.5
334.999	515.5
335.227	499.5
335.455	485.5
335.684	501.5
335.912	499.5
336.14	472.5
336.369	468.5
336.597	474.5
336.825	460.5
337.053	472.5
337.281	462.5
337.51	464.5
337.738	468.5
337.966	474.5
338.194	449.5
338.422	461.5
338.65	454.5
338.878	450.5
339.106	449.5
339.334	455.5
339.562	437.5
339.79	447.5
340.018	432.5
340.246	446.5
340.474	460.5
340.702	445.5
340.93	436.5
341.158	426.5
341.386	432.5
341.614	427.5
341.842	435.5
342.07	439.5
342.298	446.5
342.526	424.5
342.754	415.5
342.981	425.5
343.209	448.5
343.437	437.5
343.665	437.5
343.893	459.5
344.12	479.5
344.348	468.5
344.576	446.5
344.804	459.5
345.031	457.5
345.259	449.5
345.487	464.5
345.714	461.5
345.942	446.5
346.17	433.5
346.397	418.5
346.625	426.5
346.853	438.5
347.08	427.5
347.308	414.5
347.535	451.5
347.763	469.5
347.99	429.5
348.218	457.5
348.445	447.5
348.673	425.5
348.9	421.5
349.128	408.5
349.355	422.5
349.583	417.5
349.81	412.5
350.037	398.5
350.265	406.5
350.492	419.5
350.72	430.5
350.947	413.5
351.174	421.5
351.402	416.5
351.629	413.5
351.856	428.5
352.083	427.5
352.311	420.5
352.538	415.5
352.765	401.5
352.992	424.5
353.22	416.5
353.447	422.5
353.674	415.5
353.901	387.5
354.128	395.5
354.355	422.5
354.583	397.5
354.81	395.5
355.037	390.5
355.264	415.5
355.491	382.5
355.718	390.5
355.945	421.5
356.172	417.5
356.399	396.5
356.626	392.5
356.853	396.5
357.08	393.5
357.307	405.5
357.534	387.5
357.761	395.5
357.988	411.5
358.215	396.5
358.441	405.5
358.668	394.5
358.895	405.5
359.122	405.5
359.349	419.5
359.576	412.5
359.802	421.5
360.029	440.5
360.256	453.5
360.483	430.5
360.709	436.5
360.936	422.5
361.163	428.5
361.39	442.5
361.616	395.5
361.843	397.5
362.07	412.5
362.296	411.5
362.523	415.5
362.749	427.5
362.976	388.5
363.203	400.5
363.429	413.5
363.656	403.5
363.882	395.5
364.109	379.5
364.335	411.5
364.562	400.5
364.788	380.5
365.015	402.5
365.241	381.5
365.468	383.5
365.694	403.5
365.92	387.5
366.147	407.5
366.373	399.5
366.599	383.5
366.826	388.5
367.052	400.5
367.278	396.5
367.505	400.5
367.731	407.5
367.957	384.5
368.184	414.5
368.41	396.5
368.636	382.5
368.862	408.5
369.089	409.5
369.315	404.5
369.541	405.5
369.767	401.5
369.993	400.5
370.219	379.5
370.445	417.5
370.672	421.5
370.898	412.5
371.124	398.5
371.35	373.5
371.576	398.5
371.802	390.5
372.028	380.5
372.254	397.5
372.48	386.5
372.706	402.5
372.932	389.5
373.158	409.5
373.384	414.5
373.61	402.5
373.835	389.5
374.061	392.5
374.287	388.5
374.513	386.5
374.739	401.5
374.965	419.5
375.191	415.5
375.416	410.5
375.642	403.5
375.868	420.5
376.094	407.5
376.319	404.5
376.545	387.5
376.771	399.5
376.997	412.5
377.222	389.5
377.448	391.5
377.674	382.5
377.899	399.5
378.125	388.5
378.35	388.5
378.576	383.5
378.802	386.5
379.027	372.5
379.253	382.5
379.478	400.5
379.704	388.5
379.929	390.5
380.155	374.5
380.38	388.5
380.606	401.5
380.831	405.5
381.057	404.5
381.282	410.5
381.507	397.5
381.733	402.5
381.958	394.5
382.184	403.5
382.409	384.5
382.634	394.5
382.86	383.5
383.085	424.5
383.31	408.5
383.535	402.5
383.761	396.5
383.986	409.5
384.211	399.5
384.436	422.5
384.662	411.5
384.887	416.5
385.112	419.5
385.337	424.5
385.562	422.5
385.787	428.5
386.013	427.5
386.238	442.5
386.463	444.5
386.688	436.5
386.913	433.5
387.138	425.5
387.363	414.5
387.588	436.5
387.813	416.5
388.038	411.5
388.263	432.5
388.488	431.5
388.713	432.5
388.938	444.5
389.163	432.5
389.387	433.5
389.612	416.5
389.837	435.5
390.062	419.5
390.287	430.5
390.512	423.5
390.736	419.5
390.961	429.5
391.186	428.5
391.411	438.5
391.636	441.5
391.86	441.5
392.085	460.5
392.31	437.5
392.534	408.5
392.759	455.5
392.984	452.5
393.208	442.5
393.433	454.5
393.658	440.5
393.882	439.5
394.107	436.5
394.331	443.5
394.556	439.5
394.78	450.5
395.005	424.5
395.229	448.5
395.454	447.5
395.678	432.5
395.903	451.5
396.127	467.5
396.352	481.5
396.576	445.5
396.801	455.5
397.025	447.5
397.249	460.5
397.474	459.5
397.698	453.5
397.922	472.5
398.147	470.5
398.371	464.5
398.595	502.5
398.82	489.5
399.044	490.5
399.268	500.5
399.492	559.5
399.717	575.5
399.941	621.5
400.165	597.5
400.389	591.5
400.613	554.5
400.837	523.5
401.062	537.5
401.286	509.5
401.51	483.5
401.734	464.5
401.958	495.5
402.182	492.5
402.406	488.5
402.63	489.5
402.854	521.5
403.078	508.5
403.302	505.5
403.526	488.5
403.75	510.5
403.974	524.5
404.198	516.5
404.422	526.5
404.645	517.5
404.869	509.5
405.093	552.5
405.317	571.5
405.541	614.5
405.765	570.5
405.988	553.5
406.212	549.5
406.436	557.5
406.66	560.5
406.883	548.5
407.107	560.5
407.331	617.5
407.555	654.5
407.778	648.5
408.002	608.5
408.226	575.5
408.449	572.5
408.673	535.5
408.896	579.5
409.12	627.5
409.344	598.5
409.567	539.5
409.791	502.5
410.014	543.5
410.238	502.5
410.461	519.5
410.685	521.5
410.908	540.5
411.132	561.5
411.355	581.5
411.578	552.5
411.802	495.5
412.025	519.5
412.249	499.5
412.472	501.5
412.695	540.5
412.919	545.5
413.142	506.5
413.365	487.5
413.589	500.5
413.812	477.5
414.035	485.5
414.258	481.5
414.482	495.5
414.705	469.5
414.928	471.5
415.151	464.5
415.374	471.5
415.597	465.5
415.821	465.5
416.044	471.5
416.267	460.5
416.49	496.5
416.713	458.5
416.936	445.5
417.159	480.5
417.382	455.5
417.605	473.5
417.828	489.5
418.051	486.5
418.274	481.5
418.497	483.5
418.72	477.5
418.943	484.5
419.166	492.5
419.389	503.5
419.611	515.5
419.834	495.5
420.057	496.5
420.28	486.5
420.503	489.5
420.726	484.5
420.948	507.5
421.171	521.5
421.394	548.5
421.617	497.5
421.839	494.5
422.062	494.5
422.285	482.5
422.507	548.5
422.73	601.5
422.953	575.5
423.175	544.5
423.398	502.5
423.621	502.5
423.843	515.5
424.066	529.5
424.288	508.5
424.511	520.5
424.733	601.5
424.956	657.5
425.178	600.5
425.401	627.5
425.623	637.5
425.846	536.5
426.068	523.5
426.291	513.5
426.513	518.5
426.735	518.5
426.958	552.5
427.18	622.5
427.402	724.5
427.625	804.5
427.847	671.5
428.069	583.5
428.292	524.5
428.514	515.5
428.736	488.5
428.958	486.5
429.181	464.5
429.403	464.5
429.625	487.5
429.847	489.5
430.069	565.5
430.292	549.5
430.514	500.5
430.736	478.5
430.958	479.5
431.18	439.5
431.402	451.5
431.624	455.5
431.846	437.5
432.068	445.5
432.29	474.5
432.512	444.5
432.734	451.5
432.956	464.5
433.178	464.5
433.4	453.5
433.622	470.5
433.844	479.5
434.066	461.5
434.287	445.5
434.509	460.5
434.731	452.5
434.953	472.5
435.175	476.5
435.397	474.5
435.618	504.5
435.84	559.5
436.062	628.5
436.284	675.5
436.505	560.5
436.727	515.5
436.949	469.5
437.17	472.5
437.392	462.5
437.614	479.5
437.835	481.5
438.057	565.5
438.278	638.5
438.5	650.5
438.721	735.5
438.943	709.5
439.165	553.5
439.386	499.5
439.608	524.5
439.829	516.5
440.05	537.5
440.272	558.5
440.493	539.5
440.715	495.5
440.936	483.5
441.158	488.5
441.379	481.5
441.6	471.5
441.822	469.5
442.043	541.5
442.264	617.5
442.486	653.5
442.707	581.5
442.928	555.5
443.149	517.5
443.371	539.5
443.592	578.5
443.813	652.5
444.034	690.5
444.255	603.5
444.476	568.5
444.698	545.5
444.919	528.5
445.14	662.5
445.361	586.5
445.582	577.5
445.803	603.5
446.024	656.5
446.245	704.5
446.466	647.5
446.687	535.5
446.908	528.5
447.129	487.5
447.35	479.5
447.571	474.5
447.792	476.5
448.013	474.5
448.234	476.5
448.455	541.5
448.675	629.5
448.896	703.5
449.117	603.5
449.338	569.5
449.559	663.5
449.779	743.5
450	606.5
450.221	517.5
450.442	485.5
450.662	451.5
450.883	458.5
451.104	459.5
451.324	456.5
451.545	445.5
451.766	442.5
451.986	413.5
452.207	424.5
452.428	411.5
452.648	422.5
452.869	429.5
453.089	420.5
453.31	443.5
453.53	420.5
453.751	435.5
453.971	417.5
454.192	448.5
454.412	407.5
454.633	402.5
454.853	383.5
455.073	405.5
455.294	438.5
455.514	495.5
455.734	467.5
455.955	400.5
456.175	398.5
456.395	388.5
456.616	384.5
456.836	397.5
457.056	394.5
457.276	380.5
457.497	416.5
457.717	410.5
457.937	410.5
458.157	409.5
458.377	407.5
458.598	426.5
458.818	460.5
459.038	533.5
459.258	557.5
459.478	481.5
459.698	465.5
459.918	464.5
460.138	453.5
460.358	437.5
460.578	449.5
460.798	435.5
461.018	469.5
461.238	476.5
461.458	457.5
461.678	439.5
461.898	466.5
462.118	465.5
462.338	503.5
462.558	479.5
462.777	471.5
462.997	480.5
463.217	526.5
463.437	545.5
463.657	490.5
463.876	498.5
464.096	513.5
464.316	511.5
464.536	480.5
464.755	503.5
464.975	499.5
465.195	505.5
465.414	548.5
465.634	498.5
465.854	456.5
466.073	433.5
466.293	446.5
466.512	440.5
466.732	447.5
466.951	431.5
467.171	425.5
467.391	417.5
467.61	439.5
467.829	433.5
468.049	431.5
468.268	420.5
468.488	428.5
468.707	420.5
468.927	419.5
469.146	408.5
469.365	423.5
469.585	427.5
469.804	432.5
470.023	427.5
470.243	425.5
470.462	444.5
470.681	459.5
470.901	454.5
471.12	429.5
471.339	435.5
471.558	414.5
471.777	425.5
471.997	415.5
472.216	446.5
472.435	461.5
472.654	453.5
472.873	421.5
473.092	422.5
473.311	428.5
473.53	425.5
473.749	436.5
473.968	467.5
474.187	556.5
474.406	587.5
474.625	472.5
474.844	455.5
475.063	441.5
475.282	424.5
475.501	408.5
475.72	452.5
475.939	419.5
476.158	438.5
476.377	456.5
476.596	441.5
476.814	439.5
477.033	432.5
477.252	456.5
477.471	482.5
477.69	479.5
477.908	453.5
478.127	463.5
478.346	464.5
478.564	486.5
478.783	485.5
479.002	505.5
479.22	493.5
479.439	492.5
479.658	501.5
479.876	495.5
480.095	519.5
480.313	546.5
480.532	536.5
480.751	544.5
480.969	509.5
481.188	560.5
481.406	556.5
481.624	549.5
481.843	512.5
482.061	516.5
482.28	505.5
482.498	484.5
482.717	489.5
482.935	498.5
483.153	498.5
483.372	472.5
483.59	482.5
483.808	508.5
484.027	489.5
484.245	507.5
484.463	497.5
484.681	525.5
484.9	488.5
485.118	497.5
485.336	505.5
485.554	526.5
485.772	530.5
485.99	508.5
486.209	511.5
486.427	502.5
486.645	521.5
486.863	538.5
487.081	537.5
487.299	523.5
487.517	542.5
487.735	520.5
487.953	531.5
488.171	513.5
488.389	515.5
488.607	519.5
488.825	530.5
489.043	504.5
489.261	535.5
489.479	530.5
489.696	526.5
489.914	530.5
490.132	535.5
490.35	548.5
490.568	558.5
490.786	567.5
491.003	558.5
491.221	577.5
491.439	575.5
491.657	589.5
491.874	600.5
492.092	601.5
492.31	593.5
492.527	575.5
492.745	577.5
492.963	599.5
493.18	588.5
493.398	595.5
493.615	641.5
493.833	609.5
494.05	596.5
494.268	606.5
494.485	599.5
494.703	612.5
494.92	617.5
495.138	609.5
495.355	616.5
495.573	594.5
495.79	595.5
496.008	609.5
496.225	613.5
496.442	607.5
496.66	614.5
496.877	621.5
497.094	613.5
497.312	644.5
497.529	624.5
497.746	658.5
497.963	656.5
498.181	693.5
498.398	700.5
498.615	708.5
498.832	697.5
499.049	732.5
499.267	736.5
499.484	763.5
499.701	831.5
499.918	836.5
500.135	895.5
500.352	925.5
500.569	954.5
500.786	957.5
501.003	918.5
501.22	913.5
501.437	888.5
501.654	845.5
501.871	809.5
502.088	776.5
502.305	723.5
502.522	731.5
502.739	733.5
502.956	686.5
503.172	673.5
503.389	653.5
503.606	662.5
503.823	661.5
504.04	630.5
504.256	645.5
504.473	630.5
504.69	637.5
504.907	630.5
505.123	627.5
505.34	606.5
505.557	599.5
505.773	606.5
505.99	580.5
506.207	596.5
506.423	591.5
506.64	583.5
506.856	576.5
507.073	571.5
507.289	564.5
507.506	583.5
507.722	553.5
507.939	602.5
508.155	551.5
508.372	551.5
508.588	540.5
508.805	548.5
509.021	540.5
509.238	581.5
509.454	553.5
509.67	556.5
509.887	541.5
510.103	548.5
510.319	528.5
510.536	601.5
510.752	864.5
510.968	702.5
511.184	559.5
511.401	509.5
511.617	541.5
511.833	498.5
512.049	524.5
512.265	539.5
512.481	537.5
512.698	495.5
512.914	491.5
513.13	525.5
513.346	516.5
513.562	537.5
513.778	510.5
513.994	525.5
514.21	518.5
514.426	525.5
514.642	568.5
514.858	560.5
515.074	605.5
515.29	662.5
515.506	903.5
515.721	728.5
515.937	597.5
516.153	583.5
516.369	537.5
516.585	541.5
516.801	550.5
517.016	549.5
517.232	565.5
517.448	532.5
517.664	570.5
517.879	578.5
518.095	551.5
518.311	551.5
518.527	546.5
518.742	531.5
518.958	543.5
519.173	521.5
519.389	519.5
519.605	527.5
519.82	536.5
520.036	517.5
