Data from 1977.PennyLincolnUp.Lamp.En5.5.200Scan.071719.P1_HRD10591_16-05-18-864.txt Node
Date: Thu Jul 18 16:05:18 EDT 2019
User: cochatt
Spectrometer: HR+D1059
Trigger mode: 1
Integration Time (sec): 1.000000E-1
Scans to average: 1
Electric dark correction enabled: true
Nonlinearity correction enabled: false
Boxcar width: 0
XAxis mode: Wavelengths
Number of Pixels in Spectrum: 2048
>>>>>Begin Spectral Data<<<<<
223.165	-16.81
223.4	-16.81
223.635	-16.81
223.869	-22.81
224.104	-23.81
224.338	-1.81
224.573	-7.81
224.808	-17.81
225.042	-1.81
225.277	-6.81
225.511	-7.81
225.746	2.19
225.98	7.19
226.215	8.19
226.449	15.19
226.683	16.19
226.918	22.19
227.152	36.19
227.387	20.19
227.621	27.19
227.856	40.19
228.09	43.19
228.324	45.19
228.559	44.19
228.793	61.19
229.027	99.19
229.262	89.19
229.496	107.19
229.73	105.19
229.964	149.19
230.199	88.19
230.433	104.19
230.667	109.19
230.901	120.19
231.136	109.19
231.37	114.19
231.604	103.19
231.838	101.19
232.072	107.19
232.306	107.19
232.541	118.19
232.775	122.19
233.009	95.19
233.243	123.19
233.477	105.19
233.711	129.19
233.945	131.19
234.179	122.19
234.413	117.19
234.647	112.19
234.881	115.19
235.115	113.19
235.349	121.19
235.583	119.19
235.817	97.19
236.051	123.19
236.285	121.19
236.519	120.19
236.753	133.19
236.987	132.19
237.221	142.19
237.455	173.19
237.689	151.19
237.922	129.19
238.156	126.19
238.39	111.19
238.624	125.19
238.858	118.19
239.091	121.19
239.325	126.19
239.559	126.19
239.793	135.19
240.027	121.19
240.26	138.19
240.494	144.19
240.728	129.19
240.961	132.19
241.195	109.19
241.429	123.19
241.662	120.19
241.896	120.19
242.13	136.19
242.363	128.19
242.597	137.19
242.83	137.19
243.064	140.19
243.298	137.19
243.531	135.19
243.765	139.19
243.998	143.19
244.232	137.19
244.465	139.19
244.699	148.19
244.932	156.19
245.166	139.19
245.399	145.19
245.633	130.19
245.866	145.19
246.099	145.19
246.333	123.19
246.566	140.19
246.8	143.19
247.033	135.19
247.266	156.19
247.5	150.19
247.733	166.19
247.966	170.19
248.2	159.19
248.433	155.19
248.666	188.19
248.899	180.19
249.133	180.19
249.366	180.19
249.599	176.19
249.832	177.19
250.066	181.19
250.299	172.19
250.532	181.19
250.765	187.19
250.998	192.19
251.231	215.19
251.465	202.19
251.698	207.19
251.931	180.19
252.164	180.19
252.397	189.19
252.63	181.19
252.863	191.19
253.096	193.19
253.329	205.19
253.562	214.19
253.795	194.19
254.028	195.19
254.261	199.19
254.494	197.19
254.727	221.19
254.96	233.19
255.193	240.19
255.426	211.19
255.659	219.19
255.892	207.19
256.124	208.19
256.357	213.19
256.59	209.19
256.823	204.19
257.056	214.19
257.289	206.19
257.521	203.19
257.754	198.19
257.987	201.19
258.22	192.19
258.452	184.19
258.685	213.19
258.918	188.19
259.151	195.19
259.383	207.19
259.616	207.19
259.849	218.19
260.081	208.19
260.314	219.19
260.547	233.19
260.779	224.19
261.012	235.19
261.244	211.19
261.477	218.19
261.71	209.19
261.942	229.19
262.175	208.19
262.407	223.19
262.64	204.19
262.872	188.19
263.105	211.19
263.337	204.19
263.57	225.19
263.802	205.19
264.035	223.19
264.267	203.19
264.499	207.19
264.732	216.19
264.964	209.19
265.197	212.19
265.429	203.19
265.661	199.19
265.894	215.19
266.126	230.19
266.358	212.19
266.591	215.19
266.823	216.19
267.055	205.19
267.287	217.19
267.52	222.19
267.752	225.19
267.984	223.19
268.216	220.19
268.448	240.19
268.681	248.19
268.913	248.19
269.145	255.19
269.377	252.19
269.609	242.19
269.841	241.19
270.073	247.19
270.306	261.19
270.538	284.19
270.77	274.19
271.002	257.19
271.234	277.19
271.466	290.19
271.698	273.19
271.93	278.19
272.162	274.19
272.394	284.19
272.626	282.19
272.858	259.19
273.09	251.19
273.322	260.19
273.553	271.19
273.785	261.19
274.017	257.19
274.249	265.19
274.481	272.19
274.713	247.19
274.945	263.19
275.176	263.19
275.408	270.19
275.64	253.19
275.872	247.19
276.104	252.19
276.335	277.19
276.567	260.19
276.799	272.19
277.031	293.19
277.262	304.19
277.494	285.19
277.726	287.19
277.957	275.19
278.189	254.19
278.421	268.19
278.652	284.19
278.884	258.19
279.115	251.19
279.347	263.19
279.579	270.19
279.81	276.19
280.042	273.19
280.273	273.19
280.505	251.19
280.736	276.19
280.968	259.19
281.199	263.19
281.431	285.19
281.662	285.19
281.894	274.19
282.125	283.19
282.356	280.19
282.588	284.19
282.819	297.19
283.051	266.19
283.282	288.19
283.513	288.19
283.745	279.19
283.976	300.19
284.207	266.19
284.439	295.19
284.67	283.19
284.901	296.19
285.132	281.19
285.364	295.19
285.595	293.19
285.826	284.19
286.057	288.19
286.288	296.19
286.52	299.19
286.751	290.19
286.982	287.19
287.213	288.19
287.444	297.19
287.675	311.19
287.906	299.19
288.138	297.19
288.369	296.19
288.6	295.19
288.831	298.19
289.062	292.19
289.293	307.19
289.524	302.19
289.755	319.19
289.986	315.19
290.217	288.19
290.448	300.19
290.679	307.19
290.91	308.19
291.141	281.19
291.371	287.19
291.602	297.19
291.833	283.19
292.064	295.19
292.295	297.19
292.526	320.19
292.757	305.19
292.987	305.19
293.218	294.19
293.449	314.19
293.68	296.19
293.91	292.19
294.141	300.19
294.372	295.19
294.603	292.19
294.833	318.19
295.064	299.19
295.295	321.19
295.525	298.19
295.756	296.19
295.987	314.19
296.217	328.19
296.448	312.19
296.679	316.19
296.909	308.19
297.14	310.19
297.37	328.19
297.601	319.19
297.831	329.19
298.062	305.19
298.292	325.19
298.523	313.19
298.753	303.19
298.984	313.19
299.214	317.19
299.445	324.19
299.675	328.19
299.905	316.19
300.136	309.19
300.366	332.19
300.597	318.19
300.827	329.19
301.057	319.19
301.288	323.19
301.518	323.19
301.748	301.19
301.979	350.19
302.209	337.19
302.439	332.19
302.669	328.19
302.9	331.19
303.13	347.19
303.36	340.19
303.59	324.19
303.82	340.19
304.051	337.19
304.281	348.19
304.511	344.19
304.741	348.19
304.971	344.19
305.201	346.19
305.431	350.19
305.661	344.19
305.891	334.19
306.121	331.19
306.352	331.19
306.582	337.19
306.812	324.19
307.042	341.19
307.272	337.19
307.502	330.19
307.731	341.19
307.961	337.19
308.191	333.19
308.421	340.19
308.651	327.19
308.881	343.19
309.111	345.19
309.341	361.19
309.571	343.19
309.8	349.19
310.03	355.19
310.26	352.19
310.49	363.19
310.72	364.19
310.949	367.19
311.179	365.19
311.409	341.19
311.639	368.19
311.868	360.19
312.098	357.19
312.328	368.19
312.557	377.19
312.787	386.19
313.017	385.19
313.246	364.19
313.476	359.19
313.706	391.19
313.935	367.19
314.165	377.19
314.394	368.19
314.624	378.19
314.853	369.19
315.083	391.19
315.312	375.19
315.542	395.19
315.771	370.19
316.001	377.19
316.23	372.19
316.46	359.19
316.689	381.19
316.919	371.19
317.148	379.19
317.377	378.19
317.607	390.19
317.836	378.19
318.065	379.19
318.295	375.19
318.524	373.19
318.753	379.19
318.983	380.19
319.212	366.19
319.441	383.19
319.67	389.19
319.9	369.19
320.129	365.19
320.358	378.19
320.587	373.19
320.816	366.19
321.046	388.19
321.275	391.19
321.504	398.19
321.733	387.19
321.962	400.19
322.191	390.19
322.42	401.19
322.649	416.19
322.878	407.19
323.108	419.19
323.337	419.19
323.566	416.19
323.795	453.19
324.024	475.19
324.253	540.19
324.482	723.19
324.71	992.19
324.939	1364.19
325.168	1180.19
325.397	669.19
325.626	484.19
325.855	452.19
326.084	449.19
326.313	450.19
326.542	438.19
326.77	460.19
326.999	519.19
327.228	684.19
327.457	907.19
327.686	1027.19
327.914	762.19
328.143	553.19
328.372	492.19
328.6	471.19
328.829	470.19
329.058	474.19
329.287	468.19
329.515	467.19
329.744	470.19
329.972	463.19
330.201	462.19
330.43	497.19
330.658	479.19
330.887	483.19
331.115	477.19
331.344	451.19
331.572	458.19
331.801	461.19
332.03	451.19
332.258	432.19
332.486	425.19
332.715	452.19
332.943	421.19
333.172	446.19
333.4	443.19
333.629	453.19
333.857	455.19
334.085	456.19
334.314	481.19
334.542	471.19
334.771	489.19
334.999	475.19
335.227	453.19
335.455	443.19
335.684	459.19
335.912	446.19
336.14	449.19
336.369	410.19
336.597	437.19
336.825	438.19
337.053	436.19
337.281	443.19
337.51	445.19
337.738	428.19
337.966	432.19
338.194	451.19
338.422	418.19
338.65	428.19
338.878	439.19
339.106	420.19
339.334	427.19
339.562	426.19
339.79	413.19
340.018	422.19
340.246	396.19
340.474	427.19
340.702	413.19
340.93	411.19
341.158	414.19
341.386	424.19
341.614	418.19
341.842	401.19
342.07	424.19
342.298	412.19
342.526	409.19
342.754	411.19
342.981	414.19
343.209	405.19
343.437	415.19
343.665	420.19
343.893	441.19
344.12	422.19
344.348	420.19
344.576	439.19
344.804	439.19
345.031	433.19
345.259	435.19
345.487	409.19
345.714	416.19
345.942	420.19
346.17	405.19
346.397	405.19
346.625	391.19
346.853	395.19
347.08	395.19
347.308	402.19
347.535	412.19
347.763	423.19
347.99	402.19
348.218	399.19
348.445	409.19
348.673	412.19
348.9	409.19
349.128	381.19
349.355	375.19
349.583	381.19
349.81	403.19
350.037	387.19
350.265	395.19
350.492	388.19
350.72	410.19
350.947	387.19
351.174	383.19
351.402	399.19
351.629	394.19
351.856	395.19
352.083	378.19
352.311	398.19
352.538	391.19
352.765	386.19
352.992	390.19
353.22	391.19
353.447	367.19
353.674	378.19
353.901	382.19
354.128	379.19
354.355	384.19
354.583	387.19
354.81	367.19
355.037	365.19
355.264	371.19
355.491	383.19
355.718	397.19
355.945	356.19
356.172	362.19
356.399	365.19
356.626	375.19
356.853	357.19
357.08	379.19
357.307	344.19
357.534	361.19
357.761	367.19
357.988	381.19
358.215	361.19
358.441	372.19
358.668	377.19
358.895	393.19
359.122	373.19
359.349	368.19
359.576	373.19
359.802	383.19
360.029	394.19
360.256	417.19
360.483	395.19
360.709	385.19
360.936	406.19
361.163	391.19
361.39	394.19
361.616	370.19
361.843	389.19
362.07	371.19
362.296	393.19
362.523	382.19
362.749	376.19
362.976	371.19
363.203	377.19
363.429	358.19
363.656	367.19
363.882	381.19
364.109	380.19
364.335	368.19
364.562	368.19
364.788	367.19
365.015	375.19
365.241	381.19
365.468	358.19
365.694	385.19
365.92	372.19
366.147	384.19
366.373	381.19
366.599	390.19
366.826	354.19
367.052	376.19
367.278	393.19
367.505	368.19
367.731	358.19
367.957	379.19
368.184	360.19
368.41	376.19
368.636	371.19
368.862	390.19
369.089	380.19
369.315	392.19
369.541	382.19
369.767	380.19
369.993	367.19
370.219	369.19
370.445	380.19
370.672	377.19
370.898	385.19
371.124	378.19
371.35	384.19
371.576	386.19
371.802	371.19
372.028	383.19
372.254	375.19
372.48	378.19
372.706	393.19
372.932	403.19
373.158	391.19
373.384	396.19
373.61	382.19
373.835	394.19
374.061	381.19
374.287	378.19
374.513	393.19
374.739	376.19
374.965	379.19
375.191	395.19
375.416	391.19
375.642	403.19
375.868	395.19
376.094	384.19
376.319	368.19
376.545	383.19
376.771	377.19
376.997	394.19
377.222	391.19
377.448	383.19
377.674	380.19
377.899	380.19
378.125	377.19
378.35	377.19
378.576	376.19
378.802	364.19
379.027	379.19
379.253	365.19
379.478	363.19
379.704	374.19
379.929	365.19
380.155	357.19
380.38	381.19
380.606	356.19
380.831	375.19
381.057	379.19
381.282	373.19
381.507	375.19
381.733	373.19
381.958	366.19
382.184	383.19
382.409	391.19
382.634	376.19
382.86	410.19
383.085	389.19
383.31	392.19
383.535	387.19
383.761	394.19
383.986	385.19
384.211	386.19
384.436	398.19
384.662	405.19
384.887	431.19
385.112	403.19
385.337	413.19
385.562	399.19
385.787	412.19
386.013	404.19
386.238	425.19
386.463	411.19
386.688	422.19
386.913	401.19
387.138	419.19
387.363	416.19
387.588	414.19
387.813	405.19
388.038	399.19
388.263	415.19
388.488	408.19
388.713	408.19
388.938	412.19
389.163	408.19
389.387	420.19
389.612	409.19
389.837	411.19
390.062	409.19
390.287	420.19
390.512	397.19
390.736	405.19
390.961	424.19
391.186	416.19
391.411	414.19
391.636	413.19
391.86	432.19
392.085	458.19
392.31	415.19
392.534	456.19
392.759	435.19
392.984	425.19
393.208	419.19
393.433	408.19
393.658	401.19
393.882	417.19
394.107	399.19
394.331	431.19
394.556	429.19
394.78	406.19
395.005	437.19
395.229	435.19
395.454	453.19
395.678	438.19
395.903	451.19
396.127	436.19
396.352	445.19
396.576	432.19
396.801	428.19
397.025	423.19
397.249	426.19
397.474	433.19
397.698	427.19
397.922	440.19
398.147	440.19
398.371	449.19
398.595	441.19
398.82	452.19
399.044	471.19
399.268	523.19
399.492	535.19
399.717	560.19
399.941	576.19
400.165	590.19
400.389	579.19
400.613	541.19
400.837	492.19
401.062	486.19
401.286	473.19
401.51	473.19
401.734	471.19
401.958	492.19
402.182	483.19
402.406	483.19
402.63	464.19
402.854	484.19
403.078	451.19
403.302	496.19
403.526	495.19
403.75	486.19
403.974	494.19
404.198	482.19
404.422	486.19
404.645	501.19
404.869	489.19
405.093	519.19
405.317	508.19
405.541	560.19
405.765	516.19
405.988	520.19
406.212	496.19
406.436	513.19
406.66	499.19
406.883	490.19
407.107	537.19
407.331	559.19
407.555	615.19
407.778	602.19
408.002	571.19
408.226	528.19
408.449	531.19
408.673	525.19
408.896	521.19
409.12	577.19
409.344	548.19
409.567	504.19
409.791	494.19
410.014	493.19
410.238	493.19
410.461	492.19
410.685	483.19
410.908	502.19
411.132	524.19
411.355	533.19
411.578	503.19
411.802	492.19
412.025	485.19
412.249	503.19
412.472	492.19
412.695	520.19
412.919	505.19
413.142	457.19
413.365	461.19
413.589	461.19
413.812	440.19
414.035	447.19
414.258	445.19
414.482	464.19
414.705	454.19
414.928	456.19
415.151	442.19
415.374	464.19
415.597	437.19
415.821	451.19
416.044	439.19
416.267	447.19
416.49	437.19
416.713	441.19
416.936	431.19
417.159	448.19
417.382	431.19
417.605	440.19
417.828	461.19
418.051	483.19
418.274	449.19
418.497	445.19
418.72	458.19
418.943	427.19
419.166	457.19
419.389	480.19
419.611	512.19
419.834	483.19
420.057	483.19
420.28	471.19
420.503	449.19
420.726	454.19
420.948	479.19
421.171	511.19
421.394	532.19
421.617	462.19
421.839	425.19
422.062	453.19
422.285	452.19
422.507	525.19
422.73	545.19
422.953	537.19
423.175	492.19
423.398	469.19
423.621	483.19
423.843	485.19
424.066	475.19
424.288	463.19
424.511	502.19
424.733	529.19
424.956	590.19
425.178	578.19
425.401	549.19
425.623	592.19
425.846	514.19
426.068	479.19
426.291	466.19
426.513	478.19
426.735	500.19
426.958	501.19
427.18	567.19
427.402	651.19
427.625	703.19
427.847	614.19
428.069	540.19
428.292	479.19
428.514	477.19
428.736	451.19
428.958	456.19
429.181	425.19
429.403	424.19
429.625	431.19
429.847	456.19
430.069	523.19
430.292	490.19
430.514	453.19
430.736	458.19
430.958	427.19
431.18	422.19
431.402	442.19
431.624	411.19
431.846	426.19
432.068	418.19
432.29	429.19
432.512	425.19
432.734	436.19
432.956	427.19
433.178	434.19
433.4	437.19
433.622	437.19
433.844	439.19
434.066	431.19
434.287	420.19
434.509	425.19
434.731	446.19
434.953	469.19
435.175	457.19
435.397	481.19
435.618	470.19
435.84	505.19
436.062	567.19
436.284	589.19
436.505	516.19
436.727	483.19
436.949	471.19
437.17	444.19
437.392	445.19
437.614	455.19
437.835	462.19
438.057	519.19
438.278	603.19
438.5	591.19
438.721	656.19
438.943	623.19
439.165	517.19
439.386	467.19
439.608	458.19
439.829	464.19
440.05	492.19
440.272	513.19
440.493	472.19
440.715	441.19
440.936	460.19
441.158	472.19
441.379	447.19
441.6	446.19
441.822	462.19
442.043	496.19
442.264	558.19
442.486	574.19
442.707	517.19
442.928	508.19
443.149	458.19
443.371	485.19
443.592	502.19
443.813	595.19
444.034	641.19
444.255	545.19
444.476	503.19
444.698	496.19
444.919	508.19
445.14	567.19
445.361	557.19
445.582	533.19
445.803	553.19
446.024	597.19
446.245	621.19
446.466	565.19
446.687	499.19
446.908	452.19
447.129	441.19
447.35	439.19
447.571	443.19
447.792	419.19
448.013	427.19
448.234	444.19
448.455	468.19
448.675	542.19
448.896	648.19
449.117	539.19
449.338	530.19
449.559	577.19
449.779	648.19
450	556.19
450.221	479.19
450.442	431.19
450.662	413.19
450.883	431.19
451.104	427.19
451.324	428.19
451.545	405.19
451.766	394.19
451.986	378.19
452.207	376.19
452.428	384.19
452.648	383.19
452.869	402.19
453.089	380.19
453.31	396.19
453.53	398.19
453.751	375.19
453.971	367.19
454.192	383.19
454.412	377.19
454.633	388.19
454.853	382.19
455.073	367.19
455.294	414.19
455.514	439.19
455.734	436.19
455.955	397.19
456.175	391.19
456.395	355.19
456.616	377.19
456.836	381.19
457.056	389.19
457.276	401.19
457.497	376.19
457.717	383.19
457.937	374.19
458.157	380.19
458.377	394.19
458.598	393.19
458.818	415.19
459.038	465.19
459.258	480.19
459.478	440.19
459.698	439.19
459.918	400.19
460.138	414.19
460.358	437.19
460.578	429.19
460.798	455.19
461.018	456.19
461.238	458.19
461.458	441.19
461.678	439.19
461.898	440.19
462.118	435.19
462.338	446.19
462.558	468.19
462.777	465.19
462.997	487.19
463.217	501.19
463.437	515.19
463.657	480.19
463.876	471.19
464.096	488.19
464.316	502.19
464.536	461.19
464.755	457.19
464.975	469.19
465.195	474.19
465.414	495.19
465.634	468.19
465.854	431.19
466.073	430.19
466.293	406.19
466.512	410.19
466.732	401.19
466.951	426.19
467.171	419.19
467.391	398.19
467.61	406.19
467.829	409.19
468.049	408.19
468.268	400.19
468.488	396.19
468.707	369.19
468.927	391.19
469.146	401.19
469.365	411.19
469.585	387.19
469.804	388.19
470.023	413.19
470.243	411.19
470.462	422.19
470.681	397.19
470.901	405.19
471.12	407.19
471.339	416.19
471.558	406.19
471.777	408.19
471.997	406.19
472.216	398.19
472.435	419.19
472.654	417.19
472.873	398.19
473.092	408.19
473.311	398.19
473.53	401.19
473.749	399.19
473.968	424.19
474.187	486.19
474.406	517.19
474.625	435.19
474.844	412.19
475.063	414.19
475.282	394.19
475.501	405.19
475.72	409.19
475.939	422.19
476.158	399.19
476.377	404.19
476.596	417.19
476.814	397.19
477.033	420.19
477.252	437.19
477.471	421.19
477.69	432.19
477.908	438.19
478.127	447.19
478.346	463.19
478.564	460.19
478.783	454.19
479.002	447.19
479.22	456.19
479.439	475.19
479.658	481.19
479.876	492.19
480.095	508.19
480.313	531.19
480.532	514.19
480.751	496.19
480.969	484.19
481.188	500.19
481.406	522.19
481.624	475.19
481.843	490.19
482.061	463.19
482.28	480.19
482.498	470.19
482.717	463.19
482.935	449.19
483.153	449.19
483.372	459.19
483.59	472.19
483.808	449.19
484.027	483.19
484.245	452.19
484.463	469.19
484.681	459.19
484.9	459.19
485.118	488.19
485.336	476.19
485.554	480.19
485.772	488.19
485.99	478.19
486.209	478.19
486.427	465.19
486.645	486.19
486.863	482.19
487.081	513.19
487.299	496.19
487.517	490.19
487.735	489.19
487.953	480.19
488.171	477.19
488.389	499.19
488.607	476.19
488.825	484.19
489.043	494.19
489.261	483.19
489.479	511.19
489.696	501.19
489.914	497.19
490.132	489.19
490.35	494.19
490.568	513.19
490.786	528.19
491.003	544.19
491.221	526.19
491.439	506.19
491.657	535.19
491.874	553.19
492.092	539.19
492.31	556.19
492.527	535.19
492.745	538.19
492.963	543.19
493.18	543.19
493.398	537.19
493.615	567.19
493.833	565.19
494.05	551.19
494.268	551.19
494.485	542.19
494.703	549.19
494.92	569.19
495.138	561.19
495.355	568.19
495.573	559.19
495.79	554.19
496.008	573.19
496.225	550.19
496.442	565.19
496.66	588.19
496.877	590.19
497.094	587.19
497.312	599.19
497.529	582.19
497.746	602.19
497.963	649.19
498.181	619.19
498.398	645.19
498.615	652.19
498.832	665.19
499.049	681.19
499.267	725.19
499.484	733.19
499.701	784.19
499.918	809.19
500.135	878.19
500.352	935.19
500.569	952.19
500.786	914.19
501.003	896.19
501.22	854.19
501.437	835.19
501.654	783.19
501.871	806.19
502.088	743.19
