Data from 1977.PennyLincolnUp.Lamp.En5.5.200Scan.071719.P1_HRD10591_16-05-10-863.txt Node
Date: Thu Jul 18 16:05:10 EDT 2019
User: cochatt
Spectrometer: HR+D1059
Trigger mode: 1
Integration Time (sec): 1.000000E-1
Scans to average: 1
Electric dark correction enabled: true
Nonlinearity correction enabled: false
Boxcar width: 0
XAxis mode: Wavelengths
Number of Pixels in Spectrum: 2048
>>>>>Begin Spectral Data<<<<<
223.165	-20.31
223.4	-20.31
223.635	-20.31
223.869	-16.31
224.104	-12.31
224.338	-20.31
224.573	-4.31
224.808	-14.31
225.042	-1.31
225.277	1.69
225.511	-5.31
225.746	-0.31
225.98	-1.31
226.215	6.69
226.449	14.69
226.683	21.69
226.918	27.69
227.152	23.69
227.387	41.69
227.621	33.69
227.856	48.69
228.09	36.69
228.324	47.69
228.559	53.69
228.793	56.69
229.027	94.69
229.262	92.69
229.496	95.69
229.73	105.69
229.964	112.69
230.199	108.69
230.433	100.69
230.667	101.69
230.901	98.69
231.136	101.69
231.37	101.69
231.604	104.69
231.838	124.69
232.072	106.69
232.306	100.69
232.541	122.69
232.775	118.69
233.009	120.69
233.243	125.69
233.477	123.69
233.711	112.69
233.945	103.69
234.179	121.69
234.413	95.69
234.647	112.69
234.881	117.69
235.115	118.69
235.349	106.69
235.583	116.69
235.817	116.69
236.051	122.69
236.285	112.69
236.519	130.69
236.753	106.69
236.987	113.69
237.221	159.69
237.455	176.69
237.689	147.69
237.922	141.69
238.156	111.69
238.39	107.69
238.624	111.69
238.858	116.69
239.091	121.69
239.325	126.69
239.559	98.69
239.793	115.69
240.027	128.69
240.26	129.69
240.494	143.69
240.728	135.69
240.961	128.69
241.195	135.69
241.429	126.69
241.662	115.69
241.896	124.69
242.13	119.69
242.363	123.69
242.597	112.69
242.83	117.69
243.064	132.69
243.298	137.69
243.531	140.69
243.765	113.69
243.998	129.69
244.232	124.69
244.465	136.69
244.699	140.69
244.932	136.69
245.166	133.69
245.399	150.69
245.633	147.69
245.866	127.69
246.099	131.69
246.333	135.69
246.566	137.69
246.8	127.69
247.033	135.69
247.266	141.69
247.5	165.69
247.733	141.69
247.966	154.69
248.2	153.69
248.433	157.69
248.666	164.69
248.899	163.69
249.133	161.69
249.366	173.69
249.599	167.69
249.832	157.69
250.066	167.69
250.299	170.69
250.532	181.69
250.765	178.69
250.998	184.69
251.231	188.69
251.465	186.69
251.698	185.69
251.931	170.69
252.164	179.69
252.397	186.69
252.63	177.69
252.863	197.69
253.096	186.69
253.329	193.69
253.562	194.69
253.795	189.69
254.028	203.69
254.261	187.69
254.494	193.69
254.727	196.69
254.96	224.69
255.193	217.69
255.426	211.69
255.659	201.69
255.892	213.69
256.124	186.69
256.357	204.69
256.59	197.69
256.823	200.69
257.056	185.69
257.289	187.69
257.521	192.69
257.754	191.69
257.987	179.69
258.22	202.69
258.452	195.69
258.685	189.69
258.918	196.69
259.151	199.69
259.383	185.69
259.616	204.69
259.849	200.69
260.081	204.69
260.314	200.69
260.547	234.69
260.779	200.69
261.012	194.69
261.244	201.69
261.477	210.69
261.71	198.69
261.942	201.69
262.175	204.69
262.407	191.69
262.64	197.69
262.872	209.69
263.105	204.69
263.337	194.69
263.57	198.69
263.802	208.69
264.035	207.69
264.267	193.69
264.499	196.69
264.732	202.69
264.964	203.69
265.197	199.69
265.429	222.69
265.661	207.69
265.894	204.69
266.126	209.69
266.358	215.69
266.591	216.69
266.823	205.69
267.055	195.69
267.287	211.69
267.52	218.69
267.752	208.69
267.984	225.69
268.216	208.69
268.448	232.69
268.681	224.69
268.913	221.69
269.145	240.69
269.377	234.69
269.609	251.69
269.841	236.69
270.073	249.69
270.306	262.69
270.538	275.69
270.77	286.69
271.002	275.69
271.234	255.69
271.466	272.69
271.698	281.69
271.93	282.69
272.162	268.69
272.394	282.69
272.626	267.69
272.858	248.69
273.09	267.69
273.322	247.69
273.553	243.69
273.785	256.69
274.017	248.69
274.249	243.69
274.481	260.69
274.713	265.69
274.945	240.69
275.176	242.69
275.408	243.69
275.64	246.69
275.872	258.69
276.104	240.69
276.335	258.69
276.567	243.69
276.799	264.69
277.031	291.69
277.262	256.69
277.494	257.69
277.726	273.69
277.957	272.69
278.189	243.69
278.421	268.69
278.652	250.69
278.884	255.69
279.115	265.69
279.347	272.69
279.579	259.69
279.81	266.69
280.042	277.69
280.273	263.69
280.505	264.69
280.736	259.69
280.968	252.69
281.199	244.69
281.431	263.69
281.662	279.69
281.894	278.69
282.125	279.69
282.356	258.69
282.588	264.69
282.819	270.69
283.051	272.69
283.282	268.69
283.513	273.69
283.745	268.69
283.976	290.69
284.207	279.69
284.439	258.69
284.67	259.69
284.901	269.69
285.132	273.69
285.364	279.69
285.595	278.69
285.826	271.69
286.057	293.69
286.288	288.69
286.52	275.69
286.751	278.69
286.982	275.69
287.213	277.69
287.444	295.69
287.675	267.69
287.906	277.69
288.138	284.69
288.369	296.69
288.6	303.69
288.831	281.69
289.062	291.69
289.293	300.69
289.524	290.69
289.755	285.69
289.986	288.69
290.217	267.69
290.448	273.69
290.679	267.69
290.91	297.69
291.141	291.69
291.371	292.69
291.602	297.69
291.833	304.69
292.064	299.69
292.295	305.69
292.526	290.69
292.757	291.69
292.987	314.69
293.218	282.69
293.449	296.69
293.68	296.69
293.91	290.69
294.141	292.69
294.372	295.69
294.603	293.69
294.833	298.69
295.064	293.69
295.295	303.69
295.525	297.69
295.756	297.69
295.987	296.69
296.217	312.69
296.448	288.69
296.679	311.69
296.909	287.69
297.14	284.69
297.37	297.69
297.601	291.69
297.831	298.69
298.062	301.69
298.292	308.69
298.523	300.69
298.753	315.69
298.984	296.69
299.214	309.69
299.445	298.69
299.675	296.69
299.905	317.69
300.136	301.69
300.366	315.69
300.597	313.69
300.827	307.69
301.057	330.69
301.288	334.69
301.518	300.69
301.748	311.69
301.979	314.69
302.209	322.69
302.439	322.69
302.669	321.69
302.9	316.69
303.13	318.69
303.36	321.69
303.59	333.69
303.82	343.69
304.051	329.69
304.281	314.69
304.511	328.69
304.741	345.69
304.971	328.69
305.201	315.69
305.431	307.69
305.661	331.69
305.891	314.69
306.121	328.69
306.352	318.69
306.582	315.69
306.812	321.69
307.042	326.69
307.272	346.69
307.502	324.69
307.731	323.69
307.961	317.69
308.191	321.69
308.421	330.69
308.651	307.69
308.881	304.69
309.111	338.69
309.341	320.69
309.571	333.69
309.8	362.69
310.03	351.69
310.26	342.69
310.49	355.69
310.72	345.69
310.949	346.69
311.179	342.69
311.409	330.69
311.639	344.69
311.868	341.69
312.098	349.69
312.328	368.69
312.557	367.69
312.787	359.69
313.017	358.69
313.246	351.69
313.476	343.69
313.706	338.69
313.935	366.69
314.165	378.69
314.394	360.69
314.624	369.69
314.853	358.69
315.083	348.69
315.312	352.69
315.542	357.69
315.771	358.69
316.001	354.69
316.23	358.69
316.46	342.69
316.689	357.69
316.919	369.69
317.148	367.69
317.377	364.69
317.607	354.69
317.836	343.69
318.065	371.69
318.295	363.69
318.524	361.69
318.753	350.69
318.983	352.69
319.212	357.69
319.441	369.69
319.67	364.69
319.9	351.69
320.129	360.69
320.358	362.69
320.587	355.69
320.816	372.69
321.046	360.69
321.275	349.69
321.504	381.69
321.733	372.69
321.962	375.69
322.191	367.69
322.42	378.69
322.649	383.69
322.878	384.69
323.108	399.69
323.337	415.69
323.566	383.69
323.795	444.69
324.024	451.69
324.253	515.69
324.482	712.69
324.71	992.69
324.939	1310.69
325.168	1120.69
325.397	653.69
325.626	484.69
325.855	423.69
326.084	424.69
326.313	412.69
326.542	450.69
326.77	437.69
326.999	506.69
327.228	628.69
327.457	859.69
327.686	1003.69
327.914	703.69
328.143	503.69
328.372	498.69
328.6	442.69
328.829	438.69
329.058	451.69
329.287	443.69
329.515	437.69
329.744	420.69
329.972	418.69
330.201	432.69
330.43	467.69
330.658	467.69
330.887	477.69
331.115	456.69
331.344	432.69
331.572	432.69
331.801	424.69
332.03	442.69
332.258	426.69
332.486	408.69
332.715	408.69
332.943	436.69
333.172	426.69
333.4	437.69
333.629	428.69
333.857	451.69
334.085	467.69
334.314	460.69
334.542	463.69
334.771	477.69
334.999	443.69
335.227	452.69
335.455	453.69
335.684	437.69
335.912	431.69
336.14	424.69
336.369	422.69
336.597	421.69
336.825	424.69
337.053	439.69
337.281	431.69
337.51	414.69
337.738	410.69
337.966	422.69
338.194	420.69
338.422	413.69
338.65	393.69
338.878	398.69
339.106	407.69
339.334	410.69
339.562	420.69
339.79	396.69
340.018	410.69
340.246	389.69
340.474	422.69
340.702	417.69
340.93	409.69
341.158	405.69
341.386	386.69
341.614	394.69
341.842	406.69
342.07	386.69
342.298	413.69
342.526	407.69
342.754	379.69
342.981	387.69
343.209	391.69
343.437	420.69
343.665	405.69
343.893	422.69
344.12	437.69
344.348	433.69
344.576	399.69
344.804	422.69
345.031	443.69
345.259	434.69
345.487	392.69
345.714	396.69
345.942	398.69
346.17	368.69
346.397	371.69
346.625	361.69
346.853	393.69
347.08	391.69
347.308	369.69
347.535	373.69
347.763	381.69
347.99	365.69
348.218	371.69
348.445	387.69
348.673	387.69
348.9	370.69
349.128	369.69
349.355	362.69
349.583	363.69
349.81	375.69
350.037	352.69
350.265	361.69
350.492	376.69
350.72	354.69
350.947	372.69
351.174	370.69
351.402	364.69
351.629	360.69
351.856	371.69
352.083	387.69
352.311	379.69
352.538	390.69
352.765	367.69
352.992	365.69
353.22	377.69
353.447	357.69
353.674	364.69
353.901	363.69
354.128	353.69
354.355	340.69
354.583	351.69
354.81	363.69
355.037	348.69
355.264	355.69
355.491	335.69
355.718	352.69
355.945	355.69
356.172	351.69
356.399	346.69
356.626	359.69
356.853	358.69
357.08	358.69
357.307	340.69
357.534	336.69
357.761	348.69
357.988	366.69
358.215	367.69
358.441	363.69
358.668	369.69
358.895	379.69
359.122	369.69
359.349	369.69
359.576	378.69
359.802	392.69
360.029	382.69
360.256	370.69
360.483	367.69
360.709	370.69
360.936	379.69
361.163	381.69
361.39	370.69
361.616	385.69
361.843	378.69
362.07	368.69
362.296	355.69
362.523	348.69
362.749	372.69
362.976	376.69
363.203	353.69
363.429	367.69
363.656	371.69
363.882	381.69
364.109	361.69
364.335	345.69
364.562	363.69
364.788	351.69
365.015	350.69
365.241	359.69
365.468	369.69
365.694	363.69
365.92	363.69
366.147	362.69
366.373	352.69
366.599	366.69
366.826	369.69
367.052	364.69
367.278	348.69
367.505	368.69
367.731	373.69
367.957	376.69
368.184	357.69
368.41	360.69
368.636	372.69
368.862	372.69
369.089	346.69
369.315	369.69
369.541	359.69
369.767	351.69
369.993	343.69
370.219	353.69
370.445	354.69
370.672	369.69
370.898	364.69
371.124	361.69
371.35	356.69
371.576	376.69
371.802	363.69
372.028	364.69
372.254	375.69
372.48	373.69
372.706	367.69
372.932	351.69
373.158	363.69
373.384	361.69
373.61	367.69
373.835	361.69
374.061	367.69
374.287	370.69
374.513	362.69
374.739	381.69
374.965	370.69
375.191	375.69
375.416	376.69
375.642	356.69
375.868	385.69
376.094	357.69
376.319	381.69
376.545	367.69
376.771	358.69
376.997	356.69
377.222	350.69
377.448	354.69
377.674	351.69
377.899	357.69
378.125	354.69
378.35	365.69
378.576	362.69
378.802	356.69
379.027	371.69
379.253	363.69
379.478	357.69
379.704	376.69
379.929	358.69
380.155	357.69
380.38	362.69
380.606	358.69
380.831	354.69
381.057	345.69
381.282	362.69
381.507	360.69
381.733	389.69
381.958	339.69
382.184	369.69
382.409	385.69
382.634	381.69
382.86	360.69
383.085	392.69
383.31	369.69
383.535	379.69
383.761	383.69
383.986	409.69
384.211	367.69
384.436	388.69
384.662	381.69
384.887	391.69
385.112	387.69
385.337	407.69
385.562	389.69
385.787	387.69
386.013	401.69
386.238	408.69
386.463	409.69
386.688	417.69
386.913	393.69
387.138	385.69
387.363	397.69
387.588	382.69
387.813	403.69
388.038	406.69
388.263	396.69
388.488	405.69
388.713	397.69
388.938	410.69
389.163	391.69
389.387	387.69
389.612	379.69
389.837	387.69
390.062	409.69
390.287	402.69
390.512	408.69
390.736	399.69
390.961	393.69
391.186	395.69
391.411	403.69
391.636	399.69
391.86	412.69
392.085	409.69
392.31	414.69
392.534	431.69
392.759	422.69
392.984	414.69
393.208	404.69
393.433	416.69
393.658	402.69
393.882	397.69
394.107	395.69
394.331	403.69
394.556	410.69
394.78	388.69
395.005	404.69
395.229	400.69
395.454	412.69
395.678	427.69
395.903	422.69
396.127	431.69
396.352	447.69
396.576	411.69
396.801	405.69
397.025	409.69
397.249	412.69
397.474	412.69
397.698	425.69
397.922	436.69
398.147	437.69
398.371	437.69
398.595	432.69
398.82	466.69
399.044	492.69
399.268	471.69
399.492	516.69
399.717	529.69
399.941	555.69
400.165	560.69
400.389	555.69
400.613	521.69
400.837	466.69
401.062	479.69
401.286	465.69
401.51	466.69
401.734	442.69
401.958	461.69
402.182	464.69
402.406	466.69
402.63	474.69
402.854	449.69
403.078	465.69
403.302	453.69
403.526	485.69
403.75	462.69
403.974	473.69
404.198	495.69
404.422	470.69
404.645	457.69
404.869	460.69
405.093	475.69
405.317	525.69
405.541	539.69
405.765	497.69
405.988	472.69
406.212	478.69
406.436	487.69
406.66	502.69
406.883	508.69
407.107	491.69
407.331	540.69
407.555	599.69
407.778	592.69
408.002	544.69
408.226	513.69
408.449	531.69
408.673	500.69
408.896	512.69
409.12	534.69
409.344	531.69
409.567	468.69
409.791	465.69
410.014	483.69
410.238	458.69
410.461	466.69
410.685	474.69
410.908	454.69
411.132	503.69
411.355	508.69
411.578	480.69
411.802	481.69
412.025	453.69
412.249	470.69
412.472	486.69
412.695	492.69
412.919	495.69
413.142	439.69
413.365	472.69
413.589	444.69
413.812	446.69
414.035	445.69
414.258	427.69
414.482	448.69
414.705	444.69
414.928	443.69
415.151	433.69
415.374	439.69
415.597	431.69
415.821	416.69
416.044	436.69
416.267	441.69
416.49	412.69
416.713	421.69
416.936	416.69
417.159	418.69
417.382	451.69
417.605	413.69
417.828	437.69
418.051	443.69
418.274	431.69
418.497	445.69
418.72	420.69
418.943	421.69
419.166	433.69
419.389	467.69
419.611	467.69
419.834	464.69
420.057	458.69
420.28	424.69
420.503	431.69
420.726	437.69
420.948	447.69
421.171	454.69
421.394	500.69
421.617	461.69
421.839	440.69
422.062	432.69
422.285	437.69
422.507	481.69
422.73	525.69
422.953	526.69
423.175	477.69
423.398	451.69
423.621	446.69
423.843	458.69
424.066	482.69
424.288	473.69
424.511	491.69
424.733	541.69
424.956	570.69
425.178	550.69
425.401	527.69
425.623	555.69
425.846	482.69
426.068	444.69
426.291	463.69
426.513	467.69
426.735	458.69
426.958	481.69
427.18	522.69
427.402	622.69
427.625	684.69
427.847	589.69
428.069	516.69
428.292	488.69
428.514	440.69
428.736	445.69
428.958	435.69
429.181	442.69
429.403	402.69
429.625	427.69
429.847	455.69
430.069	489.69
430.292	490.69
430.514	426.69
430.736	429.69
430.958	418.69
431.18	421.69
431.402	409.69
431.624	416.69
431.846	417.69
432.068	404.69
432.29	415.69
432.512	417.69
432.734	413.69
432.956	388.69
433.178	411.69
433.4	424.69
433.622	431.69
433.844	427.69
434.066	422.69
434.287	419.69
434.509	429.69
434.731	428.69
434.953	436.69
435.175	439.69
435.397	468.69
435.618	461.69
435.84	458.69
436.062	553.69
436.284	585.69
436.505	495.69
436.727	451.69
436.949	426.69
437.17	421.69
437.392	415.69
437.614	431.69
437.835	453.69
438.057	510.69
438.278	592.69
438.5	582.69
438.721	627.69
438.943	602.69
439.165	492.69
439.386	452.69
439.608	457.69
439.829	452.69
440.05	481.69
440.272	488.69
440.493	452.69
440.715	459.69
440.936	412.69
441.158	421.69
441.379	418.69
441.6	430.69
441.822	450.69
442.043	474.69
442.264	529.69
442.486	542.69
442.707	484.69
442.928	451.69
443.149	450.69
443.371	476.69
443.592	516.69
443.813	584.69
444.034	620.69
444.255	522.69
444.476	491.69
444.698	474.69
444.919	452.69
445.14	565.69
445.361	514.69
445.582	500.69
445.803	532.69
446.024	572.69
446.245	596.69
446.466	549.69
446.687	469.69
446.908	422.69
447.129	425.69
447.35	432.69
447.571	436.69
447.792	416.69
448.013	410.69
448.234	417.69
448.455	459.69
448.675	543.69
448.896	579.69
449.117	520.69
449.338	523.69
449.559	587.69
449.779	645.69
450	515.69
450.221	454.69
450.442	431.69
450.662	403.69
450.883	386.69
451.104	393.69
451.324	386.69
451.545	376.69
451.766	380.69
451.986	360.69
452.207	385.69
452.428	370.69
452.648	383.69
452.869	379.69
453.089	377.69
453.31	377.69
453.53	375.69
453.751	365.69
453.971	362.69
454.192	403.69
454.412	375.69
454.633	376.69
454.853	352.69
455.073	349.69
455.294	381.69
455.514	412.69
455.734	399.69
455.955	348.69
456.175	371.69
456.395	361.69
456.616	374.69
456.836	360.69
457.056	365.69
457.276	364.69
457.497	341.69
457.717	362.69
457.937	346.69
458.157	363.69
458.377	370.69
458.598	385.69
458.818	424.69
459.038	452.69
459.258	481.69
459.478	415.69
459.698	396.69
459.918	403.69
460.138	386.69
460.358	431.69
460.578	419.69
460.798	436.69
461.018	436.69
461.238	441.69
461.458	416.69
461.678	412.69
461.898	413.69
462.118	424.69
462.338	434.69
462.558	451.69
462.777	461.69
462.997	477.69
463.217	474.69
463.437	481.69
463.657	473.69
463.876	458.69
464.096	461.69
464.316	453.69
464.536	441.69
464.755	440.69
464.975	441.69
465.195	458.69
465.414	479.69
465.634	429.69
465.854	431.69
466.073	395.69
466.293	380.69
466.512	379.69
466.732	383.69
466.951	403.69
467.171	387.69
467.391	392.69
467.61	399.69
467.829	385.69
468.049	391.69
468.268	395.69
468.488	387.69
468.707	370.69
468.927	384.69
469.146	372.69
469.365	384.69
469.585	383.69
469.804	371.69
470.023	387.69
470.243	408.69
470.462	403.69
470.681	411.69
470.901	394.69
471.12	389.69
471.339	383.69
471.558	383.69
471.777	393.69
471.997	407.69
472.216	396.69
472.435	379.69
472.654	373.69
472.873	379.69
473.092	364.69
473.311	379.69
473.53	387.69
473.749	381.69
473.968	420.69
474.187	481.69
474.406	470.69
474.625	427.69
474.844	412.69
475.063	395.69
475.282	399.69
475.501	383.69
475.72	401.69
475.939	392.69
476.158	407.69
476.377	397.69
476.596	402.69
476.814	405.69
477.033	400.69
477.252	412.69
477.471	429.69
477.69	419.69
477.908	440.69
478.127	418.69
478.346	433.69
478.564	425.69
478.783	431.69
479.002	447.69
479.22	460.69
479.439	457.69
479.658	449.69
479.876	473.69
480.095	479.69
480.313	476.69
480.532	474.69
480.751	468.69
480.969	480.69
481.188	502.69
481.406	490.69
481.624	467.69
481.843	446.69
482.061	452.69
482.28	441.69
482.498	437.69
482.717	442.69
482.935	453.69
483.153	435.69
483.372	440.69
483.59	440.69
483.808	418.69
484.027	432.69
484.245	441.69
484.463	439.69
484.681	452.69
484.9	470.69
485.118	455.69
485.336	493.69
485.554	459.69
485.772	465.69
485.99	483.69
486.209	467.69
486.427	444.69
486.645	469.69
486.863	473.69
487.081	482.69
487.299	473.69
487.517	468.69
487.735	465.69
487.953	464.69
488.171	470.69
488.389	460.69
488.607	479.69
488.825	457.69
489.043	466.69
489.261	478.69
489.479	487.69
489.696	497.69
489.914	457.69
490.132	463.69
490.35	490.69
490.568	509.69
490.786	489.69
491.003	508.69
491.221	497.69
491.439	503.69
491.657	504.69
491.874	537.69
492.092	518.69
492.31	535.69
492.527	531.69
492.745	537.69
492.963	511.69
493.18	521.69
493.398	525.69
493.615	530.69
493.833	517.69
494.05	532.69
494.268	551.69
494.485	525.69
494.703	541.69
494.92	533.69
495.138	540.69
495.355	556.69
495.573	565.69
495.79	530.69
496.008	550.69
496.225	547.69
496.442	540.69
496.66	559.69
496.877	546.69
497.094	539.69
497.312	584.69
497.529	566.69
497.746	586.69
497.963	592.69
498.181	606.69
498.398	611.69
498.615	640.69
498.832	635.69
499.049	668.69
499.267	692.69
499.484	716.69
499.701	743.69
499.918	786.69
500.135	838.69
500.352	855.69
500.569	916.69
500.786	871.69
501.003	872.69
501.22	844.69
501.437	780.69
501.654	768.69
501.871	724.69
502.088	706.69
