Data from 1977.PennyLincolnUp.Lamp.En5.5.200Scan.071719.P1_HRD10591_16-05-24-863.txt Node
Date: Thu Jul 18 16:05:24 EDT 2019
User: cochatt
Spectrometer: HR+D1059
Trigger mode: 1
Integration Time (sec): 1.000000E-1
Scans to average: 1
Electric dark correction enabled: true
Nonlinearity correction enabled: false
Boxcar width: 0
XAxis mode: Wavelengths
Number of Pixels in Spectrum: 2048
>>>>>Begin Spectral Data<<<<<
223.165	-27.06
223.4	-27.06
223.635	-27.06
223.869	-11.06
224.104	-20.06
224.338	-10.06
224.573	-8.06
224.808	-15.06
225.042	-10.06
225.277	-6.06
225.511	-0.06
225.746	11.94
225.98	7.94
226.215	11.94
226.449	12.94
226.683	26.94
226.918	13.94
227.152	21.94
227.387	36.94
227.621	38.94
227.856	42.94
228.09	42.94
228.324	60.94
228.559	52.94
228.793	60.94
229.027	67.94
229.262	88.94
229.496	106.94
229.73	103.94
229.964	125.94
230.199	113.94
230.433	109.94
230.667	88.94
230.901	98.94
231.136	98.94
231.37	116.94
231.604	96.94
231.838	96.94
232.072	98.94
232.306	102.94
232.541	100.94
232.775	115.94
233.009	108.94
233.243	114.94
233.477	98.94
233.711	114.94
233.945	108.94
234.179	103.94
234.413	117.94
234.647	111.94
234.881	111.94
235.115	112.94
235.349	107.94
235.583	114.94
235.817	104.94
236.051	109.94
236.285	99.94
236.519	105.94
236.753	133.94
236.987	129.94
237.221	141.94
237.455	179.94
237.689	146.94
237.922	121.94
238.156	116.94
238.39	126.94
238.624	113.94
238.858	113.94
239.091	115.94
239.325	119.94
239.559	125.94
239.793	129.94
240.027	128.94
240.26	122.94
240.494	135.94
240.728	127.94
240.961	142.94
241.195	147.94
241.429	133.94
241.662	141.94
241.896	115.94
242.13	125.94
242.363	133.94
242.597	124.94
242.83	132.94
243.064	128.94
243.298	126.94
243.531	136.94
243.765	133.94
243.998	124.94
244.232	145.94
244.465	133.94
244.699	150.94
244.932	142.94
245.166	138.94
245.399	130.94
245.633	138.94
245.866	159.94
246.099	139.94
246.333	133.94
246.566	144.94
246.8	155.94
247.033	153.94
247.266	145.94
247.5	153.94
247.733	162.94
247.966	157.94
248.2	146.94
248.433	177.94
248.666	163.94
248.899	172.94
249.133	186.94
249.366	181.94
249.599	172.94
249.832	156.94
250.066	175.94
250.299	159.94
250.532	176.94
250.765	195.94
250.998	190.94
251.231	209.94
251.465	200.94
251.698	189.94
251.931	160.94
252.164	187.94
252.397	181.94
252.63	163.94
252.863	186.94
253.096	207.94
253.329	197.94
253.562	198.94
253.795	196.94
254.028	178.94
254.261	185.94
254.494	198.94
254.727	228.94
254.96	234.94
255.193	225.94
255.426	208.94
255.659	200.94
255.892	204.94
256.124	195.94
256.357	203.94
256.59	189.94
256.823	202.94
257.056	191.94
257.289	201.94
257.521	198.94
257.754	178.94
257.987	199.94
258.22	195.94
258.452	182.94
258.685	195.94
258.918	202.94
259.151	187.94
259.383	193.94
259.616	205.94
259.849	210.94
260.081	212.94
260.314	239.94
260.547	227.94
260.779	230.94
261.012	213.94
261.244	213.94
261.477	224.94
261.71	210.94
261.942	213.94
262.175	228.94
262.407	206.94
262.64	206.94
262.872	201.94
263.105	205.94
263.337	188.94
263.57	227.94
263.802	209.94
264.035	200.94
264.267	213.94
264.499	203.94
264.732	213.94
264.964	203.94
265.197	217.94
265.429	205.94
265.661	197.94
265.894	205.94
266.126	220.94
266.358	225.94
266.591	210.94
266.823	221.94
267.055	211.94
267.287	219.94
267.52	233.94
267.752	229.94
267.984	226.94
268.216	227.94
268.448	230.94
268.681	229.94
268.913	228.94
269.145	239.94
269.377	252.94
269.609	250.94
269.841	248.94
270.073	254.94
270.306	268.94
270.538	294.94
270.77	270.94
271.002	273.94
271.234	259.94
271.466	279.94
271.698	274.94
271.93	278.94
272.162	281.94
272.394	290.94
272.626	266.94
272.858	267.94
273.09	264.94
273.322	273.94
273.553	260.94
273.785	248.94
274.017	263.94
274.249	263.94
274.481	265.94
274.713	256.94
274.945	239.94
275.176	260.94
275.408	248.94
275.64	272.94
275.872	265.94
276.104	254.94
276.335	259.94
276.567	275.94
276.799	256.94
277.031	275.94
277.262	276.94
277.494	301.94
277.726	271.94
277.957	271.94
278.189	274.94
278.421	276.94
278.652	272.94
278.884	276.94
279.115	265.94
279.347	245.94
279.579	260.94
279.81	258.94
280.042	274.94
280.273	280.94
280.505	280.94
280.736	270.94
280.968	248.94
281.199	273.94
281.431	277.94
281.662	269.94
281.894	261.94
282.125	285.94
282.356	285.94
282.588	284.94
282.819	285.94
283.051	273.94
283.282	268.94
283.513	291.94
283.745	289.94
283.976	279.94
284.207	296.94
284.439	281.94
284.67	305.94
284.901	279.94
285.132	282.94
285.364	273.94
285.595	280.94
285.826	280.94
286.057	293.94
286.288	305.94
286.52	292.94
286.751	309.94
286.982	274.94
287.213	291.94
287.444	304.94
287.675	283.94
287.906	300.94
288.138	306.94
288.369	323.94
288.6	300.94
288.831	303.94
289.062	281.94
289.293	311.94
289.524	294.94
289.755	284.94
289.986	317.94
290.217	279.94
290.448	279.94
290.679	286.94
290.91	306.94
291.141	287.94
291.371	298.94
291.602	303.94
291.833	309.94
292.064	287.94
292.295	305.94
292.526	310.94
292.757	305.94
292.987	288.94
293.218	296.94
293.449	287.94
293.68	306.94
293.91	293.94
294.141	298.94
294.372	304.94
294.603	276.94
294.833	286.94
295.064	315.94
295.295	303.94
295.525	307.94
295.756	290.94
295.987	317.94
296.217	322.94
296.448	316.94
296.679	321.94
296.909	315.94
297.14	301.94
297.37	327.94
297.601	287.94
297.831	297.94
298.062	315.94
298.292	317.94
298.523	326.94
298.753	307.94
298.984	326.94
299.214	314.94
299.445	337.94
299.675	316.94
299.905	307.94
300.136	342.94
300.366	325.94
300.597	331.94
300.827	319.94
301.057	339.94
301.288	329.94
301.518	340.94
301.748	340.94
301.979	324.94
302.209	345.94
302.439	337.94
302.669	340.94
302.9	310.94
303.13	325.94
303.36	329.94
303.59	339.94
303.82	340.94
304.051	351.94
304.281	330.94
304.511	339.94
304.741	337.94
304.971	321.94
305.201	336.94
305.431	325.94
305.661	333.94
305.891	364.94
306.121	367.94
306.352	333.94
306.582	315.94
306.812	328.94
307.042	355.94
307.272	350.94
307.502	337.94
307.731	357.94
307.961	336.94
308.191	327.94
308.421	357.94
308.651	369.94
308.881	327.94
309.111	335.94
309.341	351.94
309.571	343.94
309.8	339.94
310.03	350.94
310.26	365.94
310.49	346.94
310.72	344.94
310.949	378.94
311.179	369.94
311.409	356.94
311.639	347.94
311.868	345.94
312.098	344.94
312.328	379.94
312.557	389.94
312.787	384.94
313.017	388.94
313.246	383.94
313.476	360.94
313.706	377.94
313.935	369.94
314.165	381.94
314.394	400.94
314.624	395.94
314.853	366.94
315.083	367.94
315.312	384.94
315.542	371.94
315.771	367.94
316.001	369.94
316.23	375.94
316.46	380.94
316.689	372.94
316.919	373.94
317.148	363.94
317.377	377.94
317.607	384.94
317.836	383.94
318.065	375.94
318.295	352.94
318.524	373.94
318.753	361.94
318.983	373.94
319.212	381.94
319.441	375.94
319.67	376.94
319.9	381.94
320.129	363.94
320.358	381.94
320.587	379.94
320.816	409.94
321.046	383.94
321.275	389.94
321.504	395.94
321.733	381.94
321.962	401.94
322.191	401.94
322.42	405.94
322.649	410.94
322.878	422.94
323.108	405.94
323.337	436.94
323.566	434.94
323.795	453.94
324.024	502.94
324.253	551.94
324.482	777.94
324.71	1059.94
324.939	1455.94
325.168	1244.94
325.397	693.94
325.626	543.94
325.855	473.94
326.084	473.94
326.313	439.94
326.542	436.94
326.77	480.94
326.999	541.94
327.228	691.94
327.457	944.94
327.686	1075.94
327.914	755.94
328.143	541.94
328.372	489.94
328.6	478.94
328.829	477.94
329.058	474.94
329.287	474.94
329.515	473.94
329.744	458.94
329.972	457.94
330.201	458.94
330.43	468.94
330.658	484.94
330.887	490.94
331.115	483.94
331.344	463.94
331.572	455.94
331.801	444.94
332.03	448.94
332.258	431.94
332.486	442.94
332.715	451.94
332.943	429.94
333.172	453.94
333.4	443.94
333.629	455.94
333.857	469.94
334.085	498.94
334.314	482.94
334.542	480.94
334.771	485.94
334.999	475.94
335.227	445.94
335.455	459.94
335.684	466.94
335.912	433.94
336.14	455.94
336.369	435.94
336.597	443.94
336.825	449.94
337.053	431.94
337.281	441.94
337.51	442.94
337.738	443.94
337.966	421.94
338.194	441.94
338.422	427.94
338.65	428.94
338.878	418.94
339.106	409.94
339.334	431.94
339.562	433.94
339.79	397.94
340.018	420.94
340.246	415.94
340.474	411.94
340.702	429.94
340.93	415.94
341.158	403.94
341.386	411.94
341.614	426.94
341.842	411.94
342.07	420.94
342.298	388.94
342.526	393.94
342.754	409.94
342.981	402.94
343.209	400.94
343.437	410.94
343.665	422.94
343.893	449.94
344.12	446.94
344.348	433.94
344.576	429.94
344.804	410.94
345.031	425.94
345.259	438.94
345.487	428.94
345.714	399.94
345.942	405.94
346.17	396.94
346.397	411.94
346.625	380.94
346.853	404.94
347.08	389.94
347.308	394.94
347.535	392.94
347.763	397.94
347.99	404.94
348.218	397.94
348.445	396.94
348.673	412.94
348.9	400.94
349.128	371.94
349.355	379.94
349.583	379.94
349.81	373.94
350.037	381.94
350.265	377.94
350.492	390.94
350.72	393.94
350.947	404.94
351.174	402.94
351.402	412.94
351.629	399.94
351.856	393.94
352.083	390.94
352.311	394.94
352.538	420.94
352.765	391.94
352.992	409.94
353.22	394.94
353.447	373.94
353.674	385.94
353.901	363.94
354.128	365.94
354.355	363.94
354.583	402.94
354.81	371.94
355.037	370.94
355.264	388.94
355.491	382.94
355.718	373.94
355.945	370.94
356.172	381.94
356.399	384.94
356.626	359.94
356.853	377.94
357.08	362.94
357.307	377.94
357.534	379.94
357.761	363.94
357.988	378.94
358.215	378.94
358.441	380.94
358.668	376.94
358.895	382.94
359.122	403.94
359.349	389.94
359.576	377.94
359.802	394.94
360.029	416.94
360.256	399.94
360.483	401.94
360.709	396.94
360.936	389.94
361.163	405.94
361.39	386.94
361.616	373.94
361.843	379.94
362.07	395.94
362.296	395.94
362.523	374.94
362.749	387.94
362.976	379.94
363.203	391.94
363.429	375.94
363.656	371.94
363.882	396.94
364.109	387.94
364.335	398.94
364.562	380.94
364.788	365.94
365.015	360.94
365.241	367.94
365.468	371.94
365.694	363.94
365.92	373.94
366.147	373.94
366.373	360.94
366.599	383.94
366.826	375.94
367.052	389.94
367.278	376.94
367.505	379.94
367.731	391.94
367.957	357.94
368.184	364.94
368.41	369.94
368.636	389.94
368.862	379.94
369.089	388.94
369.315	381.94
369.541	380.94
369.767	384.94
369.993	375.94
370.219	373.94
370.445	387.94
370.672	372.94
370.898	355.94
371.124	385.94
371.35	371.94
371.576	392.94
371.802	385.94
372.028	388.94
372.254	383.94
372.48	380.94
372.706	378.94
372.932	379.94
373.158	385.94
373.384	406.94
373.61	385.94
373.835	387.94
374.061	390.94
374.287	380.94
374.513	395.94
374.739	397.94
374.965	387.94
375.191	393.94
375.416	393.94
375.642	396.94
375.868	395.94
376.094	376.94
376.319	376.94
376.545	371.94
376.771	387.94
376.997	374.94
377.222	361.94
377.448	374.94
377.674	355.94
377.899	347.94
378.125	368.94
378.35	377.94
378.576	374.94
378.802	370.94
379.027	387.94
379.253	388.94
379.478	359.94
379.704	393.94
379.929	396.94
380.155	370.94
380.38	344.94
380.606	389.94
380.831	375.94
381.057	385.94
381.282	351.94
381.507	373.94
381.733	381.94
381.958	387.94
382.184	394.94
382.409	377.94
382.634	377.94
382.86	389.94
383.085	396.94
383.31	405.94
383.535	401.94
383.761	408.94
383.986	395.94
384.211	392.94
384.436	403.94
384.662	410.94
384.887	401.94
385.112	427.94
385.337	413.94
385.562	432.94
385.787	411.94
386.013	435.94
386.238	419.94
386.463	418.94
386.688	416.94
386.913	413.94
387.138	419.94
387.363	396.94
387.588	424.94
387.813	421.94
388.038	410.94
388.263	420.94
388.488	411.94
388.713	408.94
388.938	408.94
389.163	414.94
389.387	433.94
389.612	417.94
389.837	391.94
390.062	400.94
390.287	397.94
390.512	404.94
390.736	410.94
390.961	414.94
391.186	409.94
391.411	431.94
391.636	422.94
391.86	435.94
392.085	415.94
392.31	412.94
392.534	420.94
392.759	419.94
392.984	411.94
393.208	419.94
393.433	422.94
393.658	428.94
393.882	416.94
394.107	415.94
394.331	413.94
394.556	405.94
394.78	398.94
395.005	444.94
395.229	418.94
395.454	412.94
395.678	432.94
395.903	431.94
396.127	450.94
396.352	461.94
396.576	443.94
396.801	415.94
397.025	422.94
397.249	405.94
397.474	439.94
397.698	451.94
397.922	452.94
398.147	453.94
398.371	479.94
398.595	463.94
398.82	458.94
399.044	501.94
399.268	524.94
399.492	534.94
399.717	577.94
399.941	583.94
400.165	607.94
400.389	583.94
400.613	536.94
400.837	505.94
401.062	492.94
401.286	469.94
401.51	481.94
401.734	450.94
401.958	469.94
402.182	480.94
402.406	495.94
402.63	487.94
402.854	456.94
403.078	509.94
403.302	483.94
403.526	475.94
403.75	506.94
403.974	483.94
404.198	469.94
404.422	490.94
404.645	502.94
404.869	506.94
405.093	538.94
405.317	544.94
405.541	556.94
405.765	537.94
405.988	514.94
406.212	496.94
406.436	517.94
406.66	525.94
406.883	522.94
407.107	544.94
407.331	579.94
407.555	616.94
407.778	617.94
408.002	554.94
408.226	533.94
408.449	531.94
408.673	510.94
408.896	545.94
409.12	573.94
409.344	539.94
409.567	497.94
409.791	491.94
410.014	495.94
410.238	473.94
410.461	489.94
410.685	468.94
410.908	480.94
411.132	516.94
411.355	533.94
411.578	516.94
411.802	500.94
412.025	461.94
412.249	465.94
412.472	492.94
412.695	509.94
412.919	493.94
413.142	469.94
413.365	469.94
413.589	470.94
413.812	457.94
414.035	463.94
414.258	458.94
414.482	449.94
414.705	469.94
414.928	465.94
415.151	444.94
415.374	442.94
415.597	457.94
415.821	439.94
416.044	443.94
416.267	434.94
416.49	433.94
416.713	464.94
416.936	456.94
417.159	445.94
417.382	451.94
417.605	466.94
417.828	472.94
418.051	463.94
418.274	487.94
418.497	453.94
418.72	439.94
418.943	440.94
419.166	481.94
419.389	490.94
419.611	476.94
419.834	471.94
420.057	476.94
420.28	465.94
420.503	469.94
420.726	467.94
420.948	477.94
421.171	492.94
421.394	517.94
421.617	476.94
421.839	462.94
422.062	461.94
422.285	494.94
422.507	529.94
422.73	569.94
422.953	541.94
423.175	509.94
423.398	493.94
423.621	462.94
423.843	481.94
424.066	491.94
424.288	481.94
424.511	505.94
424.733	535.94
424.956	596.94
425.178	575.94
425.401	591.94
425.623	596.94
425.846	491.94
426.068	478.94
426.291	486.94
426.513	451.94
426.735	486.94
426.958	512.94
427.18	577.94
427.402	678.94
427.625	723.94
427.847	636.94
428.069	531.94
428.292	495.94
428.514	467.94
428.736	458.94
428.958	447.94
429.181	454.94
429.403	471.94
429.625	449.94
429.847	477.94
430.069	512.94
430.292	511.94
430.514	433.94
430.736	457.94
430.958	454.94
431.18	421.94
431.402	416.94
431.624	425.94
431.846	415.94
432.068	426.94
432.29	418.94
432.512	426.94
432.734	440.94
432.956	441.94
433.178	441.94
433.4	431.94
433.622	437.94
433.844	427.94
434.066	435.94
434.287	431.94
434.509	452.94
434.731	445.94
434.953	461.94
435.175	454.94
435.397	486.94
435.618	490.94
435.84	484.94
436.062	576.94
436.284	620.94
436.505	527.94
436.727	463.94
436.949	458.94
437.17	468.94
437.392	435.94
437.614	465.94
437.835	469.94
438.057	524.94
438.278	607.94
438.5	588.94
438.721	651.94
438.943	630.94
439.165	522.94
439.386	447.94
439.608	482.94
439.829	476.94
440.05	475.94
440.272	513.94
440.493	483.94
440.715	472.94
440.936	437.94
441.158	436.94
441.379	448.94
441.6	458.94
441.822	482.94
442.043	511.94
442.264	573.94
442.486	567.94
442.707	507.94
442.928	472.94
443.149	482.94
443.371	515.94
443.592	554.94
443.813	628.94
444.034	649.94
444.255	565.94
444.476	507.94
444.698	505.94
444.919	513.94
445.14	593.94
445.361	533.94
445.582	506.94
445.803	545.94
446.024	593.94
446.245	601.94
446.466	571.94
446.687	495.94
446.908	487.94
447.129	465.94
447.35	453.94
447.571	431.94
447.792	421.94
448.013	449.94
448.234	450.94
448.455	479.94
448.675	563.94
448.896	624.94
449.117	556.94
449.338	527.94
449.559	627.94
449.779	681.94
450	570.94
450.221	485.94
450.442	403.94
450.662	428.94
450.883	416.94
451.104	446.94
451.324	420.94
451.545	417.94
451.766	392.94
451.986	400.94
452.207	410.94
452.428	385.94
452.648	390.94
452.869	403.94
453.089	382.94
453.31	395.94
453.53	392.94
453.751	403.94
453.971	400.94
454.192	391.94
454.412	408.94
454.633	400.94
454.853	379.94
455.073	395.94
455.294	367.94
455.514	450.94
455.734	457.94
455.955	390.94
456.175	379.94
456.395	383.94
456.616	366.94
456.836	358.94
457.056	387.94
457.276	348.94
457.497	381.94
457.717	380.94
457.937	374.94
458.157	395.94
458.377	390.94
458.598	396.94
458.818	438.94
459.038	484.94
459.258	514.94
459.478	453.94
459.698	415.94
459.918	420.94
460.138	448.94
460.358	446.94
460.578	433.94
460.798	431.94
461.018	459.94
461.238	452.94
461.458	444.94
461.678	443.94
461.898	444.94
462.118	479.94
462.338	472.94
462.558	454.94
462.777	489.94
462.997	483.94
463.217	485.94
463.437	481.94
463.657	485.94
463.876	472.94
464.096	460.94
464.316	460.94
464.536	462.94
464.755	477.94
464.975	482.94
465.195	479.94
465.414	511.94
465.634	466.94
465.854	443.94
466.073	419.94
466.293	423.94
466.512	408.94
466.732	402.94
466.951	406.94
467.171	398.94
467.391	391.94
467.61	413.94
467.829	420.94
468.049	417.94
468.268	388.94
468.488	405.94
468.707	379.94
468.927	380.94
469.146	405.94
469.365	395.94
469.585	387.94
469.804	430.94
470.023	401.94
470.243	404.94
470.462	434.94
470.681	432.94
470.901	412.94
471.12	407.94
471.339	413.94
471.558	431.94
471.777	406.94
471.997	412.94
472.216	402.94
472.435	431.94
472.654	411.94
472.873	423.94
473.092	392.94
473.311	401.94
473.53	392.94
473.749	417.94
473.968	413.94
474.187	505.94
474.406	493.94
474.625	427.94
474.844	426.94
475.063	406.94
475.282	403.94
475.501	400.94
475.72	419.94
475.939	409.94
476.158	425.94
476.377	416.94
476.596	399.94
476.814	436.94
477.033	431.94
477.252	431.94
477.471	434.94
477.69	440.94
477.908	455.94
478.127	456.94
478.346	432.94
478.564	435.94
478.783	450.94
479.002	465.94
479.22	466.94
479.439	450.94
479.658	479.94
479.876	502.94
480.095	491.94
480.313	519.94
480.532	517.94
480.751	497.94
480.969	516.94
481.188	501.94
481.406	530.94
481.624	490.94
481.843	496.94
482.061	491.94
482.28	467.94
482.498	479.94
482.717	468.94
482.935	453.94
483.153	484.94
483.372	462.94
483.59	481.94
483.808	457.94
484.027	466.94
484.245	470.94
484.463	480.94
484.681	459.94
484.9	488.94
485.118	469.94
485.336	474.94
485.554	466.94
485.772	482.94
485.99	464.94
486.209	479.94
486.427	460.94
486.645	491.94
486.863	496.94
487.081	488.94
487.299	489.94
487.517	478.94
487.735	499.94
487.953	485.94
488.171	499.94
488.389	490.94
488.607	488.94
488.825	484.94
489.043	490.94
489.261	513.94
489.479	498.94
489.696	523.94
489.914	512.94
490.132	527.94
490.35	494.94
490.568	500.94
490.786	511.94
491.003	532.94
491.221	540.94
491.439	558.94
491.657	523.94
491.874	543.94
492.092	545.94
492.31	530.94
492.527	560.94
492.745	563.94
492.963	539.94
493.18	561.94
493.398	571.94
493.615	552.94
493.833	549.94
494.05	559.94
494.268	577.94
494.485	560.94
494.703	564.94
494.92	559.94
495.138	571.94
495.355	553.94
495.573	551.94
495.79	577.94
496.008	579.94
496.225	550.94
496.442	569.94
496.66	579.94
496.877	576.94
497.094	595.94
497.312	597.94
497.529	615.94
497.746	630.94
497.963	608.94
498.181	626.94
498.398	663.94
498.615	673.94
498.832	678.94
499.049	707.94
499.267	730.94
499.484	767.94
499.701	797.94
499.918	827.94
500.135	880.94
500.352	899.94
500.569	954.94
500.786	940.94
501.003	921.94
501.22	888.94
501.437	816.94
501.654	798.94
501.871	769.94
502.088	746.94
