Data from 1977.PennyLincolnUp.Lamp.En5.5.200Scan.071719.P1_HRD10591_16-05-55-863.txt Node
Date: Thu Jul 18 16:05:55 EDT 2019
User: cochatt
Spectrometer: HR+D1059
Trigger mode: 1
Integration Time (sec): 1.000000E-1
Scans to average: 1
Electric dark correction enabled: true
Nonlinearity correction enabled: false
Boxcar width: 0
XAxis mode: Wavelengths
Number of Pixels in Spectrum: 2048
>>>>>Begin Spectral Data<<<<<
223.165	-19.25
223.4	-19.25
223.635	-19.25
223.869	-0.25
224.104	-12.25
224.338	-19.25
224.573	-5.25
224.808	-17.25
225.042	2.75
225.277	-5.25
225.511	-5.25
225.746	6.75
225.98	-0.25
226.215	9.75
226.449	26.75
226.683	19.75
226.918	14.75
227.152	3.75
227.387	35.75
227.621	22.75
227.856	42.75
228.09	49.75
228.324	48.75
228.559	67.75
228.793	66.75
229.027	72.75
229.262	97.75
229.496	111.75
229.73	122.75
229.964	122.75
230.199	118.75
230.433	116.75
230.667	107.75
230.901	107.75
231.136	114.75
231.37	114.75
231.604	121.75
231.838	106.75
232.072	118.75
232.306	111.75
232.541	115.75
232.775	112.75
233.009	100.75
233.243	105.75
233.477	114.75
233.711	102.75
233.945	111.75
234.179	122.75
234.413	116.75
234.647	114.75
234.881	110.75
235.115	108.75
235.349	118.75
235.583	122.75
235.817	117.75
236.051	108.75
236.285	130.75
236.519	108.75
236.753	118.75
236.987	137.75
237.221	178.75
237.455	199.75
237.689	178.75
237.922	126.75
238.156	127.75
238.39	134.75
238.624	117.75
238.858	115.75
239.091	121.75
239.325	114.75
239.559	119.75
239.793	128.75
240.027	118.75
240.26	131.75
240.494	145.75
240.728	138.75
240.961	137.75
241.195	131.75
241.429	139.75
241.662	147.75
241.896	131.75
242.13	137.75
242.363	131.75
242.597	140.75
242.83	124.75
243.064	122.75
243.298	141.75
243.531	122.75
243.765	138.75
243.998	134.75
244.232	143.75
244.465	130.75
244.699	128.75
244.932	141.75
245.166	129.75
245.399	140.75
245.633	139.75
245.866	138.75
246.099	137.75
246.333	155.75
246.566	159.75
246.8	145.75
247.033	137.75
247.266	151.75
247.5	148.75
247.733	163.75
247.966	165.75
248.2	175.75
248.433	163.75
248.666	167.75
248.899	165.75
249.133	191.75
249.366	171.75
249.599	182.75
249.832	169.75
250.066	184.75
250.299	185.75
250.532	190.75
250.765	201.75
250.998	194.75
251.231	214.75
251.465	211.75
251.698	194.75
251.931	197.75
252.164	192.75
252.397	180.75
252.63	175.75
252.863	195.75
253.096	185.75
253.329	206.75
253.562	197.75
253.795	199.75
254.028	203.75
254.261	215.75
254.494	218.75
254.727	238.75
254.96	244.75
255.193	246.75
255.426	241.75
255.659	216.75
255.892	232.75
256.124	207.75
256.357	227.75
256.59	221.75
256.823	203.75
257.056	216.75
257.289	198.75
257.521	204.75
257.754	197.75
257.987	215.75
258.22	194.75
258.452	198.75
258.685	190.75
258.918	195.75
259.151	211.75
259.383	226.75
259.616	220.75
259.849	210.75
260.081	221.75
260.314	239.75
260.547	238.75
260.779	238.75
261.012	248.75
261.244	214.75
261.477	211.75
261.71	197.75
261.942	224.75
262.175	213.75
262.407	229.75
262.64	223.75
262.872	222.75
263.105	195.75
263.337	214.75
263.57	212.75
263.802	225.75
264.035	214.75
264.267	215.75
264.499	204.75
264.732	217.75
264.964	218.75
265.197	215.75
265.429	209.75
265.661	211.75
265.894	214.75
266.126	219.75
266.358	214.75
266.591	241.75
266.823	231.75
267.055	232.75
267.287	235.75
267.52	240.75
267.752	260.75
267.984	225.75
268.216	217.75
268.448	243.75
268.681	234.75
268.913	239.75
269.145	246.75
269.377	289.75
269.609	255.75
269.841	252.75
270.073	258.75
270.306	294.75
270.538	290.75
270.77	283.75
271.002	287.75
271.234	280.75
271.466	291.75
271.698	306.75
271.93	300.75
272.162	297.75
272.394	319.75
272.626	282.75
272.858	268.75
273.09	265.75
273.322	275.75
273.553	262.75
273.785	262.75
274.017	261.75
274.249	280.75
274.481	280.75
274.713	267.75
274.945	254.75
275.176	274.75
275.408	267.75
275.64	258.75
275.872	280.75
276.104	254.75
276.335	259.75
276.567	251.75
276.799	295.75
277.031	298.75
277.262	282.75
277.494	310.75
277.726	297.75
277.957	272.75
278.189	274.75
278.421	266.75
278.652	283.75
278.884	270.75
279.115	261.75
279.347	268.75
279.579	276.75
279.81	268.75
280.042	269.75
280.273	277.75
280.505	275.75
280.736	258.75
280.968	277.75
281.199	283.75
281.431	289.75
281.662	277.75
281.894	266.75
282.125	277.75
282.356	302.75
282.588	304.75
282.819	319.75
283.051	273.75
283.282	292.75
283.513	282.75
283.745	288.75
283.976	275.75
284.207	279.75
284.439	268.75
284.67	290.75
284.901	288.75
285.132	295.75
285.364	291.75
285.595	278.75
285.826	252.75
286.057	286.75
286.288	282.75
286.52	294.75
286.751	297.75
286.982	300.75
287.213	299.75
287.444	276.75
287.675	284.75
287.906	310.75
288.138	299.75
288.369	317.75
288.6	329.75
288.831	311.75
289.062	308.75
289.293	310.75
289.524	302.75
289.755	317.75
289.986	302.75
290.217	310.75
290.448	306.75
290.679	311.75
290.91	292.75
291.141	291.75
291.371	313.75
291.602	294.75
291.833	306.75
292.064	307.75
292.295	312.75
292.526	310.75
292.757	319.75
292.987	318.75
293.218	307.75
293.449	306.75
293.68	319.75
293.91	306.75
294.141	292.75
294.372	302.75
294.603	296.75
294.833	292.75
295.064	314.75
295.295	306.75
295.525	305.75
295.756	306.75
295.987	327.75
296.217	312.75
296.448	312.75
296.679	309.75
296.909	320.75
297.14	326.75
297.37	310.75
297.601	310.75
297.831	343.75
298.062	305.75
298.292	331.75
298.523	342.75
298.753	320.75
298.984	316.75
299.214	340.75
299.445	345.75
299.675	324.75
299.905	327.75
300.136	332.75
300.366	319.75
300.597	336.75
300.827	325.75
301.057	342.75
301.288	357.75
301.518	347.75
301.748	348.75
301.979	339.75
302.209	356.75
302.439	346.75
302.669	355.75
302.9	344.75
303.13	322.75
303.36	322.75
303.59	337.75
303.82	356.75
304.051	332.75
304.281	346.75
304.511	327.75
304.741	338.75
304.971	333.75
305.201	335.75
305.431	323.75
305.661	338.75
305.891	350.75
306.121	350.75
306.352	330.75
306.582	351.75
306.812	347.75
307.042	355.75
307.272	338.75
307.502	352.75
307.731	357.75
307.961	349.75
308.191	343.75
308.421	352.75
308.651	351.75
308.881	366.75
309.111	353.75
309.341	342.75
309.571	353.75
309.8	382.75
310.03	366.75
310.26	383.75
310.49	369.75
310.72	369.75
310.949	382.75
311.179	370.75
311.409	364.75
311.639	356.75
311.868	366.75
312.098	328.75
312.328	389.75
312.557	382.75
312.787	399.75
313.017	400.75
313.246	376.75
313.476	375.75
313.706	380.75
313.935	372.75
314.165	389.75
314.394	398.75
314.624	401.75
314.853	383.75
315.083	384.75
315.312	378.75
315.542	374.75
315.771	361.75
316.001	387.75
316.23	410.75
316.46	380.75
316.689	388.75
316.919	376.75
317.148	401.75
317.377	392.75
317.607	396.75
317.836	393.75
318.065	390.75
318.295	373.75
318.524	383.75
318.753	376.75
318.983	385.75
319.212	377.75
319.441	391.75
319.67	404.75
319.9	384.75
320.129	405.75
320.358	396.75
320.587	395.75
320.816	391.75
321.046	399.75
321.275	404.75
321.504	427.75
321.733	409.75
321.962	405.75
322.191	416.75
322.42	426.75
322.649	432.75
322.878	442.75
323.108	423.75
323.337	444.75
323.566	473.75
323.795	481.75
324.024	523.75
324.253	598.75
324.482	834.75
324.71	1176.75
324.939	1660.75
325.168	1390.75
325.397	741.75
325.626	539.75
325.855	488.75
326.084	465.75
326.313	459.75
326.542	472.75
326.77	505.75
326.999	566.75
327.228	771.75
327.457	1051.75
327.686	1205.75
327.914	832.75
328.143	599.75
328.372	544.75
328.6	522.75
328.829	510.75
329.058	522.75
329.287	518.75
329.515	486.75
329.744	478.75
329.972	478.75
330.201	490.75
330.43	522.75
330.658	512.75
330.887	540.75
331.115	515.75
331.344	481.75
331.572	478.75
331.801	456.75
332.03	457.75
332.258	472.75
332.486	457.75
332.715	450.75
332.943	455.75
333.172	455.75
333.4	472.75
333.629	484.75
333.857	498.75
334.085	490.75
334.314	498.75
334.542	512.75
334.771	504.75
334.999	511.75
335.227	461.75
335.455	483.75
335.684	471.75
335.912	449.75
336.14	419.75
336.369	470.75
336.597	457.75
336.825	454.75
337.053	426.75
337.281	453.75
337.51	434.75
337.738	450.75
337.966	445.75
338.194	429.75
338.422	439.75
338.65	430.75
338.878	436.75
339.106	433.75
339.334	427.75
339.562	444.75
339.79	428.75
340.018	427.75
340.246	430.75
340.474	427.75
340.702	442.75
340.93	427.75
341.158	418.75
341.386	411.75
341.614	422.75
341.842	432.75
342.07	420.75
342.298	415.75
342.526	412.75
342.754	409.75
342.981	422.75
343.209	427.75
343.437	442.75
343.665	436.75
343.893	446.75
344.12	436.75
344.348	443.75
344.576	455.75
344.804	449.75
345.031	462.75
345.259	434.75
345.487	433.75
345.714	432.75
345.942	427.75
346.17	400.75
346.397	406.75
346.625	405.75
346.853	414.75
347.08	413.75
347.308	410.75
347.535	420.75
347.763	423.75
347.99	415.75
348.218	421.75
348.445	415.75
348.673	409.75
348.9	414.75
349.128	426.75
349.355	397.75
349.583	389.75
349.81	411.75
350.037	392.75
350.265	412.75
350.492	396.75
350.72	384.75
350.947	391.75
351.174	398.75
351.402	384.75
351.629	405.75
351.856	408.75
352.083	408.75
352.311	414.75
352.538	417.75
352.765	407.75
352.992	388.75
353.22	378.75
353.447	392.75
353.674	378.75
353.901	387.75
354.128	395.75
354.355	392.75
354.583	376.75
354.81	409.75
355.037	398.75
355.264	370.75
355.491	378.75
355.718	393.75
355.945	389.75
356.172	386.75
356.399	369.75
356.626	359.75
356.853	378.75
357.08	366.75
357.307	380.75
357.534	376.75
357.761	403.75
357.988	381.75
358.215	378.75
358.441	378.75
358.668	372.75
358.895	385.75
359.122	384.75
359.349	387.75
359.576	401.75
359.802	418.75
360.029	426.75
360.256	416.75
360.483	409.75
360.709	404.75
360.936	390.75
361.163	415.75
361.39	411.75
361.616	391.75
361.843	382.75
362.07	390.75
362.296	407.75
362.523	406.75
362.749	415.75
362.976	393.75
363.203	412.75
363.429	382.75
363.656	374.75
363.882	393.75
364.109	390.75
364.335	409.75
364.562	382.75
364.788	381.75
365.015	392.75
365.241	380.75
365.468	399.75
365.694	408.75
365.92	383.75
366.147	356.75
366.373	372.75
366.599	394.75
366.826	398.75
367.052	366.75
367.278	377.75
367.505	374.75
367.731	404.75
367.957	384.75
368.184	388.75
368.41	385.75
368.636	380.75
368.862	402.75
369.089	384.75
369.315	399.75
369.541	386.75
369.767	394.75
369.993	392.75
370.219	382.75
370.445	395.75
370.672	369.75
370.898	380.75
371.124	394.75
371.35	404.75
371.576	378.75
371.802	390.75
372.028	400.75
372.254	400.75
372.48	396.75
372.706	388.75
372.932	383.75
373.158	386.75
373.384	386.75
373.61	375.75
373.835	413.75
374.061	387.75
374.287	379.75
374.513	396.75
374.739	400.75
374.965	414.75
375.191	389.75
375.416	402.75
375.642	392.75
375.868	403.75
376.094	390.75
376.319	371.75
376.545	386.75
376.771	370.75
376.997	375.75
377.222	378.75
377.448	367.75
377.674	383.75
377.899	376.75
378.125	386.75
378.35	381.75
378.576	388.75
378.802	364.75
379.027	380.75
379.253	377.75
379.478	383.75
379.704	377.75
379.929	388.75
380.155	385.75
380.38	388.75
380.606	381.75
380.831	386.75
381.057	388.75
381.282	363.75
381.507	376.75
381.733	390.75
381.958	370.75
382.184	384.75
382.409	380.75
382.634	388.75
382.86	393.75
383.085	375.75
383.31	372.75
383.535	399.75
383.761	394.75
383.986	385.75
384.211	422.75
384.436	387.75
384.662	400.75
384.887	412.75
385.112	416.75
385.337	419.75
385.562	402.75
385.787	428.75
386.013	417.75
386.238	432.75
386.463	422.75
386.688	418.75
386.913	402.75
387.138	421.75
387.363	427.75
387.588	417.75
387.813	435.75
388.038	432.75
388.263	436.75
388.488	434.75
388.713	417.75
388.938	408.75
389.163	408.75
389.387	434.75
389.612	412.75
389.837	418.75
390.062	410.75
390.287	408.75
390.512	415.75
390.736	430.75
390.961	417.75
391.186	430.75
391.411	417.75
391.636	426.75
391.86	438.75
392.085	447.75
392.31	443.75
392.534	436.75
392.759	424.75
392.984	444.75
393.208	424.75
393.433	443.75
393.658	426.75
393.882	424.75
394.107	425.75
394.331	423.75
394.556	421.75
394.78	411.75
395.005	436.75
395.229	432.75
395.454	457.75
395.678	445.75
395.903	435.75
396.127	444.75
396.352	467.75
396.576	446.75
396.801	432.75
397.025	446.75
397.249	440.75
397.474	455.75
397.698	471.75
397.922	453.75
398.147	478.75
398.371	466.75
398.595	462.75
398.82	488.75
399.044	503.75
399.268	502.75
399.492	539.75
399.717	578.75
399.941	596.75
400.165	580.75
400.389	586.75
400.613	546.75
400.837	496.75
401.062	520.75
401.286	494.75
401.51	482.75
401.734	459.75
401.958	464.75
402.182	481.75
402.406	500.75
402.63	472.75
402.854	466.75
403.078	478.75
403.302	491.75
403.526	492.75
403.75	483.75
403.974	505.75
404.198	490.75
404.422	482.75
404.645	501.75
404.869	532.75
405.093	525.75
405.317	560.75
405.541	575.75
405.765	531.75
405.988	517.75
406.212	524.75
406.436	536.75
406.66	568.75
406.883	541.75
407.107	552.75
407.331	579.75
407.555	634.75
407.778	638.75
408.002	570.75
408.226	551.75
408.449	536.75
408.673	551.75
408.896	575.75
409.12	582.75
409.344	563.75
409.567	533.75
409.791	512.75
410.014	514.75
410.238	503.75
410.461	491.75
410.685	500.75
410.908	512.75
411.132	528.75
411.355	533.75
411.578	550.75
411.802	499.75
412.025	491.75
412.249	496.75
412.472	518.75
412.695	509.75
412.919	521.75
413.142	504.75
413.365	475.75
413.589	474.75
413.812	449.75
414.035	466.75
414.258	447.75
414.482	448.75
414.705	468.75
414.928	450.75
415.151	471.75
415.374	450.75
415.597	485.75
415.821	468.75
416.044	470.75
416.267	466.75
416.49	457.75
416.713	464.75
416.936	456.75
417.159	460.75
417.382	455.75
417.605	486.75
417.828	457.75
418.051	482.75
418.274	459.75
418.497	462.75
418.72	468.75
418.943	461.75
419.166	471.75
419.389	495.75
419.611	491.75
419.834	479.75
420.057	475.75
420.28	478.75
420.503	472.75
420.726	457.75
420.948	460.75
421.171	517.75
421.394	510.75
421.617	474.75
421.839	474.75
422.062	492.75
422.285	467.75
422.507	530.75
422.73	597.75
422.953	572.75
423.175	503.75
423.398	485.75
423.621	491.75
423.843	508.75
424.066	498.75
424.288	512.75
424.511	521.75
424.733	556.75
424.956	622.75
425.178	588.75
425.401	608.75
425.623	617.75
425.846	538.75
426.068	491.75
426.291	479.75
426.513	478.75
426.735	502.75
426.958	563.75
427.18	579.75
427.402	713.75
427.625	785.75
427.847	637.75
428.069	572.75
428.292	518.75
428.514	487.75
428.736	465.75
428.958	474.75
429.181	452.75
429.403	447.75
429.625	468.75
429.847	500.75
430.069	551.75
430.292	526.75
430.514	466.75
430.736	440.75
430.958	459.75
431.18	432.75
431.402	447.75
431.624	421.75
431.846	452.75
432.068	454.75
432.29	437.75
432.512	430.75
432.734	434.75
432.956	432.75
433.178	447.75
433.4	438.75
433.622	444.75
433.844	442.75
434.066	419.75
434.287	436.75
434.509	461.75
434.731	448.75
434.953	459.75
435.175	470.75
435.397	497.75
435.618	513.75
435.84	523.75
436.062	590.75
436.284	615.75
436.505	542.75
436.727	494.75
436.949	464.75
437.17	459.75
437.392	457.75
437.614	441.75
437.835	473.75
438.057	555.75
438.278	642.75
438.5	647.75
438.721	719.75
438.943	678.75
439.165	544.75
439.386	488.75
439.608	483.75
439.829	468.75
440.05	488.75
440.272	533.75
440.493	519.75
440.715	474.75
440.936	463.75
441.158	455.75
441.379	460.75
441.6	467.75
441.822	492.75
442.043	533.75
442.264	578.75
442.486	604.75
442.707	524.75
442.928	497.75
443.149	496.75
443.371	543.75
443.592	537.75
443.813	650.75
444.034	668.75
444.255	555.75
444.476	502.75
444.698	512.75
444.919	498.75
445.14	597.75
445.361	560.75
445.582	538.75
445.803	560.75
446.024	663.75
446.245	656.75
446.466	595.75
446.687	516.75
446.908	479.75
447.129	454.75
447.35	470.75
447.571	442.75
447.792	449.75
448.013	451.75
448.234	475.75
448.455	494.75
448.675	576.75
448.896	649.75
449.117	574.75
449.338	548.75
449.559	629.75
449.779	735.75
450	590.75
450.221	460.75
450.442	441.75
450.662	424.75
450.883	448.75
451.104	463.75
451.324	442.75
451.545	399.75
451.766	415.75
451.986	417.75
452.207	383.75
452.428	421.75
452.648	377.75
452.869	396.75
453.089	421.75
453.31	409.75
453.53	409.75
453.751	385.75
453.971	422.75
454.192	414.75
454.412	385.75
454.633	411.75
454.853	402.75
455.073	402.75
455.294	423.75
455.514	469.75
455.734	458.75
455.955	408.75
456.175	415.75
456.395	396.75
456.616	394.75
456.836	374.75
457.056	381.75
457.276	375.75
457.497	377.75
457.717	377.75
457.937	402.75
458.157	382.75
458.377	404.75
458.598	404.75
458.818	440.75
459.038	510.75
459.258	531.75
459.478	443.75
459.698	419.75
459.918	416.75
460.138	452.75
460.358	452.75
460.578	447.75
460.798	469.75
461.018	438.75
461.238	445.75
461.458	445.75
461.678	452.75
461.898	463.75
462.118	456.75
462.338	457.75
462.558	474.75
462.777	483.75
462.997	490.75
463.217	509.75
463.437	504.75
463.657	483.75
463.876	485.75
464.096	476.75
464.316	484.75
464.536	503.75
464.755	481.75
464.975	464.75
465.195	486.75
465.414	519.75
465.634	475.75
465.854	442.75
466.073	436.75
466.293	414.75
466.512	429.75
466.732	414.75
466.951	442.75
467.171	420.75
467.391	412.75
467.61	421.75
467.829	428.75
468.049	424.75
468.268	394.75
468.488	426.75
468.707	387.75
468.927	400.75
469.146	396.75
469.365	425.75
469.585	408.75
469.804	395.75
470.023	400.75
470.243	425.75
470.462	440.75
470.681	454.75
470.901	421.75
471.12	419.75
471.339	416.75
471.558	419.75
471.777	415.75
471.997	401.75
472.216	407.75
472.435	442.75
472.654	402.75
472.873	409.75
473.092	399.75
473.311	396.75
473.53	419.75
473.749	418.75
473.968	450.75
474.187	513.75
474.406	534.75
474.625	460.75
474.844	418.75
475.063	424.75
475.282	419.75
475.501	431.75
475.72	422.75
475.939	427.75
476.158	425.75
476.377	427.75
476.596	410.75
476.814	452.75
477.033	460.75
477.252	452.75
477.471	446.75
477.69	460.75
477.908	469.75
478.127	474.75
478.346	456.75
478.564	452.75
478.783	454.75
479.002	484.75
479.22	464.75
479.439	475.75
479.658	504.75
479.876	512.75
480.095	497.75
480.313	530.75
480.532	520.75
480.751	508.75
480.969	498.75
481.188	520.75
481.406	549.75
481.624	528.75
481.843	499.75
482.061	482.75
482.28	460.75
482.498	472.75
482.717	493.75
482.935	463.75
483.153	489.75
483.372	479.75
483.59	474.75
483.808	500.75
484.027	472.75
484.245	498.75
484.463	486.75
484.681	501.75
484.9	505.75
485.118	508.75
485.336	514.75
485.554	495.75
485.772	512.75
485.99	487.75
486.209	494.75
486.427	477.75
486.645	494.75
486.863	513.75
487.081	509.75
487.299	502.75
487.517	517.75
487.735	517.75
487.953	533.75
488.171	521.75
488.389	494.75
488.607	499.75
488.825	509.75
489.043	520.75
489.261	535.75
489.479	498.75
489.696	502.75
489.914	532.75
490.132	520.75
490.35	521.75
490.568	529.75
490.786	532.75
491.003	536.75
491.221	550.75
491.439	550.75
491.657	558.75
491.874	551.75
492.092	572.75
492.31	537.75
492.527	584.75
492.745	574.75
492.963	572.75
493.18	585.75
493.398	558.75
493.615	584.75
493.833	593.75
494.05	596.75
494.268	590.75
494.485	588.75
494.703	564.75
494.92	566.75
495.138	601.75
495.355	614.75
495.573	578.75
495.79	598.75
496.008	596.75
496.225	593.75
496.442	595.75
496.66	600.75
496.877	588.75
497.094	576.75
497.312	603.75
497.529	623.75
497.746	642.75
497.963	667.75
498.181	662.75
498.398	659.75
498.615	692.75
498.832	707.75
499.049	724.75
499.267	710.75
499.484	750.75
499.701	801.75
499.918	819.75
500.135	885.75
500.352	944.75
500.569	960.75
500.786	936.75
501.003	937.75
501.22	881.75
501.437	843.75
501.654	825.75
501.871	787.75
502.088	765.75
