Data from 1977.PennyLincolnUp.Lamp.En5.5.200Scan.071719.P1_HRD10591_16-07-52-864.txt Node
Date: Thu Jul 18 16:07:52 EDT 2019
User: cochatt
Spectrometer: HR+D1059
Trigger mode: 1
Integration Time (sec): 1.000000E-1
Scans to average: 1
Electric dark correction enabled: true
Nonlinearity correction enabled: false
Boxcar width: 0
XAxis mode: Wavelengths
Number of Pixels in Spectrum: 2048
>>>>>Begin Spectral Data<<<<<
223.165	-16.06
223.4	-16.06
223.635	-16.06
223.869	-7.06
224.104	-11.06
224.338	-13.06
224.573	-13.06
224.808	-17.06
225.042	-10.06
225.277	-12.06
225.511	-10.06
225.746	5.94
225.98	6.94
226.215	-3.06
226.449	7.94
226.683	21.94
226.918	34.94
227.152	34.94
227.387	30.94
227.621	37.94
227.856	49.94
228.09	53.94
228.324	47.94
228.559	62.94
228.793	61.94
229.027	89.94
229.262	110.94
229.496	104.94
229.73	126.94
229.964	137.94
230.199	119.94
230.433	106.94
230.667	106.94
230.901	105.94
231.136	99.94
231.37	102.94
231.604	115.94
231.838	110.94
232.072	119.94
232.306	109.94
232.541	114.94
232.775	118.94
233.009	106.94
233.243	112.94
233.477	116.94
233.711	111.94
233.945	120.94
234.179	100.94
234.413	115.94
234.647	113.94
234.881	125.94
235.115	124.94
235.349	133.94
235.583	128.94
235.817	129.94
236.051	125.94
236.285	119.94
236.519	137.94
236.753	123.94
236.987	143.94
237.221	158.94
237.455	210.94
237.689	179.94
237.922	138.94
238.156	127.94
238.39	134.94
238.624	111.94
238.858	123.94
239.091	121.94
239.325	127.94
239.559	110.94
239.793	129.94
240.027	131.94
240.26	139.94
240.494	144.94
240.728	140.94
240.961	135.94
241.195	149.94
241.429	141.94
241.662	136.94
241.896	151.94
242.13	124.94
242.363	120.94
242.597	125.94
242.83	151.94
243.064	145.94
243.298	139.94
243.531	150.94
243.765	138.94
243.998	133.94
244.232	136.94
244.465	160.94
244.699	159.94
244.932	149.94
245.166	145.94
245.399	150.94
245.633	161.94
245.866	136.94
246.099	150.94
246.333	157.94
246.566	149.94
246.8	156.94
247.033	171.94
247.266	157.94
247.5	175.94
247.733	171.94
247.966	177.94
248.2	175.94
248.433	177.94
248.666	186.94
248.899	174.94
249.133	197.94
249.366	206.94
249.599	169.94
249.832	189.94
250.066	176.94
250.299	167.94
250.532	207.94
250.765	206.94
250.998	215.94
251.231	239.94
251.465	212.94
251.698	204.94
251.931	190.94
252.164	193.94
252.397	208.94
252.63	195.94
252.863	195.94
253.096	209.94
253.329	232.94
253.562	213.94
253.795	213.94
254.028	224.94
254.261	214.94
254.494	217.94
254.727	247.94
254.96	253.94
255.193	263.94
255.426	242.94
255.659	230.94
255.892	219.94
256.124	231.94
256.357	227.94
256.59	230.94
256.823	201.94
257.056	198.94
257.289	208.94
257.521	208.94
257.754	210.94
257.987	205.94
258.22	198.94
258.452	214.94
258.685	218.94
258.918	213.94
259.151	213.94
259.383	212.94
259.616	227.94
259.849	229.94
260.081	243.94
260.314	242.94
260.547	257.94
260.779	235.94
261.012	250.94
261.244	224.94
261.477	213.94
261.71	215.94
261.942	217.94
262.175	227.94
262.407	227.94
262.64	215.94
262.872	208.94
263.105	222.94
263.337	232.94
263.57	217.94
263.802	237.94
264.035	228.94
264.267	214.94
264.499	197.94
264.732	217.94
264.964	211.94
265.197	211.94
265.429	219.94
265.661	220.94
265.894	220.94
266.126	232.94
266.358	225.94
266.591	215.94
266.823	228.94
267.055	229.94
267.287	252.94
267.52	218.94
267.752	232.94
267.984	238.94
268.216	219.94
268.448	227.94
268.681	247.94
268.913	254.94
269.145	268.94
269.377	283.94
269.609	277.94
269.841	304.94
270.073	286.94
270.306	290.94
270.538	316.94
270.77	316.94
271.002	294.94
271.234	292.94
271.466	294.94
271.698	321.94
271.93	326.94
272.162	309.94
272.394	312.94
272.626	296.94
272.858	294.94
273.09	294.94
273.322	289.94
273.553	283.94
273.785	267.94
274.017	264.94
274.249	278.94
274.481	279.94
274.713	270.94
274.945	303.94
275.176	279.94
275.408	272.94
275.64	261.94
275.872	276.94
276.104	283.94
276.335	263.94
276.567	293.94
276.799	288.94
277.031	285.94
277.262	318.94
277.494	331.94
277.726	292.94
277.957	287.94
278.189	269.94
278.421	269.94
278.652	281.94
278.884	291.94
279.115	294.94
279.347	279.94
279.579	301.94
279.81	278.94
280.042	281.94
280.273	284.94
280.505	306.94
280.736	289.94
280.968	278.94
281.199	277.94
281.431	276.94
281.662	283.94
281.894	286.94
282.125	293.94
282.356	317.94
282.588	299.94
282.819	309.94
283.051	289.94
283.282	290.94
283.513	296.94
283.745	289.94
283.976	297.94
284.207	278.94
284.439	285.94
284.67	300.94
284.901	308.94
285.132	295.94
285.364	287.94
285.595	294.94
285.826	309.94
286.057	296.94
286.288	289.94
286.52	301.94
286.751	309.94
286.982	310.94
287.213	307.94
287.444	308.94
287.675	303.94
287.906	334.94
288.138	316.94
288.369	302.94
288.6	307.94
288.831	303.94
289.062	313.94
289.293	312.94
289.524	321.94
289.755	315.94
289.986	311.94
290.217	315.94
290.448	315.94
290.679	310.94
290.91	312.94
291.141	297.94
291.371	287.94
291.602	318.94
291.833	301.94
292.064	327.94
292.295	300.94
292.526	307.94
292.757	324.94
292.987	310.94
293.218	289.94
293.449	304.94
293.68	314.94
293.91	313.94
294.141	315.94
294.372	324.94
294.603	318.94
294.833	310.94
295.064	319.94
295.295	319.94
295.525	308.94
295.756	337.94
295.987	331.94
296.217	329.94
296.448	348.94
296.679	330.94
296.909	331.94
297.14	340.94
297.37	333.94
297.601	330.94
297.831	316.94
298.062	327.94
298.292	320.94
298.523	314.94
298.753	334.94
298.984	342.94
299.214	328.94
299.445	325.94
299.675	344.94
299.905	339.94
300.136	320.94
300.366	325.94
300.597	327.94
300.827	335.94
301.057	344.94
301.288	343.94
301.518	338.94
301.748	341.94
301.979	346.94
302.209	371.94
302.439	351.94
302.669	338.94
302.9	359.94
303.13	352.94
303.36	343.94
303.59	368.94
303.82	340.94
304.051	337.94
304.281	363.94
304.511	329.94
304.741	347.94
304.971	358.94
305.201	362.94
305.431	327.94
305.661	353.94
305.891	364.94
306.121	360.94
306.352	344.94
306.582	348.94
306.812	342.94
307.042	352.94
307.272	350.94
307.502	346.94
307.731	363.94
307.961	352.94
308.191	351.94
308.421	354.94
308.651	330.94
308.881	352.94
309.111	356.94
309.341	356.94
309.571	357.94
309.8	360.94
310.03	381.94
310.26	371.94
310.49	363.94
310.72	393.94
310.949	369.94
311.179	385.94
311.409	392.94
311.639	377.94
311.868	398.94
312.098	381.94
312.328	396.94
312.557	419.94
312.787	415.94
313.017	400.94
313.246	397.94
313.476	390.94
313.706	401.94
313.935	399.94
314.165	429.94
314.394	409.94
314.624	396.94
314.853	391.94
315.083	390.94
315.312	392.94
315.542	380.94
315.771	397.94
316.001	397.94
316.23	390.94
316.46	407.94
316.689	386.94
316.919	387.94
317.148	385.94
317.377	409.94
317.607	397.94
317.836	377.94
318.065	379.94
318.295	383.94
318.524	388.94
318.753	391.94
318.983	402.94
319.212	409.94
319.441	408.94
319.67	387.94
319.9	394.94
320.129	395.94
320.358	399.94
320.587	391.94
320.816	396.94
321.046	419.94
321.275	412.94
321.504	417.94
321.733	409.94
321.962	417.94
322.191	420.94
322.42	416.94
322.649	441.94
322.878	469.94
323.108	460.94
323.337	466.94
323.566	493.94
323.795	525.94
324.024	543.94
324.253	632.94
324.482	847.94
324.71	1295.94
324.939	1847.94
325.168	1558.94
325.397	834.94
325.626	597.94
325.855	524.94
326.084	484.94
326.313	477.94
326.542	490.94
326.77	523.94
326.999	581.94
327.228	790.94
327.457	1144.94
327.686	1375.94
327.914	921.94
328.143	635.94
328.372	579.94
328.6	557.94
328.829	516.94
329.058	547.94
329.287	513.94
329.515	517.94
329.744	476.94
329.972	505.94
330.201	526.94
330.43	530.94
330.658	537.94
330.887	545.94
331.115	541.94
331.344	500.94
331.572	484.94
331.801	481.94
332.03	480.94
332.258	479.94
332.486	467.94
332.715	466.94
332.943	475.94
333.172	490.94
333.4	475.94
333.629	482.94
333.857	495.94
334.085	488.94
334.314	517.94
334.542	523.94
334.771	510.94
334.999	477.94
335.227	489.94
335.455	466.94
335.684	467.94
335.912	452.94
336.14	472.94
336.369	459.94
336.597	463.94
336.825	462.94
337.053	457.94
337.281	446.94
337.51	447.94
337.738	465.94
337.966	464.94
338.194	454.94
338.422	459.94
338.65	440.94
338.878	438.94
339.106	444.94
339.334	453.94
339.562	428.94
339.79	443.94
340.018	449.94
340.246	443.94
340.474	460.94
340.702	428.94
340.93	440.94
341.158	437.94
341.386	440.94
341.614	436.94
341.842	431.94
342.07	414.94
342.298	429.94
342.526	416.94
342.754	427.94
342.981	417.94
343.209	419.94
343.437	448.94
343.665	429.94
343.893	461.94
344.12	467.94
344.348	467.94
344.576	464.94
344.804	461.94
345.031	459.94
345.259	459.94
345.487	465.94
345.714	429.94
345.942	408.94
346.17	420.94
346.397	413.94
346.625	426.94
346.853	442.94
347.08	426.94
347.308	421.94
347.535	417.94
347.763	436.94
347.99	399.94
348.218	429.94
348.445	428.94
348.673	428.94
348.9	432.94
349.128	403.94
349.355	403.94
349.583	391.94
349.81	408.94
350.037	397.94
350.265	401.94
350.492	414.94
350.72	404.94
350.947	391.94
351.174	417.94
351.402	410.94
351.629	420.94
351.856	404.94
352.083	423.94
352.311	427.94
352.538	420.94
352.765	408.94
352.992	384.94
353.22	390.94
353.447	391.94
353.674	395.94
353.901	398.94
354.128	395.94
354.355	383.94
354.583	384.94
354.81	382.94
355.037	397.94
355.264	385.94
355.491	379.94
355.718	395.94
355.945	400.94
356.172	383.94
356.399	391.94
356.626	394.94
356.853	410.94
357.08	380.94
357.307	375.94
357.534	389.94
357.761	392.94
357.988	393.94
358.215	387.94
358.441	391.94
358.668	386.94
358.895	402.94
359.122	385.94
359.349	392.94
359.576	401.94
359.802	395.94
360.029	443.94
360.256	415.94
360.483	403.94
360.709	412.94
360.936	392.94
361.163	397.94
361.39	408.94
361.616	403.94
361.843	404.94
362.07	400.94
362.296	410.94
362.523	419.94
362.749	407.94
362.976	395.94
363.203	409.94
363.429	391.94
363.656	393.94
363.882	396.94
364.109	387.94
364.335	392.94
364.562	388.94
364.788	405.94
365.015	384.94
365.241	394.94
365.468	382.94
365.694	405.94
365.92	411.94
366.147	414.94
366.373	366.94
366.599	383.94
366.826	374.94
367.052	399.94
367.278	400.94
367.505	380.94
367.731	402.94
367.957	388.94
368.184	392.94
368.41	390.94
368.636	390.94
368.862	419.94
369.089	396.94
369.315	378.94
369.541	409.94
369.767	393.94
369.993	377.94
370.219	396.94
370.445	383.94
370.672	381.94
370.898	385.94
371.124	398.94
371.35	387.94
371.576	402.94
371.802	405.94
372.028	391.94
372.254	389.94
372.48	395.94
372.706	393.94
372.932	404.94
373.158	402.94
373.384	405.94
373.61	408.94
373.835	405.94
374.061	399.94
374.287	399.94
374.513	384.94
374.739	407.94
374.965	406.94
375.191	405.94
375.416	408.94
375.642	387.94
375.868	392.94
376.094	389.94
376.319	390.94
376.545	365.94
376.771	381.94
376.997	387.94
377.222	393.94
377.448	380.94
377.674	382.94
377.899	373.94
378.125	392.94
378.35	385.94
378.576	379.94
378.802	382.94
379.027	390.94
379.253	382.94
379.478	383.94
379.704	377.94
379.929	382.94
380.155	397.94
380.38	359.94
380.606	368.94
380.831	366.94
381.057	387.94
381.282	374.94
381.507	411.94
381.733	390.94
381.958	379.94
382.184	407.94
382.409	399.94
382.634	383.94
382.86	399.94
383.085	410.94
383.31	402.94
383.535	395.94
383.761	425.94
383.986	401.94
384.211	409.94
384.436	412.94
384.662	410.94
384.887	415.94
385.112	418.94
385.337	431.94
385.562	423.94
385.787	417.94
386.013	435.94
386.238	425.94
386.463	424.94
386.688	432.94
386.913	417.94
387.138	430.94
387.363	427.94
387.588	412.94
387.813	419.94
388.038	415.94
388.263	417.94
388.488	426.94
388.713	433.94
388.938	442.94
389.163	429.94
389.387	432.94
389.612	399.94
389.837	407.94
390.062	411.94
390.287	413.94
390.512	412.94
390.736	397.94
390.961	430.94
391.186	440.94
391.411	440.94
391.636	439.94
391.86	437.94
392.085	437.94
392.31	432.94
392.534	422.94
392.759	426.94
392.984	448.94
393.208	426.94
393.433	457.94
393.658	428.94
393.882	426.94
394.107	402.94
394.331	420.94
394.556	396.94
394.78	430.94
395.005	432.94
395.229	426.94
395.454	444.94
395.678	429.94
395.903	446.94
396.127	452.94
396.352	455.94
396.576	438.94
396.801	444.94
397.025	448.94
397.249	438.94
397.474	440.94
397.698	450.94
397.922	462.94
398.147	475.94
398.371	477.94
398.595	473.94
398.82	479.94
399.044	484.94
399.268	543.94
399.492	549.94
399.717	591.94
399.941	614.94
400.165	630.94
400.389	605.94
400.613	549.94
400.837	478.94
401.062	493.94
401.286	511.94
401.51	477.94
401.734	481.94
401.958	488.94
402.182	485.94
402.406	489.94
402.63	492.94
402.854	480.94
403.078	479.94
403.302	496.94
403.526	486.94
403.75	507.94
403.974	510.94
404.198	501.94
404.422	519.94
404.645	501.94
404.869	520.94
405.093	539.94
405.317	539.94
405.541	602.94
405.765	562.94
405.988	538.94
406.212	534.94
406.436	535.94
406.66	554.94
406.883	533.94
407.107	551.94
407.331	589.94
407.555	644.94
407.778	637.94
408.002	597.94
408.226	544.94
408.449	543.94
408.673	529.94
408.896	535.94
409.12	589.94
409.344	578.94
409.567	509.94
409.791	533.94
410.014	490.94
410.238	471.94
410.461	465.94
410.685	505.94
410.908	530.94
411.132	545.94
411.355	591.94
411.578	544.94
411.802	504.94
412.025	479.94
412.249	491.94
412.472	512.94
412.695	559.94
412.919	521.94
413.142	484.94
413.365	489.94
413.589	472.94
413.812	457.94
414.035	455.94
414.258	456.94
414.482	464.94
414.705	481.94
414.928	453.94
415.151	432.94
415.374	456.94
415.597	473.94
415.821	463.94
416.044	453.94
416.267	445.94
416.49	456.94
416.713	475.94
416.936	454.94
417.159	479.94
417.382	446.94
417.605	468.94
417.828	475.94
418.051	510.94
418.274	470.94
418.497	468.94
418.72	472.94
418.943	455.94
419.166	485.94
419.389	500.94
419.611	508.94
419.834	500.94
420.057	495.94
420.28	484.94
420.503	469.94
420.726	465.94
420.948	496.94
421.171	528.94
421.394	554.94
421.617	492.94
421.839	485.94
422.062	469.94
422.285	499.94
422.507	542.94
422.73	602.94
422.953	569.94
423.175	497.94
423.398	519.94
423.621	486.94
423.843	507.94
424.066	505.94
424.288	487.94
424.511	521.94
424.733	566.94
424.956	651.94
425.178	597.94
425.401	613.94
425.623	634.94
425.846	541.94
426.068	506.94
426.291	515.94
426.513	513.94
426.735	513.94
426.958	570.94
427.18	627.94
427.402	723.94
427.625	770.94
427.847	685.94
428.069	591.94
428.292	540.94
428.514	471.94
428.736	475.94
428.958	469.94
429.181	438.94
429.403	460.94
429.625	478.94
429.847	500.94
430.069	555.94
430.292	549.94
430.514	462.94
430.736	485.94
430.958	447.94
431.18	432.94
431.402	432.94
431.624	452.94
431.846	433.94
432.068	423.94
432.29	447.94
432.512	435.94
432.734	451.94
432.956	458.94
433.178	438.94
433.4	469.94
433.622	456.94
433.844	448.94
434.066	447.94
434.287	434.94
434.509	461.94
434.731	464.94
434.953	461.94
435.175	454.94
435.397	490.94
435.618	492.94
435.84	553.94
436.062	620.94
436.284	659.94
436.505	556.94
436.727	512.94
436.949	470.94
437.17	463.94
437.392	460.94
437.614	481.94
437.835	503.94
438.057	594.94
438.278	656.94
438.5	655.94
438.721	711.94
438.943	698.94
439.165	559.94
439.386	504.94
439.608	494.94
439.829	512.94
440.05	522.94
440.272	560.94
440.493	519.94
440.715	491.94
440.936	471.94
441.158	474.94
441.379	453.94
441.6	475.94
441.822	499.94
442.043	521.94
442.264	585.94
442.486	643.94
442.707	542.94
442.928	517.94
443.149	517.94
443.371	532.94
443.592	556.94
443.813	657.94
444.034	695.94
444.255	584.94
444.476	517.94
444.698	525.94
444.919	504.94
445.14	640.94
445.361	555.94
445.582	528.94
445.803	575.94
446.024	668.94
446.245	675.94
446.466	615.94
446.687	519.94
446.908	511.94
447.129	476.94
447.35	476.94
447.571	457.94
447.792	444.94
448.013	439.94
448.234	463.94
448.455	509.94
448.675	633.94
448.896	715.94
449.117	599.94
449.338	537.94
449.559	680.94
449.779	731.94
450	591.94
450.221	484.94
450.442	458.94
450.662	447.94
450.883	451.94
451.104	456.94
451.324	420.94
451.545	420.94
451.766	427.94
451.986	419.94
452.207	416.94
452.428	396.94
452.648	389.94
452.869	425.94
453.089	435.94
453.31	451.94
453.53	421.94
453.751	379.94
453.971	419.94
454.192	427.94
454.412	413.94
454.633	403.94
454.853	424.94
455.073	397.94
455.294	426.94
455.514	472.94
455.734	468.94
455.955	405.94
456.175	416.94
456.395	380.94
456.616	390.94
456.836	390.94
457.056	390.94
457.276	379.94
457.497	390.94
457.717	387.94
457.937	379.94
458.157	385.94
458.377	407.94
458.598	424.94
458.818	449.94
459.038	532.94
459.258	537.94
459.478	481.94
459.698	416.94
459.918	448.94
460.138	454.94
460.358	449.94
460.578	444.94
460.798	435.94
461.018	440.94
461.238	456.94
461.458	448.94
461.678	437.94
461.898	451.94
462.118	452.94
462.338	445.94
462.558	483.94
462.777	477.94
462.997	509.94
463.217	487.94
463.437	504.94
463.657	495.94
463.876	485.94
464.096	478.94
464.316	484.94
464.536	485.94
464.755	500.94
464.975	475.94
465.195	492.94
465.414	521.94
465.634	485.94
465.854	459.94
466.073	463.94
466.293	430.94
466.512	420.94
466.732	425.94
466.951	423.94
467.171	404.94
467.391	408.94
467.61	404.94
467.829	421.94
468.049	431.94
468.268	409.94
468.488	404.94
468.707	393.94
468.927	407.94
469.146	403.94
469.365	421.94
469.585	407.94
469.804	415.94
470.023	409.94
470.243	417.94
470.462	442.94
470.681	447.94
470.901	433.94
471.12	422.94
471.339	416.94
471.558	432.94
471.777	425.94
471.997	415.94
472.216	420.94
472.435	443.94
472.654	427.94
472.873	427.94
473.092	416.94
473.311	426.94
473.53	414.94
473.749	452.94
473.968	468.94
474.187	544.94
474.406	569.94
474.625	468.94
474.844	423.94
475.063	424.94
475.282	420.94
475.501	406.94
475.72	423.94
475.939	405.94
476.158	436.94
476.377	426.94
476.596	432.94
476.814	429.94
477.033	427.94
477.252	463.94
477.471	431.94
477.69	433.94
477.908	444.94
478.127	455.94
478.346	457.94
478.564	497.94
478.783	469.94
479.002	469.94
479.22	507.94
479.439	488.94
479.658	494.94
479.876	509.94
480.095	508.94
480.313	535.94
480.532	499.94
480.751	529.94
480.969	527.94
481.188	555.94
481.406	572.94
481.624	525.94
481.843	498.94
482.061	505.94
482.28	483.94
482.498	477.94
482.717	467.94
482.935	481.94
483.153	491.94
483.372	485.94
483.59	502.94
483.808	476.94
484.027	472.94
484.245	471.94
484.463	482.94
484.681	481.94
484.9	485.94
485.118	496.94
485.336	492.94
485.554	533.94
485.772	502.94
485.99	486.94
486.209	499.94
486.427	499.94
486.645	489.94
486.863	503.94
487.081	510.94
487.299	515.94
487.517	504.94
487.735	517.94
487.953	515.94
488.171	527.94
488.389	524.94
488.607	526.94
488.825	509.94
489.043	515.94
489.261	495.94
489.479	512.94
489.696	524.94
489.914	518.94
490.132	535.94
490.35	542.94
490.568	535.94
490.786	548.94
491.003	549.94
491.221	565.94
491.439	580.94
491.657	567.94
491.874	583.94
492.092	575.94
492.31	575.94
492.527	575.94
492.745	599.94
492.963	582.94
493.18	606.94
493.398	601.94
493.615	587.94
493.833	595.94
494.05	594.94
494.268	599.94
494.485	597.94
494.703	590.94
494.92	588.94
495.138	596.94
495.355	580.94
495.573	595.94
495.79	615.94
496.008	596.94
496.225	617.94
496.442	622.94
496.66	609.94
496.877	610.94
497.094	604.94
497.312	599.94
497.529	621.94
497.746	638.94
497.963	661.94
498.181	687.94
498.398	671.94
498.615	691.94
498.832	704.94
499.049	701.94
499.267	730.94
499.484	800.94
499.701	813.94
499.918	831.94
500.135	873.94
500.352	903.94
500.569	973.94
500.786	947.94
501.003	923.94
501.22	890.94
501.437	849.94
501.654	815.94
501.871	796.94
