Data from 1977.PennyLincolnUp.Lamp.En5.5.200Scan.071719.P1_HRD10591_16-06-56-864.txt Node
Date: Thu Jul 18 16:06:56 EDT 2019
User: cochatt
Spectrometer: HR+D1059
Trigger mode: 1
Integration Time (sec): 1.000000E-1
Scans to average: 1
Electric dark correction enabled: true
Nonlinearity correction enabled: false
Boxcar width: 0
XAxis mode: Wavelengths
Number of Pixels in Spectrum: 2048
>>>>>Begin Spectral Data<<<<<
223.165	-19.06
223.4	-19.06
223.635	-19.06
223.869	-19.06
224.104	-14.06
224.338	-7.06
224.573	-21.06
224.808	-23.06
225.042	-9.06
225.277	-1.06
225.511	2.94
225.746	-7.06
225.98	15.94
226.215	18.94
226.449	9.94
226.683	13.94
226.918	28.94
227.152	29.94
227.387	27.94
227.621	35.94
227.856	51.94
228.09	41.94
228.324	36.94
228.559	57.94
228.793	72.94
229.027	100.94
229.262	94.94
229.496	109.94
229.73	120.94
229.964	147.94
230.199	122.94
230.433	117.94
230.667	102.94
230.901	112.94
231.136	120.94
231.37	110.94
231.604	120.94
231.838	110.94
232.072	109.94
232.306	109.94
232.541	106.94
232.775	112.94
233.009	110.94
233.243	115.94
233.477	106.94
233.711	106.94
233.945	107.94
234.179	118.94
234.413	107.94
234.647	114.94
234.881	107.94
235.115	103.94
235.349	101.94
235.583	106.94
235.817	103.94
236.051	101.94
236.285	130.94
236.519	119.94
236.753	131.94
236.987	145.94
237.221	159.94
237.455	192.94
237.689	180.94
237.922	130.94
238.156	133.94
238.39	134.94
238.624	128.94
238.858	135.94
239.091	122.94
239.325	125.94
239.559	132.94
239.793	132.94
240.027	123.94
240.26	155.94
240.494	160.94
240.728	149.94
240.961	146.94
241.195	140.94
241.429	154.94
241.662	136.94
241.896	126.94
242.13	128.94
242.363	126.94
242.597	136.94
242.83	135.94
243.064	133.94
243.298	129.94
243.531	136.94
243.765	143.94
243.998	126.94
244.232	157.94
244.465	147.94
244.699	144.94
244.932	155.94
245.166	155.94
245.399	151.94
245.633	157.94
245.866	134.94
246.099	151.94
246.333	153.94
246.566	164.94
246.8	144.94
247.033	149.94
247.266	160.94
247.5	156.94
247.733	167.94
247.966	165.94
248.2	168.94
248.433	154.94
248.666	175.94
248.899	195.94
249.133	163.94
249.366	201.94
249.599	192.94
249.832	184.94
250.066	187.94
250.299	194.94
250.532	181.94
250.765	197.94
250.998	217.94
251.231	221.94
251.465	213.94
251.698	195.94
251.931	195.94
252.164	190.94
252.397	187.94
252.63	189.94
252.863	202.94
253.096	209.94
253.329	218.94
253.562	216.94
253.795	223.94
254.028	206.94
254.261	222.94
254.494	236.94
254.727	237.94
254.96	264.94
255.193	274.94
255.426	225.94
255.659	214.94
255.892	231.94
256.124	217.94
256.357	232.94
256.59	212.94
256.823	219.94
257.056	217.94
257.289	205.94
257.521	205.94
257.754	201.94
257.987	215.94
258.22	192.94
258.452	218.94
258.685	222.94
258.918	212.94
259.151	212.94
259.383	223.94
259.616	214.94
259.849	246.94
260.081	229.94
260.314	248.94
260.547	253.94
260.779	241.94
261.012	228.94
261.244	226.94
261.477	216.94
261.71	222.94
261.942	225.94
262.175	235.94
262.407	217.94
262.64	214.94
262.872	234.94
263.105	200.94
263.337	216.94
263.57	216.94
263.802	212.94
264.035	209.94
264.267	225.94
264.499	220.94
264.732	202.94
264.964	194.94
265.197	202.94
265.429	209.94
265.661	225.94
265.894	232.94
266.126	218.94
266.358	228.94
266.591	219.94
266.823	208.94
267.055	243.94
267.287	232.94
267.52	240.94
267.752	216.94
267.984	229.94
268.216	237.94
268.448	233.94
268.681	263.94
268.913	235.94
269.145	258.94
269.377	276.94
269.609	274.94
269.841	270.94
270.073	275.94
270.306	289.94
270.538	305.94
270.77	309.94
271.002	310.94
271.234	283.94
271.466	287.94
271.698	315.94
271.93	306.94
272.162	311.94
272.394	297.94
272.626	304.94
272.858	268.94
273.09	276.94
273.322	263.94
273.553	274.94
273.785	269.94
274.017	282.94
274.249	269.94
274.481	266.94
274.713	269.94
274.945	281.94
275.176	274.94
275.408	264.94
275.64	265.94
275.872	283.94
276.104	280.94
276.335	297.94
276.567	293.94
276.799	298.94
277.031	299.94
277.262	296.94
277.494	324.94
277.726	293.94
277.957	296.94
278.189	290.94
278.421	308.94
278.652	288.94
278.884	292.94
279.115	267.94
279.347	265.94
279.579	275.94
279.81	288.94
280.042	277.94
280.273	287.94
280.505	274.94
280.736	284.94
280.968	285.94
281.199	278.94
281.431	282.94
281.662	278.94
281.894	288.94
282.125	290.94
282.356	286.94
282.588	290.94
282.819	313.94
283.051	283.94
283.282	297.94
283.513	305.94
283.745	308.94
283.976	300.94
284.207	296.94
284.439	309.94
284.67	303.94
284.901	308.94
285.132	306.94
285.364	273.94
285.595	288.94
285.826	306.94
286.057	302.94
286.288	316.94
286.52	301.94
286.751	302.94
286.982	306.94
287.213	306.94
287.444	295.94
287.675	294.94
287.906	317.94
288.138	324.94
288.369	317.94
288.6	327.94
288.831	318.94
289.062	297.94
289.293	300.94
289.524	290.94
289.755	311.94
289.986	312.94
290.217	308.94
290.448	298.94
290.679	301.94
290.91	313.94
291.141	310.94
291.371	300.94
291.602	325.94
291.833	312.94
292.064	316.94
292.295	311.94
292.526	310.94
292.757	325.94
292.987	317.94
293.218	317.94
293.449	320.94
293.68	315.94
293.91	321.94
294.141	308.94
294.372	301.94
294.603	318.94
294.833	316.94
295.064	324.94
295.295	325.94
295.525	307.94
295.756	302.94
295.987	328.94
296.217	346.94
296.448	342.94
296.679	323.94
296.909	321.94
297.14	325.94
297.37	324.94
297.601	320.94
297.831	332.94
298.062	335.94
298.292	312.94
298.523	305.94
298.753	324.94
298.984	329.94
299.214	334.94
299.445	323.94
299.675	329.94
299.905	318.94
300.136	319.94
300.366	333.94
300.597	345.94
300.827	347.94
301.057	339.94
301.288	349.94
301.518	350.94
301.748	349.94
301.979	352.94
302.209	340.94
302.439	342.94
302.669	345.94
302.9	353.94
303.13	342.94
303.36	354.94
303.59	358.94
303.82	359.94
304.051	348.94
304.281	339.94
304.511	345.94
304.741	345.94
304.971	332.94
305.201	345.94
305.431	370.94
305.661	356.94
305.891	355.94
306.121	385.94
306.352	335.94
306.582	363.94
306.812	357.94
307.042	345.94
307.272	343.94
307.502	347.94
307.731	349.94
307.961	342.94
308.191	351.94
308.421	359.94
308.651	350.94
308.881	363.94
309.111	355.94
309.341	372.94
309.571	378.94
309.8	371.94
310.03	384.94
310.26	380.94
310.49	385.94
310.72	384.94
310.949	382.94
311.179	399.94
311.409	404.94
311.639	370.94
311.868	373.94
312.098	392.94
312.328	401.94
312.557	405.94
312.787	420.94
313.017	401.94
313.246	412.94
313.476	381.94
313.706	410.94
313.935	398.94
314.165	406.94
314.394	405.94
314.624	424.94
314.853	391.94
315.083	385.94
315.312	382.94
315.542	390.94
315.771	384.94
316.001	373.94
316.23	397.94
316.46	393.94
316.689	398.94
316.919	400.94
317.148	417.94
317.377	413.94
317.607	388.94
317.836	407.94
318.065	398.94
318.295	394.94
318.524	397.94
318.753	383.94
318.983	382.94
319.212	386.94
319.441	392.94
319.67	402.94
319.9	409.94
320.129	380.94
320.358	404.94
320.587	393.94
320.816	416.94
321.046	404.94
321.275	407.94
321.504	409.94
321.733	413.94
321.962	414.94
322.191	413.94
322.42	434.94
322.649	452.94
322.878	454.94
323.108	464.94
323.337	480.94
323.566	496.94
323.795	501.94
324.024	552.94
324.253	652.94
324.482	909.94
324.71	1266.94
324.939	1749.94
325.168	1488.94
325.397	807.94
325.626	570.94
325.855	501.94
326.084	490.94
326.313	477.94
326.542	507.94
326.77	524.94
326.999	597.94
327.228	814.94
327.457	1154.94
327.686	1304.94
327.914	896.94
328.143	613.94
328.372	573.94
328.6	544.94
328.829	516.94
329.058	538.94
329.287	529.94
329.515	486.94
329.744	518.94
329.972	499.94
330.201	486.94
330.43	516.94
330.658	540.94
330.887	529.94
331.115	542.94
331.344	492.94
331.572	471.94
331.801	506.94
332.03	486.94
332.258	477.94
332.486	461.94
332.715	474.94
332.943	450.94
333.172	476.94
333.4	491.94
333.629	481.94
333.857	496.94
334.085	493.94
334.314	528.94
334.542	532.94
334.771	547.94
334.999	496.94
335.227	495.94
335.455	479.94
335.684	465.94
335.912	481.94
336.14	464.94
336.369	465.94
336.597	465.94
336.825	468.94
337.053	467.94
337.281	461.94
337.51	461.94
337.738	455.94
337.966	456.94
338.194	427.94
338.422	451.94
338.65	456.94
338.878	452.94
339.106	456.94
339.334	440.94
339.562	442.94
339.79	434.94
340.018	426.94
340.246	442.94
340.474	454.94
340.702	435.94
340.93	436.94
341.158	429.94
341.386	434.94
341.614	450.94
341.842	424.94
342.07	422.94
342.298	437.94
342.526	438.94
342.754	428.94
342.981	423.94
343.209	429.94
343.437	424.94
343.665	433.94
343.893	466.94
344.12	460.94
344.348	469.94
344.576	436.94
344.804	440.94
345.031	457.94
345.259	439.94
345.487	428.94
345.714	436.94
345.942	412.94
346.17	428.94
346.397	423.94
346.625	434.94
346.853	411.94
347.08	414.94
347.308	417.94
347.535	430.94
347.763	399.94
347.99	424.94
348.218	418.94
348.445	398.94
348.673	408.94
348.9	426.94
349.128	411.94
349.355	436.94
349.583	414.94
349.81	395.94
350.037	411.94
350.265	397.94
350.492	406.94
350.72	413.94
350.947	406.94
351.174	417.94
351.402	428.94
351.629	408.94
351.856	427.94
352.083	448.94
352.311	420.94
352.538	420.94
352.765	410.94
352.992	421.94
353.22	408.94
353.447	399.94
353.674	413.94
353.901	406.94
354.128	394.94
354.355	406.94
354.583	402.94
354.81	389.94
355.037	406.94
355.264	379.94
355.491	385.94
355.718	382.94
355.945	371.94
356.172	400.94
356.399	361.94
356.626	406.94
356.853	392.94
357.08	375.94
357.307	376.94
357.534	375.94
357.761	393.94
357.988	389.94
358.215	393.94
358.441	402.94
358.668	388.94
358.895	380.94
359.122	391.94
359.349	406.94
359.576	412.94
359.802	422.94
360.029	435.94
360.256	453.94
360.483	430.94
360.709	422.94
360.936	423.94
361.163	408.94
361.39	386.94
361.616	393.94
361.843	403.94
362.07	411.94
362.296	398.94
362.523	402.94
362.749	397.94
362.976	389.94
363.203	394.94
363.429	406.94
363.656	391.94
363.882	396.94
364.109	399.94
364.335	399.94
364.562	380.94
364.788	394.94
365.015	383.94
365.241	398.94
365.468	384.94
365.694	382.94
365.92	402.94
366.147	389.94
366.373	382.94
366.599	386.94
366.826	388.94
367.052	388.94
367.278	394.94
367.505	396.94
367.731	398.94
367.957	390.94
368.184	395.94
368.41	400.94
368.636	388.94
368.862	411.94
369.089	391.94
369.315	387.94
369.541	395.94
369.767	373.94
369.993	396.94
370.219	384.94
370.445	392.94
370.672	372.94
370.898	376.94
371.124	380.94
371.35	401.94
371.576	402.94
371.802	380.94
372.028	406.94
372.254	402.94
372.48	396.94
372.706	393.94
372.932	399.94
373.158	383.94
373.384	404.94
373.61	384.94
373.835	406.94
374.061	403.94
374.287	398.94
374.513	416.94
374.739	401.94
374.965	408.94
375.191	391.94
375.416	412.94
375.642	405.94
375.868	396.94
376.094	384.94
376.319	393.94
376.545	412.94
376.771	397.94
376.997	371.94
377.222	390.94
377.448	380.94
377.674	386.94
377.899	402.94
378.125	367.94
378.35	380.94
378.576	391.94
378.802	384.94
379.027	382.94
379.253	378.94
379.478	375.94
379.704	389.94
379.929	378.94
380.155	381.94
380.38	388.94
380.606	370.94
380.831	380.94
381.057	396.94
381.282	386.94
381.507	392.94
381.733	377.94
381.958	384.94
382.184	389.94
382.409	391.94
382.634	401.94
382.86	407.94
383.085	407.94
383.31	396.94
383.535	411.94
383.761	399.94
383.986	409.94
384.211	411.94
384.436	406.94
384.662	408.94
384.887	415.94
385.112	419.94
385.337	419.94
385.562	438.94
385.787	414.94
386.013	421.94
386.238	427.94
386.463	431.94
386.688	425.94
386.913	423.94
387.138	407.94
387.363	419.94
387.588	419.94
387.813	416.94
388.038	425.94
388.263	420.94
388.488	418.94
388.713	412.94
388.938	441.94
389.163	405.94
389.387	437.94
389.612	437.94
389.837	435.94
390.062	402.94
390.287	428.94
390.512	416.94
390.736	408.94
390.961	418.94
391.186	425.94
391.411	444.94
391.636	440.94
391.86	440.94
392.085	438.94
392.31	445.94
392.534	448.94
392.759	446.94
392.984	420.94
393.208	420.94
393.433	428.94
393.658	429.94
393.882	415.94
394.107	426.94
394.331	426.94
394.556	436.94
394.78	452.94
395.005	435.94
395.229	410.94
395.454	425.94
395.678	451.94
395.903	446.94
396.127	447.94
396.352	473.94
396.576	444.94
396.801	463.94
397.025	433.94
397.249	447.94
397.474	450.94
397.698	436.94
397.922	474.94
398.147	475.94
398.371	464.94
398.595	468.94
398.82	474.94
399.044	511.94
399.268	535.94
399.492	549.94
399.717	568.94
399.941	632.94
400.165	596.94
400.389	604.94
400.613	547.94
400.837	514.94
401.062	507.94
401.286	485.94
401.51	490.94
401.734	492.94
401.958	493.94
402.182	511.94
402.406	505.94
402.63	516.94
402.854	516.94
403.078	513.94
403.302	496.94
403.526	491.94
403.75	504.94
403.974	514.94
404.198	516.94
404.422	499.94
404.645	477.94
404.869	518.94
405.093	526.94
405.317	554.94
405.541	600.94
405.765	542.94
405.988	533.94
406.212	527.94
406.436	571.94
406.66	560.94
406.883	521.94
407.107	562.94
407.331	588.94
407.555	640.94
407.778	651.94
408.002	572.94
408.226	552.94
408.449	556.94
408.673	555.94
408.896	564.94
409.12	600.94
409.344	559.94
409.567	513.94
409.791	502.94
410.014	528.94
410.238	466.94
410.461	499.94
410.685	491.94
410.908	514.94
411.132	526.94
411.355	577.94
411.578	538.94
411.802	493.94
412.025	514.94
412.249	520.94
412.472	531.94
412.695	532.94
412.919	545.94
413.142	489.94
413.365	492.94
413.589	480.94
413.812	488.94
414.035	474.94
414.258	468.94
414.482	471.94
414.705	447.94
414.928	480.94
415.151	478.94
415.374	456.94
415.597	465.94
415.821	458.94
416.044	471.94
416.267	488.94
416.49	450.94
416.713	473.94
416.936	444.94
417.159	449.94
417.382	457.94
417.605	458.94
417.828	457.94
418.051	478.94
418.274	469.94
418.497	468.94
418.72	469.94
418.943	471.94
419.166	481.94
419.389	510.94
419.611	503.94
419.834	503.94
420.057	471.94
420.28	500.94
420.503	496.94
420.726	483.94
420.948	485.94
421.171	534.94
421.394	523.94
421.617	508.94
421.839	519.94
422.062	469.94
422.285	504.94
422.507	548.94
422.73	600.94
422.953	562.94
423.175	508.94
423.398	482.94
423.621	488.94
423.843	498.94
424.066	520.94
424.288	526.94
424.511	529.94
424.733	569.94
424.956	658.94
425.178	605.94
425.401	608.94
425.623	629.94
425.846	545.94
426.068	506.94
426.291	505.94
426.513	521.94
426.735	526.94
426.958	557.94
427.18	625.94
427.402	733.94
427.625	785.94
427.847	670.94
428.069	597.94
428.292	542.94
428.514	500.94
428.736	498.94
428.958	485.94
429.181	466.94
429.403	470.94
429.625	484.94
429.847	492.94
430.069	557.94
430.292	538.94
430.514	479.94
430.736	462.94
430.958	443.94
431.18	450.94
431.402	450.94
431.624	443.94
431.846	442.94
432.068	447.94
432.29	457.94
432.512	466.94
432.734	438.94
432.956	432.94
433.178	458.94
433.4	488.94
433.622	452.94
433.844	453.94
434.066	451.94
434.287	443.94
434.509	473.94
434.731	475.94
434.953	481.94
435.175	479.94
435.397	500.94
435.618	526.94
435.84	541.94
436.062	619.94
436.284	661.94
436.505	537.94
436.727	521.94
436.949	477.94
437.17	465.94
437.392	472.94
437.614	455.94
437.835	518.94
438.057	574.94
438.278	648.94
438.5	637.94
438.721	712.94
438.943	678.94
439.165	564.94
439.386	509.94
439.608	484.94
439.829	512.94
440.05	530.94
440.272	546.94
440.493	530.94
440.715	499.94
440.936	460.94
441.158	461.94
441.379	446.94
441.6	509.94
441.822	519.94
442.043	541.94
442.264	582.94
442.486	633.94
442.707	566.94
442.928	527.94
443.149	521.94
443.371	541.94
443.592	581.94
443.813	640.94
444.034	703.94
444.255	566.94
444.476	529.94
444.698	524.94
444.919	513.94
445.14	601.94
445.361	544.94
445.582	562.94
445.803	602.94
446.024	652.94
446.245	671.94
446.466	590.94
446.687	550.94
446.908	496.94
447.129	481.94
447.35	483.94
447.571	458.94
447.792	469.94
448.013	460.94
448.234	486.94
448.455	500.94
448.675	588.94
448.896	703.94
449.117	578.94
449.338	572.94
449.559	675.94
449.779	739.94
450	579.94
450.221	487.94
450.442	459.94
450.662	445.94
450.883	449.94
451.104	461.94
451.324	452.94
451.545	433.94
451.766	426.94
451.986	397.94
452.207	410.94
452.428	382.94
452.648	419.94
452.869	420.94
453.089	423.94
453.31	428.94
453.53	409.94
453.751	402.94
453.971	427.94
454.192	422.94
454.412	392.94
454.633	424.94
454.853	397.94
455.073	402.94
455.294	424.94
455.514	483.94
455.734	475.94
455.955	404.94
456.175	399.94
456.395	384.94
456.616	386.94
456.836	394.94
457.056	395.94
457.276	388.94
457.497	402.94
457.717	394.94
457.937	423.94
458.157	418.94
458.377	408.94
458.598	443.94
458.818	461.94
459.038	521.94
459.258	534.94
459.478	489.94
459.698	423.94
459.918	438.94
460.138	448.94
460.358	444.94
460.578	453.94
460.798	477.94
461.018	472.94
461.238	497.94
461.458	443.94
461.678	450.94
461.898	456.94
462.118	441.94
462.338	474.94
462.558	496.94
462.777	470.94
462.997	487.94
463.217	520.94
463.437	520.94
463.657	497.94
463.876	482.94
464.096	498.94
464.316	493.94
464.536	481.94
464.755	501.94
464.975	483.94
465.195	504.94
465.414	553.94
465.634	494.94
465.854	470.94
466.073	442.94
466.293	434.94
466.512	420.94
466.732	435.94
466.951	434.94
467.171	422.94
467.391	436.94
467.61	420.94
467.829	438.94
468.049	409.94
468.268	406.94
468.488	423.94
468.707	392.94
468.927	408.94
469.146	407.94
469.365	409.94
469.585	401.94
469.804	413.94
470.023	416.94
470.243	424.94
470.462	441.94
470.681	440.94
470.901	429.94
471.12	423.94
471.339	431.94
471.558	433.94
471.777	411.94
471.997	417.94
472.216	436.94
472.435	431.94
472.654	417.94
472.873	408.94
473.092	426.94
473.311	426.94
473.53	418.94
473.749	414.94
473.968	463.94
474.187	550.94
474.406	575.94
474.625	459.94
474.844	418.94
475.063	423.94
475.282	410.94
475.501	422.94
475.72	432.94
475.939	420.94
476.158	417.94
476.377	441.94
476.596	408.94
476.814	445.94
477.033	454.94
477.252	462.94
477.471	462.94
477.69	433.94
477.908	445.94
478.127	464.94
478.346	463.94
478.564	462.94
478.783	488.94
479.002	481.94
479.22	489.94
479.439	482.94
479.658	497.94
479.876	526.94
480.095	512.94
480.313	546.94
480.532	518.94
480.751	537.94
480.969	518.94
481.188	547.94
481.406	586.94
481.624	519.94
481.843	512.94
482.061	489.94
482.28	500.94
482.498	494.94
482.717	502.94
482.935	498.94
483.153	492.94
483.372	479.94
483.59	480.94
483.808	501.94
484.027	480.94
484.245	475.94
484.463	502.94
484.681	488.94
484.9	516.94
485.118	498.94
485.336	505.94
485.554	516.94
485.772	499.94
485.99	515.94
486.209	530.94
486.427	496.94
486.645	516.94
486.863	524.94
487.081	531.94
487.299	513.94
487.517	515.94
487.735	499.94
487.953	502.94
488.171	536.94
488.389	530.94
488.607	514.94
488.825	505.94
489.043	532.94
489.261	534.94
489.479	514.94
489.696	518.94
489.914	526.94
490.132	545.94
490.35	526.94
490.568	542.94
490.786	562.94
491.003	553.94
491.221	562.94
491.439	579.94
491.657	583.94
491.874	559.94
492.092	591.94
492.31	582.94
492.527	589.94
492.745	575.94
492.963	597.94
493.18	578.94
493.398	607.94
493.615	588.94
493.833	593.94
494.05	581.94
494.268	594.94
494.485	620.94
494.703	613.94
494.92	572.94
495.138	616.94
495.355	600.94
495.573	610.94
495.79	607.94
496.008	612.94
496.225	612.94
496.442	614.94
496.66	607.94
496.877	602.94
497.094	600.94
497.312	615.94
497.529	628.94
497.746	637.94
497.963	647.94
498.181	672.94
498.398	714.94
498.615	691.94
498.832	696.94
499.049	729.94
499.267	742.94
499.484	770.94
499.701	796.94
499.918	836.94
500.135	886.94
500.352	898.94
500.569	948.94
500.786	968.94
501.003	948.94
501.22	918.94
501.437	871.94
501.654	832.94
501.871	813.94
