Data from 1977.PennyLincolnUp.Lamp.En5.5.200Scan.071719.P1_HRD10591_16-06-10-864.txt Node
Date: Thu Jul 18 16:06:10 EDT 2019
User: cochatt
Spectrometer: HR+D1059
Trigger mode: 1
Integration Time (sec): 1.000000E-1
Scans to average: 1
Electric dark correction enabled: true
Nonlinearity correction enabled: false
Boxcar width: 0
XAxis mode: Wavelengths
Number of Pixels in Spectrum: 2048
>>>>>Begin Spectral Data<<<<<
223.165	-4.56
223.4	-4.56
223.635	-4.56
223.869	-28.56
224.104	-15.56
224.338	-0.56
224.573	-6.56
224.808	-12.56
225.042	0.44
225.277	-8.56
225.511	-22.56
225.746	-12.56
225.98	-2.56
226.215	22.44
226.449	9.44
226.683	18.44
226.918	18.44
227.152	45.44
227.387	32.44
227.621	31.44
227.856	29.44
228.09	39.44
228.324	50.44
228.559	61.44
228.793	68.44
229.027	96.44
229.262	100.44
229.496	98.44
229.73	120.44
229.964	132.44
230.199	120.44
230.433	115.44
230.667	106.44
230.901	98.44
231.136	90.44
231.37	101.44
231.604	102.44
231.838	108.44
232.072	107.44
232.306	88.44
232.541	124.44
232.775	92.44
233.009	105.44
233.243	113.44
233.477	117.44
233.711	112.44
233.945	102.44
234.179	105.44
234.413	114.44
234.647	116.44
234.881	107.44
235.115	109.44
235.349	113.44
235.583	119.44
235.817	116.44
236.051	119.44
236.285	116.44
236.519	117.44
236.753	114.44
236.987	121.44
237.221	161.44
237.455	202.44
237.689	173.44
237.922	128.44
238.156	122.44
238.39	115.44
238.624	130.44
238.858	124.44
239.091	120.44
239.325	120.44
239.559	109.44
239.793	126.44
240.027	113.44
240.26	123.44
240.494	157.44
240.728	136.44
240.961	138.44
241.195	135.44
241.429	135.44
241.662	140.44
241.896	125.44
242.13	138.44
242.363	121.44
242.597	119.44
242.83	142.44
243.064	155.44
243.298	140.44
243.531	153.44
243.765	148.44
243.998	149.44
244.232	135.44
244.465	130.44
244.699	127.44
244.932	131.44
245.166	147.44
245.399	145.44
245.633	153.44
245.866	149.44
246.099	140.44
246.333	142.44
246.566	137.44
246.8	153.44
247.033	145.44
247.266	155.44
247.5	159.44
247.733	157.44
247.966	166.44
248.2	166.44
248.433	156.44
248.666	165.44
248.899	163.44
249.133	179.44
249.366	192.44
249.599	197.44
249.832	187.44
250.066	177.44
250.299	161.44
250.532	171.44
250.765	192.44
250.998	205.44
251.231	213.44
251.465	201.44
251.698	192.44
251.931	198.44
252.164	197.44
252.397	182.44
252.63	186.44
252.863	194.44
253.096	198.44
253.329	210.44
253.562	212.44
253.795	222.44
254.028	204.44
254.261	193.44
254.494	212.44
254.727	240.44
254.96	239.44
255.193	237.44
255.426	229.44
255.659	221.44
255.892	236.44
256.124	216.44
256.357	231.44
256.59	222.44
256.823	217.44
257.056	214.44
257.289	220.44
257.521	199.44
257.754	203.44
257.987	208.44
258.22	173.44
258.452	185.44
258.685	204.44
258.918	214.44
259.151	209.44
259.383	218.44
259.616	205.44
259.849	210.44
260.081	225.44
260.314	228.44
260.547	246.44
260.779	239.44
261.012	226.44
261.244	221.44
261.477	201.44
261.71	212.44
261.942	230.44
262.175	211.44
262.407	236.44
262.64	207.44
262.872	200.44
263.105	203.44
263.337	210.44
263.57	209.44
263.802	218.44
264.035	207.44
264.267	208.44
264.499	213.44
264.732	223.44
264.964	200.44
265.197	221.44
265.429	215.44
265.661	217.44
265.894	213.44
266.126	229.44
266.358	219.44
266.591	232.44
266.823	224.44
267.055	228.44
267.287	236.44
267.52	247.44
267.752	229.44
267.984	244.44
268.216	229.44
268.448	239.44
268.681	255.44
268.913	233.44
269.145	244.44
269.377	281.44
269.609	273.44
269.841	264.44
270.073	257.44
270.306	287.44
270.538	289.44
270.77	299.44
271.002	284.44
271.234	294.44
271.466	303.44
271.698	305.44
271.93	305.44
272.162	291.44
272.394	303.44
272.626	294.44
272.858	296.44
273.09	276.44
273.322	273.44
273.553	274.44
273.785	274.44
274.017	255.44
274.249	262.44
274.481	258.44
274.713	269.44
274.945	272.44
275.176	275.44
275.408	262.44
275.64	286.44
275.872	249.44
276.104	255.44
276.335	278.44
276.567	267.44
276.799	275.44
277.031	291.44
277.262	315.44
277.494	319.44
277.726	295.44
277.957	309.44
278.189	264.44
278.421	275.44
278.652	275.44
278.884	260.44
279.115	281.44
279.347	293.44
279.579	259.44
279.81	257.44
280.042	272.44
280.273	279.44
280.505	285.44
280.736	262.44
280.968	268.44
281.199	278.44
281.431	263.44
281.662	275.44
281.894	278.44
282.125	295.44
282.356	300.44
282.588	300.44
282.819	312.44
283.051	284.44
283.282	289.44
283.513	277.44
283.745	285.44
283.976	293.44
284.207	295.44
284.439	296.44
284.67	289.44
284.901	297.44
285.132	288.44
285.364	282.44
285.595	285.44
285.826	308.44
286.057	310.44
286.288	307.44
286.52	300.44
286.751	299.44
286.982	292.44
287.213	299.44
287.444	296.44
287.675	299.44
287.906	290.44
288.138	328.44
288.369	311.44
288.6	320.44
288.831	304.44
289.062	312.44
289.293	303.44
289.524	299.44
289.755	300.44
289.986	308.44
290.217	299.44
290.448	302.44
290.679	304.44
290.91	282.44
291.141	288.44
291.371	313.44
291.602	307.44
291.833	280.44
292.064	276.44
292.295	298.44
292.526	314.44
292.757	295.44
292.987	291.44
293.218	292.44
293.449	331.44
293.68	311.44
293.91	284.44
294.141	309.44
294.372	303.44
294.603	293.44
294.833	312.44
295.064	328.44
295.295	313.44
295.525	298.44
295.756	316.44
295.987	312.44
296.217	327.44
296.448	347.44
296.679	326.44
296.909	311.44
297.14	314.44
297.37	298.44
297.601	324.44
297.831	306.44
298.062	320.44
298.292	310.44
298.523	327.44
298.753	327.44
298.984	333.44
299.214	323.44
299.445	307.44
299.675	329.44
299.905	321.44
300.136	335.44
300.366	309.44
300.597	338.44
300.827	353.44
301.057	348.44
301.288	355.44
301.518	355.44
301.748	343.44
301.979	335.44
302.209	337.44
302.439	342.44
302.669	335.44
302.9	356.44
303.13	345.44
303.36	361.44
303.59	332.44
303.82	372.44
304.051	349.44
304.281	343.44
304.511	351.44
304.741	351.44
304.971	356.44
305.201	354.44
305.431	329.44
305.661	350.44
305.891	329.44
306.121	342.44
306.352	329.44
306.582	346.44
306.812	338.44
307.042	364.44
307.272	347.44
307.502	342.44
307.731	360.44
307.961	340.44
308.191	345.44
308.421	347.44
308.651	332.44
308.881	335.44
309.111	354.44
309.341	336.44
309.571	349.44
309.8	363.44
310.03	372.44
310.26	396.44
310.49	383.44
310.72	386.44
310.949	393.44
311.179	377.44
311.409	387.44
311.639	389.44
311.868	390.44
312.098	388.44
312.328	387.44
312.557	386.44
312.787	400.44
313.017	381.44
313.246	385.44
313.476	370.44
313.706	383.44
313.935	389.44
314.165	403.44
314.394	394.44
314.624	393.44
314.853	387.44
315.083	386.44
315.312	396.44
315.542	402.44
315.771	383.44
316.001	385.44
316.23	390.44
316.46	371.44
316.689	395.44
316.919	410.44
317.148	385.44
317.377	377.44
317.607	378.44
317.836	408.44
318.065	381.44
318.295	385.44
318.524	415.44
318.753	380.44
318.983	393.44
319.212	408.44
319.441	385.44
319.67	423.44
319.9	396.44
320.129	393.44
320.358	385.44
320.587	396.44
320.816	412.44
321.046	420.44
321.275	416.44
321.504	396.44
321.733	406.44
321.962	405.44
322.191	402.44
322.42	417.44
322.649	435.44
322.878	418.44
323.108	445.44
323.337	468.44
323.566	473.44
323.795	472.44
324.024	513.44
324.253	604.44
324.482	811.44
324.71	1177.44
324.939	1623.44
325.168	1384.44
325.397	778.44
325.626	559.44
325.855	503.44
326.084	464.44
326.313	501.44
326.542	466.44
326.77	501.44
326.999	565.44
327.228	766.44
327.457	1059.44
327.686	1245.44
327.914	849.44
328.143	598.44
328.372	551.44
328.6	519.44
328.829	535.44
329.058	515.44
329.287	510.44
329.515	513.44
329.744	483.44
329.972	495.44
330.201	500.44
330.43	503.44
330.658	534.44
330.887	553.44
331.115	514.44
331.344	480.44
331.572	474.44
331.801	475.44
332.03	481.44
332.258	474.44
332.486	458.44
332.715	468.44
332.943	471.44
333.172	491.44
333.4	481.44
333.629	467.44
333.857	488.44
334.085	481.44
334.314	498.44
334.542	507.44
334.771	511.44
334.999	506.44
335.227	492.44
335.455	487.44
335.684	463.44
335.912	466.44
336.14	461.44
336.369	443.44
336.597	467.44
336.825	478.44
337.053	457.44
337.281	442.44
337.51	448.44
337.738	449.44
337.966	450.44
338.194	450.44
338.422	433.44
338.65	423.44
338.878	459.44
339.106	448.44
339.334	451.44
339.562	415.44
339.79	444.44
340.018	415.44
340.246	428.44
340.474	441.44
340.702	420.44
340.93	444.44
341.158	431.44
341.386	418.44
341.614	457.44
341.842	418.44
342.07	419.44
342.298	433.44
342.526	441.44
342.754	422.44
342.981	422.44
343.209	438.44
343.437	455.44
343.665	437.44
343.893	454.44
344.12	451.44
344.348	425.44
344.576	445.44
344.804	464.44
345.031	438.44
345.259	429.44
345.487	417.44
345.714	431.44
345.942	435.44
346.17	424.44
346.397	402.44
346.625	418.44
346.853	408.44
347.08	426.44
347.308	436.44
347.535	425.44
347.763	404.44
347.99	411.44
348.218	422.44
348.445	404.44
348.673	402.44
348.9	423.44
349.128	391.44
349.355	404.44
349.583	414.44
349.81	409.44
350.037	376.44
350.265	389.44
350.492	377.44
350.72	404.44
350.947	383.44
351.174	405.44
351.402	427.44
351.629	397.44
351.856	391.44
352.083	408.44
352.311	419.44
352.538	413.44
352.765	411.44
352.992	411.44
353.22	403.44
353.447	418.44
353.674	380.44
353.901	379.44
354.128	391.44
354.355	383.44
354.583	393.44
354.81	405.44
355.037	403.44
355.264	382.44
355.491	402.44
355.718	394.44
355.945	396.44
356.172	425.44
356.399	392.44
356.626	367.44
356.853	402.44
357.08	385.44
357.307	384.44
357.534	365.44
357.761	383.44
357.988	381.44
358.215	389.44
358.441	402.44
358.668	381.44
358.895	393.44
359.122	379.44
359.349	396.44
359.576	382.44
359.802	397.44
360.029	444.44
360.256	408.44
360.483	420.44
360.709	422.44
360.936	411.44
361.163	391.44
361.39	406.44
361.616	404.44
361.843	404.44
362.07	396.44
362.296	393.44
362.523	402.44
362.749	397.44
362.976	396.44
363.203	408.44
363.429	385.44
363.656	390.44
363.882	388.44
364.109	360.44
364.335	393.44
364.562	387.44
364.788	384.44
365.015	367.44
365.241	392.44
365.468	388.44
365.694	383.44
365.92	367.44
366.147	387.44
366.373	359.44
366.599	379.44
366.826	387.44
367.052	387.44
367.278	374.44
367.505	395.44
367.731	392.44
367.957	381.44
368.184	387.44
368.41	391.44
368.636	392.44
368.862	390.44
369.089	409.44
369.315	383.44
369.541	387.44
369.767	378.44
369.993	402.44
370.219	376.44
370.445	376.44
370.672	383.44
370.898	378.44
371.124	385.44
371.35	394.44
371.576	371.44
371.802	394.44
372.028	389.44
372.254	399.44
372.48	403.44
372.706	390.44
372.932	379.44
373.158	391.44
373.384	387.44
373.61	396.44
373.835	395.44
374.061	374.44
374.287	392.44
374.513	389.44
374.739	397.44
374.965	411.44
375.191	387.44
375.416	419.44
375.642	399.44
375.868	392.44
376.094	405.44
376.319	391.44
376.545	382.44
376.771	362.44
376.997	385.44
377.222	395.44
377.448	370.44
377.674	370.44
377.899	388.44
378.125	374.44
378.35	382.44
378.576	379.44
378.802	376.44
379.027	405.44
379.253	391.44
379.478	369.44
379.704	368.44
379.929	377.44
380.155	398.44
380.38	376.44
380.606	390.44
380.831	379.44
381.057	383.44
381.282	384.44
381.507	393.44
381.733	381.44
381.958	386.44
382.184	380.44
382.409	368.44
382.634	397.44
382.86	385.44
383.085	388.44
383.31	391.44
383.535	385.44
383.761	398.44
383.986	409.44
384.211	389.44
384.436	398.44
384.662	423.44
384.887	416.44
385.112	443.44
385.337	409.44
385.562	415.44
385.787	406.44
386.013	421.44
386.238	405.44
386.463	418.44
386.688	441.44
386.913	423.44
387.138	413.44
387.363	418.44
387.588	408.44
387.813	420.44
388.038	417.44
388.263	411.44
388.488	418.44
388.713	426.44
388.938	423.44
389.163	427.44
389.387	425.44
389.612	417.44
389.837	440.44
390.062	422.44
390.287	419.44
390.512	423.44
390.736	435.44
390.961	423.44
391.186	426.44
391.411	410.44
391.636	434.44
391.86	425.44
392.085	427.44
392.31	440.44
392.534	431.44
392.759	427.44
392.984	435.44
393.208	451.44
393.433	427.44
393.658	435.44
393.882	414.44
394.107	412.44
394.331	420.44
394.556	434.44
394.78	421.44
395.005	425.44
395.229	429.44
395.454	450.44
395.678	446.44
395.903	424.44
396.127	461.44
396.352	444.44
396.576	453.44
396.801	466.44
397.025	443.44
397.249	438.44
397.474	445.44
397.698	445.44
397.922	462.44
398.147	448.44
398.371	472.44
398.595	437.44
398.82	475.44
399.044	510.44
399.268	519.44
399.492	546.44
399.717	586.44
399.941	603.44
400.165	602.44
400.389	605.44
400.613	546.44
400.837	518.44
401.062	486.44
401.286	508.44
401.51	492.44
401.734	476.44
401.958	467.44
402.182	489.44
402.406	497.44
402.63	481.44
402.854	484.44
403.078	480.44
403.302	515.44
403.526	520.44
403.75	495.44
403.974	499.44
404.198	508.44
404.422	533.44
404.645	499.44
404.869	528.44
405.093	521.44
405.317	537.44
405.541	588.44
405.765	526.44
405.988	503.44
406.212	513.44
406.436	518.44
406.66	546.44
406.883	530.44
407.107	534.44
407.331	578.44
407.555	635.44
407.778	651.44
408.002	600.44
408.226	543.44
408.449	548.44
408.673	537.44
408.896	571.44
409.12	607.44
409.344	560.44
409.567	494.44
409.791	482.44
410.014	493.44
410.238	462.44
410.461	479.44
410.685	498.44
410.908	522.44
411.132	538.44
411.355	555.44
411.578	529.44
411.802	478.44
412.025	484.44
412.249	503.44
412.472	505.44
412.695	524.44
412.919	531.44
413.142	493.44
413.365	486.44
413.589	489.44
413.812	474.44
414.035	474.44
414.258	483.44
414.482	488.44
414.705	455.44
414.928	459.44
415.151	452.44
415.374	452.44
415.597	456.44
415.821	463.44
416.044	469.44
416.267	466.44
416.49	466.44
416.713	468.44
416.936	461.44
417.159	449.44
417.382	459.44
417.605	474.44
417.828	474.44
418.051	487.44
418.274	467.44
418.497	457.44
418.72	466.44
418.943	463.44
419.166	504.44
419.389	508.44
419.611	504.44
419.834	506.44
420.057	505.44
420.28	460.44
420.503	468.44
420.726	464.44
420.948	470.44
421.171	497.44
421.394	521.44
421.617	485.44
421.839	495.44
422.062	470.44
422.285	499.44
422.507	532.44
422.73	568.44
422.953	570.44
423.175	505.44
423.398	499.44
423.621	492.44
423.843	502.44
424.066	517.44
424.288	502.44
424.511	503.44
424.733	567.44
424.956	631.44
425.178	596.44
425.401	602.44
425.623	594.44
425.846	551.44
426.068	517.44
426.291	503.44
426.513	499.44
426.735	500.44
426.958	519.44
427.18	572.44
427.402	689.44
427.625	755.44
427.847	654.44
428.069	554.44
428.292	512.44
428.514	508.44
428.736	485.44
428.958	479.44
429.181	431.44
429.403	460.44
429.625	455.44
429.847	490.44
430.069	542.44
430.292	547.44
430.514	481.44
430.736	458.44
430.958	461.44
431.18	443.44
431.402	450.44
431.624	414.44
431.846	428.44
432.068	437.44
432.29	452.44
432.512	452.44
432.734	447.44
432.956	442.44
433.178	441.44
433.4	459.44
433.622	435.44
433.844	450.44
434.066	445.44
434.287	440.44
434.509	439.44
434.731	436.44
434.953	468.44
435.175	479.44
435.397	489.44
435.618	503.44
435.84	551.44
436.062	610.44
436.284	645.44
436.505	571.44
436.727	506.44
436.949	469.44
437.17	455.44
437.392	464.44
437.614	483.44
437.835	489.44
438.057	554.44
438.278	634.44
438.5	642.44
438.721	724.44
438.943	662.44
439.165	521.44
439.386	507.44
439.608	502.44
439.829	489.44
440.05	500.44
440.272	542.44
440.493	512.44
440.715	486.44
440.936	473.44
441.158	481.44
441.379	467.44
441.6	474.44
441.822	471.44
442.043	533.44
442.264	607.44
442.486	634.44
442.707	534.44
442.928	516.44
443.149	494.44
443.371	521.44
443.592	568.44
443.813	622.44
444.034	667.44
444.255	577.44
444.476	535.44
444.698	508.44
444.919	513.44
445.14	621.44
445.361	552.44
445.582	519.44
445.803	583.44
446.024	649.44
446.245	667.44
446.466	585.44
446.687	513.44
446.908	495.44
447.129	459.44
447.35	459.44
447.571	440.44
447.792	455.44
448.013	475.44
448.234	475.44
448.455	487.44
448.675	603.44
448.896	688.44
449.117	559.44
449.338	548.44
449.559	626.44
449.779	736.44
450	589.44
450.221	483.44
450.442	447.44
450.662	432.44
450.883	432.44
451.104	441.44
451.324	435.44
451.545	427.44
451.766	392.44
451.986	406.44
452.207	388.44
452.428	399.44
452.648	395.44
452.869	401.44
453.089	416.44
453.31	413.44
453.53	410.44
453.751	415.44
453.971	398.44
454.192	424.44
454.412	420.44
454.633	401.44
454.853	402.44
455.073	373.44
455.294	421.44
455.514	442.44
455.734	460.44
455.955	389.44
456.175	395.44
456.395	384.44
456.616	396.44
456.836	383.44
457.056	385.44
457.276	401.44
457.497	396.44
457.717	396.44
457.937	393.44
458.157	416.44
458.377	385.44
458.598	422.44
458.818	452.44
459.038	491.44
459.258	516.44
459.478	460.44
459.698	440.44
459.918	408.44
460.138	441.44
460.358	467.44
460.578	456.44
460.798	457.44
461.018	454.44
461.238	477.44
461.458	466.44
461.678	450.44
461.898	449.44
462.118	476.44
462.338	466.44
462.558	483.44
462.777	477.44
462.997	515.44
463.217	524.44
463.437	537.44
463.657	484.44
463.876	488.44
464.096	489.44
464.316	473.44
464.536	486.44
464.755	478.44
464.975	493.44
465.195	517.44
465.414	522.44
465.634	495.44
465.854	462.44
466.073	451.44
466.293	428.44
466.512	427.44
466.732	418.44
466.951	435.44
467.171	411.44
467.391	410.44
467.61	426.44
467.829	411.44
468.049	402.44
468.268	411.44
468.488	386.44
468.707	389.44
468.927	396.44
469.146	405.44
469.365	403.44
469.585	385.44
469.804	423.44
470.023	427.44
470.243	431.44
470.462	431.44
470.681	423.44
470.901	436.44
471.12	426.44
471.339	433.44
471.558	416.44
471.777	428.44
471.997	434.44
472.216	415.44
472.435	446.44
472.654	424.44
472.873	437.44
473.092	424.44
473.311	414.44
473.53	412.44
473.749	425.44
473.968	455.44
474.187	540.44
474.406	539.44
474.625	462.44
474.844	425.44
475.063	442.44
475.282	418.44
475.501	409.44
475.72	397.44
475.939	416.44
476.158	417.44
476.377	427.44
476.596	431.44
476.814	428.44
477.033	436.44
477.252	444.44
477.471	432.44
477.69	454.44
477.908	449.44
478.127	446.44
478.346	468.44
478.564	464.44
478.783	469.44
479.002	479.44
479.22	461.44
479.439	487.44
479.658	480.44
479.876	485.44
480.095	520.44
480.313	516.44
480.532	516.44
480.751	522.44
480.969	506.44
481.188	566.44
481.406	572.44
481.624	512.44
481.843	469.44
482.061	467.44
482.28	466.44
482.498	477.44
482.717	495.44
482.935	484.44
483.153	489.44
483.372	472.44
483.59	457.44
483.808	452.44
484.027	476.44
484.245	475.44
484.463	493.44
484.681	512.44
484.9	487.44
485.118	479.44
485.336	499.44
485.554	490.44
485.772	501.44
485.99	481.44
486.209	521.44
486.427	513.44
486.645	492.44
486.863	480.44
487.081	529.44
487.299	493.44
487.517	503.44
487.735	519.44
487.953	513.44
488.171	509.44
488.389	488.44
488.607	516.44
488.825	508.44
489.043	492.44
489.261	531.44
489.479	541.44
489.696	519.44
489.914	531.44
490.132	562.44
490.35	525.44
490.568	563.44
490.786	524.44
491.003	549.44
491.221	555.44
491.439	549.44
491.657	575.44
491.874	557.44
492.092	573.44
492.31	561.44
492.527	577.44
492.745	571.44
492.963	595.44
493.18	586.44
493.398	604.44
493.615	594.44
493.833	593.44
494.05	573.44
494.268	577.44
494.485	586.44
494.703	577.44
494.92	586.44
495.138	575.44
495.355	580.44
495.573	619.44
495.79	606.44
496.008	606.44
496.225	590.44
496.442	595.44
496.66	621.44
496.877	590.44
497.094	605.44
497.312	633.44
497.529	635.44
497.746	629.44
497.963	665.44
498.181	675.44
498.398	638.44
498.615	674.44
498.832	708.44
499.049	707.44
499.267	731.44
499.484	778.44
499.701	803.44
499.918	846.44
500.135	895.44
500.352	930.44
500.569	931.44
500.786	935.44
501.003	917.44
501.22	934.44
501.437	852.44
501.654	808.44
501.871	824.44
502.088	752.44
