Data from 1977.PennyLincolnUp.Lamp.En5.5.200Scan.071719.P1_HRD10591_16-07-33-864.txt Node
Date: Thu Jul 18 16:07:33 EDT 2019
User: cochatt
Spectrometer: HR+D1059
Trigger mode: 1
Integration Time (sec): 1.000000E-1
Scans to average: 1
Electric dark correction enabled: true
Nonlinearity correction enabled: false
Boxcar width: 0
XAxis mode: Wavelengths
Number of Pixels in Spectrum: 2048
>>>>>Begin Spectral Data<<<<<
223.165	-22.69
223.4	-22.69
223.635	-22.69
223.869	-10.69
224.104	-17.69
224.338	-2.69
224.573	-24.69
224.808	-11.69
225.042	-0.69
225.277	-14.69
225.511	8.31
225.746	-4.69
225.98	17.31
226.215	5.31
226.449	18.31
226.683	20.31
226.918	18.31
227.152	22.31
227.387	40.31
227.621	45.31
227.856	38.31
228.09	54.31
228.324	55.31
228.559	65.31
228.793	71.31
229.027	96.31
229.262	113.31
229.496	119.31
229.73	134.31
229.964	139.31
230.199	127.31
230.433	99.31
230.667	118.31
230.901	119.31
231.136	94.31
231.37	124.31
231.604	131.31
231.838	112.31
232.072	116.31
232.306	118.31
232.541	120.31
232.775	119.31
233.009	119.31
233.243	105.31
233.477	99.31
233.711	112.31
233.945	118.31
234.179	113.31
234.413	121.31
234.647	109.31
234.881	112.31
235.115	123.31
235.349	113.31
235.583	122.31
235.817	116.31
236.051	121.31
236.285	120.31
236.519	128.31
236.753	118.31
236.987	147.31
237.221	172.31
237.455	221.31
237.689	161.31
237.922	152.31
238.156	128.31
238.39	132.31
238.624	118.31
238.858	131.31
239.091	130.31
239.325	123.31
239.559	109.31
239.793	136.31
240.027	147.31
240.26	150.31
240.494	160.31
240.728	149.31
240.961	146.31
241.195	152.31
241.429	145.31
241.662	141.31
241.896	130.31
242.13	145.31
242.363	140.31
242.597	146.31
242.83	130.31
243.064	158.31
243.298	141.31
243.531	140.31
243.765	157.31
243.998	155.31
244.232	133.31
244.465	148.31
244.699	149.31
244.932	162.31
245.166	146.31
245.399	153.31
245.633	152.31
245.866	136.31
246.099	146.31
246.333	143.31
246.566	150.31
246.8	155.31
247.033	148.31
247.266	160.31
247.5	156.31
247.733	189.31
247.966	162.31
248.2	171.31
248.433	148.31
248.666	168.31
248.899	193.31
249.133	198.31
249.366	196.31
249.599	194.31
249.832	174.31
250.066	182.31
250.299	162.31
250.532	201.31
250.765	187.31
250.998	210.31
251.231	230.31
251.465	215.31
251.698	203.31
251.931	206.31
252.164	206.31
252.397	218.31
252.63	209.31
252.863	208.31
253.096	237.31
253.329	216.31
253.562	227.31
253.795	208.31
254.028	205.31
254.261	215.31
254.494	228.31
254.727	244.31
254.96	279.31
255.193	260.31
255.426	220.31
255.659	218.31
255.892	226.31
256.124	215.31
256.357	217.31
256.59	223.31
256.823	214.31
257.056	210.31
257.289	214.31
257.521	228.31
257.754	220.31
257.987	203.31
258.22	204.31
258.452	220.31
258.685	204.31
258.918	216.31
259.151	214.31
259.383	230.31
259.616	253.31
259.849	223.31
260.081	233.31
260.314	264.31
260.547	250.31
260.779	237.31
261.012	228.31
261.244	233.31
261.477	244.31
261.71	227.31
261.942	233.31
262.175	245.31
262.407	230.31
262.64	216.31
262.872	211.31
263.105	220.31
263.337	233.31
263.57	225.31
263.802	217.31
264.035	214.31
264.267	205.31
264.499	198.31
264.732	228.31
264.964	216.31
265.197	209.31
265.429	225.31
265.661	221.31
265.894	231.31
266.126	234.31
266.358	227.31
266.591	203.31
266.823	224.31
267.055	229.31
267.287	237.31
267.52	248.31
267.752	236.31
267.984	237.31
268.216	245.31
268.448	231.31
268.681	258.31
268.913	266.31
269.145	268.31
269.377	270.31
269.609	298.31
269.841	270.31
270.073	280.31
270.306	302.31
270.538	312.31
270.77	316.31
271.002	292.31
271.234	284.31
271.466	301.31
271.698	304.31
271.93	281.31
272.162	311.31
272.394	308.31
272.626	305.31
272.858	309.31
273.09	295.31
273.322	274.31
273.553	273.31
273.785	273.31
274.017	272.31
274.249	292.31
274.481	268.31
274.713	266.31
274.945	290.31
275.176	274.31
275.408	275.31
275.64	278.31
275.872	275.31
276.104	274.31
276.335	284.31
276.567	294.31
276.799	281.31
277.031	304.31
277.262	321.31
277.494	301.31
277.726	317.31
277.957	309.31
278.189	305.31
278.421	289.31
278.652	273.31
278.884	274.31
279.115	284.31
279.347	275.31
279.579	284.31
279.81	296.31
280.042	275.31
280.273	302.31
280.505	299.31
280.736	296.31
280.968	295.31
281.199	272.31
281.431	284.31
281.662	287.31
281.894	275.31
282.125	279.31
282.356	316.31
282.588	294.31
282.819	303.31
283.051	284.31
283.282	299.31
283.513	293.31
283.745	293.31
283.976	287.31
284.207	312.31
284.439	305.31
284.67	304.31
284.901	293.31
285.132	291.31
285.364	309.31
285.595	306.31
285.826	294.31
286.057	302.31
286.288	308.31
286.52	308.31
286.751	301.31
286.982	316.31
287.213	300.31
287.444	304.31
287.675	312.31
287.906	333.31
288.138	325.31
288.369	315.31
288.6	321.31
288.831	334.31
289.062	328.31
289.293	327.31
289.524	310.31
289.755	298.31
289.986	300.31
290.217	288.31
290.448	313.31
290.679	306.31
290.91	332.31
291.141	327.31
291.371	319.31
291.602	300.31
291.833	313.31
292.064	316.31
292.295	308.31
292.526	329.31
292.757	318.31
292.987	296.31
293.218	296.31
293.449	320.31
293.68	321.31
293.91	309.31
294.141	315.31
294.372	330.31
294.603	318.31
294.833	310.31
295.064	308.31
295.295	335.31
295.525	302.31
295.756	315.31
295.987	336.31
296.217	346.31
296.448	340.31
296.679	318.31
296.909	325.31
297.14	325.31
297.37	311.31
297.601	319.31
297.831	323.31
298.062	326.31
298.292	325.31
298.523	305.31
298.753	329.31
298.984	323.31
299.214	347.31
299.445	336.31
299.675	313.31
299.905	336.31
300.136	337.31
300.366	327.31
300.597	357.31
300.827	365.31
301.057	342.31
301.288	350.31
301.518	352.31
301.748	362.31
301.979	348.31
302.209	344.31
302.439	348.31
302.669	350.31
302.9	361.31
303.13	344.31
303.36	350.31
303.59	363.31
303.82	342.31
304.051	347.31
304.281	367.31
304.511	346.31
304.741	369.31
304.971	356.31
305.201	361.31
305.431	349.31
305.661	349.31
305.891	338.31
306.121	346.31
306.352	334.31
306.582	344.31
306.812	365.31
307.042	359.31
307.272	345.31
307.502	340.31
307.731	353.31
307.961	342.31
308.191	353.31
308.421	370.31
308.651	373.31
308.881	354.31
309.111	385.31
309.341	362.31
309.571	365.31
309.8	368.31
310.03	383.31
310.26	376.31
310.49	384.31
310.72	396.31
310.949	381.31
311.179	390.31
311.409	409.31
311.639	388.31
311.868	382.31
312.098	384.31
312.328	383.31
312.557	430.31
312.787	408.31
313.017	412.31
313.246	404.31
313.476	412.31
313.706	410.31
313.935	402.31
314.165	394.31
314.394	396.31
314.624	413.31
314.853	421.31
315.083	409.31
315.312	397.31
315.542	408.31
315.771	402.31
316.001	385.31
316.23	384.31
316.46	377.31
316.689	396.31
316.919	387.31
317.148	400.31
317.377	393.31
317.607	421.31
317.836	392.31
318.065	393.31
318.295	413.31
318.524	392.31
318.753	382.31
318.983	398.31
319.212	398.31
319.441	396.31
319.67	403.31
319.9	398.31
320.129	402.31
320.358	392.31
320.587	398.31
320.816	397.31
321.046	405.31
321.275	428.31
321.504	406.31
321.733	401.31
321.962	409.31
322.191	422.31
322.42	429.31
322.649	430.31
322.878	431.31
323.108	444.31
323.337	462.31
323.566	467.31
323.795	506.31
324.024	568.31
324.253	625.31
324.482	855.31
324.71	1289.31
324.939	1804.31
325.168	1566.31
325.397	840.31
325.626	585.31
325.855	530.31
326.084	503.31
326.313	512.31
326.542	475.31
326.77	534.31
326.999	626.31
327.228	781.31
327.457	1163.31
327.686	1354.31
327.914	922.31
328.143	638.31
328.372	588.31
328.6	536.31
328.829	504.31
329.058	533.31
329.287	559.31
329.515	530.31
329.744	516.31
329.972	502.31
330.201	505.31
330.43	541.31
330.658	539.31
330.887	582.31
331.115	566.31
331.344	494.31
331.572	504.31
331.801	506.31
332.03	465.31
332.258	498.31
332.486	477.31
332.715	465.31
332.943	484.31
333.172	485.31
333.4	470.31
333.629	484.31
333.857	492.31
334.085	484.31
334.314	522.31
334.542	543.31
334.771	539.31
334.999	497.31
335.227	487.31
335.455	480.31
335.684	497.31
335.912	471.31
336.14	477.31
336.369	474.31
336.597	462.31
336.825	472.31
337.053	476.31
337.281	472.31
337.51	441.31
337.738	451.31
337.966	441.31
338.194	457.31
338.422	470.31
338.65	465.31
338.878	466.31
339.106	432.31
339.334	438.31
339.562	448.31
339.79	444.31
340.018	429.31
340.246	425.31
340.474	426.31
340.702	452.31
340.93	432.31
341.158	406.31
341.386	430.31
341.614	422.31
341.842	437.31
342.07	421.31
342.298	426.31
342.526	459.31
342.754	440.31
342.981	421.31
343.209	437.31
343.437	432.31
343.665	440.31
343.893	456.31
344.12	466.31
344.348	455.31
344.576	441.31
344.804	452.31
345.031	436.31
345.259	445.31
345.487	456.31
345.714	425.31
345.942	437.31
346.17	440.31
346.397	433.31
346.625	424.31
346.853	422.31
347.08	436.31
347.308	394.31
347.535	414.31
347.763	436.31
347.99	414.31
348.218	432.31
348.445	412.31
348.673	405.31
348.9	404.31
349.128	399.31
349.355	417.31
349.583	404.31
349.81	406.31
350.037	419.31
350.265	412.31
350.492	411.31
350.72	407.31
350.947	413.31
351.174	419.31
351.402	420.31
351.629	425.31
351.856	406.31
352.083	420.31
352.311	428.31
352.538	433.31
352.765	421.31
352.992	405.31
353.22	414.31
353.447	408.31
353.674	390.31
353.901	413.31
354.128	406.31
354.355	422.31
354.583	394.31
354.81	412.31
355.037	392.31
355.264	399.31
355.491	406.31
355.718	384.31
355.945	390.31
356.172	375.31
356.399	389.31
356.626	386.31
356.853	377.31
357.08	394.31
357.307	415.31
357.534	368.31
357.761	374.31
357.988	398.31
358.215	398.31
358.441	382.31
358.668	390.31
358.895	408.31
359.122	382.31
359.349	408.31
359.576	404.31
359.802	399.31
360.029	436.31
360.256	456.31
360.483	444.31
360.709	412.31
360.936	406.31
361.163	419.31
361.39	402.31
361.616	394.31
361.843	410.31
362.07	400.31
362.296	410.31
362.523	417.31
362.749	410.31
362.976	399.31
363.203	424.31
363.429	384.31
363.656	405.31
363.882	391.31
364.109	386.31
364.335	382.31
364.562	398.31
364.788	393.31
365.015	397.31
365.241	394.31
365.468	406.31
365.694	390.31
365.92	408.31
366.147	384.31
366.373	379.31
366.599	392.31
366.826	391.31
367.052	396.31
367.278	390.31
367.505	396.31
367.731	414.31
367.957	404.31
368.184	406.31
368.41	413.31
368.636	382.31
368.862	394.31
369.089	381.31
369.315	388.31
369.541	384.31
369.767	392.31
369.993	383.31
370.219	396.31
370.445	384.31
370.672	384.31
370.898	405.31
371.124	384.31
371.35	391.31
371.576	389.31
371.802	387.31
372.028	392.31
372.254	407.31
372.48	398.31
372.706	406.31
372.932	370.31
373.158	384.31
373.384	392.31
373.61	385.31
373.835	402.31
374.061	393.31
374.287	400.31
374.513	402.31
374.739	408.31
374.965	390.31
375.191	406.31
375.416	410.31
375.642	392.31
375.868	408.31
376.094	390.31
376.319	390.31
376.545	395.31
376.771	387.31
376.997	397.31
377.222	402.31
377.448	374.31
377.674	397.31
377.899	384.31
378.125	398.31
378.35	388.31
378.576	391.31
378.802	382.31
379.027	370.31
379.253	390.31
379.478	366.31
379.704	389.31
379.929	396.31
380.155	389.31
380.38	394.31
380.606	400.31
380.831	385.31
381.057	395.31
381.282	393.31
381.507	399.31
381.733	403.31
381.958	394.31
382.184	384.31
382.409	394.31
382.634	403.31
382.86	404.31
383.085	391.31
383.31	404.31
383.535	410.31
383.761	406.31
383.986	410.31
384.211	409.31
384.436	378.31
384.662	403.31
384.887	429.31
385.112	428.31
385.337	415.31
385.562	422.31
385.787	428.31
386.013	436.31
386.238	437.31
386.463	446.31
386.688	436.31
386.913	450.31
387.138	444.31
387.363	417.31
387.588	422.31
387.813	412.31
388.038	422.31
388.263	415.31
388.488	430.31
388.713	422.31
388.938	439.31
389.163	425.31
389.387	410.31
389.612	422.31
389.837	425.31
390.062	417.31
390.287	435.31
390.512	422.31
390.736	414.31
390.961	433.31
391.186	420.31
391.411	422.31
391.636	429.31
391.86	434.31
392.085	454.31
392.31	457.31
392.534	448.31
392.759	440.31
392.984	409.31
393.208	428.31
393.433	425.31
393.658	439.31
393.882	426.31
394.107	429.31
394.331	426.31
394.556	425.31
394.78	432.31
395.005	426.31
395.229	445.31
395.454	450.31
395.678	469.31
395.903	469.31
396.127	461.31
396.352	458.31
396.576	457.31
396.801	425.31
397.025	422.31
397.249	442.31
397.474	466.31
397.698	443.31
397.922	471.31
398.147	493.31
398.371	500.31
398.595	467.31
398.82	484.31
399.044	484.31
399.268	524.31
399.492	553.31
399.717	607.31
399.941	582.31
400.165	596.31
400.389	601.31
400.613	581.31
400.837	510.31
401.062	502.31
401.286	496.31
401.51	508.31
401.734	495.31
401.958	502.31
402.182	505.31
402.406	494.31
402.63	492.31
402.854	479.31
403.078	498.31
403.302	482.31
403.526	495.31
403.75	498.31
403.974	505.31
404.198	504.31
404.422	503.31
404.645	513.31
404.869	526.31
405.093	530.31
405.317	546.31
405.541	609.31
405.765	542.31
405.988	511.31
406.212	538.31
406.436	534.31
406.66	556.31
406.883	542.31
407.107	558.31
407.331	597.31
407.555	664.31
407.778	630.31
408.002	610.31
408.226	585.31
408.449	565.31
408.673	558.31
408.896	577.31
409.12	584.31
409.344	581.31
409.567	524.31
409.791	502.31
410.014	514.31
410.238	488.31
410.461	500.31
410.685	500.31
410.908	505.31
411.132	554.31
411.355	578.31
411.578	548.31
411.802	510.31
412.025	494.31
412.249	487.31
412.472	551.31
412.695	554.31
412.919	537.31
413.142	497.31
413.365	483.31
413.589	464.31
413.812	477.31
414.035	468.31
414.258	485.31
414.482	473.31
414.705	459.31
414.928	475.31
415.151	469.31
415.374	457.31
415.597	464.31
415.821	450.31
416.044	461.31
416.267	477.31
416.49	477.31
416.713	453.31
416.936	471.31
417.159	455.31
417.382	482.31
417.605	463.31
417.828	480.31
418.051	506.31
418.274	485.31
418.497	465.31
418.72	468.31
418.943	457.31
419.166	501.31
419.389	502.31
419.611	505.31
419.834	492.31
420.057	503.31
420.28	502.31
420.503	484.31
420.726	467.31
420.948	497.31
421.171	526.31
421.394	548.31
421.617	500.31
421.839	482.31
422.062	476.31
422.285	518.31
422.507	558.31
422.73	597.31
422.953	584.31
423.175	516.31
423.398	524.31
423.621	506.31
423.843	512.31
424.066	520.31
424.288	525.31
424.511	543.31
424.733	577.31
424.956	635.31
425.178	600.31
425.401	616.31
425.623	610.31
425.846	537.31
426.068	541.31
426.291	493.31
426.513	516.31
426.735	526.31
426.958	572.31
427.18	624.31
427.402	724.31
427.625	808.31
427.847	697.31
428.069	576.31
428.292	541.31
428.514	504.31
428.736	495.31
428.958	497.31
429.181	480.31
429.403	465.31
429.625	462.31
429.847	507.31
430.069	550.31
430.292	556.31
430.514	478.31
430.736	470.31
430.958	462.31
431.18	436.31
431.402	448.31
431.624	449.31
431.846	445.31
432.068	451.31
432.29	438.31
432.512	433.31
432.734	439.31
432.956	442.31
433.178	458.31
433.4	479.31
433.622	422.31
433.844	446.31
434.066	430.31
434.287	458.31
434.509	440.31
434.731	454.31
434.953	474.31
435.175	480.31
435.397	467.31
435.618	510.31
435.84	559.31
436.062	632.31
436.284	665.31
436.505	578.31
436.727	526.31
436.949	487.31
437.17	465.31
437.392	470.31
437.614	465.31
437.835	502.31
438.057	591.31
438.278	628.31
438.5	671.31
438.721	720.31
438.943	699.31
439.165	551.31
439.386	522.31
439.608	498.31
439.829	506.31
440.05	509.31
440.272	563.31
440.493	537.31
440.715	493.31
440.936	464.31
441.158	463.31
441.379	467.31
441.6	496.31
441.822	489.31
442.043	538.31
442.264	583.31
442.486	632.31
442.707	560.31
442.928	492.31
443.149	511.31
443.371	516.31
443.592	585.31
443.813	641.31
444.034	710.31
444.255	588.31
444.476	517.31
444.698	521.31
444.919	506.31
445.14	645.31
445.361	584.31
445.582	525.31
445.803	576.31
446.024	657.31
446.245	691.31
446.466	620.31
446.687	536.31
446.908	510.31
447.129	493.31
447.35	454.31
447.571	473.31
447.792	451.31
448.013	468.31
448.234	457.31
448.455	514.31
448.675	614.31
448.896	713.31
449.117	606.31
449.338	570.31
449.559	656.31
449.779	764.31
450	596.31
450.221	497.31
450.442	472.31
450.662	461.31
450.883	458.31
451.104	448.31
451.324	454.31
451.545	464.31
451.766	401.31
451.986	424.31
452.207	431.31
452.428	413.31
452.648	415.31
452.869	430.31
453.089	419.31
453.31	439.31
453.53	413.31
453.751	421.31
453.971	411.31
454.192	428.31
454.412	412.31
454.633	410.31
454.853	410.31
455.073	392.31
455.294	436.31
455.514	479.31
455.734	470.31
455.955	408.31
456.175	406.31
456.395	395.31
456.616	389.31
456.836	388.31
457.056	379.31
457.276	389.31
457.497	397.31
457.717	378.31
457.937	419.31
458.157	400.31
458.377	401.31
458.598	425.31
458.818	472.31
459.038	531.31
459.258	540.31
459.478	449.31
459.698	450.31
459.918	445.31
460.138	436.31
460.358	448.31
460.578	477.31
460.798	444.31
461.018	448.31
461.238	459.31
461.458	448.31
461.678	469.31
461.898	462.31
462.118	461.31
462.338	469.31
462.558	470.31
462.777	488.31
462.997	508.31
463.217	500.31
463.437	517.31
463.657	506.31
463.876	502.31
464.096	492.31
464.316	504.31
464.536	470.31
464.755	496.31
464.975	488.31
465.195	492.31
465.414	531.31
465.634	480.31
465.854	449.31
466.073	441.31
466.293	439.31
466.512	424.31
466.732	424.31
466.951	413.31
467.171	417.31
467.391	416.31
467.61	400.31
467.829	426.31
468.049	420.31
468.268	413.31
468.488	410.31
468.707	424.31
468.927	406.31
469.146	414.31
469.365	410.31
469.585	413.31
469.804	442.31
470.023	434.31
470.243	416.31
470.462	431.31
470.681	450.31
470.901	445.31
471.12	441.31
471.339	416.31
471.558	410.31
471.777	411.31
471.997	416.31
472.216	417.31
472.435	427.31
472.654	446.31
472.873	422.31
473.092	450.31
473.311	426.31
473.53	410.31
473.749	436.31
473.968	466.31
474.187	542.31
474.406	558.31
474.625	460.31
474.844	429.31
475.063	422.31
475.282	441.31
475.501	428.31
475.72	431.31
475.939	430.31
476.158	439.31
476.377	438.31
476.596	430.31
476.814	453.31
477.033	442.31
477.252	446.31
477.471	461.31
477.69	450.31
477.908	459.31
478.127	474.31
478.346	462.31
478.564	480.31
478.783	468.31
479.002	482.31
479.22	482.31
479.439	506.31
479.658	507.31
479.876	516.31
480.095	533.31
480.313	553.31
480.532	540.31
480.751	496.31
480.969	519.31
481.188	552.31
481.406	557.31
481.624	540.31
481.843	524.31
482.061	505.31
482.28	512.31
482.498	493.31
482.717	488.31
482.935	507.31
483.153	481.31
483.372	508.31
483.59	497.31
483.808	507.31
484.027	492.31
484.245	492.31
484.463	493.31
484.681	491.31
484.9	482.31
485.118	514.31
485.336	503.31
485.554	500.31
485.772	512.31
485.99	488.31
486.209	501.31
486.427	491.31
486.645	518.31
486.863	534.31
487.081	513.31
487.299	519.31
487.517	501.31
487.735	526.31
487.953	520.31
488.171	507.31
488.389	512.31
488.607	514.31
488.825	490.31
489.043	516.31
489.261	535.31
489.479	538.31
489.696	536.31
489.914	536.31
490.132	535.31
490.35	530.31
490.568	550.31
490.786	538.31
491.003	544.31
491.221	553.31
491.439	592.31
491.657	574.31
491.874	601.31
492.092	589.31
492.31	579.31
492.527	575.31
492.745	581.31
492.963	588.31
493.18	603.31
493.398	606.31
493.615	614.31
493.833	621.31
494.05	604.31
494.268	592.31
494.485	602.31
494.703	605.31
494.92	593.31
495.138	617.31
495.355	613.31
495.573	594.31
495.79	609.31
496.008	631.31
496.225	597.31
496.442	600.31
496.66	613.31
496.877	620.31
497.094	621.31
497.312	652.31
497.529	634.31
497.746	638.31
497.963	653.31
498.181	678.31
498.398	688.31
498.615	695.31
498.832	735.31
499.049	716.31
499.267	748.31
499.484	773.31
499.701	808.31
499.918	860.31
500.135	885.31
500.352	913.31
500.569	957.31
500.786	925.31
501.003	930.31
501.22	878.31
501.437	857.31
501.654	818.31
501.871	796.31
502.088	780.31
