Data from 1977.PennyLincolnUp.Lamp.En5.5.200Scan.071719.P1_HRD10591_16-07-31-864.txt Node
Date: Thu Jul 18 16:07:31 EDT 2019
User: cochatt
Spectrometer: HR+D1059
Trigger mode: 1
Integration Time (sec): 1.000000E-1
Scans to average: 1
Electric dark correction enabled: true
Nonlinearity correction enabled: false
Boxcar width: 0
XAxis mode: Wavelengths
Number of Pixels in Spectrum: 2048
>>>>>Begin Spectral Data<<<<<
223.165	-1.12
223.4	-1.12
223.635	-1.12
223.869	-19.12
224.104	-21.12
224.338	-19.12
224.573	-29.12
224.808	-17.12
225.042	-2.12
225.277	-10.12
225.511	-1.12
225.746	10.88
225.98	7.88
226.215	-0.12
226.449	26.88
226.683	16.88
226.918	22.88
227.152	34.88
227.387	38.88
227.621	42.88
227.856	43.88
228.09	38.88
228.324	42.88
228.559	69.88
228.793	61.88
229.027	90.88
229.262	99.88
229.496	101.88
229.73	126.88
229.964	149.88
230.199	125.88
230.433	123.88
230.667	116.88
230.901	115.88
231.136	105.88
231.37	106.88
231.604	117.88
231.838	117.88
232.072	123.88
232.306	137.88
232.541	116.88
232.775	123.88
233.009	119.88
233.243	125.88
233.477	118.88
233.711	128.88
233.945	127.88
234.179	120.88
234.413	107.88
234.647	123.88
234.881	103.88
235.115	113.88
235.349	115.88
235.583	103.88
235.817	123.88
236.051	122.88
236.285	123.88
236.519	128.88
236.753	137.88
236.987	141.88
237.221	172.88
237.455	215.88
237.689	165.88
237.922	143.88
238.156	144.88
238.39	133.88
238.624	119.88
238.858	140.88
239.091	133.88
239.325	126.88
239.559	136.88
239.793	130.88
240.027	129.88
240.26	123.88
240.494	150.88
240.728	158.88
240.961	167.88
241.195	152.88
241.429	140.88
241.662	143.88
241.896	139.88
242.13	131.88
242.363	144.88
242.597	137.88
242.83	135.88
243.064	155.88
243.298	142.88
243.531	140.88
243.765	143.88
243.998	143.88
244.232	136.88
244.465	148.88
244.699	130.88
244.932	143.88
245.166	130.88
245.399	148.88
245.633	144.88
245.866	182.88
246.099	141.88
246.333	151.88
246.566	154.88
246.8	137.88
247.033	165.88
247.266	159.88
247.5	179.88
247.733	188.88
247.966	158.88
248.2	148.88
248.433	170.88
248.666	204.88
248.899	177.88
249.133	191.88
249.366	203.88
249.599	190.88
249.832	179.88
250.066	170.88
250.299	171.88
250.532	170.88
250.765	194.88
250.998	226.88
251.231	218.88
251.465	221.88
251.698	195.88
251.931	201.88
252.164	207.88
252.397	198.88
252.63	201.88
252.863	220.88
253.096	212.88
253.329	215.88
253.562	200.88
253.795	214.88
254.028	215.88
254.261	229.88
254.494	228.88
254.727	263.88
254.96	275.88
255.193	246.88
255.426	238.88
255.659	228.88
255.892	231.88
256.124	217.88
256.357	243.88
256.59	233.88
256.823	226.88
257.056	219.88
257.289	197.88
257.521	191.88
257.754	204.88
257.987	204.88
258.22	221.88
258.452	203.88
258.685	202.88
258.918	202.88
259.151	213.88
259.383	219.88
259.616	220.88
259.849	227.88
260.081	251.88
260.314	275.88
260.547	245.88
260.779	250.88
261.012	249.88
261.244	229.88
261.477	213.88
261.71	220.88
261.942	221.88
262.175	222.88
262.407	212.88
262.64	211.88
262.872	229.88
263.105	219.88
263.337	224.88
263.57	218.88
263.802	230.88
264.035	215.88
264.267	223.88
264.499	239.88
264.732	224.88
264.964	240.88
265.197	226.88
265.429	219.88
265.661	218.88
265.894	227.88
266.126	237.88
266.358	211.88
266.591	234.88
266.823	242.88
267.055	254.88
267.287	250.88
267.52	245.88
267.752	256.88
267.984	231.88
268.216	230.88
268.448	238.88
268.681	241.88
268.913	241.88
269.145	277.88
269.377	285.88
269.609	273.88
269.841	281.88
270.073	269.88
270.306	305.88
270.538	323.88
270.77	327.88
271.002	309.88
271.234	287.88
271.466	301.88
271.698	287.88
271.93	315.88
272.162	312.88
272.394	307.88
272.626	311.88
272.858	272.88
273.09	285.88
273.322	290.88
273.553	280.88
273.785	261.88
274.017	269.88
274.249	276.88
274.481	286.88
274.713	276.88
274.945	262.88
275.176	280.88
275.408	290.88
275.64	295.88
275.872	279.88
276.104	286.88
276.335	277.88
276.567	285.88
276.799	295.88
277.031	325.88
277.262	320.88
277.494	329.88
277.726	313.88
277.957	295.88
278.189	281.88
278.421	302.88
278.652	296.88
278.884	284.88
279.115	287.88
279.347	287.88
279.579	303.88
279.81	267.88
280.042	293.88
280.273	297.88
280.505	286.88
280.736	285.88
280.968	273.88
281.199	278.88
281.431	295.88
281.662	274.88
281.894	280.88
282.125	295.88
282.356	313.88
282.588	315.88
282.819	316.88
283.051	306.88
283.282	290.88
283.513	298.88
283.745	299.88
283.976	303.88
284.207	312.88
284.439	307.88
284.67	303.88
284.901	299.88
285.132	301.88
285.364	315.88
285.595	301.88
285.826	287.88
286.057	293.88
286.288	322.88
286.52	314.88
286.751	287.88
286.982	307.88
287.213	295.88
287.444	297.88
287.675	306.88
287.906	307.88
288.138	336.88
288.369	337.88
288.6	327.88
288.831	339.88
289.062	330.88
289.293	308.88
289.524	319.88
289.755	318.88
289.986	313.88
290.217	313.88
290.448	310.88
290.679	314.88
290.91	317.88
291.141	318.88
291.371	319.88
291.602	297.88
291.833	317.88
292.064	327.88
292.295	327.88
292.526	321.88
292.757	301.88
292.987	299.88
293.218	299.88
293.449	306.88
293.68	328.88
293.91	315.88
294.141	334.88
294.372	313.88
294.603	295.88
294.833	314.88
295.064	305.88
295.295	324.88
295.525	314.88
295.756	315.88
295.987	325.88
296.217	334.88
296.448	343.88
296.679	339.88
296.909	312.88
297.14	327.88
297.37	331.88
297.601	326.88
297.831	332.88
298.062	330.88
298.292	318.88
298.523	346.88
298.753	320.88
298.984	331.88
299.214	336.88
299.445	335.88
299.675	342.88
299.905	336.88
300.136	326.88
300.366	362.88
300.597	339.88
300.827	333.88
301.057	344.88
301.288	359.88
301.518	358.88
301.748	342.88
301.979	353.88
302.209	343.88
302.439	358.88
302.669	357.88
302.9	363.88
303.13	358.88
303.36	358.88
303.59	373.88
303.82	362.88
304.051	334.88
304.281	350.88
304.511	354.88
304.741	346.88
304.971	338.88
305.201	358.88
305.431	348.88
305.661	370.88
305.891	377.88
306.121	370.88
306.352	349.88
306.582	356.88
306.812	362.88
307.042	366.88
307.272	353.88
307.502	353.88
307.731	370.88
307.961	384.88
308.191	348.88
308.421	362.88
308.651	374.88
308.881	348.88
309.111	369.88
309.341	373.88
309.571	407.88
309.8	378.88
310.03	375.88
310.26	389.88
310.49	408.88
310.72	399.88
310.949	405.88
311.179	418.88
311.409	398.88
311.639	383.88
311.868	378.88
312.098	390.88
312.328	404.88
312.557	433.88
312.787	414.88
313.017	417.88
313.246	395.88
313.476	385.88
313.706	381.88
313.935	425.88
314.165	413.88
314.394	408.88
314.624	406.88
314.853	421.88
315.083	394.88
315.312	390.88
315.542	398.88
315.771	391.88
316.001	421.88
316.23	389.88
316.46	374.88
316.689	397.88
316.919	411.88
317.148	428.88
317.377	409.88
317.607	390.88
317.836	405.88
318.065	410.88
318.295	404.88
318.524	387.88
318.753	399.88
318.983	392.88
319.212	407.88
319.441	419.88
319.67	403.88
319.9	419.88
320.129	405.88
320.358	390.88
320.587	413.88
320.816	428.88
321.046	435.88
321.275	437.88
321.504	440.88
321.733	414.88
321.962	433.88
322.191	427.88
322.42	437.88
322.649	450.88
322.878	464.88
323.108	479.88
323.337	475.88
323.566	482.88
323.795	515.88
324.024	579.88
324.253	677.88
324.482	887.88
324.71	1327.88
324.939	1826.88
325.168	1571.88
325.397	839.88
325.626	619.88
325.855	533.88
326.084	498.88
326.313	494.88
326.542	484.88
326.77	554.88
326.999	635.88
327.228	810.88
327.457	1167.88
327.686	1405.88
327.914	964.88
328.143	650.88
328.372	577.88
328.6	557.88
328.829	532.88
329.058	520.88
329.287	551.88
329.515	517.88
329.744	503.88
329.972	494.88
330.201	487.88
330.43	545.88
330.658	564.88
330.887	583.88
331.115	574.88
331.344	511.88
331.572	489.88
331.801	510.88
332.03	494.88
332.258	500.88
332.486	482.88
332.715	475.88
332.943	498.88
333.172	488.88
333.4	495.88
333.629	493.88
333.857	498.88
334.085	511.88
334.314	527.88
334.542	557.88
334.771	551.88
334.999	542.88
335.227	507.88
335.455	486.88
335.684	480.88
335.912	461.88
336.14	490.88
336.369	476.88
336.597	484.88
336.825	463.88
337.053	478.88
337.281	435.88
337.51	489.88
337.738	465.88
337.966	485.88
338.194	468.88
338.422	467.88
338.65	445.88
338.878	463.88
339.106	466.88
339.334	462.88
339.562	459.88
339.79	460.88
340.018	453.88
340.246	460.88
340.474	473.88
340.702	453.88
340.93	459.88
341.158	438.88
341.386	462.88
341.614	454.88
341.842	457.88
342.07	456.88
342.298	444.88
342.526	447.88
342.754	448.88
342.981	431.88
343.209	450.88
343.437	433.88
343.665	450.88
343.893	454.88
344.12	459.88
344.348	458.88
344.576	458.88
344.804	470.88
345.031	456.88
345.259	461.88
345.487	444.88
345.714	438.88
345.942	434.88
346.17	439.88
346.397	443.88
346.625	429.88
346.853	425.88
347.08	428.88
347.308	440.88
347.535	441.88
347.763	423.88
347.99	426.88
348.218	422.88
348.445	447.88
348.673	429.88
348.9	429.88
349.128	428.88
349.355	409.88
349.583	413.88
349.81	405.88
350.037	421.88
350.265	409.88
350.492	415.88
350.72	415.88
350.947	412.88
351.174	418.88
351.402	428.88
351.629	454.88
351.856	435.88
352.083	441.88
352.311	433.88
352.538	437.88
352.765	422.88
352.992	422.88
353.22	417.88
353.447	397.88
353.674	418.88
353.901	387.88
354.128	404.88
354.355	377.88
354.583	387.88
354.81	398.88
355.037	398.88
355.264	373.88
355.491	409.88
355.718	384.88
355.945	403.88
356.172	385.88
356.399	405.88
356.626	407.88
356.853	389.88
357.08	407.88
357.307	399.88
357.534	390.88
357.761	386.88
357.988	400.88
358.215	369.88
358.441	408.88
358.668	389.88
358.895	397.88
359.122	400.88
359.349	429.88
359.576	422.88
359.802	446.88
360.029	439.88
360.256	442.88
360.483	445.88
360.709	445.88
360.936	416.88
361.163	430.88
361.39	421.88
361.616	419.88
361.843	409.88
362.07	406.88
362.296	398.88
362.523	417.88
362.749	421.88
362.976	419.88
363.203	395.88
363.429	398.88
363.656	389.88
363.882	383.88
364.109	376.88
364.335	383.88
364.562	389.88
364.788	396.88
365.015	400.88
365.241	407.88
365.468	409.88
365.694	386.88
365.92	402.88
366.147	396.88
366.373	392.88
366.599	394.88
366.826	382.88
367.052	397.88
367.278	406.88
367.505	425.88
367.731	404.88
367.957	382.88
368.184	395.88
368.41	410.88
368.636	399.88
368.862	403.88
369.089	401.88
369.315	407.88
369.541	395.88
369.767	379.88
369.993	399.88
370.219	394.88
370.445	387.88
370.672	376.88
370.898	380.88
371.124	394.88
371.35	395.88
371.576	386.88
371.802	408.88
372.028	371.88
372.254	389.88
372.48	397.88
372.706	401.88
372.932	395.88
373.158	380.88
373.384	398.88
373.61	402.88
373.835	406.88
374.061	403.88
374.287	414.88
374.513	399.88
374.739	412.88
374.965	408.88
375.191	409.88
375.416	422.88
375.642	415.88
375.868	396.88
376.094	407.88
376.319	409.88
376.545	386.88
376.771	385.88
376.997	388.88
377.222	388.88
377.448	393.88
377.674	409.88
377.899	389.88
378.125	384.88
378.35	372.88
378.576	414.88
378.802	378.88
379.027	379.88
379.253	384.88
379.478	389.88
379.704	368.88
379.929	383.88
380.155	386.88
380.38	391.88
380.606	390.88
380.831	386.88
381.057	394.88
381.282	407.88
381.507	394.88
381.733	396.88
381.958	402.88
382.184	390.88
382.409	415.88
382.634	413.88
382.86	403.88
383.085	437.88
383.31	411.88
383.535	415.88
383.761	395.88
383.986	404.88
384.211	414.88
384.436	413.88
384.662	405.88
384.887	405.88
385.112	430.88
385.337	437.88
385.562	437.88
385.787	410.88
386.013	436.88
386.238	426.88
386.463	437.88
386.688	430.88
386.913	413.88
387.138	428.88
387.363	431.88
387.588	404.88
387.813	438.88
388.038	435.88
388.263	410.88
388.488	419.88
388.713	426.88
388.938	413.88
389.163	421.88
389.387	433.88
389.612	418.88
389.837	443.88
390.062	433.88
390.287	425.88
390.512	424.88
390.736	417.88
390.961	441.88
391.186	437.88
391.411	438.88
391.636	442.88
391.86	442.88
392.085	446.88
392.31	460.88
392.534	446.88
392.759	449.88
392.984	450.88
393.208	428.88
393.433	451.88
393.658	453.88
393.882	440.88
394.107	428.88
394.331	420.88
394.556	429.88
394.78	418.88
395.005	445.88
395.229	463.88
395.454	435.88
395.678	466.88
395.903	466.88
396.127	476.88
396.352	468.88
396.576	454.88
396.801	449.88
397.025	450.88
397.249	431.88
397.474	460.88
397.698	460.88
397.922	454.88
398.147	475.88
398.371	487.88
398.595	490.88
398.82	498.88
399.044	519.88
399.268	523.88
399.492	567.88
399.717	589.88
399.941	623.88
400.165	619.88
400.389	616.88
400.613	556.88
400.837	521.88
401.062	515.88
401.286	497.88
401.51	491.88
401.734	505.88
401.958	511.88
402.182	493.88
402.406	508.88
402.63	496.88
402.854	506.88
403.078	509.88
403.302	515.88
403.526	510.88
403.75	505.88
403.974	507.88
404.198	522.88
404.422	532.88
404.645	519.88
404.869	527.88
405.093	566.88
405.317	594.88
405.541	577.88
405.765	541.88
405.988	533.88
406.212	533.88
406.436	549.88
406.66	553.88
406.883	549.88
407.107	569.88
407.331	586.88
407.555	664.88
407.778	662.88
408.002	580.88
408.226	569.88
408.449	547.88
408.673	561.88
408.896	569.88
409.12	606.88
409.344	556.88
409.567	520.88
409.791	539.88
410.014	508.88
410.238	501.88
410.461	521.88
410.685	518.88
410.908	530.88
411.132	567.88
411.355	558.88
411.578	543.88
411.802	503.88
412.025	482.88
412.249	507.88
412.472	507.88
412.695	535.88
412.919	538.88
413.142	509.88
413.365	505.88
413.589	502.88
413.812	491.88
414.035	455.88
414.258	481.88
414.482	497.88
414.705	483.88
414.928	484.88
415.151	463.88
415.374	463.88
415.597	473.88
415.821	464.88
416.044	472.88
416.267	484.88
416.49	473.88
416.713	456.88
416.936	477.88
417.159	470.88
417.382	484.88
417.605	469.88
417.828	473.88
418.051	504.88
418.274	459.88
418.497	481.88
418.72	497.88
418.943	487.88
419.166	499.88
419.389	494.88
419.611	521.88
419.834	499.88
420.057	522.88
420.28	493.88
420.503	491.88
420.726	484.88
420.948	509.88
421.171	527.88
421.394	561.88
421.617	506.88
421.839	494.88
422.062	495.88
422.285	513.88
422.507	557.88
422.73	610.88
422.953	597.88
423.175	539.88
423.398	514.88
423.621	513.88
423.843	535.88
424.066	536.88
424.288	509.88
424.511	541.88
424.733	578.88
424.956	663.88
425.178	621.88
425.401	633.88
425.623	608.88
425.846	583.88
426.068	531.88
426.291	493.88
426.513	521.88
426.735	513.88
426.958	561.88
427.18	631.88
427.402	702.88
427.625	790.88
427.847	677.88
428.069	596.88
428.292	543.88
428.514	506.88
428.736	486.88
428.958	498.88
429.181	471.88
429.403	467.88
429.625	480.88
429.847	494.88
430.069	563.88
430.292	563.88
430.514	494.88
430.736	458.88
430.958	473.88
431.18	454.88
431.402	465.88
431.624	438.88
431.846	453.88
432.068	447.88
432.29	455.88
432.512	445.88
432.734	452.88
432.956	466.88
433.178	467.88
433.4	455.88
433.622	442.88
433.844	439.88
434.066	443.88
434.287	446.88
434.509	477.88
434.731	454.88
434.953	474.88
435.175	483.88
435.397	499.88
435.618	516.88
435.84	555.88
436.062	630.88
436.284	672.88
436.505	578.88
436.727	507.88
436.949	495.88
437.17	487.88
437.392	466.88
437.614	473.88
437.835	497.88
438.057	594.88
438.278	655.88
438.5	661.88
438.721	705.88
438.943	705.88
439.165	574.88
439.386	513.88
439.608	500.88
439.829	511.88
440.05	525.88
440.272	565.88
440.493	547.88
440.715	508.88
440.936	473.88
441.158	477.88
441.379	499.88
441.6	501.88
441.822	516.88
442.043	531.88
442.264	591.88
442.486	642.88
442.707	563.88
442.928	511.88
443.149	513.88
443.371	559.88
443.592	577.88
443.813	668.88
444.034	722.88
444.255	594.88
444.476	547.88
444.698	534.88
444.919	521.88
445.14	637.88
445.361	601.88
445.582	562.88
445.803	590.88
446.024	683.88
446.245	698.88
446.466	618.88
446.687	547.88
446.908	529.88
447.129	468.88
447.35	479.88
447.571	472.88
447.792	453.88
448.013	467.88
448.234	482.88
448.455	534.88
448.675	610.88
448.896	709.88
449.117	595.88
449.338	600.88
449.559	664.88
449.779	769.88
450	619.88
450.221	523.88
450.442	482.88
450.662	459.88
450.883	485.88
451.104	467.88
451.324	462.88
451.545	431.88
451.766	429.88
451.986	413.88
452.207	414.88
452.428	413.88
452.648	422.88
452.869	413.88
453.089	422.88
453.31	422.88
453.53	421.88
453.751	421.88
453.971	405.88
454.192	416.88
454.412	422.88
454.633	407.88
454.853	419.88
455.073	412.88
455.294	446.88
455.514	483.88
455.734	467.88
455.955	442.88
456.175	407.88
456.395	403.88
456.616	392.88
456.836	409.88
457.056	391.88
457.276	376.88
457.497	403.88
457.717	398.88
457.937	414.88
458.157	409.88
458.377	419.88
458.598	442.88
458.818	459.88
459.038	532.88
459.258	561.88
459.478	485.88
459.698	433.88
459.918	467.88
460.138	451.88
460.358	458.88
460.578	473.88
460.798	484.88
461.018	456.88
461.238	484.88
461.458	469.88
461.678	462.88
461.898	475.88
462.118	445.88
462.338	454.88
462.558	490.88
462.777	487.88
462.997	503.88
463.217	521.88
463.437	514.88
463.657	495.88
463.876	514.88
464.096	521.88
464.316	500.88
464.536	514.88
464.755	490.88
464.975	523.88
465.195	525.88
465.414	556.88
465.634	497.88
465.854	474.88
466.073	453.88
466.293	452.88
466.512	418.88
466.732	435.88
466.951	413.88
467.171	426.88
467.391	424.88
467.61	425.88
467.829	454.88
468.049	462.88
468.268	427.88
468.488	424.88
468.707	397.88
468.927	415.88
469.146	399.88
469.365	412.88
469.585	412.88
469.804	441.88
470.023	417.88
470.243	398.88
470.462	433.88
470.681	459.88
470.901	446.88
471.12	441.88
471.339	458.88
471.558	429.88
471.777	413.88
471.997	433.88
472.216	420.88
472.435	451.88
472.654	436.88
472.873	437.88
473.092	448.88
473.311	409.88
473.53	412.88
473.749	441.88
473.968	462.88
474.187	545.88
474.406	573.88
474.625	470.88
474.844	451.88
475.063	441.88
475.282	411.88
475.501	438.88
475.72	439.88
475.939	436.88
476.158	428.88
476.377	441.88
476.596	429.88
476.814	455.88
477.033	459.88
477.252	462.88
477.471	468.88
477.69	458.88
477.908	459.88
478.127	478.88
478.346	464.88
478.564	485.88
478.783	486.88
479.002	482.88
479.22	482.88
479.439	511.88
479.658	490.88
479.876	527.88
480.095	525.88
480.313	562.88
480.532	569.88
480.751	537.88
480.969	540.88
481.188	575.88
481.406	579.88
481.624	556.88
481.843	511.88
482.061	506.88
482.28	511.88
482.498	488.88
482.717	483.88
482.935	512.88
483.153	498.88
483.372	495.88
483.59	486.88
483.808	510.88
484.027	502.88
484.245	492.88
484.463	485.88
484.681	502.88
484.9	517.88
485.118	505.88
485.336	519.88
485.554	500.88
485.772	525.88
485.99	501.88
486.209	505.88
486.427	510.88
486.645	520.88
486.863	555.88
487.081	523.88
487.299	535.88
487.517	540.88
487.735	529.88
487.953	523.88
488.171	525.88
488.389	537.88
488.607	539.88
488.825	510.88
489.043	524.88
489.261	520.88
489.479	545.88
489.696	537.88
489.914	547.88
490.132	553.88
490.35	533.88
490.568	550.88
490.786	554.88
491.003	563.88
491.221	572.88
491.439	582.88
491.657	582.88
491.874	599.88
492.092	576.88
492.31	598.88
492.527	596.88
492.745	586.88
492.963	588.88
493.18	606.88
493.398	588.88
493.615	595.88
493.833	620.88
494.05	620.88
494.268	625.88
494.485	612.88
494.703	608.88
494.92	605.88
495.138	626.88
495.355	624.88
495.573	638.88
495.79	628.88
496.008	610.88
496.225	594.88
496.442	610.88
496.66	609.88
496.877	631.88
497.094	637.88
497.312	611.88
497.529	636.88
497.746	645.88
497.963	649.88
498.181	689.88
498.398	699.88
498.615	700.88
498.832	724.88
499.049	757.88
499.267	780.88
499.484	773.88
499.701	812.88
499.918	869.88
500.135	923.88
500.352	937.88
500.569	982.88
500.786	943.88
501.003	931.88
501.22	922.88
501.437	886.88
501.654	830.88
501.871	844.88
