Data from 1977.PennyLincolnUp.Lamp.En5.5.200Scan.071719.P1_HRD10591_16-06-47-865.txt Node
Date: Thu Jul 18 16:06:47 EDT 2019
User: cochatt
Spectrometer: HR+D1059
Trigger mode: 1
Integration Time (sec): 1.000000E-1
Scans to average: 1
Electric dark correction enabled: true
Nonlinearity correction enabled: false
Boxcar width: 0
XAxis mode: Wavelengths
Number of Pixels in Spectrum: 2048
>>>>>Begin Spectral Data<<<<<
223.165	-19.06
223.4	-19.06
223.635	-19.06
223.869	-35.06
224.104	-22.06
224.338	-12.06
224.573	-12.06
224.808	-4.06
225.042	-7.06
225.277	5.94
225.511	3.94
225.746	-7.06
225.98	7.94
226.215	20.94
226.449	11.94
226.683	21.94
226.918	22.94
227.152	22.94
227.387	29.94
227.621	47.94
227.856	53.94
228.09	54.94
228.324	43.94
228.559	46.94
228.793	81.94
229.027	86.94
229.262	89.94
229.496	98.94
229.73	130.94
229.964	145.94
230.199	114.94
230.433	105.94
230.667	107.94
230.901	112.94
231.136	107.94
231.37	126.94
231.604	97.94
231.838	116.94
232.072	107.94
232.306	106.94
232.541	110.94
232.775	109.94
233.009	110.94
233.243	129.94
233.477	122.94
233.711	120.94
233.945	115.94
234.179	124.94
234.413	107.94
234.647	107.94
234.881	112.94
235.115	123.94
235.349	114.94
235.583	110.94
235.817	108.94
236.051	130.94
236.285	126.94
236.519	120.94
236.753	139.94
236.987	131.94
237.221	156.94
237.455	211.94
237.689	171.94
237.922	140.94
238.156	136.94
238.39	127.94
238.624	138.94
238.858	136.94
239.091	126.94
239.325	122.94
239.559	133.94
239.793	134.94
240.027	148.94
240.26	136.94
240.494	151.94
240.728	151.94
240.961	151.94
241.195	136.94
241.429	140.94
241.662	132.94
241.896	138.94
242.13	125.94
242.363	131.94
242.597	148.94
242.83	141.94
243.064	162.94
243.298	151.94
243.531	143.94
243.765	148.94
243.998	150.94
244.232	154.94
244.465	139.94
244.699	145.94
244.932	156.94
245.166	155.94
245.399	151.94
245.633	148.94
245.866	138.94
246.099	158.94
246.333	155.94
246.566	166.94
246.8	151.94
247.033	170.94
247.266	166.94
247.5	164.94
247.733	159.94
247.966	163.94
248.2	172.94
248.433	182.94
248.666	186.94
248.899	189.94
249.133	179.94
249.366	198.94
249.599	170.94
249.832	195.94
250.066	169.94
250.299	183.94
250.532	190.94
250.765	208.94
250.998	214.94
251.231	219.94
251.465	208.94
251.698	212.94
251.931	210.94
252.164	189.94
252.397	188.94
252.63	213.94
252.863	200.94
253.096	200.94
253.329	214.94
253.562	225.94
253.795	216.94
254.028	206.94
254.261	234.94
254.494	215.94
254.727	248.94
254.96	254.94
255.193	256.94
255.426	235.94
255.659	242.94
255.892	230.94
256.124	212.94
256.357	222.94
256.59	220.94
256.823	208.94
257.056	203.94
257.289	216.94
257.521	192.94
257.754	206.94
257.987	213.94
258.22	206.94
258.452	206.94
258.685	212.94
258.918	208.94
259.151	237.94
259.383	214.94
259.616	224.94
259.849	215.94
260.081	235.94
260.314	223.94
260.547	255.94
260.779	233.94
261.012	236.94
261.244	238.94
261.477	222.94
261.71	217.94
261.942	214.94
262.175	226.94
262.407	220.94
262.64	228.94
262.872	230.94
263.105	230.94
263.337	230.94
263.57	224.94
263.802	216.94
264.035	216.94
264.267	249.94
264.499	228.94
264.732	217.94
264.964	225.94
265.197	222.94
265.429	222.94
265.661	230.94
265.894	227.94
266.126	238.94
266.358	226.94
266.591	235.94
266.823	252.94
267.055	236.94
267.287	250.94
267.52	230.94
267.752	233.94
267.984	217.94
268.216	231.94
268.448	238.94
268.681	232.94
268.913	242.94
269.145	276.94
269.377	278.94
269.609	271.94
269.841	284.94
270.073	282.94
270.306	287.94
270.538	313.94
270.77	309.94
271.002	295.94
271.234	293.94
271.466	303.94
271.698	312.94
271.93	324.94
272.162	315.94
272.394	330.94
272.626	316.94
272.858	297.94
273.09	284.94
273.322	270.94
273.553	278.94
273.785	272.94
274.017	284.94
274.249	295.94
274.481	258.94
274.713	287.94
274.945	274.94
275.176	284.94
275.408	293.94
275.64	275.94
275.872	267.94
276.104	273.94
276.335	279.94
276.567	291.94
276.799	309.94
277.031	314.94
277.262	319.94
277.494	314.94
277.726	323.94
277.957	316.94
278.189	299.94
278.421	276.94
278.652	284.94
278.884	278.94
279.115	290.94
279.347	268.94
279.579	296.94
279.81	267.94
280.042	287.94
280.273	281.94
280.505	271.94
280.736	280.94
280.968	293.94
281.199	285.94
281.431	282.94
281.662	280.94
281.894	276.94
282.125	286.94
282.356	313.94
282.588	321.94
282.819	304.94
283.051	309.94
283.282	286.94
283.513	294.94
283.745	281.94
283.976	292.94
284.207	291.94
284.439	308.94
284.67	317.94
284.901	310.94
285.132	300.94
285.364	274.94
285.595	298.94
285.826	306.94
286.057	309.94
286.288	310.94
286.52	298.94
286.751	303.94
286.982	288.94
287.213	304.94
287.444	311.94
287.675	311.94
287.906	298.94
288.138	332.94
288.369	317.94
288.6	331.94
288.831	322.94
289.062	334.94
289.293	310.94
289.524	337.94
289.755	301.94
289.986	311.94
290.217	296.94
290.448	324.94
290.679	306.94
290.91	323.94
291.141	313.94
291.371	320.94
291.602	319.94
291.833	310.94
292.064	311.94
292.295	314.94
292.526	316.94
292.757	314.94
292.987	320.94
293.218	292.94
293.449	319.94
293.68	318.94
293.91	298.94
294.141	329.94
294.372	310.94
294.603	312.94
294.833	302.94
295.064	323.94
295.295	316.94
295.525	316.94
295.756	323.94
295.987	334.94
296.217	348.94
296.448	340.94
296.679	324.94
296.909	338.94
297.14	335.94
297.37	337.94
297.601	339.94
297.831	317.94
298.062	318.94
298.292	315.94
298.523	334.94
298.753	334.94
298.984	331.94
299.214	361.94
299.445	328.94
299.675	338.94
299.905	333.94
300.136	354.94
300.366	329.94
300.597	349.94
300.827	338.94
301.057	339.94
301.288	348.94
301.518	346.94
301.748	342.94
301.979	353.94
302.209	349.94
302.439	350.94
302.669	371.94
302.9	368.94
303.13	330.94
303.36	352.94
303.59	356.94
303.82	376.94
304.051	354.94
304.281	376.94
304.511	360.94
304.741	351.94
304.971	350.94
305.201	356.94
305.431	344.94
305.661	342.94
305.891	363.94
306.121	374.94
306.352	361.94
306.582	360.94
306.812	350.94
307.042	350.94
307.272	351.94
307.502	362.94
307.731	376.94
307.961	372.94
308.191	356.94
308.421	355.94
308.651	324.94
308.881	368.94
309.111	375.94
309.341	368.94
309.571	354.94
309.8	385.94
310.03	390.94
310.26	404.94
310.49	370.94
310.72	391.94
310.949	404.94
311.179	392.94
311.409	408.94
311.639	397.94
311.868	391.94
312.098	398.94
312.328	373.94
312.557	405.94
312.787	412.94
313.017	424.94
313.246	406.94
313.476	395.94
313.706	394.94
313.935	406.94
314.165	440.94
314.394	407.94
314.624	413.94
314.853	396.94
315.083	412.94
315.312	384.94
315.542	397.94
315.771	402.94
316.001	393.94
316.23	408.94
316.46	388.94
316.689	407.94
316.919	386.94
317.148	388.94
317.377	398.94
317.607	401.94
317.836	414.94
318.065	388.94
318.295	384.94
318.524	412.94
318.753	394.94
318.983	403.94
319.212	388.94
319.441	405.94
319.67	412.94
319.9	388.94
320.129	418.94
320.358	395.94
320.587	404.94
320.816	400.94
321.046	407.94
321.275	401.94
321.504	418.94
321.733	426.94
321.962	426.94
322.191	442.94
322.42	441.94
322.649	460.94
322.878	462.94
323.108	455.94
323.337	483.94
323.566	494.94
323.795	518.94
324.024	538.94
324.253	633.94
324.482	850.94
324.71	1290.94
324.939	1780.94
325.168	1523.94
325.397	823.94
325.626	592.94
325.855	534.94
326.084	528.94
326.313	480.94
326.542	501.94
326.77	508.94
326.999	605.94
327.228	797.94
327.457	1149.94
327.686	1343.94
327.914	927.94
328.143	631.94
328.372	567.94
328.6	549.94
328.829	528.94
329.058	542.94
329.287	552.94
329.515	516.94
329.744	488.94
329.972	501.94
330.201	509.94
330.43	541.94
330.658	546.94
330.887	564.94
331.115	548.94
331.344	496.94
331.572	499.94
331.801	489.94
332.03	497.94
332.258	474.94
332.486	477.94
332.715	474.94
332.943	484.94
333.172	485.94
333.4	486.94
333.629	482.94
333.857	479.94
334.085	495.94
334.314	500.94
334.542	517.94
334.771	526.94
334.999	504.94
335.227	484.94
335.455	507.94
335.684	467.94
335.912	482.94
336.14	443.94
336.369	471.94
336.597	489.94
336.825	462.94
337.053	465.94
337.281	470.94
337.51	457.94
337.738	460.94
337.966	458.94
338.194	450.94
338.422	476.94
338.65	458.94
338.878	454.94
339.106	459.94
339.334	459.94
339.562	443.94
339.79	441.94
340.018	458.94
340.246	451.94
340.474	443.94
340.702	429.94
340.93	457.94
341.158	454.94
341.386	460.94
341.614	422.94
341.842	435.94
342.07	409.94
342.298	436.94
342.526	440.94
342.754	426.94
342.981	417.94
343.209	431.94
343.437	446.94
343.665	436.94
343.893	436.94
344.12	472.94
344.348	465.94
344.576	437.94
344.804	451.94
345.031	439.94
345.259	457.94
345.487	455.94
345.714	463.94
345.942	437.94
346.17	418.94
346.397	429.94
346.625	408.94
346.853	396.94
347.08	422.94
347.308	443.94
347.535	429.94
347.763	443.94
347.99	421.94
348.218	410.94
348.445	416.94
348.673	430.94
348.9	420.94
349.128	432.94
349.355	408.94
349.583	419.94
349.81	417.94
350.037	406.94
350.265	414.94
350.492	412.94
350.72	392.94
350.947	397.94
351.174	431.94
351.402	421.94
351.629	416.94
351.856	421.94
352.083	407.94
352.311	405.94
352.538	424.94
352.765	426.94
352.992	406.94
353.22	429.94
353.447	399.94
353.674	419.94
353.901	412.94
354.128	406.94
354.355	396.94
354.583	391.94
354.81	379.94
355.037	409.94
355.264	367.94
355.491	388.94
355.718	386.94
355.945	390.94
356.172	401.94
356.399	383.94
356.626	398.94
356.853	399.94
357.08	393.94
357.307	387.94
357.534	381.94
357.761	384.94
357.988	395.94
358.215	373.94
358.441	400.94
358.668	380.94
358.895	386.94
359.122	390.94
359.349	408.94
359.576	407.94
359.802	431.94
360.029	437.94
360.256	446.94
360.483	416.94
360.709	428.94
360.936	412.94
361.163	429.94
361.39	414.94
361.616	406.94
361.843	416.94
362.07	406.94
362.296	413.94
362.523	383.94
362.749	410.94
362.976	406.94
363.203	379.94
363.429	408.94
363.656	402.94
363.882	391.94
364.109	406.94
364.335	415.94
364.562	403.94
364.788	403.94
365.015	407.94
365.241	388.94
365.468	383.94
365.694	396.94
365.92	394.94
366.147	382.94
366.373	393.94
366.599	386.94
366.826	393.94
367.052	382.94
367.278	387.94
367.505	399.94
367.731	376.94
367.957	389.94
368.184	398.94
368.41	406.94
368.636	408.94
368.862	405.94
369.089	390.94
369.315	390.94
369.541	397.94
369.767	388.94
369.993	383.94
370.219	393.94
370.445	405.94
370.672	398.94
370.898	401.94
371.124	389.94
371.35	385.94
371.576	389.94
371.802	389.94
372.028	413.94
372.254	404.94
372.48	408.94
372.706	397.94
372.932	416.94
373.158	374.94
373.384	386.94
373.61	410.94
373.835	374.94
374.061	395.94
374.287	406.94
374.513	408.94
374.739	420.94
374.965	403.94
375.191	406.94
375.416	398.94
375.642	404.94
375.868	398.94
376.094	400.94
376.319	379.94
376.545	396.94
376.771	397.94
376.997	406.94
377.222	374.94
377.448	383.94
377.674	394.94
377.899	390.94
378.125	381.94
378.35	388.94
378.576	368.94
378.802	398.94
379.027	393.94
379.253	375.94
379.478	389.94
379.704	377.94
379.929	371.94
380.155	408.94
380.38	376.94
380.606	405.94
380.831	385.94
381.057	409.94
381.282	393.94
381.507	391.94
381.733	376.94
381.958	394.94
382.184	388.94
382.409	398.94
382.634	404.94
382.86	399.94
383.085	399.94
383.31	397.94
383.535	401.94
383.761	416.94
383.986	411.94
384.211	423.94
384.436	400.94
384.662	417.94
384.887	408.94
385.112	424.94
385.337	414.94
385.562	415.94
385.787	416.94
386.013	438.94
386.238	431.94
386.463	460.94
386.688	434.94
386.913	421.94
387.138	424.94
387.363	436.94
387.588	427.94
387.813	440.94
388.038	429.94
388.263	409.94
388.488	411.94
388.713	426.94
388.938	439.94
389.163	401.94
389.387	421.94
389.612	404.94
389.837	427.94
390.062	419.94
390.287	411.94
390.512	446.94
390.736	429.94
390.961	415.94
391.186	418.94
391.411	454.94
391.636	434.94
391.86	446.94
392.085	463.94
392.31	444.94
392.534	439.94
392.759	452.94
392.984	415.94
393.208	438.94
393.433	439.94
393.658	424.94
393.882	413.94
394.107	416.94
394.331	439.94
394.556	415.94
394.78	445.94
395.005	429.94
395.229	448.94
395.454	443.94
395.678	443.94
395.903	458.94
396.127	484.94
396.352	469.94
396.576	455.94
396.801	435.94
397.025	450.94
397.249	434.94
397.474	448.94
397.698	453.94
397.922	474.94
398.147	480.94
398.371	478.94
398.595	485.94
398.82	487.94
399.044	489.94
399.268	521.94
399.492	559.94
399.717	590.94
399.941	596.94
400.165	586.94
400.389	605.94
400.613	569.94
400.837	494.94
401.062	515.94
401.286	489.94
401.51	496.94
401.734	474.94
401.958	493.94
402.182	488.94
402.406	515.94
402.63	484.94
402.854	507.94
403.078	500.94
403.302	511.94
403.526	506.94
403.75	506.94
403.974	527.94
404.198	500.94
404.422	509.94
404.645	506.94
404.869	503.94
405.093	524.94
405.317	583.94
405.541	571.94
405.765	558.94
405.988	534.94
406.212	542.94
406.436	542.94
406.66	544.94
406.883	527.94
407.107	567.94
407.331	628.94
407.555	657.94
407.778	658.94
408.002	599.94
408.226	572.94
408.449	550.94
408.673	560.94
408.896	570.94
409.12	590.94
409.344	568.94
409.567	515.94
409.791	522.94
410.014	526.94
410.238	508.94
410.461	521.94
410.685	511.94
410.908	523.94
411.132	547.94
411.355	567.94
411.578	551.94
411.802	501.94
412.025	522.94
412.249	490.94
412.472	540.94
412.695	549.94
412.919	516.94
413.142	495.94
413.365	492.94
413.589	480.94
413.812	500.94
414.035	487.94
414.258	472.94
414.482	473.94
414.705	476.94
414.928	472.94
415.151	462.94
415.374	461.94
415.597	464.94
415.821	464.94
416.044	474.94
416.267	477.94
416.49	473.94
416.713	459.94
416.936	482.94
417.159	465.94
417.382	476.94
417.605	473.94
417.828	455.94
418.051	483.94
418.274	475.94
418.497	472.94
418.72	477.94
418.943	454.94
419.166	468.94
419.389	493.94
419.611	493.94
419.834	509.94
420.057	505.94
420.28	492.94
420.503	494.94
420.726	469.94
420.948	492.94
421.171	529.94
421.394	564.94
421.617	530.94
421.839	490.94
422.062	499.94
422.285	502.94
422.507	528.94
422.73	594.94
422.953	587.94
423.175	524.94
423.398	494.94
423.621	498.94
423.843	526.94
424.066	532.94
424.288	522.94
424.511	543.94
424.733	593.94
424.956	655.94
425.178	612.94
425.401	621.94
425.623	620.94
425.846	551.94
426.068	499.94
426.291	483.94
426.513	524.94
426.735	510.94
426.958	548.94
427.18	623.94
427.402	730.94
427.625	802.94
427.847	681.94
428.069	592.94
428.292	527.94
428.514	496.94
428.736	469.94
428.958	465.94
429.181	438.94
429.403	459.94
429.625	465.94
429.847	524.94
430.069	573.94
430.292	559.94
430.514	494.94
430.736	490.94
430.958	455.94
431.18	463.94
431.402	441.94
431.624	435.94
431.846	429.94
432.068	474.94
432.29	449.94
432.512	463.94
432.734	443.94
432.956	462.94
433.178	455.94
433.4	440.94
433.622	443.94
433.844	466.94
434.066	442.94
434.287	438.94
434.509	462.94
434.731	468.94
434.953	464.94
435.175	488.94
435.397	499.94
435.618	517.94
435.84	546.94
436.062	627.94
436.284	668.94
436.505	571.94
436.727	518.94
436.949	469.94
437.17	454.94
437.392	457.94
437.614	468.94
437.835	477.94
438.057	590.94
438.278	663.94
438.5	658.94
438.721	707.94
438.943	713.94
439.165	555.94
439.386	529.94
439.608	521.94
439.829	487.94
440.05	513.94
440.272	524.94
440.493	515.94
440.715	500.94
440.936	487.94
441.158	476.94
441.379	460.94
441.6	495.94
441.822	516.94
442.043	546.94
442.264	596.94
442.486	637.94
442.707	550.94
442.928	522.94
443.149	530.94
443.371	563.94
443.592	591.94
443.813	664.94
444.034	709.94
444.255	587.94
444.476	532.94
444.698	537.94
444.919	544.94
445.14	644.94
445.361	571.94
445.582	546.94
445.803	583.94
446.024	650.94
446.245	674.94
446.466	607.94
446.687	528.94
446.908	496.94
447.129	496.94
447.35	469.94
447.571	444.94
447.792	445.94
448.013	473.94
448.234	472.94
448.455	487.94
448.675	605.94
448.896	703.94
449.117	592.94
449.338	579.94
449.559	664.94
449.779	725.94
450	599.94
450.221	510.94
450.442	456.94
450.662	447.94
450.883	461.94
451.104	448.94
451.324	424.94
451.545	432.94
451.766	436.94
451.986	427.94
452.207	416.94
452.428	428.94
452.648	421.94
452.869	434.94
453.089	411.94
453.31	432.94
453.53	414.94
453.751	397.94
453.971	405.94
454.192	398.94
454.412	389.94
454.633	397.94
454.853	418.94
455.073	400.94
455.294	442.94
455.514	456.94
455.734	479.94
455.955	405.94
456.175	383.94
456.395	383.94
456.616	388.94
456.836	412.94
457.056	392.94
457.276	397.94
457.497	405.94
457.717	390.94
457.937	406.94
458.157	392.94
458.377	404.94
458.598	426.94
458.818	475.94
459.038	511.94
459.258	539.94
459.478	469.94
459.698	436.94
459.918	459.94
460.138	436.94
460.358	447.94
460.578	470.94
460.798	451.94
461.018	455.94
461.238	459.94
461.458	491.94
461.678	444.94
461.898	466.94
462.118	443.94
462.338	465.94
462.558	478.94
462.777	505.94
462.997	522.94
463.217	509.94
463.437	517.94
463.657	519.94
463.876	475.94
464.096	504.94
464.316	497.94
464.536	498.94
464.755	494.94
464.975	488.94
465.195	508.94
465.414	523.94
465.634	487.94
465.854	447.94
466.073	452.94
466.293	431.94
466.512	424.94
466.732	439.94
466.951	419.94
467.171	415.94
467.391	430.94
467.61	431.94
467.829	407.94
468.049	410.94
468.268	414.94
468.488	426.94
468.707	391.94
468.927	416.94
469.146	405.94
469.365	432.94
469.585	418.94
469.804	417.94
470.023	424.94
470.243	432.94
470.462	416.94
470.681	446.94
470.901	442.94
471.12	430.94
471.339	414.94
471.558	424.94
471.777	438.94
471.997	436.94
472.216	437.94
472.435	428.94
472.654	418.94
472.873	421.94
473.092	422.94
473.311	407.94
473.53	418.94
473.749	438.94
473.968	467.94
474.187	550.94
474.406	531.94
474.625	473.94
474.844	447.94
475.063	429.94
475.282	418.94
475.501	430.94
475.72	427.94
475.939	440.94
476.158	435.94
476.377	429.94
476.596	441.94
476.814	438.94
477.033	460.94
477.252	470.94
477.471	477.94
477.69	471.94
477.908	474.94
478.127	464.94
478.346	470.94
478.564	466.94
478.783	486.94
479.002	474.94
479.22	476.94
479.439	503.94
479.658	490.94
479.876	506.94
480.095	518.94
480.313	542.94
480.532	528.94
480.751	542.94
480.969	549.94
481.188	543.94
481.406	548.94
481.624	538.94
481.843	505.94
482.061	514.94
482.28	506.94
482.498	501.94
482.717	489.94
482.935	480.94
483.153	484.94
483.372	482.94
483.59	478.94
483.808	461.94
484.027	488.94
484.245	466.94
484.463	477.94
484.681	497.94
484.9	487.94
485.118	502.94
485.336	492.94
485.554	485.94
485.772	504.94
485.99	491.94
486.209	507.94
486.427	508.94
486.645	515.94
486.863	527.94
487.081	518.94
487.299	532.94
487.517	504.94
487.735	511.94
487.953	506.94
488.171	504.94
488.389	535.94
488.607	522.94
488.825	527.94
489.043	534.94
489.261	550.94
489.479	539.94
489.696	515.94
489.914	541.94
490.132	532.94
490.35	535.94
490.568	548.94
490.786	556.94
491.003	558.94
491.221	560.94
491.439	547.94
491.657	578.94
491.874	565.94
492.092	574.94
492.31	592.94
492.527	584.94
492.745	612.94
492.963	595.94
493.18	610.94
493.398	593.94
493.615	607.94
493.833	574.94
494.05	604.94
494.268	614.94
494.485	581.94
494.703	618.94
494.92	600.94
495.138	619.94
495.355	619.94
495.573	604.94
495.79	605.94
496.008	620.94
496.225	594.94
496.442	603.94
496.66	615.94
496.877	630.94
497.094	612.94
497.312	631.94
497.529	646.94
497.746	640.94
497.963	671.94
498.181	684.94
498.398	659.94
498.615	714.94
498.832	715.94
499.049	714.94
499.267	741.94
499.484	770.94
499.701	810.94
499.918	879.94
500.135	926.94
500.352	913.94
500.569	950.94
500.786	962.94
501.003	942.94
501.22	898.94
501.437	869.94
501.654	840.94
501.871	818.94
502.088	769.94
