Data from 1977.PennyLincolnUp.Lamp.En5.5.200Scan.071719.P1_HRD10591_16-05-13-876.txt Node
Date: Thu Jul 18 16:05:13 EDT 2019
User: cochatt
Spectrometer: HR+D1059
Trigger mode: 1
Integration Time (sec): 1.000000E-1
Scans to average: 1
Electric dark correction enabled: true
Nonlinearity correction enabled: false
Boxcar width: 0
XAxis mode: Wavelengths
Number of Pixels in Spectrum: 2048
>>>>>Begin Spectral Data<<<<<
223.165	-12.81
223.4	-12.81
223.635	-12.81
223.869	-22.81
224.104	-7.81
224.338	-18.81
224.573	-12.81
224.808	1.19
225.042	-18.81
225.277	-8.81
225.511	7.19
225.746	-16.81
225.98	15.19
226.215	16.19
226.449	20.19
226.683	18.19
226.918	10.19
227.152	31.19
227.387	30.19
227.621	55.19
227.856	38.19
228.09	39.19
228.324	39.19
228.559	66.19
228.793	70.19
229.027	78.19
229.262	106.19
229.496	97.19
229.73	109.19
229.964	119.19
230.199	127.19
230.433	103.19
230.667	111.19
230.901	117.19
231.136	99.19
231.37	99.19
231.604	114.19
231.838	98.19
232.072	95.19
232.306	96.19
232.541	102.19
232.775	102.19
233.009	104.19
233.243	102.19
233.477	102.19
233.711	102.19
233.945	119.19
234.179	108.19
234.413	122.19
234.647	102.19
234.881	119.19
235.115	121.19
235.349	114.19
235.583	117.19
235.817	116.19
236.051	128.19
236.285	102.19
236.519	108.19
236.753	104.19
236.987	125.19
237.221	142.19
237.455	178.19
237.689	143.19
237.922	114.19
238.156	127.19
238.39	112.19
238.624	100.19
238.858	122.19
239.091	121.19
239.325	110.19
239.559	117.19
239.793	133.19
240.027	116.19
240.26	132.19
240.494	155.19
240.728	141.19
240.961	135.19
241.195	121.19
241.429	134.19
241.662	132.19
241.896	118.19
242.13	133.19
242.363	135.19
242.597	126.19
242.83	132.19
243.064	126.19
243.298	133.19
243.531	126.19
243.765	124.19
243.998	137.19
244.232	137.19
244.465	125.19
244.699	135.19
244.932	132.19
245.166	132.19
245.399	133.19
245.633	132.19
245.866	155.19
246.099	142.19
246.333	145.19
246.566	155.19
246.8	142.19
247.033	134.19
247.266	151.19
247.5	154.19
247.733	170.19
247.966	157.19
248.2	146.19
248.433	157.19
248.666	149.19
248.899	151.19
249.133	159.19
249.366	181.19
249.599	173.19
249.832	172.19
250.066	173.19
250.299	163.19
250.532	175.19
250.765	180.19
250.998	184.19
251.231	179.19
251.465	194.19
251.698	167.19
251.931	178.19
252.164	172.19
252.397	188.19
252.63	175.19
252.863	188.19
253.096	188.19
253.329	205.19
253.562	185.19
253.795	201.19
254.028	192.19
254.261	187.19
254.494	216.19
254.727	228.19
254.96	221.19
255.193	228.19
255.426	216.19
255.659	204.19
255.892	190.19
256.124	199.19
256.357	210.19
256.59	196.19
256.823	203.19
257.056	183.19
257.289	191.19
257.521	190.19
257.754	191.19
257.987	210.19
258.22	192.19
258.452	190.19
258.685	191.19
258.918	189.19
259.151	184.19
259.383	206.19
259.616	191.19
259.849	210.19
260.081	212.19
260.314	210.19
260.547	212.19
260.779	204.19
261.012	216.19
261.244	212.19
261.477	225.19
261.71	203.19
261.942	207.19
262.175	204.19
262.407	217.19
262.64	219.19
262.872	213.19
263.105	200.19
263.337	216.19
263.57	222.19
263.802	204.19
264.035	203.19
264.267	194.19
264.499	198.19
264.732	198.19
264.964	213.19
265.197	215.19
265.429	208.19
265.661	201.19
265.894	218.19
266.126	236.19
266.358	220.19
266.591	221.19
266.823	230.19
267.055	213.19
267.287	219.19
267.52	216.19
267.752	222.19
267.984	221.19
268.216	215.19
268.448	231.19
268.681	235.19
268.913	231.19
269.145	230.19
269.377	258.19
269.609	250.19
269.841	266.19
270.073	256.19
270.306	244.19
270.538	272.19
270.77	274.19
271.002	243.19
271.234	248.19
271.466	283.19
271.698	278.19
271.93	272.19
272.162	291.19
272.394	267.19
272.626	247.19
272.858	258.19
273.09	258.19
273.322	246.19
273.553	262.19
273.785	239.19
274.017	256.19
274.249	239.19
274.481	247.19
274.713	258.19
274.945	272.19
275.176	265.19
275.408	260.19
275.64	263.19
275.872	262.19
276.104	260.19
276.335	261.19
276.567	249.19
276.799	253.19
277.031	272.19
277.262	303.19
277.494	294.19
277.726	259.19
277.957	278.19
278.189	278.19
278.421	267.19
278.652	250.19
278.884	246.19
279.115	260.19
279.347	262.19
279.579	261.19
279.81	274.19
280.042	265.19
280.273	272.19
280.505	263.19
280.736	275.19
280.968	262.19
281.199	277.19
281.431	261.19
281.662	283.19
281.894	288.19
282.125	259.19
282.356	265.19
282.588	297.19
282.819	292.19
283.051	251.19
283.282	256.19
283.513	275.19
283.745	263.19
283.976	268.19
284.207	293.19
284.439	291.19
284.67	295.19
284.901	290.19
285.132	280.19
285.364	281.19
285.595	258.19
285.826	268.19
286.057	283.19
286.288	286.19
286.52	262.19
286.751	291.19
286.982	282.19
287.213	286.19
287.444	276.19
287.675	289.19
287.906	296.19
288.138	302.19
288.369	289.19
288.6	306.19
288.831	295.19
289.062	302.19
289.293	303.19
289.524	286.19
289.755	295.19
289.986	298.19
290.217	316.19
290.448	300.19
290.679	302.19
290.91	291.19
291.141	293.19
291.371	306.19
291.602	292.19
291.833	302.19
292.064	306.19
292.295	291.19
292.526	294.19
292.757	273.19
292.987	290.19
293.218	275.19
293.449	283.19
293.68	290.19
293.91	298.19
294.141	298.19
294.372	289.19
294.603	291.19
294.833	256.19
295.064	300.19
295.295	306.19
295.525	321.19
295.756	327.19
295.987	293.19
296.217	298.19
296.448	300.19
296.679	302.19
296.909	309.19
297.14	289.19
297.37	308.19
297.601	299.19
297.831	296.19
298.062	290.19
298.292	314.19
298.523	308.19
298.753	320.19
298.984	301.19
299.214	316.19
299.445	322.19
299.675	298.19
299.905	289.19
300.136	313.19
300.366	308.19
300.597	318.19
300.827	327.19
301.057	342.19
301.288	316.19
301.518	332.19
301.748	323.19
301.979	333.19
302.209	328.19
302.439	332.19
302.669	330.19
302.9	333.19
303.13	319.19
303.36	325.19
303.59	336.19
303.82	332.19
304.051	343.19
304.281	344.19
304.511	331.19
304.741	326.19
304.971	332.19
305.201	322.19
305.431	322.19
305.661	333.19
305.891	330.19
306.121	315.19
306.352	324.19
306.582	303.19
306.812	322.19
307.042	323.19
307.272	325.19
307.502	334.19
307.731	318.19
307.961	318.19
308.191	320.19
308.421	330.19
308.651	325.19
308.881	339.19
309.111	323.19
309.341	340.19
309.571	338.19
309.8	333.19
310.03	351.19
310.26	350.19
310.49	344.19
310.72	358.19
310.949	363.19
311.179	363.19
311.409	350.19
311.639	354.19
311.868	368.19
312.098	365.19
312.328	358.19
312.557	363.19
312.787	390.19
313.017	382.19
313.246	355.19
313.476	358.19
313.706	353.19
313.935	360.19
314.165	370.19
314.394	374.19
314.624	366.19
314.853	363.19
315.083	370.19
315.312	366.19
315.542	362.19
315.771	375.19
316.001	355.19
316.23	349.19
316.46	374.19
316.689	384.19
316.919	362.19
317.148	353.19
317.377	380.19
317.607	373.19
317.836	348.19
318.065	349.19
318.295	362.19
318.524	364.19
318.753	357.19
318.983	367.19
319.212	344.19
319.441	362.19
319.67	386.19
319.9	376.19
320.129	379.19
320.358	358.19
320.587	370.19
320.816	355.19
321.046	361.19
321.275	381.19
321.504	371.19
321.733	372.19
321.962	360.19
322.191	392.19
322.42	389.19
322.649	401.19
322.878	403.19
323.108	409.19
323.337	416.19
323.566	438.19
323.795	432.19
324.024	451.19
324.253	523.19
324.482	674.19
324.71	998.19
324.939	1325.19
325.168	1170.19
325.397	641.19
325.626	492.19
325.855	441.19
326.084	397.19
326.313	419.19
326.542	428.19
326.77	472.19
326.999	519.19
327.228	648.19
327.457	892.19
327.686	997.19
327.914	718.19
328.143	542.19
328.372	487.19
328.6	452.19
328.829	457.19
329.058	429.19
329.287	462.19
329.515	436.19
329.744	408.19
329.972	437.19
330.201	453.19
330.43	453.19
330.658	449.19
330.887	472.19
331.115	461.19
331.344	434.19
331.572	436.19
331.801	426.19
332.03	445.19
332.258	432.19
332.486	429.19
332.715	430.19
332.943	439.19
333.172	428.19
333.4	431.19
333.629	436.19
333.857	459.19
334.085	444.19
334.314	451.19
334.542	461.19
334.771	472.19
334.999	466.19
335.227	454.19
335.455	432.19
335.684	447.19
335.912	434.19
336.14	432.19
336.369	453.19
336.597	434.19
336.825	420.19
337.053	418.19
337.281	443.19
337.51	432.19
337.738	441.19
337.966	415.19
338.194	416.19
338.422	416.19
338.65	434.19
338.878	423.19
339.106	406.19
339.334	418.19
339.562	408.19
339.79	416.19
340.018	435.19
340.246	390.19
340.474	408.19
340.702	404.19
340.93	411.19
341.158	409.19
341.386	406.19
341.614	412.19
341.842	404.19
342.07	398.19
342.298	400.19
342.526	405.19
342.754	409.19
342.981	393.19
343.209	396.19
343.437	390.19
343.665	407.19
343.893	417.19
344.12	426.19
344.348	436.19
344.576	394.19
344.804	406.19
345.031	412.19
345.259	416.19
345.487	381.19
345.714	403.19
345.942	407.19
346.17	399.19
346.397	397.19
346.625	405.19
346.853	393.19
347.08	390.19
347.308	388.19
347.535	404.19
347.763	394.19
347.99	380.19
348.218	378.19
348.445	368.19
348.673	403.19
348.9	382.19
349.128	405.19
349.355	383.19
349.583	368.19
349.81	364.19
350.037	361.19
350.265	395.19
350.492	386.19
350.72	402.19
350.947	375.19
351.174	373.19
351.402	382.19
351.629	400.19
351.856	367.19
352.083	380.19
352.311	396.19
352.538	398.19
352.765	375.19
352.992	370.19
353.22	380.19
353.447	371.19
353.674	367.19
353.901	355.19
354.128	376.19
354.355	358.19
354.583	347.19
354.81	353.19
355.037	347.19
355.264	350.19
355.491	352.19
355.718	379.19
355.945	378.19
356.172	373.19
356.399	357.19
356.626	365.19
356.853	344.19
357.08	358.19
357.307	380.19
357.534	374.19
357.761	355.19
357.988	388.19
358.215	363.19
358.441	374.19
358.668	360.19
358.895	367.19
359.122	387.19
359.349	378.19
359.576	386.19
359.802	389.19
360.029	403.19
360.256	402.19
360.483	371.19
360.709	394.19
360.936	395.19
361.163	365.19
361.39	380.19
361.616	363.19
361.843	394.19
362.07	368.19
362.296	388.19
362.523	370.19
362.749	382.19
362.976	382.19
363.203	357.19
363.429	348.19
363.656	376.19
363.882	365.19
364.109	378.19
364.335	379.19
364.562	378.19
364.788	376.19
365.015	371.19
365.241	382.19
365.468	379.19
365.694	352.19
365.92	378.19
366.147	372.19
366.373	367.19
366.599	358.19
366.826	347.19
367.052	376.19
367.278	363.19
367.505	370.19
367.731	365.19
367.957	367.19
368.184	360.19
368.41	366.19
368.636	387.19
368.862	371.19
369.089	358.19
369.315	374.19
369.541	354.19
369.767	366.19
369.993	376.19
370.219	378.19
370.445	373.19
370.672	359.19
370.898	358.19
371.124	400.19
371.35	351.19
371.576	358.19
371.802	359.19
372.028	376.19
372.254	351.19
372.48	358.19
372.706	367.19
372.932	386.19
373.158	366.19
373.384	394.19
373.61	366.19
373.835	396.19
374.061	374.19
374.287	373.19
374.513	371.19
374.739	383.19
374.965	359.19
375.191	376.19
375.416	393.19
375.642	377.19
375.868	367.19
376.094	379.19
376.319	364.19
376.545	344.19
376.771	361.19
376.997	354.19
377.222	377.19
377.448	363.19
377.674	353.19
377.899	361.19
378.125	370.19
378.35	350.19
378.576	350.19
378.802	357.19
379.027	376.19
379.253	390.19
379.478	373.19
379.704	379.19
379.929	367.19
380.155	357.19
380.38	363.19
380.606	362.19
380.831	374.19
381.057	363.19
381.282	362.19
381.507	372.19
381.733	372.19
381.958	371.19
382.184	370.19
382.409	392.19
382.634	359.19
382.86	395.19
383.085	382.19
383.31	383.19
383.535	406.19
383.761	380.19
383.986	388.19
384.211	388.19
384.436	381.19
384.662	394.19
384.887	410.19
385.112	419.19
385.337	396.19
385.562	396.19
385.787	400.19
386.013	406.19
386.238	398.19
386.463	402.19
386.688	406.19
386.913	396.19
387.138	388.19
387.363	379.19
387.588	396.19
387.813	394.19
388.038	389.19
388.263	389.19
388.488	404.19
388.713	412.19
388.938	421.19
389.163	416.19
389.387	403.19
389.612	390.19
389.837	400.19
390.062	418.19
390.287	399.19
390.512	400.19
390.736	382.19
390.961	383.19
391.186	391.19
391.411	415.19
391.636	408.19
391.86	413.19
392.085	398.19
392.31	437.19
392.534	408.19
392.759	393.19
392.984	414.19
393.208	410.19
393.433	417.19
393.658	414.19
393.882	407.19
394.107	387.19
394.331	425.19
394.556	410.19
394.78	409.19
395.005	409.19
395.229	409.19
395.454	407.19
395.678	425.19
395.903	440.19
396.127	450.19
396.352	420.19
396.576	409.19
396.801	445.19
397.025	405.19
397.249	417.19
397.474	416.19
397.698	432.19
397.922	444.19
398.147	430.19
398.371	440.19
398.595	450.19
398.82	450.19
399.044	467.19
399.268	492.19
399.492	511.19
399.717	547.19
399.941	583.19
400.165	568.19
400.389	552.19
400.613	508.19
400.837	482.19
401.062	460.19
401.286	477.19
401.51	460.19
401.734	458.19
401.958	472.19
402.182	466.19
402.406	438.19
402.63	475.19
402.854	459.19
403.078	491.19
403.302	464.19
403.526	470.19
403.75	452.19
403.974	448.19
404.198	472.19
404.422	482.19
404.645	475.19
404.869	478.19
405.093	512.19
405.317	518.19
405.541	527.19
405.765	515.19
405.988	508.19
406.212	507.19
406.436	506.19
406.66	521.19
406.883	502.19
407.107	532.19
407.331	534.19
407.555	589.19
407.778	602.19
408.002	547.19
408.226	519.19
408.449	524.19
408.673	535.19
408.896	532.19
409.12	542.19
409.344	529.19
409.567	487.19
409.791	477.19
410.014	461.19
410.238	463.19
410.461	472.19
410.685	470.19
410.908	482.19
411.132	499.19
411.355	514.19
411.578	501.19
411.802	465.19
412.025	476.19
412.249	460.19
412.472	496.19
412.695	508.19
412.919	497.19
413.142	473.19
413.365	450.19
413.589	456.19
413.812	438.19
414.035	444.19
414.258	446.19
414.482	444.19
414.705	443.19
414.928	456.19
415.151	441.19
415.374	444.19
415.597	446.19
415.821	446.19
416.044	433.19
416.267	411.19
416.49	430.19
416.713	440.19
416.936	459.19
417.159	439.19
417.382	443.19
417.605	435.19
417.828	430.19
418.051	447.19
418.274	436.19
418.497	428.19
418.72	443.19
418.943	447.19
419.166	461.19
419.389	480.19
419.611	462.19
419.834	450.19
420.057	462.19
420.28	467.19
420.503	438.19
420.726	450.19
420.948	449.19
421.171	495.19
421.394	499.19
421.617	459.19
421.839	453.19
422.062	444.19
422.285	459.19
422.507	506.19
422.73	562.19
422.953	518.19
423.175	498.19
423.398	452.19
423.621	445.19
423.843	483.19
424.066	500.19
424.288	486.19
424.511	487.19
424.733	494.19
424.956	570.19
425.178	564.19
425.401	536.19
425.623	558.19
425.846	513.19
426.068	459.19
426.291	454.19
426.513	463.19
426.735	465.19
426.958	503.19
427.18	544.19
427.402	650.19
427.625	693.19
427.847	589.19
428.069	516.19
428.292	483.19
428.514	461.19
428.736	421.19
428.958	438.19
429.181	426.19
429.403	410.19
429.625	439.19
429.847	442.19
430.069	511.19
430.292	485.19
430.514	429.19
430.736	431.19
430.958	427.19
431.18	412.19
431.402	423.19
431.624	398.19
431.846	408.19
432.068	417.19
432.29	415.19
432.512	410.19
432.734	412.19
432.956	425.19
433.178	431.19
433.4	419.19
433.622	428.19
433.844	414.19
434.066	428.19
434.287	414.19
434.509	413.19
434.731	414.19
434.953	412.19
435.175	443.19
435.397	488.19
435.618	478.19
435.84	499.19
436.062	552.19
436.284	582.19
436.505	506.19
436.727	450.19
436.949	426.19
437.17	441.19
437.392	428.19
437.614	445.19
437.835	440.19
438.057	499.19
438.278	568.19
438.5	577.19
438.721	626.19
438.943	597.19
439.165	515.19
439.386	448.19
439.608	450.19
439.829	449.19
440.05	463.19
440.272	489.19
440.493	454.19
440.715	455.19
440.936	440.19
441.158	435.19
441.379	437.19
441.6	455.19
441.822	462.19
442.043	464.19
442.264	550.19
442.486	568.19
442.707	472.19
442.928	462.19
443.149	466.19
443.371	500.19
443.592	518.19
443.813	587.19
444.034	620.19
444.255	533.19
444.476	495.19
444.698	488.19
444.919	481.19
445.14	576.19
445.361	536.19
445.582	511.19
445.803	531.19
446.024	610.19
446.245	589.19
446.466	555.19
446.687	467.19
446.908	456.19
447.129	416.19
447.35	408.19
447.571	411.19
447.792	408.19
448.013	413.19
448.234	433.19
448.455	459.19
448.675	545.19
448.896	623.19
449.117	522.19
449.338	510.19
449.559	598.19
449.779	668.19
450	520.19
450.221	462.19
450.442	440.19
450.662	396.19
450.883	406.19
451.104	423.19
451.324	390.19
451.545	370.19
451.766	387.19
451.986	397.19
452.207	378.19
452.428	399.19
452.648	379.19
452.869	374.19
453.089	386.19
453.31	400.19
453.53	374.19
453.751	377.19
453.971	393.19
454.192	389.19
454.412	376.19
454.633	367.19
454.853	365.19
455.073	376.19
455.294	387.19
455.514	435.19
455.734	421.19
455.955	376.19
456.175	386.19
456.395	365.19
456.616	364.19
456.836	371.19
457.056	367.19
457.276	361.19
457.497	360.19
457.717	350.19
457.937	363.19
458.157	378.19
458.377	376.19
458.598	378.19
458.818	417.19
459.038	465.19
459.258	477.19
459.478	434.19
459.698	408.19
459.918	406.19
460.138	414.19
460.358	392.19
460.578	416.19
460.798	427.19
461.018	425.19
461.238	433.19
461.458	422.19
461.678	433.19
461.898	425.19
462.118	459.19
462.338	438.19
462.558	435.19
462.777	459.19
462.997	462.19
463.217	500.19
463.437	499.19
463.657	477.19
463.876	464.19
464.096	450.19
464.316	446.19
464.536	456.19
464.755	448.19
464.975	439.19
465.195	454.19
465.414	477.19
465.634	440.19
465.854	431.19
466.073	401.19
466.293	418.19
466.512	397.19
466.732	386.19
466.951	379.19
467.171	406.19
467.391	414.19
467.61	388.19
467.829	421.19
468.049	389.19
468.268	378.19
468.488	382.19
468.707	382.19
468.927	391.19
469.146	379.19
469.365	380.19
469.585	382.19
469.804	389.19
470.023	398.19
470.243	411.19
470.462	391.19
470.681	406.19
470.901	398.19
471.12	398.19
471.339	384.19
471.558	408.19
471.777	399.19
471.997	390.19
472.216	404.19
472.435	386.19
472.654	399.19
472.873	388.19
473.092	384.19
473.311	384.19
473.53	399.19
473.749	408.19
473.968	416.19
474.187	494.19
474.406	500.19
474.625	431.19
474.844	394.19
475.063	400.19
475.282	382.19
475.501	374.19
475.72	401.19
475.939	412.19
476.158	414.19
476.377	398.19
476.596	407.19
476.814	412.19
477.033	406.19
477.252	399.19
477.471	411.19
477.69	430.19
477.908	416.19
478.127	426.19
478.346	430.19
478.564	427.19
478.783	436.19
479.002	453.19
479.22	459.19
479.439	470.19
479.658	446.19
479.876	480.19
480.095	467.19
480.313	507.19
480.532	487.19
480.751	476.19
480.969	502.19
481.188	494.19
481.406	489.19
481.624	478.19
481.843	460.19
482.061	468.19
482.28	440.19
482.498	431.19
482.717	456.19
482.935	460.19
483.153	475.19
483.372	446.19
483.59	454.19
483.808	443.19
484.027	444.19
484.245	447.19
484.463	453.19
484.681	473.19
484.9	448.19
485.118	454.19
485.336	462.19
485.554	472.19
485.772	485.19
485.99	453.19
486.209	458.19
486.427	495.19
486.645	455.19
486.863	460.19
487.081	462.19
487.299	488.19
487.517	473.19
487.735	476.19
487.953	462.19
488.171	491.19
488.389	474.19
488.607	469.19
488.825	466.19
489.043	487.19
489.261	463.19
489.479	510.19
489.696	497.19
489.914	470.19
490.132	482.19
490.35	500.19
490.568	474.19
490.786	503.19
491.003	508.19
491.221	529.19
491.439	508.19
491.657	527.19
491.874	520.19
492.092	540.19
492.31	533.19
492.527	535.19
492.745	554.19
492.963	543.19
493.18	535.19
493.398	533.19
493.615	537.19
493.833	551.19
494.05	543.19
494.268	559.19
494.485	546.19
494.703	550.19
494.92	547.19
495.138	533.19
495.355	567.19
495.573	548.19
495.79	554.19
496.008	560.19
496.225	551.19
496.442	575.19
496.66	531.19
496.877	564.19
497.094	577.19
497.312	579.19
497.529	592.19
497.746	601.19
497.963	606.19
498.181	619.19
498.398	616.19
498.615	634.19
498.832	650.19
499.049	672.19
499.267	704.19
499.484	718.19
499.701	759.19
499.918	782.19
500.135	844.19
500.352	882.19
500.569	908.19
500.786	888.19
501.003	887.19
501.22	845.19
501.437	785.19
501.654	795.19
501.871	727.19
502.088	715.19
