Data from 1977.PennyLincolnUp.Lamp.En5.5.200Scan.071719.P1_HRD10591_16-06-05-864.txt Node
Date: Thu Jul 18 16:06:05 EDT 2019
User: cochatt
Spectrometer: HR+D1059
Trigger mode: 1
Integration Time (sec): 1.000000E-1
Scans to average: 1
Electric dark correction enabled: true
Nonlinearity correction enabled: false
Boxcar width: 0
XAxis mode: Wavelengths
Number of Pixels in Spectrum: 2048
>>>>>Begin Spectral Data<<<<<
223.165	-18.31
223.4	-18.31
223.635	-18.31
223.869	-8.31
224.104	-14.31
224.338	-14.31
224.573	-28.31
224.808	-8.31
225.042	-9.31
225.277	-4.31
225.511	-6.31
225.746	-9.31
225.98	1.69
226.215	10.69
226.449	17.69
226.683	27.69
226.918	26.69
227.152	36.69
227.387	41.69
227.621	28.69
227.856	38.69
228.09	46.69
228.324	42.69
228.559	50.69
228.793	70.69
229.027	92.69
229.262	105.69
229.496	107.69
229.73	122.69
229.964	131.69
230.199	134.69
230.433	100.69
230.667	106.69
230.901	107.69
231.136	102.69
231.37	105.69
231.604	94.69
231.838	111.69
232.072	120.69
232.306	127.69
232.541	123.69
232.775	110.69
233.009	117.69
233.243	121.69
233.477	122.69
233.711	116.69
233.945	105.69
234.179	113.69
234.413	125.69
234.647	119.69
234.881	114.69
235.115	113.69
235.349	106.69
235.583	119.69
235.817	112.69
236.051	130.69
236.285	130.69
236.519	146.69
236.753	133.69
236.987	121.69
237.221	144.69
237.455	203.69
237.689	171.69
237.922	164.69
238.156	119.69
238.39	133.69
238.624	125.69
238.858	129.69
239.091	136.69
239.325	109.69
239.559	117.69
239.793	122.69
240.027	127.69
240.26	135.69
240.494	145.69
240.728	129.69
240.961	141.69
241.195	141.69
241.429	136.69
241.662	136.69
241.896	125.69
242.13	116.69
242.363	159.69
242.597	128.69
242.83	137.69
243.064	146.69
243.298	143.69
243.531	135.69
243.765	151.69
243.998	127.69
244.232	142.69
244.465	150.69
244.699	160.69
244.932	143.69
245.166	132.69
245.399	138.69
245.633	139.69
245.866	157.69
246.099	150.69
246.333	143.69
246.566	154.69
246.8	149.69
247.033	146.69
247.266	158.69
247.5	157.69
247.733	177.69
247.966	162.69
248.2	172.69
248.433	168.69
248.666	162.69
248.899	177.69
249.133	191.69
249.366	203.69
249.599	181.69
249.832	165.69
250.066	163.69
250.299	174.69
250.532	178.69
250.765	179.69
250.998	191.69
251.231	203.69
251.465	199.69
251.698	181.69
251.931	195.69
252.164	191.69
252.397	192.69
252.63	173.69
252.863	200.69
253.096	188.69
253.329	196.69
253.562	199.69
253.795	199.69
254.028	190.69
254.261	223.69
254.494	210.69
254.727	242.69
254.96	264.69
255.193	265.69
255.426	243.69
255.659	212.69
255.892	202.69
256.124	220.69
256.357	214.69
256.59	220.69
256.823	210.69
257.056	213.69
257.289	212.69
257.521	204.69
257.754	213.69
257.987	198.69
258.22	199.69
258.452	199.69
258.685	210.69
258.918	200.69
259.151	215.69
259.383	237.69
259.616	227.69
259.849	221.69
260.081	208.69
260.314	233.69
260.547	232.69
260.779	225.69
261.012	218.69
261.244	225.69
261.477	231.69
261.71	207.69
261.942	218.69
262.175	239.69
262.407	210.69
262.64	204.69
262.872	220.69
263.105	224.69
263.337	213.69
263.57	213.69
263.802	219.69
264.035	235.69
264.267	218.69
264.499	232.69
264.732	213.69
264.964	221.69
265.197	228.69
265.429	224.69
265.661	229.69
265.894	230.69
266.126	240.69
266.358	223.69
266.591	225.69
266.823	222.69
267.055	234.69
267.287	228.69
267.52	230.69
267.752	243.69
267.984	235.69
268.216	245.69
268.448	242.69
268.681	244.69
268.913	258.69
269.145	251.69
269.377	277.69
269.609	266.69
269.841	264.69
270.073	276.69
270.306	283.69
270.538	306.69
270.77	323.69
271.002	298.69
271.234	288.69
271.466	301.69
271.698	307.69
271.93	305.69
272.162	296.69
272.394	305.69
272.626	310.69
272.858	281.69
273.09	286.69
273.322	280.69
273.553	259.69
273.785	259.69
274.017	265.69
274.249	270.69
274.481	277.69
274.713	278.69
274.945	262.69
275.176	267.69
275.408	271.69
275.64	264.69
275.872	289.69
276.104	279.69
276.335	279.69
276.567	281.69
276.799	284.69
277.031	302.69
277.262	313.69
277.494	305.69
277.726	316.69
277.957	291.69
278.189	289.69
278.421	266.69
278.652	279.69
278.884	270.69
279.115	277.69
279.347	266.69
279.579	281.69
279.81	280.69
280.042	291.69
280.273	289.69
280.505	258.69
280.736	269.69
280.968	274.69
281.199	276.69
281.431	287.69
281.662	272.69
281.894	288.69
282.125	277.69
282.356	282.69
282.588	308.69
282.819	300.69
283.051	293.69
283.282	285.69
283.513	280.69
283.745	296.69
283.976	291.69
284.207	307.69
284.439	314.69
284.67	291.69
284.901	315.69
285.132	297.69
285.364	310.69
285.595	300.69
285.826	296.69
286.057	301.69
286.288	289.69
286.52	292.69
286.751	297.69
286.982	311.69
287.213	311.69
287.444	297.69
287.675	313.69
287.906	315.69
288.138	318.69
288.369	312.69
288.6	305.69
288.831	308.69
289.062	309.69
289.293	301.69
289.524	323.69
289.755	303.69
289.986	303.69
290.217	304.69
290.448	306.69
290.679	315.69
290.91	307.69
291.141	309.69
291.371	308.69
291.602	302.69
291.833	318.69
292.064	313.69
292.295	311.69
292.526	311.69
292.757	308.69
292.987	308.69
293.218	301.69
293.449	326.69
293.68	300.69
293.91	302.69
294.141	306.69
294.372	310.69
294.603	303.69
294.833	329.69
295.064	297.69
295.295	311.69
295.525	307.69
295.756	305.69
295.987	330.69
296.217	339.69
296.448	333.69
296.679	330.69
296.909	332.69
297.14	310.69
297.37	321.69
297.601	310.69
297.831	309.69
298.062	341.69
298.292	342.69
298.523	340.69
298.753	333.69
298.984	328.69
299.214	322.69
299.445	328.69
299.675	361.69
299.905	340.69
300.136	337.69
300.366	343.69
300.597	320.69
300.827	346.69
301.057	353.69
301.288	341.69
301.518	337.69
301.748	331.69
301.979	345.69
302.209	363.69
302.439	350.69
302.669	358.69
302.9	351.69
303.13	370.69
303.36	349.69
303.59	373.69
303.82	350.69
304.051	349.69
304.281	333.69
304.511	343.69
304.741	355.69
304.971	349.69
305.201	336.69
305.431	345.69
305.661	354.69
305.891	338.69
306.121	338.69
306.352	357.69
306.582	369.69
306.812	362.69
307.042	351.69
307.272	361.69
307.502	346.69
307.731	363.69
307.961	367.69
308.191	350.69
308.421	349.69
308.651	350.69
308.881	348.69
309.111	361.69
309.341	351.69
309.571	360.69
309.8	374.69
310.03	377.69
310.26	379.69
310.49	377.69
310.72	395.69
310.949	395.69
311.179	406.69
311.409	381.69
311.639	376.69
311.868	393.69
312.098	397.69
312.328	384.69
312.557	388.69
312.787	402.69
313.017	398.69
313.246	401.69
313.476	378.69
313.706	392.69
313.935	380.69
314.165	387.69
314.394	396.69
314.624	390.69
314.853	398.69
315.083	411.69
315.312	404.69
315.542	401.69
315.771	383.69
316.001	383.69
316.23	380.69
316.46	381.69
316.689	381.69
316.919	369.69
317.148	399.69
317.377	402.69
317.607	391.69
317.836	383.69
318.065	389.69
318.295	408.69
318.524	374.69
318.753	368.69
318.983	386.69
319.212	388.69
319.441	401.69
319.67	420.69
319.9	388.69
320.129	394.69
320.358	379.69
320.587	379.69
320.816	417.69
321.046	408.69
321.275	399.69
321.504	413.69
321.733	400.69
321.962	407.69
322.191	417.69
322.42	420.69
322.649	431.69
322.878	426.69
323.108	418.69
323.337	449.69
323.566	464.69
323.795	501.69
324.024	515.69
324.253	618.69
324.482	816.69
324.71	1231.69
324.939	1685.69
325.168	1451.69
325.397	757.69
325.626	565.69
325.855	517.69
326.084	492.69
326.313	491.69
326.542	509.69
326.77	542.69
326.999	601.69
327.228	765.69
327.457	1086.69
327.686	1266.69
327.914	869.69
328.143	617.69
328.372	541.69
328.6	530.69
328.829	520.69
329.058	537.69
329.287	553.69
329.515	469.69
329.744	471.69
329.972	486.69
330.201	486.69
330.43	520.69
330.658	535.69
330.887	527.69
331.115	533.69
331.344	491.69
331.572	490.69
331.801	474.69
332.03	492.69
332.258	473.69
332.486	467.69
332.715	464.69
332.943	475.69
333.172	479.69
333.4	469.69
333.629	483.69
333.857	482.69
334.085	517.69
334.314	501.69
334.542	515.69
334.771	517.69
334.999	494.69
335.227	490.69
335.455	473.69
335.684	484.69
335.912	454.69
336.14	444.69
336.369	454.69
336.597	454.69
336.825	449.69
337.053	463.69
337.281	453.69
337.51	464.69
337.738	470.69
337.966	461.69
338.194	476.69
338.422	429.69
338.65	447.69
338.878	437.69
339.106	447.69
339.334	443.69
339.562	454.69
339.79	433.69
340.018	440.69
340.246	443.69
340.474	440.69
340.702	444.69
340.93	441.69
341.158	442.69
341.386	431.69
341.614	427.69
341.842	436.69
342.07	435.69
342.298	422.69
342.526	420.69
342.754	426.69
342.981	415.69
343.209	421.69
343.437	429.69
343.665	442.69
343.893	455.69
344.12	464.69
344.348	475.69
344.576	451.69
344.804	445.69
345.031	449.69
345.259	481.69
345.487	438.69
345.714	425.69
345.942	414.69
346.17	413.69
346.397	405.69
346.625	417.69
346.853	415.69
347.08	399.69
347.308	406.69
347.535	431.69
347.763	397.69
347.99	410.69
348.218	415.69
348.445	428.69
348.673	412.69
348.9	427.69
349.128	422.69
349.355	409.69
349.583	405.69
349.81	406.69
350.037	390.69
350.265	406.69
350.492	386.69
350.72	387.69
350.947	389.69
351.174	411.69
351.402	432.69
351.629	415.69
351.856	413.69
352.083	421.69
352.311	431.69
352.538	409.69
352.765	417.69
352.992	420.69
353.22	417.69
353.447	413.69
353.674	398.69
353.901	396.69
354.128	396.69
354.355	396.69
354.583	394.69
354.81	388.69
355.037	399.69
355.264	381.69
355.491	391.69
355.718	385.69
355.945	383.69
356.172	386.69
356.399	382.69
356.626	385.69
356.853	377.69
357.08	387.69
357.307	377.69
357.534	399.69
357.761	404.69
357.988	407.69
358.215	398.69
358.441	370.69
358.668	370.69
358.895	388.69
359.122	407.69
359.349	392.69
359.576	416.69
359.802	410.69
360.029	410.69
360.256	411.69
360.483	424.69
360.709	404.69
360.936	411.69
361.163	389.69
361.39	405.69
361.616	426.69
361.843	427.69
362.07	411.69
362.296	405.69
362.523	387.69
362.749	411.69
362.976	391.69
363.203	389.69
363.429	393.69
363.656	385.69
363.882	397.69
364.109	390.69
364.335	409.69
364.562	386.69
364.788	392.69
365.015	389.69
365.241	395.69
365.468	381.69
365.694	400.69
365.92	377.69
366.147	400.69
366.373	369.69
366.599	397.69
366.826	403.69
367.052	397.69
367.278	380.69
367.505	383.69
367.731	398.69
367.957	384.69
368.184	391.69
368.41	400.69
368.636	381.69
368.862	407.69
369.089	417.69
369.315	380.69
369.541	397.69
369.767	380.69
369.993	395.69
370.219	379.69
370.445	383.69
370.672	380.69
370.898	382.69
371.124	399.69
371.35	386.69
371.576	375.69
371.802	398.69
372.028	391.69
372.254	381.69
372.48	378.69
372.706	390.69
372.932	391.69
373.158	395.69
373.384	397.69
373.61	400.69
373.835	386.69
374.061	395.69
374.287	395.69
374.513	403.69
374.739	406.69
374.965	400.69
375.191	415.69
375.416	407.69
375.642	409.69
375.868	392.69
376.094	398.69
376.319	391.69
376.545	382.69
376.771	397.69
376.997	388.69
377.222	384.69
377.448	391.69
377.674	375.69
377.899	384.69
378.125	393.69
378.35	378.69
378.576	387.69
378.802	374.69
379.027	389.69
379.253	390.69
379.478	389.69
379.704	406.69
379.929	394.69
380.155	384.69
380.38	381.69
380.606	403.69
380.831	391.69
381.057	386.69
381.282	376.69
381.507	395.69
381.733	398.69
381.958	385.69
382.184	396.69
382.409	399.69
382.634	404.69
382.86	393.69
383.085	389.69
383.31	390.69
383.535	400.69
383.761	389.69
383.986	419.69
384.211	420.69
384.436	404.69
384.662	423.69
384.887	411.69
385.112	399.69
385.337	413.69
385.562	402.69
385.787	423.69
386.013	431.69
386.238	428.69
386.463	430.69
386.688	439.69
386.913	425.69
387.138	430.69
387.363	429.69
387.588	424.69
387.813	415.69
388.038	428.69
388.263	434.69
388.488	424.69
388.713	437.69
388.938	426.69
389.163	425.69
389.387	422.69
389.612	430.69
389.837	438.69
390.062	443.69
390.287	416.69
390.512	437.69
390.736	425.69
390.961	411.69
391.186	430.69
391.411	426.69
391.636	426.69
391.86	434.69
392.085	457.69
392.31	457.69
392.534	423.69
392.759	449.69
392.984	425.69
393.208	427.69
393.433	427.69
393.658	429.69
393.882	428.69
394.107	420.69
394.331	445.69
394.556	443.69
394.78	441.69
395.005	439.69
395.229	455.69
395.454	469.69
395.678	455.69
395.903	468.69
396.127	471.69
396.352	477.69
396.576	457.69
396.801	453.69
397.025	434.69
397.249	453.69
397.474	455.69
397.698	451.69
397.922	452.69
398.147	468.69
398.371	478.69
398.595	467.69
398.82	487.69
399.044	479.69
399.268	495.69
399.492	557.69
399.717	580.69
399.941	609.69
400.165	606.69
400.389	577.69
400.613	554.69
400.837	531.69
401.062	474.69
401.286	499.69
401.51	499.69
401.734	514.69
401.958	491.69
402.182	501.69
402.406	521.69
402.63	503.69
402.854	489.69
403.078	501.69
403.302	485.69
403.526	510.69
403.75	499.69
403.974	491.69
404.198	513.69
404.422	522.69
404.645	499.69
404.869	497.69
405.093	549.69
405.317	584.69
405.541	597.69
405.765	540.69
405.988	524.69
406.212	549.69
406.436	541.69
406.66	538.69
406.883	551.69
407.107	567.69
407.331	598.69
407.555	650.69
407.778	615.69
408.002	595.69
408.226	558.69
408.449	551.69
408.673	549.69
408.896	581.69
409.12	607.69
409.344	586.69
409.567	517.69
409.791	515.69
410.014	515.69
410.238	502.69
410.461	497.69
410.685	517.69
410.908	527.69
411.132	531.69
411.355	540.69
411.578	551.69
411.802	507.69
412.025	510.69
412.249	499.69
412.472	515.69
412.695	539.69
412.919	511.69
413.142	518.69
413.365	490.69
413.589	486.69
413.812	473.69
414.035	449.69
414.258	459.69
414.482	469.69
414.705	471.69
414.928	459.69
415.151	457.69
415.374	470.69
415.597	487.69
415.821	466.69
416.044	462.69
416.267	472.69
416.49	470.69
416.713	458.69
416.936	466.69
417.159	454.69
417.382	472.69
417.605	461.69
417.828	458.69
418.051	485.69
418.274	478.69
418.497	458.69
418.72	452.69
418.943	447.69
419.166	495.69
419.389	496.69
419.611	482.69
419.834	494.69
420.057	495.69
420.28	473.69
420.503	475.69
420.726	484.69
420.948	503.69
421.171	522.69
421.394	547.69
421.617	482.69
421.839	485.69
422.062	472.69
422.285	488.69
422.507	551.69
422.73	585.69
422.953	575.69
423.175	526.69
423.398	498.69
423.621	482.69
423.843	525.69
424.066	513.69
424.288	533.69
424.511	525.69
424.733	570.69
424.956	611.69
425.178	608.69
425.401	580.69
425.623	615.69
425.846	531.69
426.068	510.69
426.291	521.69
426.513	503.69
426.735	506.69
426.958	545.69
427.18	605.69
427.402	705.69
427.625	773.69
427.847	660.69
428.069	581.69
428.292	542.69
428.514	492.69
428.736	478.69
428.958	482.69
429.181	469.69
429.403	470.69
429.625	461.69
429.847	494.69
430.069	537.69
430.292	530.69
430.514	490.69
430.736	461.69
430.958	464.69
431.18	438.69
431.402	461.69
431.624	444.69
431.846	437.69
432.068	438.69
432.29	441.69
432.512	438.69
432.734	462.69
432.956	458.69
433.178	468.69
433.4	451.69
433.622	450.69
433.844	462.69
434.066	442.69
434.287	434.69
434.509	443.69
434.731	452.69
434.953	479.69
435.175	469.69
435.397	493.69
435.618	495.69
435.84	559.69
436.062	606.69
436.284	650.69
436.505	523.69
436.727	504.69
436.949	499.69
437.17	476.69
437.392	459.69
437.614	471.69
437.835	512.69
438.057	555.69
438.278	658.69
438.5	667.69
438.721	695.69
438.943	683.69
439.165	524.69
439.386	493.69
439.608	521.69
439.829	499.69
440.05	507.69
440.272	563.69
440.493	521.69
440.715	492.69
440.936	471.69
441.158	479.69
441.379	459.69
441.6	474.69
441.822	487.69
442.043	540.69
442.264	598.69
442.486	612.69
442.707	534.69
442.928	502.69
443.149	519.69
443.371	528.69
443.592	571.69
443.813	645.69
444.034	678.69
444.255	579.69
444.476	543.69
444.698	502.69
444.919	526.69
445.14	605.69
445.361	561.69
445.582	524.69
445.803	563.69
446.024	654.69
446.245	673.69
446.466	602.69
446.687	523.69
446.908	492.69
447.129	475.69
447.35	480.69
447.571	460.69
447.792	455.69
448.013	468.69
448.234	457.69
448.455	523.69
448.675	618.69
448.896	677.69
449.117	589.69
449.338	561.69
449.559	649.69
449.779	717.69
450	578.69
450.221	491.69
450.442	465.69
450.662	437.69
450.883	442.69
451.104	455.69
451.324	444.69
451.545	417.69
451.766	415.69
451.986	413.69
452.207	413.69
452.428	391.69
452.648	416.69
452.869	427.69
453.089	412.69
453.31	433.69
453.53	406.69
453.751	414.69
453.971	419.69
454.192	424.69
454.412	409.69
454.633	405.69
454.853	410.69
455.073	393.69
455.294	435.69
455.514	474.69
455.734	469.69
455.955	385.69
456.175	402.69
456.395	387.69
456.616	395.69
456.836	393.69
457.056	383.69
457.276	376.69
457.497	391.69
457.717	383.69
457.937	379.69
458.157	396.69
458.377	395.69
458.598	408.69
458.818	448.69
459.038	503.69
459.258	514.69
459.478	464.69
459.698	461.69
459.918	462.69
460.138	458.69
460.358	455.69
460.578	455.69
460.798	452.69
461.018	459.69
461.238	451.69
461.458	444.69
461.678	438.69
461.898	456.69
462.118	437.69
462.338	461.69
462.558	473.69
462.777	489.69
462.997	504.69
463.217	531.69
463.437	537.69
463.657	486.69
463.876	486.69
464.096	488.69
464.316	489.69
464.536	506.69
464.755	477.69
464.975	492.69
465.195	498.69
465.414	524.69
465.634	471.69
465.854	470.69
466.073	439.69
466.293	425.69
466.512	443.69
466.732	422.69
466.951	435.69
467.171	418.69
467.391	442.69
467.61	448.69
467.829	430.69
468.049	402.69
468.268	410.69
468.488	413.69
468.707	410.69
468.927	414.69
469.146	417.69
469.365	420.69
469.585	408.69
469.804	430.69
470.023	426.69
470.243	442.69
470.462	428.69
470.681	430.69
470.901	433.69
471.12	423.69
471.339	417.69
471.558	442.69
471.777	429.69
471.997	393.69
472.216	422.69
472.435	441.69
472.654	434.69
472.873	413.69
473.092	409.69
473.311	416.69
473.53	409.69
473.749	453.69
473.968	462.69
474.187	540.69
474.406	551.69
474.625	472.69
474.844	413.69
475.063	445.69
475.282	438.69
475.501	427.69
475.72	421.69
475.939	444.69
476.158	422.69
476.377	434.69
476.596	412.69
476.814	410.69
477.033	435.69
477.252	451.69
477.471	452.69
477.69	445.69
477.908	453.69
478.127	466.69
478.346	445.69
478.564	463.69
478.783	469.69
479.002	483.69
479.22	489.69
479.439	479.69
479.658	509.69
479.876	499.69
480.095	494.69
480.313	517.69
480.532	499.69
480.751	525.69
480.969	519.69
481.188	551.69
481.406	561.69
481.624	517.69
481.843	515.69
482.061	505.69
482.28	497.69
482.498	474.69
482.717	502.69
482.935	478.69
483.153	490.69
483.372	478.69
483.59	484.69
483.808	505.69
484.027	481.69
484.245	489.69
484.463	494.69
484.681	493.69
484.9	512.69
485.118	489.69
485.336	503.69
485.554	519.69
485.772	513.69
485.99	472.69
486.209	526.69
486.427	510.69
486.645	510.69
486.863	499.69
487.081	516.69
487.299	515.69
487.517	513.69
487.735	512.69
487.953	510.69
488.171	503.69
488.389	526.69
488.607	510.69
488.825	516.69
489.043	543.69
489.261	515.69
489.479	548.69
489.696	521.69
489.914	530.69
490.132	520.69
490.35	527.69
490.568	527.69
490.786	526.69
491.003	545.69
491.221	576.69
491.439	578.69
491.657	554.69
491.874	555.69
492.092	548.69
492.31	580.69
492.527	583.69
492.745	570.69
492.963	581.69
493.18	593.69
493.398	595.69
493.615	587.69
493.833	581.69
494.05	589.69
494.268	596.69
494.485	567.69
494.703	594.69
494.92	601.69
495.138	584.69
495.355	615.69
495.573	615.69
495.79	606.69
496.008	598.69
496.225	593.69
496.442	586.69
496.66	612.69
496.877	622.69
497.094	598.69
497.312	622.69
497.529	612.69
497.746	640.69
497.963	643.69
498.181	649.69
498.398	671.69
498.615	697.69
498.832	711.69
499.049	715.69
499.267	758.69
499.484	761.69
499.701	844.69
499.918	838.69
500.135	899.69
500.352	925.69
500.569	926.69
500.786	981.69
501.003	921.69
501.22	901.69
501.437	889.69
501.654	833.69
501.871	834.69
