Data from 1977.PennyLincolnUp.Lamp.En5.5.200Scan.071719.P1_HRD10591_16-05-52-864.txt Node
Date: Thu Jul 18 16:05:52 EDT 2019
User: cochatt
Spectrometer: HR+D1059
Trigger mode: 1
Integration Time (sec): 1.000000E-1
Scans to average: 1
Electric dark correction enabled: true
Nonlinearity correction enabled: false
Boxcar width: 0
XAxis mode: Wavelengths
Number of Pixels in Spectrum: 2048
>>>>>Begin Spectral Data<<<<<
223.165	-21.88
223.4	-21.88
223.635	-21.88
223.869	-26.88
224.104	-11.88
224.338	2.12
224.573	-19.88
224.808	-2.88
225.042	-5.88
225.277	0.12
225.511	-19.88
225.746	-6.88
225.98	6.12
226.215	11.12
226.449	15.12
226.683	17.12
226.918	34.12
227.152	30.12
227.387	36.12
227.621	43.12
227.856	48.12
228.09	43.12
228.324	58.12
228.559	59.12
228.793	68.12
229.027	89.12
229.262	82.12
229.496	96.12
229.73	128.12
229.964	133.12
230.199	113.12
230.433	114.12
230.667	115.12
230.901	109.12
231.136	123.12
231.37	100.12
231.604	99.12
231.838	112.12
232.072	93.12
232.306	106.12
232.541	111.12
232.775	124.12
233.009	112.12
233.243	113.12
233.477	112.12
233.711	124.12
233.945	113.12
234.179	113.12
234.413	102.12
234.647	114.12
234.881	120.12
235.115	114.12
235.349	128.12
235.583	110.12
235.817	125.12
236.051	113.12
236.285	122.12
236.519	132.12
236.753	119.12
236.987	134.12
237.221	160.12
237.455	182.12
237.689	164.12
237.922	146.12
238.156	125.12
238.39	135.12
238.624	142.12
238.858	128.12
239.091	128.12
239.325	116.12
239.559	119.12
239.793	122.12
240.027	122.12
240.26	134.12
240.494	152.12
240.728	137.12
240.961	142.12
241.195	134.12
241.429	130.12
241.662	123.12
241.896	128.12
242.13	126.12
242.363	130.12
242.597	118.12
242.83	124.12
243.064	143.12
243.298	145.12
243.531	142.12
243.765	132.12
243.998	136.12
244.232	138.12
244.465	146.12
244.699	147.12
244.932	156.12
245.166	130.12
245.399	152.12
245.633	134.12
245.866	136.12
246.099	136.12
246.333	137.12
246.566	154.12
246.8	134.12
247.033	155.12
247.266	148.12
247.5	148.12
247.733	161.12
247.966	169.12
248.2	182.12
248.433	169.12
248.666	176.12
248.899	180.12
249.133	191.12
249.366	184.12
249.599	187.12
249.832	163.12
250.066	168.12
250.299	168.12
250.532	187.12
250.765	185.12
250.998	196.12
251.231	197.12
251.465	189.12
251.698	187.12
251.931	177.12
252.164	187.12
252.397	188.12
252.63	178.12
252.863	183.12
253.096	187.12
253.329	212.12
253.562	202.12
253.795	207.12
254.028	199.12
254.261	207.12
254.494	211.12
254.727	219.12
254.96	251.12
255.193	239.12
255.426	218.12
255.659	204.12
255.892	204.12
256.124	211.12
256.357	206.12
256.59	217.12
256.823	207.12
257.056	211.12
257.289	203.12
257.521	206.12
257.754	202.12
257.987	206.12
258.22	206.12
258.452	201.12
258.685	209.12
258.918	214.12
259.151	201.12
259.383	229.12
259.616	194.12
259.849	214.12
260.081	235.12
260.314	234.12
260.547	230.12
260.779	236.12
261.012	218.12
261.244	209.12
261.477	209.12
261.71	210.12
261.942	208.12
262.175	216.12
262.407	220.12
262.64	213.12
262.872	202.12
263.105	213.12
263.337	213.12
263.57	207.12
263.802	195.12
264.035	202.12
264.267	216.12
264.499	199.12
264.732	217.12
264.964	221.12
265.197	219.12
265.429	213.12
265.661	199.12
265.894	214.12
266.126	214.12
266.358	223.12
266.591	231.12
266.823	234.12
267.055	253.12
267.287	242.12
267.52	210.12
267.752	227.12
267.984	258.12
268.216	206.12
268.448	232.12
268.681	253.12
268.913	230.12
269.145	249.12
269.377	282.12
269.609	258.12
269.841	258.12
270.073	257.12
270.306	288.12
270.538	294.12
270.77	294.12
271.002	282.12
271.234	292.12
271.466	285.12
271.698	283.12
271.93	297.12
272.162	302.12
272.394	289.12
272.626	284.12
272.858	283.12
273.09	263.12
273.322	263.12
273.553	257.12
273.785	274.12
274.017	262.12
274.249	248.12
274.481	273.12
274.713	282.12
274.945	251.12
275.176	280.12
275.408	262.12
275.64	269.12
275.872	268.12
276.104	265.12
276.335	272.12
276.567	270.12
276.799	274.12
277.031	297.12
277.262	289.12
277.494	320.12
277.726	285.12
277.957	281.12
278.189	271.12
278.421	281.12
278.652	291.12
278.884	273.12
279.115	268.12
279.347	272.12
279.579	292.12
279.81	285.12
280.042	288.12
280.273	273.12
280.505	290.12
280.736	253.12
280.968	272.12
281.199	253.12
281.431	277.12
281.662	257.12
281.894	280.12
282.125	273.12
282.356	288.12
282.588	288.12
282.819	293.12
283.051	299.12
283.282	283.12
283.513	288.12
283.745	282.12
283.976	276.12
284.207	298.12
284.439	304.12
284.67	292.12
284.901	278.12
285.132	294.12
285.364	296.12
285.595	288.12
285.826	284.12
286.057	312.12
286.288	270.12
286.52	301.12
286.751	282.12
286.982	299.12
287.213	293.12
287.444	294.12
287.675	297.12
287.906	308.12
288.138	319.12
288.369	306.12
288.6	312.12
288.831	296.12
289.062	284.12
289.293	321.12
289.524	292.12
289.755	312.12
289.986	310.12
290.217	308.12
290.448	289.12
290.679	317.12
290.91	310.12
291.141	323.12
291.371	306.12
291.602	297.12
291.833	316.12
292.064	306.12
292.295	300.12
292.526	304.12
292.757	295.12
292.987	300.12
293.218	306.12
293.449	325.12
293.68	305.12
293.91	307.12
294.141	301.12
294.372	299.12
294.603	308.12
294.833	325.12
295.064	313.12
295.295	314.12
295.525	320.12
295.756	326.12
295.987	317.12
296.217	341.12
296.448	320.12
296.679	312.12
296.909	306.12
297.14	310.12
297.37	325.12
297.601	309.12
297.831	315.12
298.062	314.12
298.292	312.12
298.523	316.12
298.753	315.12
298.984	312.12
299.214	320.12
299.445	324.12
299.675	325.12
299.905	321.12
300.136	313.12
300.366	328.12
300.597	320.12
300.827	325.12
301.057	320.12
301.288	359.12
301.518	336.12
301.748	339.12
301.979	334.12
302.209	340.12
302.439	328.12
302.669	354.12
302.9	326.12
303.13	336.12
303.36	343.12
303.59	341.12
303.82	358.12
304.051	355.12
304.281	356.12
304.511	335.12
304.741	333.12
304.971	335.12
305.201	337.12
305.431	347.12
305.661	350.12
305.891	348.12
306.121	338.12
306.352	328.12
306.582	332.12
306.812	346.12
307.042	337.12
307.272	333.12
307.502	356.12
307.731	368.12
307.961	339.12
308.191	335.12
308.421	330.12
308.651	346.12
308.881	361.12
309.111	354.12
309.341	344.12
309.571	350.12
309.8	357.12
310.03	348.12
310.26	345.12
310.49	361.12
310.72	387.12
310.949	366.12
311.179	368.12
311.409	386.12
311.639	392.12
311.868	359.12
312.098	365.12
312.328	390.12
312.557	404.12
312.787	392.12
313.017	404.12
313.246	390.12
313.476	376.12
313.706	365.12
313.935	378.12
314.165	386.12
314.394	403.12
314.624	397.12
314.853	373.12
315.083	377.12
315.312	380.12
315.542	384.12
315.771	384.12
316.001	361.12
316.23	382.12
316.46	388.12
316.689	389.12
316.919	392.12
317.148	387.12
317.377	392.12
317.607	375.12
317.836	380.12
318.065	375.12
318.295	377.12
318.524	386.12
318.753	377.12
318.983	386.12
319.212	378.12
319.441	379.12
319.67	388.12
319.9	378.12
320.129	389.12
320.358	384.12
320.587	380.12
320.816	405.12
321.046	390.12
321.275	411.12
321.504	398.12
321.733	399.12
321.962	418.12
322.191	407.12
322.42	410.12
322.649	409.12
322.878	435.12
323.108	446.12
323.337	456.12
323.566	447.12
323.795	488.12
324.024	494.12
324.253	599.12
324.482	776.12
324.71	1158.12
324.939	1583.12
325.168	1333.12
325.397	727.12
325.626	538.12
325.855	481.12
326.084	468.12
326.313	459.12
326.542	472.12
326.77	483.12
326.999	566.12
327.228	725.12
327.457	1005.12
327.686	1175.12
327.914	825.12
328.143	600.12
328.372	492.12
328.6	504.12
328.829	484.12
329.058	507.12
329.287	503.12
329.515	483.12
329.744	487.12
329.972	459.12
330.201	492.12
330.43	485.12
330.658	533.12
330.887	518.12
331.115	516.12
331.344	503.12
331.572	470.12
331.801	470.12
332.03	474.12
332.258	452.12
332.486	434.12
332.715	455.12
332.943	451.12
333.172	467.12
333.4	454.12
333.629	483.12
333.857	485.12
334.085	467.12
334.314	474.12
334.542	502.12
334.771	491.12
334.999	485.12
335.227	487.12
335.455	470.12
335.684	456.12
335.912	460.12
336.14	450.12
336.369	458.12
336.597	460.12
336.825	441.12
337.053	438.12
337.281	435.12
337.51	423.12
337.738	456.12
337.966	440.12
338.194	425.12
338.422	438.12
338.65	448.12
338.878	441.12
339.106	416.12
339.334	444.12
339.562	435.12
339.79	413.12
340.018	435.12
340.246	423.12
340.474	431.12
340.702	422.12
340.93	429.12
341.158	449.12
341.386	422.12
341.614	409.12
341.842	426.12
342.07	404.12
342.298	408.12
342.526	405.12
342.754	413.12
342.981	408.12
343.209	417.12
343.437	427.12
343.665	421.12
343.893	442.12
344.12	444.12
344.348	432.12
344.576	438.12
344.804	452.12
345.031	450.12
345.259	430.12
345.487	404.12
345.714	434.12
345.942	418.12
346.17	435.12
346.397	394.12
346.625	408.12
346.853	400.12
347.08	392.12
347.308	395.12
347.535	396.12
347.763	418.12
347.99	408.12
348.218	395.12
348.445	407.12
348.673	398.12
348.9	406.12
349.128	400.12
349.355	377.12
349.583	396.12
349.81	386.12
350.037	388.12
350.265	397.12
350.492	377.12
350.72	402.12
350.947	405.12
351.174	403.12
351.402	417.12
351.629	402.12
351.856	386.12
352.083	397.12
352.311	397.12
352.538	418.12
352.765	415.12
352.992	400.12
353.22	396.12
353.447	388.12
353.674	390.12
353.901	394.12
354.128	393.12
354.355	374.12
354.583	390.12
354.81	373.12
355.037	372.12
355.264	386.12
355.491	378.12
355.718	364.12
355.945	388.12
356.172	382.12
356.399	365.12
356.626	392.12
356.853	380.12
357.08	375.12
357.307	359.12
357.534	395.12
357.761	378.12
357.988	406.12
358.215	397.12
358.441	377.12
358.668	390.12
358.895	376.12
359.122	408.12
359.349	395.12
359.576	388.12
359.802	386.12
360.029	413.12
360.256	419.12
360.483	436.12
360.709	411.12
360.936	412.12
361.163	393.12
361.39	404.12
361.616	396.12
361.843	397.12
362.07	381.12
362.296	385.12
362.523	378.12
362.749	388.12
362.976	378.12
363.203	358.12
363.429	372.12
363.656	380.12
363.882	383.12
364.109	394.12
364.335	368.12
364.562	370.12
364.788	359.12
365.015	376.12
365.241	386.12
365.468	369.12
365.694	365.12
365.92	391.12
366.147	361.12
366.373	360.12
366.599	360.12
366.826	380.12
367.052	364.12
367.278	373.12
367.505	362.12
367.731	384.12
367.957	362.12
368.184	384.12
368.41	402.12
368.636	394.12
368.862	385.12
369.089	381.12
369.315	372.12
369.541	395.12
369.767	389.12
369.993	386.12
370.219	370.12
370.445	379.12
370.672	410.12
370.898	394.12
371.124	386.12
371.35	379.12
371.576	381.12
371.802	395.12
372.028	392.12
372.254	386.12
372.48	368.12
372.706	380.12
372.932	396.12
373.158	370.12
373.384	381.12
373.61	384.12
373.835	364.12
374.061	387.12
374.287	381.12
374.513	389.12
374.739	388.12
374.965	395.12
375.191	405.12
375.416	396.12
375.642	387.12
375.868	385.12
376.094	368.12
376.319	386.12
376.545	382.12
376.771	373.12
376.997	372.12
377.222	368.12
377.448	380.12
377.674	383.12
377.899	374.12
378.125	375.12
378.35	365.12
378.576	364.12
378.802	371.12
379.027	395.12
379.253	354.12
379.478	346.12
379.704	362.12
379.929	390.12
380.155	385.12
380.38	376.12
380.606	392.12
380.831	358.12
381.057	380.12
381.282	382.12
381.507	393.12
381.733	376.12
381.958	382.12
382.184	392.12
382.409	370.12
382.634	386.12
382.86	377.12
383.085	387.12
383.31	416.12
383.535	390.12
383.761	394.12
383.986	395.12
384.211	387.12
384.436	408.12
384.662	402.12
384.887	390.12
385.112	437.12
385.337	417.12
385.562	416.12
385.787	447.12
386.013	429.12
386.238	436.12
386.463	434.12
386.688	425.12
386.913	427.12
387.138	421.12
387.363	435.12
387.588	419.12
387.813	422.12
388.038	426.12
388.263	417.12
388.488	427.12
388.713	418.12
388.938	428.12
389.163	421.12
389.387	417.12
389.612	420.12
389.837	425.12
390.062	417.12
390.287	421.12
390.512	394.12
390.736	398.12
390.961	418.12
391.186	408.12
391.411	419.12
391.636	432.12
391.86	442.12
392.085	429.12
392.31	443.12
392.534	438.12
392.759	438.12
392.984	418.12
393.208	406.12
393.433	409.12
393.658	420.12
393.882	408.12
394.107	411.12
394.331	424.12
394.556	396.12
394.78	416.12
395.005	436.12
395.229	413.12
395.454	438.12
395.678	437.12
395.903	431.12
396.127	446.12
396.352	456.12
396.576	438.12
396.801	430.12
397.025	430.12
397.249	429.12
397.474	428.12
397.698	435.12
397.922	429.12
398.147	460.12
398.371	467.12
398.595	454.12
398.82	476.12
399.044	487.12
399.268	518.12
399.492	537.12
399.717	566.12
399.941	598.12
400.165	601.12
400.389	598.12
400.613	549.12
400.837	499.12
401.062	500.12
401.286	486.12
401.51	470.12
401.734	502.12
401.958	474.12
402.182	472.12
402.406	469.12
402.63	471.12
402.854	480.12
403.078	475.12
403.302	498.12
403.526	502.12
403.75	501.12
403.974	512.12
404.198	502.12
404.422	496.12
404.645	499.12
404.869	494.12
405.093	506.12
405.317	534.12
405.541	577.12
405.765	551.12
405.988	508.12
406.212	537.12
406.436	521.12
406.66	526.12
406.883	530.12
407.107	537.12
407.331	588.12
407.555	611.12
407.778	630.12
408.002	579.12
408.226	548.12
408.449	516.12
408.673	518.12
408.896	526.12
409.12	580.12
409.344	564.12
409.567	498.12
409.791	507.12
410.014	482.12
410.238	487.12
410.461	493.12
410.685	497.12
410.908	505.12
411.132	499.12
411.355	521.12
411.578	516.12
411.802	482.12
412.025	474.12
412.249	512.12
412.472	491.12
412.695	530.12
412.919	506.12
413.142	476.12
413.365	444.12
413.589	482.12
413.812	466.12
414.035	469.12
414.258	454.12
414.482	475.12
414.705	458.12
414.928	468.12
415.151	438.12
415.374	449.12
415.597	461.12
415.821	445.12
416.044	455.12
416.267	461.12
416.49	459.12
416.713	434.12
416.936	444.12
417.159	435.12
417.382	461.12
417.605	453.12
417.828	462.12
418.051	491.12
418.274	452.12
418.497	454.12
418.72	455.12
418.943	446.12
419.166	475.12
419.389	501.12
419.611	496.12
419.834	472.12
420.057	480.12
420.28	479.12
420.503	465.12
420.726	459.12
420.948	498.12
421.171	482.12
421.394	546.12
421.617	496.12
421.839	465.12
422.062	458.12
422.285	487.12
422.507	563.12
422.73	558.12
422.953	560.12
423.175	518.12
423.398	508.12
423.621	500.12
423.843	512.12
424.066	510.12
424.288	490.12
424.511	518.12
424.733	556.12
424.956	616.12
425.178	594.12
425.401	576.12
425.623	574.12
425.846	529.12
426.068	500.12
426.291	496.12
426.513	484.12
426.735	499.12
426.958	508.12
427.18	579.12
427.402	684.12
427.625	741.12
427.847	629.12
428.069	529.12
428.292	503.12
428.514	483.12
428.736	450.12
428.958	459.12
429.181	448.12
429.403	455.12
429.625	465.12
429.847	477.12
430.069	492.12
430.292	543.12
430.514	454.12
430.736	454.12
430.958	452.12
431.18	438.12
431.402	424.12
431.624	444.12
431.846	439.12
432.068	430.12
432.29	434.12
432.512	422.12
432.734	442.12
432.956	445.12
433.178	421.12
433.4	432.12
433.622	460.12
433.844	432.12
434.066	427.12
434.287	454.12
434.509	458.12
434.731	453.12
434.953	447.12
435.175	452.12
435.397	498.12
435.618	480.12
435.84	528.12
436.062	581.12
436.284	646.12
436.505	539.12
436.727	478.12
436.949	468.12
437.17	445.12
437.392	423.12
437.614	448.12
437.835	462.12
438.057	540.12
438.278	630.12
438.5	634.12
438.721	668.12
438.943	648.12
439.165	536.12
439.386	489.12
439.608	465.12
439.829	480.12
440.05	505.12
440.272	527.12
440.493	511.12
440.715	477.12
440.936	467.12
441.158	457.12
441.379	482.12
441.6	469.12
441.822	488.12
442.043	516.12
442.264	562.12
442.486	602.12
442.707	530.12
442.928	481.12
443.149	489.12
443.371	486.12
443.592	560.12
443.813	630.12
444.034	669.12
444.255	566.12
444.476	504.12
444.698	517.12
444.919	522.12
445.14	632.12
445.361	534.12
445.582	542.12
445.803	542.12
446.024	633.12
446.245	628.12
446.466	562.12
446.687	529.12
446.908	501.12
447.129	457.12
447.35	447.12
447.571	456.12
447.792	453.12
448.013	439.12
448.234	432.12
448.455	488.12
448.675	583.12
448.896	648.12
449.117	570.12
449.338	520.12
449.559	625.12
449.779	694.12
450	571.12
450.221	471.12
450.442	458.12
450.662	446.12
450.883	436.12
451.104	450.12
451.324	409.12
451.545	433.12
451.766	401.12
451.986	414.12
452.207	408.12
452.428	389.12
452.648	386.12
452.869	394.12
453.089	413.12
453.31	384.12
453.53	397.12
453.751	401.12
453.971	397.12
454.192	425.12
454.412	394.12
454.633	385.12
454.853	414.12
455.073	398.12
455.294	398.12
455.514	457.12
455.734	438.12
455.955	406.12
456.175	378.12
456.395	368.12
456.616	381.12
456.836	383.12
457.056	390.12
457.276	385.12
457.497	388.12
457.717	371.12
457.937	370.12
458.157	379.12
458.377	389.12
458.598	399.12
458.818	453.12
459.038	488.12
459.258	487.12
459.478	461.12
459.698	419.12
459.918	398.12
460.138	438.12
460.358	458.12
460.578	446.12
460.798	454.12
461.018	441.12
461.238	442.12
461.458	442.12
461.678	433.12
461.898	448.12
462.118	444.12
462.338	460.12
462.558	454.12
462.777	481.12
462.997	479.12
463.217	493.12
463.437	519.12
463.657	504.12
463.876	468.12
464.096	486.12
464.316	494.12
464.536	481.12
464.755	462.12
464.975	499.12
465.195	489.12
465.414	523.12
465.634	477.12
465.854	440.12
466.073	432.12
466.293	419.12
466.512	429.12
466.732	420.12
466.951	417.12
467.171	392.12
467.391	408.12
467.61	407.12
467.829	426.12
468.049	417.12
468.268	417.12
468.488	400.12
468.707	412.12
468.927	385.12
469.146	418.12
469.365	404.12
469.585	411.12
469.804	391.12
470.023	424.12
470.243	416.12
470.462	430.12
470.681	421.12
470.901	431.12
471.12	409.12
471.339	435.12
471.558	418.12
471.777	432.12
471.997	406.12
472.216	429.12
472.435	405.12
472.654	404.12
472.873	420.12
473.092	423.12
473.311	418.12
473.53	408.12
473.749	441.12
473.968	458.12
474.187	517.12
474.406	533.12
474.625	452.12
474.844	436.12
475.063	426.12
475.282	421.12
475.501	413.12
475.72	426.12
475.939	429.12
476.158	426.12
476.377	434.12
476.596	432.12
476.814	437.12
477.033	432.12
477.252	446.12
477.471	452.12
477.69	468.12
477.908	432.12
478.127	446.12
478.346	464.12
478.564	487.12
478.783	466.12
479.002	469.12
479.22	464.12
479.439	469.12
479.658	497.12
479.876	497.12
480.095	515.12
480.313	529.12
480.532	517.12
480.751	502.12
480.969	526.12
481.188	524.12
481.406	551.12
481.624	505.12
481.843	482.12
482.061	485.12
482.28	487.12
482.498	485.12
482.717	448.12
482.935	458.12
483.153	481.12
483.372	474.12
483.59	466.12
483.808	473.12
484.027	464.12
484.245	477.12
484.463	469.12
484.681	485.12
484.9	467.12
485.118	483.12
485.336	474.12
485.554	504.12
485.772	500.12
485.99	509.12
486.209	480.12
486.427	472.12
486.645	506.12
486.863	495.12
487.081	498.12
487.299	500.12
487.517	504.12
487.735	508.12
487.953	525.12
488.171	489.12
488.389	481.12
488.607	485.12
488.825	509.12
489.043	483.12
489.261	514.12
489.479	521.12
489.696	510.12
489.914	492.12
490.132	503.12
490.35	539.12
490.568	524.12
490.786	537.12
491.003	534.12
491.221	542.12
491.439	548.12
491.657	545.12
491.874	538.12
492.092	562.12
492.31	562.12
492.527	558.12
492.745	557.12
492.963	541.12
493.18	578.12
493.398	594.12
493.615	596.12
493.833	588.12
494.05	545.12
494.268	564.12
494.485	585.12
494.703	585.12
494.92	576.12
495.138	586.12
495.355	579.12
495.573	578.12
495.79	589.12
496.008	597.12
496.225	560.12
496.442	556.12
496.66	587.12
496.877	609.12
497.094	597.12
497.312	589.12
497.529	635.12
497.746	648.12
497.963	628.12
498.181	642.12
498.398	642.12
498.615	667.12
498.832	704.12
499.049	689.12
499.267	728.12
499.484	762.12
499.701	792.12
499.918	837.12
500.135	869.12
500.352	911.12
500.569	925.12
500.786	939.12
501.003	888.12
501.22	875.12
501.437	850.12
501.654	824.12
501.871	776.12
502.088	746.12
