Data from 1977.PennyLincolnUp.Lamp.En5.5.200Scan.071719.P1_HRD10591_16-07-04-864.txt Node
Date: Thu Jul 18 16:07:04 EDT 2019
User: cochatt
Spectrometer: HR+D1059
Trigger mode: 1
Integration Time (sec): 1.000000E-1
Scans to average: 1
Electric dark correction enabled: true
Nonlinearity correction enabled: false
Boxcar width: 0
XAxis mode: Wavelengths
Number of Pixels in Spectrum: 2048
>>>>>Begin Spectral Data<<<<<
223.165	6.94
223.4	6.94
223.635	6.94
223.869	-19.06
224.104	-18.06
224.338	-8.06
224.573	-4.06
224.808	-15.06
225.042	-12.06
225.277	-14.06
225.511	7.94
225.746	-7.06
225.98	6.94
226.215	3.94
226.449	10.94
226.683	7.94
226.918	18.94
227.152	33.94
227.387	35.94
227.621	48.94
227.856	46.94
228.09	36.94
228.324	41.94
228.559	54.94
228.793	72.94
229.027	98.94
229.262	98.94
229.496	112.94
229.73	136.94
229.964	144.94
230.199	116.94
230.433	104.94
230.667	109.94
230.901	106.94
231.136	104.94
231.37	113.94
231.604	111.94
231.838	107.94
232.072	96.94
232.306	87.94
232.541	94.94
232.775	112.94
233.009	102.94
233.243	110.94
233.477	130.94
233.711	121.94
233.945	108.94
234.179	107.94
234.413	88.94
234.647	120.94
234.881	109.94
235.115	118.94
235.349	108.94
235.583	122.94
235.817	126.94
236.051	103.94
236.285	118.94
236.519	106.94
236.753	126.94
236.987	133.94
237.221	155.94
237.455	208.94
237.689	154.94
237.922	152.94
238.156	127.94
238.39	124.94
238.624	118.94
238.858	123.94
239.091	117.94
239.325	132.94
239.559	134.94
239.793	126.94
240.027	124.94
240.26	136.94
240.494	146.94
240.728	136.94
240.961	138.94
241.195	124.94
241.429	130.94
241.662	125.94
241.896	116.94
242.13	141.94
242.363	136.94
242.597	137.94
242.83	121.94
243.064	130.94
243.298	140.94
243.531	131.94
243.765	136.94
243.998	153.94
244.232	144.94
244.465	140.94
244.699	128.94
244.932	155.94
245.166	137.94
245.399	138.94
245.633	139.94
245.866	159.94
246.099	147.94
246.333	151.94
246.566	135.94
246.8	145.94
247.033	142.94
247.266	164.94
247.5	151.94
247.733	152.94
247.966	163.94
248.2	166.94
248.433	176.94
248.666	171.94
248.899	177.94
249.133	176.94
249.366	185.94
249.599	182.94
249.832	179.94
250.066	162.94
250.299	186.94
250.532	178.94
250.765	196.94
250.998	214.94
251.231	210.94
251.465	199.94
251.698	198.94
251.931	192.94
252.164	186.94
252.397	200.94
252.63	191.94
252.863	202.94
253.096	208.94
253.329	233.94
253.562	222.94
253.795	200.94
254.028	210.94
254.261	215.94
254.494	202.94
254.727	233.94
254.96	262.94
255.193	262.94
255.426	243.94
255.659	218.94
255.892	220.94
256.124	207.94
256.357	229.94
256.59	203.94
256.823	207.94
257.056	208.94
257.289	216.94
257.521	219.94
257.754	207.94
257.987	194.94
258.22	219.94
258.452	210.94
258.685	220.94
258.918	207.94
259.151	204.94
259.383	214.94
259.616	209.94
259.849	215.94
260.081	233.94
260.314	251.94
260.547	256.94
260.779	257.94
261.012	255.94
261.244	223.94
261.477	216.94
261.71	225.94
261.942	217.94
262.175	225.94
262.407	222.94
262.64	209.94
262.872	209.94
263.105	204.94
263.337	215.94
263.57	207.94
263.802	217.94
264.035	235.94
264.267	212.94
264.499	217.94
264.732	216.94
264.964	225.94
265.197	210.94
265.429	214.94
265.661	224.94
265.894	226.94
266.126	215.94
266.358	234.94
266.591	222.94
266.823	248.94
267.055	224.94
267.287	240.94
267.52	228.94
267.752	244.94
267.984	231.94
268.216	243.94
268.448	251.94
268.681	257.94
268.913	246.94
269.145	263.94
269.377	264.94
269.609	279.94
269.841	283.94
270.073	274.94
270.306	296.94
270.538	302.94
270.77	327.94
271.002	295.94
271.234	297.94
271.466	272.94
271.698	297.94
271.93	319.94
272.162	331.94
272.394	319.94
272.626	296.94
272.858	284.94
273.09	296.94
273.322	279.94
273.553	291.94
273.785	279.94
274.017	271.94
274.249	266.94
274.481	260.94
274.713	266.94
274.945	276.94
275.176	280.94
275.408	258.94
275.64	269.94
275.872	276.94
276.104	287.94
276.335	283.94
276.567	268.94
276.799	298.94
277.031	301.94
277.262	308.94
277.494	314.94
277.726	306.94
277.957	293.94
278.189	308.94
278.421	274.94
278.652	284.94
278.884	273.94
279.115	266.94
279.347	294.94
279.579	276.94
279.81	275.94
280.042	281.94
280.273	286.94
280.505	276.94
280.736	286.94
280.968	272.94
281.199	259.94
281.431	308.94
281.662	289.94
281.894	297.94
282.125	279.94
282.356	292.94
282.588	312.94
282.819	316.94
283.051	299.94
283.282	279.94
283.513	288.94
283.745	299.94
283.976	296.94
284.207	283.94
284.439	295.94
284.67	293.94
284.901	281.94
285.132	266.94
285.364	293.94
285.595	306.94
285.826	286.94
286.057	297.94
286.288	295.94
286.52	288.94
286.751	299.94
286.982	309.94
287.213	304.94
287.444	316.94
287.675	287.94
287.906	316.94
288.138	313.94
288.369	331.94
288.6	313.94
288.831	318.94
289.062	334.94
289.293	291.94
289.524	299.94
289.755	303.94
289.986	310.94
290.217	290.94
290.448	305.94
290.679	296.94
290.91	290.94
291.141	314.94
291.371	325.94
291.602	316.94
291.833	297.94
292.064	285.94
292.295	311.94
292.526	319.94
292.757	307.94
292.987	303.94
293.218	305.94
293.449	313.94
293.68	302.94
293.91	320.94
294.141	278.94
294.372	290.94
294.603	317.94
294.833	306.94
295.064	307.94
295.295	316.94
295.525	307.94
295.756	300.94
295.987	312.94
296.217	331.94
296.448	320.94
296.679	330.94
296.909	324.94
297.14	306.94
297.37	313.94
297.601	332.94
297.831	315.94
298.062	331.94
298.292	316.94
298.523	336.94
298.753	325.94
298.984	332.94
299.214	322.94
299.445	328.94
299.675	321.94
299.905	331.94
300.136	360.94
300.366	318.94
300.597	342.94
300.827	321.94
301.057	338.94
301.288	328.94
301.518	337.94
301.748	344.94
301.979	337.94
302.209	339.94
302.439	313.94
302.669	352.94
302.9	361.94
303.13	338.94
303.36	344.94
303.59	326.94
303.82	347.94
304.051	369.94
304.281	335.94
304.511	336.94
304.741	349.94
304.971	346.94
305.201	350.94
305.431	339.94
305.661	350.94
305.891	337.94
306.121	348.94
306.352	363.94
306.582	364.94
306.812	345.94
307.042	359.94
307.272	347.94
307.502	355.94
307.731	358.94
307.961	355.94
308.191	333.94
308.421	344.94
308.651	352.94
308.881	334.94
309.111	347.94
309.341	367.94
309.571	374.94
309.8	378.94
310.03	361.94
310.26	355.94
310.49	374.94
310.72	374.94
310.949	393.94
311.179	388.94
311.409	391.94
311.639	368.94
311.868	400.94
312.098	394.94
312.328	376.94
312.557	415.94
312.787	417.94
313.017	395.94
313.246	401.94
313.476	387.94
313.706	404.94
313.935	397.94
314.165	386.94
314.394	393.94
314.624	403.94
314.853	410.94
315.083	399.94
315.312	403.94
315.542	382.94
315.771	394.94
316.001	383.94
316.23	393.94
316.46	386.94
316.689	393.94
316.919	390.94
317.148	386.94
317.377	386.94
317.607	390.94
317.836	388.94
318.065	404.94
318.295	395.94
318.524	383.94
318.753	398.94
318.983	388.94
319.212	402.94
319.441	386.94
319.67	397.94
319.9	393.94
320.129	393.94
320.358	407.94
320.587	391.94
320.816	415.94
321.046	423.94
321.275	388.94
321.504	422.94
321.733	410.94
321.962	433.94
322.191	425.94
322.42	434.94
322.649	434.94
322.878	461.94
323.108	445.94
323.337	479.94
323.566	476.94
323.795	501.94
324.024	537.94
324.253	639.94
324.482	861.94
324.71	1273.94
324.939	1744.94
325.168	1504.94
325.397	802.94
325.626	588.94
325.855	495.94
326.084	490.94
326.313	482.94
326.542	490.94
326.77	513.94
326.999	594.94
327.228	797.94
327.457	1134.94
327.686	1290.94
327.914	894.94
328.143	631.94
328.372	559.94
328.6	561.94
328.829	516.94
329.058	516.94
329.287	514.94
329.515	515.94
329.744	508.94
329.972	500.94
330.201	497.94
330.43	518.94
330.658	542.94
330.887	553.94
331.115	540.94
331.344	511.94
331.572	501.94
331.801	497.94
332.03	479.94
332.258	463.94
332.486	450.94
332.715	451.94
332.943	445.94
333.172	475.94
333.4	479.94
333.629	484.94
333.857	508.94
334.085	495.94
334.314	502.94
334.542	519.94
334.771	514.94
334.999	486.94
335.227	472.94
335.455	475.94
335.684	468.94
335.912	475.94
336.14	443.94
336.369	454.94
336.597	443.94
336.825	465.94
337.053	462.94
337.281	443.94
337.51	456.94
337.738	434.94
337.966	461.94
338.194	424.94
338.422	433.94
338.65	450.94
338.878	445.94
339.106	436.94
339.334	447.94
339.562	433.94
339.79	423.94
340.018	427.94
340.246	426.94
340.474	436.94
340.702	433.94
340.93	436.94
341.158	443.94
341.386	428.94
341.614	423.94
341.842	420.94
342.07	419.94
342.298	424.94
342.526	431.94
342.754	432.94
342.981	409.94
343.209	456.94
343.437	444.94
343.665	415.94
343.893	450.94
344.12	445.94
344.348	431.94
344.576	446.94
344.804	458.94
345.031	443.94
345.259	444.94
345.487	450.94
345.714	435.94
345.942	417.94
346.17	426.94
346.397	427.94
346.625	412.94
346.853	392.94
347.08	423.94
347.308	411.94
347.535	423.94
347.763	418.94
347.99	403.94
348.218	429.94
348.445	446.94
348.673	415.94
348.9	398.94
349.128	414.94
349.355	400.94
349.583	414.94
349.81	389.94
350.037	388.94
350.265	403.94
350.492	411.94
350.72	400.94
350.947	403.94
351.174	416.94
351.402	403.94
351.629	428.94
351.856	418.94
352.083	418.94
352.311	408.94
352.538	404.94
352.765	422.94
352.992	414.94
353.22	401.94
353.447	407.94
353.674	389.94
353.901	407.94
354.128	388.94
354.355	386.94
354.583	377.94
354.81	379.94
355.037	401.94
355.264	380.94
355.491	362.94
355.718	392.94
355.945	362.94
356.172	388.94
356.399	394.94
356.626	389.94
356.853	370.94
357.08	374.94
357.307	374.94
357.534	395.94
357.761	386.94
357.988	395.94
358.215	388.94
358.441	403.94
358.668	378.94
358.895	389.94
359.122	390.94
359.349	404.94
359.576	404.94
359.802	421.94
360.029	420.94
360.256	423.94
360.483	415.94
360.709	420.94
360.936	403.94
361.163	394.94
361.39	402.94
361.616	401.94
361.843	400.94
362.07	384.94
362.296	406.94
362.523	408.94
362.749	395.94
362.976	407.94
363.203	400.94
363.429	387.94
363.656	400.94
363.882	389.94
364.109	392.94
364.335	395.94
364.562	396.94
364.788	387.94
365.015	377.94
365.241	370.94
365.468	406.94
365.694	416.94
365.92	378.94
366.147	383.94
366.373	390.94
366.599	388.94
366.826	383.94
367.052	376.94
367.278	356.94
367.505	380.94
367.731	378.94
367.957	359.94
368.184	370.94
368.41	384.94
368.636	400.94
368.862	397.94
369.089	383.94
369.315	374.94
369.541	387.94
369.767	378.94
369.993	388.94
370.219	376.94
370.445	404.94
370.672	380.94
370.898	382.94
371.124	379.94
371.35	402.94
371.576	385.94
371.802	397.94
372.028	393.94
372.254	394.94
372.48	392.94
372.706	392.94
372.932	401.94
373.158	383.94
373.384	386.94
373.61	395.94
373.835	404.94
374.061	386.94
374.287	378.94
374.513	399.94
374.739	382.94
374.965	399.94
375.191	389.94
375.416	407.94
375.642	395.94
375.868	403.94
376.094	388.94
376.319	387.94
376.545	372.94
376.771	385.94
376.997	380.94
377.222	375.94
377.448	376.94
377.674	363.94
377.899	392.94
378.125	390.94
378.35	363.94
378.576	382.94
378.802	384.94
379.027	412.94
379.253	397.94
379.478	375.94
379.704	382.94
379.929	389.94
380.155	402.94
380.38	370.94
380.606	389.94
380.831	376.94
381.057	388.94
381.282	382.94
381.507	376.94
381.733	377.94
381.958	369.94
382.184	377.94
382.409	384.94
382.634	394.94
382.86	385.94
383.085	394.94
383.31	422.94
383.535	403.94
383.761	413.94
383.986	417.94
384.211	390.94
384.436	396.94
384.662	387.94
384.887	409.94
385.112	419.94
385.337	423.94
385.562	431.94
385.787	406.94
386.013	417.94
386.238	431.94
386.463	418.94
386.688	412.94
386.913	426.94
387.138	416.94
387.363	417.94
387.588	409.94
387.813	404.94
388.038	400.94
388.263	406.94
388.488	427.94
388.713	437.94
388.938	435.94
389.163	412.94
389.387	427.94
389.612	429.94
389.837	415.94
390.062	417.94
390.287	409.94
390.512	404.94
390.736	424.94
390.961	419.94
391.186	424.94
391.411	425.94
391.636	438.94
391.86	438.94
392.085	426.94
392.31	440.94
392.534	442.94
392.759	431.94
392.984	427.94
393.208	423.94
393.433	425.94
393.658	427.94
393.882	418.94
394.107	415.94
394.331	430.94
394.556	426.94
394.78	426.94
395.005	417.94
395.229	416.94
395.454	430.94
395.678	440.94
395.903	446.94
396.127	470.94
396.352	463.94
396.576	459.94
396.801	444.94
397.025	442.94
397.249	436.94
397.474	480.94
397.698	457.94
397.922	468.94
398.147	491.94
398.371	467.94
398.595	454.94
398.82	482.94
399.044	503.94
399.268	504.94
399.492	532.94
399.717	581.94
399.941	587.94
400.165	601.94
400.389	576.94
400.613	529.94
400.837	504.94
401.062	481.94
401.286	479.94
401.51	485.94
401.734	484.94
401.958	498.94
402.182	479.94
402.406	480.94
402.63	475.94
402.854	483.94
403.078	488.94
403.302	494.94
403.526	497.94
403.75	528.94
403.974	508.94
404.198	502.94
404.422	494.94
404.645	491.94
404.869	489.94
405.093	518.94
405.317	550.94
405.541	605.94
405.765	543.94
405.988	547.94
406.212	528.94
406.436	538.94
406.66	544.94
406.883	525.94
407.107	549.94
407.331	598.94
407.555	664.94
407.778	650.94
408.002	579.94
408.226	560.94
408.449	540.94
408.673	534.94
408.896	587.94
409.12	580.94
409.344	573.94
409.567	523.94
409.791	525.94
410.014	508.94
410.238	495.94
410.461	510.94
410.685	515.94
410.908	496.94
411.132	524.94
411.355	550.94
411.578	541.94
411.802	520.94
412.025	491.94
412.249	485.94
412.472	517.94
412.695	537.94
412.919	502.94
413.142	482.94
413.365	479.94
413.589	495.94
413.812	472.94
414.035	475.94
414.258	456.94
414.482	466.94
414.705	457.94
414.928	463.94
415.151	478.94
415.374	440.94
415.597	478.94
415.821	460.94
416.044	446.94
416.267	456.94
416.49	464.94
416.713	451.94
416.936	470.94
417.159	452.94
417.382	466.94
417.605	467.94
417.828	453.94
418.051	463.94
418.274	452.94
418.497	460.94
418.72	457.94
418.943	443.94
419.166	483.94
419.389	501.94
419.611	487.94
419.834	496.94
420.057	494.94
420.28	487.94
420.503	488.94
420.726	478.94
420.948	479.94
421.171	523.94
421.394	556.94
421.617	477.94
421.839	504.94
422.062	496.94
422.285	492.94
422.507	564.94
422.73	595.94
422.953	569.94
423.175	514.94
423.398	514.94
423.621	487.94
423.843	512.94
424.066	498.94
424.288	508.94
424.511	515.94
424.733	547.94
424.956	642.94
425.178	606.94
425.401	609.94
425.623	610.94
425.846	527.94
426.068	523.94
426.291	493.94
426.513	483.94
426.735	514.94
426.958	532.94
427.18	601.94
427.402	726.94
427.625	777.94
427.847	649.94
428.069	575.94
428.292	524.94
428.514	495.94
428.736	470.94
428.958	477.94
429.181	464.94
429.403	466.94
429.625	463.94
429.847	487.94
430.069	551.94
430.292	540.94
430.514	475.94
430.736	475.94
430.958	450.94
431.18	441.94
431.402	434.94
431.624	442.94
431.846	431.94
432.068	430.94
432.29	434.94
432.512	443.94
432.734	452.94
432.956	449.94
433.178	460.94
433.4	467.94
433.622	450.94
433.844	428.94
434.066	446.94
434.287	441.94
434.509	437.94
434.731	461.94
434.953	461.94
435.175	486.94
435.397	488.94
435.618	504.94
435.84	515.94
436.062	610.94
436.284	640.94
436.505	558.94
436.727	502.94
436.949	455.94
437.17	476.94
437.392	456.94
437.614	480.94
437.835	492.94
438.057	562.94
438.278	634.94
438.5	642.94
438.721	716.94
438.943	679.94
439.165	563.94
439.386	518.94
439.608	491.94
439.829	504.94
440.05	530.94
440.272	553.94
440.493	528.94
440.715	494.94
440.936	488.94
441.158	462.94
441.379	457.94
441.6	473.94
441.822	510.94
442.043	542.94
442.264	592.94
442.486	623.94
442.707	541.94
442.928	521.94
443.149	517.94
443.371	518.94
443.592	566.94
443.813	633.94
444.034	686.94
444.255	594.94
444.476	520.94
444.698	522.94
444.919	497.94
445.14	584.94
445.361	547.94
445.582	544.94
445.803	582.94
446.024	638.94
446.245	658.94
446.466	609.94
446.687	526.94
446.908	487.94
447.129	444.94
447.35	449.94
447.571	463.94
447.792	451.94
448.013	452.94
448.234	462.94
448.455	488.94
448.675	588.94
448.896	696.94
449.117	574.94
449.338	544.94
449.559	644.94
449.779	751.94
450	579.94
450.221	485.94
450.442	452.94
450.662	447.94
450.883	434.94
451.104	447.94
451.324	422.94
451.545	444.94
451.766	418.94
451.986	424.94
452.207	402.94
452.428	411.94
452.648	405.94
452.869	395.94
453.089	430.94
453.31	436.94
453.53	416.94
453.751	407.94
453.971	413.94
454.192	424.94
454.412	417.94
454.633	420.94
454.853	400.94
455.073	392.94
455.294	437.94
455.514	470.94
455.734	455.94
455.955	399.94
456.175	381.94
456.395	380.94
456.616	388.94
456.836	402.94
457.056	382.94
457.276	384.94
457.497	391.94
457.717	386.94
457.937	387.94
458.157	390.94
458.377	399.94
458.598	408.94
458.818	450.94
459.038	516.94
459.258	519.94
459.478	467.94
459.698	426.94
459.918	423.94
460.138	428.94
460.358	440.94
460.578	449.94
460.798	451.94
461.018	462.94
461.238	423.94
461.458	451.94
461.678	450.94
461.898	466.94
462.118	455.94
462.338	476.94
462.558	479.94
462.777	486.94
462.997	491.94
463.217	522.94
463.437	538.94
463.657	495.94
463.876	520.94
464.096	486.94
464.316	479.94
464.536	512.94
464.755	485.94
464.975	474.94
465.195	504.94
465.414	525.94
465.634	488.94
465.854	456.94
466.073	434.94
466.293	436.94
466.512	427.94
466.732	411.94
466.951	427.94
467.171	427.94
467.391	397.94
467.61	431.94
467.829	428.94
468.049	427.94
468.268	424.94
468.488	404.94
468.707	400.94
468.927	416.94
469.146	402.94
469.365	388.94
469.585	397.94
469.804	417.94
470.023	399.94
470.243	415.94
470.462	439.94
470.681	431.94
470.901	431.94
471.12	427.94
471.339	407.94
471.558	417.94
471.777	433.94
471.997	423.94
472.216	410.94
472.435	427.94
472.654	438.94
472.873	410.94
473.092	425.94
473.311	418.94
473.53	414.94
473.749	413.94
473.968	462.94
474.187	527.94
474.406	555.94
474.625	474.94
474.844	448.94
475.063	418.94
475.282	442.94
475.501	408.94
475.72	420.94
475.939	429.94
476.158	419.94
476.377	434.94
476.596	426.94
476.814	438.94
477.033	442.94
477.252	444.94
477.471	445.94
477.69	458.94
477.908	458.94
478.127	472.94
478.346	444.94
478.564	454.94
478.783	467.94
479.002	478.94
479.22	480.94
479.439	513.94
479.658	510.94
479.876	497.94
480.095	494.94
480.313	532.94
480.532	523.94
480.751	514.94
480.969	510.94
481.188	538.94
481.406	554.94
481.624	516.94
481.843	498.94
482.061	495.94
482.28	487.94
482.498	485.94
482.717	476.94
482.935	466.94
483.153	504.94
483.372	470.94
483.59	475.94
483.808	471.94
484.027	473.94
484.245	474.94
484.463	469.94
484.681	505.94
484.9	498.94
485.118	502.94
485.336	491.94
485.554	472.94
485.772	519.94
485.99	509.94
486.209	515.94
486.427	487.94
486.645	512.94
486.863	540.94
487.081	511.94
487.299	519.94
487.517	499.94
487.735	512.94
487.953	518.94
488.171	496.94
488.389	496.94
488.607	517.94
488.825	518.94
489.043	515.94
489.261	528.94
489.479	524.94
489.696	531.94
489.914	542.94
490.132	528.94
490.35	552.94
490.568	500.94
490.786	527.94
491.003	561.94
491.221	550.94
491.439	557.94
491.657	560.94
491.874	566.94
492.092	582.94
492.31	583.94
492.527	576.94
492.745	579.94
492.963	564.94
493.18	592.94
493.398	593.94
493.615	579.94
493.833	596.94
494.05	601.94
494.268	583.94
494.485	593.94
494.703	588.94
494.92	606.94
495.138	615.94
495.355	612.94
495.573	580.94
495.79	608.94
496.008	604.94
496.225	594.94
496.442	585.94
496.66	607.94
496.877	614.94
497.094	627.94
497.312	628.94
497.529	615.94
497.746	640.94
497.963	643.94
498.181	659.94
498.398	679.94
498.615	683.94
498.832	698.94
499.049	692.94
499.267	735.94
499.484	774.94
499.701	824.94
499.918	840.94
500.135	873.94
500.352	968.94
500.569	932.94
500.786	948.94
501.003	930.94
501.22	907.94
501.437	866.94
501.654	799.94
501.871	794.94
502.088	762.94
