Data from 1977.PennyLincolnUp.Lamp.En5.5.200Scan.071719.P1_HRD10591_16-04-59-863.txt Node
Date: Thu Jul 18 16:04:59 EDT 2019
User: cochatt
Spectrometer: HR+D1059
Trigger mode: 1
Integration Time (sec): 1.000000E-1
Scans to average: 1
Electric dark correction enabled: true
Nonlinearity correction enabled: false
Boxcar width: 0
XAxis mode: Wavelengths
Number of Pixels in Spectrum: 2048
>>>>>Begin Spectral Data<<<<<
223.165	-9.38
223.4	-9.38
223.635	-9.38
223.869	-2.38
224.104	-14.38
224.338	-8.38
224.573	-22.38
224.808	-16.38
225.042	-1.38
225.277	-7.38
225.511	-9.38
225.746	-7.38
225.98	12.62
226.215	10.62
226.449	12.62
226.683	19.62
226.918	26.62
227.152	16.62
227.387	35.62
227.621	49.62
227.856	49.62
228.09	44.62
228.324	54.62
228.559	41.62
228.793	57.62
229.027	73.62
229.262	82.62
229.496	83.62
229.73	113.62
229.964	119.62
230.199	94.62
230.433	101.62
230.667	93.62
230.901	105.62
231.136	95.62
231.37	106.62
231.604	95.62
231.838	99.62
232.072	100.62
232.306	100.62
232.541	95.62
232.775	85.62
233.009	115.62
233.243	104.62
233.477	104.62
233.711	124.62
233.945	103.62
234.179	94.62
234.413	105.62
234.647	116.62
234.881	113.62
235.115	109.62
235.349	117.62
235.583	118.62
235.817	122.62
236.051	102.62
236.285	104.62
236.519	120.62
236.753	131.62
236.987	130.62
237.221	165.62
237.455	155.62
237.689	138.62
237.922	130.62
238.156	110.62
238.39	118.62
238.624	124.62
238.858	91.62
239.091	115.62
239.325	102.62
239.559	117.62
239.793	126.62
240.027	130.62
240.26	118.62
240.494	130.62
240.728	131.62
240.961	138.62
241.195	121.62
241.429	138.62
241.662	119.62
241.896	152.62
242.13	116.62
242.363	107.62
242.597	108.62
242.83	111.62
243.064	116.62
243.298	121.62
243.531	128.62
243.765	124.62
243.998	108.62
244.232	123.62
244.465	140.62
244.699	125.62
244.932	134.62
245.166	120.62
245.399	141.62
245.633	127.62
245.866	144.62
246.099	144.62
246.333	147.62
246.566	142.62
246.8	134.62
247.033	133.62
247.266	134.62
247.5	136.62
247.733	148.62
247.966	152.62
248.2	136.62
248.433	154.62
248.666	161.62
248.899	165.62
249.133	190.62
249.366	169.62
249.599	174.62
249.832	147.62
250.066	167.62
250.299	179.62
250.532	152.62
250.765	165.62
250.998	178.62
251.231	193.62
251.465	177.62
251.698	171.62
251.931	170.62
252.164	153.62
252.397	163.62
252.63	176.62
252.863	182.62
253.096	181.62
253.329	183.62
253.562	180.62
253.795	172.62
254.028	171.62
254.261	184.62
254.494	182.62
254.727	192.62
254.96	198.62
255.193	209.62
255.426	202.62
255.659	199.62
255.892	186.62
256.124	185.62
256.357	183.62
256.59	170.62
256.823	190.62
257.056	178.62
257.289	203.62
257.521	163.62
257.754	176.62
257.987	195.62
258.22	195.62
258.452	186.62
258.685	190.62
258.918	184.62
259.151	177.62
259.383	182.62
259.616	192.62
259.849	194.62
260.081	199.62
260.314	193.62
260.547	222.62
260.779	200.62
261.012	225.62
261.244	208.62
261.477	189.62
261.71	202.62
261.942	190.62
262.175	191.62
262.407	199.62
262.64	202.62
262.872	187.62
263.105	192.62
263.337	201.62
263.57	215.62
263.802	199.62
264.035	210.62
264.267	184.62
264.499	200.62
264.732	205.62
264.964	181.62
265.197	193.62
265.429	198.62
265.661	192.62
265.894	200.62
266.126	200.62
266.358	192.62
266.591	198.62
266.823	198.62
267.055	212.62
267.287	207.62
267.52	206.62
267.752	205.62
267.984	212.62
268.216	202.62
268.448	202.62
268.681	210.62
268.913	223.62
269.145	246.62
269.377	238.62
269.609	228.62
269.841	225.62
270.073	242.62
270.306	234.62
270.538	261.62
270.77	258.62
271.002	259.62
271.234	252.62
271.466	224.62
271.698	262.62
271.93	260.62
272.162	254.62
272.394	260.62
272.626	248.62
272.858	261.62
273.09	232.62
273.322	238.62
273.553	209.62
273.785	226.62
274.017	223.62
274.249	252.62
274.481	238.62
274.713	254.62
274.945	236.62
275.176	235.62
275.408	242.62
275.64	229.62
275.872	247.62
276.104	245.62
276.335	239.62
276.567	251.62
276.799	245.62
277.031	258.62
277.262	269.62
277.494	248.62
277.726	275.62
277.957	268.62
278.189	266.62
278.421	247.62
278.652	245.62
278.884	239.62
279.115	248.62
279.347	260.62
279.579	249.62
279.81	257.62
280.042	251.62
280.273	252.62
280.505	235.62
280.736	232.62
280.968	251.62
281.199	243.62
281.431	264.62
281.662	281.62
281.894	238.62
282.125	258.62
282.356	258.62
282.588	276.62
282.819	263.62
283.051	254.62
283.282	268.62
283.513	254.62
283.745	247.62
283.976	283.62
284.207	277.62
284.439	272.62
284.67	270.62
284.901	265.62
285.132	268.62
285.364	266.62
285.595	279.62
285.826	277.62
286.057	266.62
286.288	273.62
286.52	249.62
286.751	268.62
286.982	267.62
287.213	267.62
287.444	278.62
287.675	278.62
287.906	268.62
288.138	286.62
288.369	274.62
288.6	278.62
288.831	291.62
289.062	281.62
289.293	277.62
289.524	262.62
289.755	274.62
289.986	271.62
290.217	274.62
290.448	260.62
290.679	278.62
290.91	276.62
291.141	280.62
291.371	275.62
291.602	265.62
291.833	280.62
292.064	274.62
292.295	285.62
292.526	292.62
292.757	294.62
292.987	270.62
293.218	297.62
293.449	274.62
293.68	275.62
293.91	298.62
294.141	281.62
294.372	283.62
294.603	292.62
294.833	273.62
295.064	288.62
295.295	274.62
295.525	265.62
295.756	284.62
295.987	279.62
296.217	299.62
296.448	302.62
296.679	289.62
296.909	293.62
297.14	276.62
297.37	277.62
297.601	292.62
297.831	281.62
298.062	286.62
298.292	295.62
298.523	298.62
298.753	294.62
298.984	298.62
299.214	303.62
299.445	289.62
299.675	295.62
299.905	325.62
300.136	289.62
300.366	305.62
300.597	293.62
300.827	296.62
301.057	300.62
301.288	312.62
301.518	322.62
301.748	327.62
301.979	315.62
302.209	326.62
302.439	310.62
302.669	296.62
302.9	290.62
303.13	298.62
303.36	326.62
303.59	316.62
303.82	321.62
304.051	329.62
304.281	318.62
304.511	308.62
304.741	298.62
304.971	307.62
305.201	299.62
305.431	302.62
305.661	315.62
305.891	306.62
306.121	315.62
306.352	319.62
306.582	314.62
306.812	319.62
307.042	326.62
307.272	307.62
307.502	304.62
307.731	312.62
307.961	288.62
308.191	315.62
308.421	310.62
308.651	302.62
308.881	316.62
309.111	330.62
309.341	323.62
309.571	320.62
309.8	326.62
310.03	322.62
310.26	342.62
310.49	325.62
310.72	332.62
310.949	347.62
311.179	336.62
311.409	326.62
311.639	331.62
311.868	339.62
312.098	336.62
312.328	337.62
312.557	343.62
312.787	328.62
313.017	349.62
313.246	340.62
313.476	343.62
313.706	351.62
313.935	344.62
314.165	346.62
314.394	347.62
314.624	346.62
314.853	351.62
315.083	350.62
315.312	352.62
315.542	340.62
315.771	340.62
316.001	370.62
316.23	343.62
316.46	328.62
316.689	342.62
316.919	344.62
317.148	336.62
317.377	365.62
317.607	348.62
317.836	373.62
318.065	358.62
318.295	355.62
318.524	350.62
318.753	345.62
318.983	338.62
319.212	336.62
319.441	331.62
319.67	340.62
319.9	361.62
320.129	355.62
320.358	351.62
320.587	350.62
320.816	366.62
321.046	357.62
321.275	338.62
321.504	358.62
321.733	360.62
321.962	355.62
322.191	358.62
322.42	356.62
322.649	378.62
322.878	369.62
323.108	354.62
323.337	386.62
323.566	394.62
323.795	412.62
324.024	418.62
324.253	491.62
324.482	618.62
324.71	886.62
324.939	1174.62
325.168	1022.62
325.397	590.62
325.626	441.62
325.855	401.62
326.084	382.62
326.313	400.62
326.542	426.62
326.77	445.62
326.999	466.62
327.228	581.62
327.457	797.62
327.686	930.62
327.914	642.62
328.143	502.62
328.372	431.62
328.6	430.62
328.829	400.62
329.058	425.62
329.287	432.62
329.515	419.62
329.744	403.62
329.972	383.62
330.201	401.62
330.43	408.62
330.658	414.62
330.887	444.62
331.115	430.62
331.344	417.62
331.572	409.62
331.801	407.62
332.03	413.62
332.258	401.62
332.486	416.62
332.715	388.62
332.943	394.62
333.172	407.62
333.4	406.62
333.629	409.62
333.857	424.62
334.085	436.62
334.314	434.62
334.542	443.62
334.771	438.62
334.999	403.62
335.227	426.62
335.455	409.62
335.684	397.62
335.912	407.62
336.14	410.62
336.369	407.62
336.597	395.62
336.825	411.62
337.053	413.62
337.281	406.62
337.51	380.62
337.738	382.62
337.966	381.62
338.194	382.62
338.422	377.62
338.65	398.62
338.878	396.62
339.106	402.62
339.334	388.62
339.562	391.62
339.79	383.62
340.018	385.62
340.246	369.62
340.474	399.62
340.702	386.62
340.93	386.62
341.158	370.62
341.386	375.62
341.614	384.62
341.842	375.62
342.07	360.62
342.298	376.62
342.526	392.62
342.754	383.62
342.981	375.62
343.209	376.62
343.437	392.62
343.665	404.62
343.893	411.62
344.12	397.62
344.348	407.62
344.576	422.62
344.804	402.62
345.031	400.62
345.259	401.62
345.487	374.62
345.714	390.62
345.942	387.62
346.17	387.62
346.397	356.62
346.625	366.62
346.853	356.62
347.08	382.62
347.308	376.62
347.535	356.62
347.763	374.62
347.99	359.62
348.218	371.62
348.445	372.62
348.673	344.62
348.9	372.62
349.128	344.62
349.355	348.62
349.583	358.62
349.81	347.62
350.037	356.62
350.265	351.62
350.492	356.62
350.72	345.62
350.947	357.62
351.174	357.62
351.402	372.62
351.629	361.62
351.856	363.62
352.083	361.62
352.311	349.62
352.538	367.62
352.765	387.62
352.992	375.62
353.22	359.62
353.447	345.62
353.674	368.62
353.901	365.62
354.128	364.62
354.355	352.62
354.583	353.62
354.81	352.62
355.037	352.62
355.264	349.62
355.491	338.62
355.718	340.62
355.945	355.62
356.172	352.62
356.399	328.62
356.626	363.62
356.853	363.62
357.08	341.62
357.307	340.62
357.534	344.62
357.761	340.62
357.988	331.62
358.215	344.62
358.441	359.62
358.668	380.62
358.895	378.62
359.122	361.62
359.349	352.62
359.576	366.62
359.802	363.62
360.029	390.62
360.256	366.62
360.483	366.62
360.709	362.62
360.936	364.62
361.163	360.62
361.39	363.62
361.616	353.62
361.843	339.62
362.07	356.62
362.296	366.62
362.523	350.62
362.749	358.62
362.976	336.62
363.203	347.62
363.429	342.62
363.656	351.62
363.882	357.62
364.109	352.62
364.335	344.62
364.562	341.62
364.788	340.62
365.015	332.62
365.241	344.62
365.468	332.62
365.694	341.62
365.92	339.62
366.147	336.62
366.373	358.62
366.599	356.62
366.826	335.62
367.052	351.62
367.278	338.62
367.505	347.62
367.731	359.62
367.957	354.62
368.184	347.62
368.41	364.62
368.636	351.62
368.862	383.62
369.089	362.62
369.315	354.62
369.541	357.62
369.767	358.62
369.993	343.62
370.219	347.62
370.445	353.62
370.672	357.62
370.898	345.62
371.124	354.62
371.35	332.62
371.576	350.62
371.802	376.62
372.028	346.62
372.254	372.62
372.48	346.62
372.706	353.62
372.932	353.62
373.158	340.62
373.384	350.62
373.61	359.62
373.835	343.62
374.061	332.62
374.287	362.62
374.513	388.62
374.739	358.62
374.965	357.62
375.191	354.62
375.416	372.62
375.642	366.62
375.868	361.62
376.094	361.62
376.319	361.62
376.545	347.62
376.771	350.62
376.997	352.62
377.222	343.62
377.448	347.62
377.674	366.62
377.899	327.62
378.125	343.62
378.35	346.62
378.576	355.62
378.802	338.62
379.027	345.62
379.253	358.62
379.478	353.62
379.704	344.62
379.929	348.62
380.155	353.62
380.38	342.62
380.606	337.62
380.831	343.62
381.057	359.62
381.282	345.62
381.507	355.62
381.733	358.62
381.958	346.62
382.184	367.62
382.409	340.62
382.634	374.62
382.86	368.62
383.085	378.62
383.31	359.62
383.535	375.62
383.761	367.62
383.986	373.62
384.211	383.62
384.436	370.62
384.662	383.62
384.887	399.62
385.112	389.62
385.337	400.62
385.562	384.62
385.787	393.62
386.013	411.62
386.238	392.62
386.463	399.62
386.688	393.62
386.913	400.62
387.138	391.62
387.363	377.62
387.588	392.62
387.813	405.62
388.038	388.62
388.263	399.62
388.488	406.62
388.713	377.62
388.938	387.62
389.163	371.62
389.387	390.62
389.612	386.62
389.837	353.62
390.062	368.62
390.287	370.62
390.512	383.62
390.736	394.62
390.961	388.62
391.186	388.62
391.411	400.62
391.636	392.62
391.86	411.62
392.085	394.62
392.31	402.62
392.534	413.62
392.759	409.62
392.984	402.62
393.208	395.62
393.433	401.62
393.658	393.62
393.882	388.62
394.107	388.62
394.331	414.62
394.556	390.62
394.78	394.62
395.005	415.62
395.229	388.62
395.454	406.62
395.678	423.62
395.903	406.62
396.127	434.62
396.352	419.62
396.576	406.62
396.801	406.62
397.025	403.62
397.249	404.62
397.474	411.62
397.698	409.62
397.922	428.62
398.147	416.62
398.371	419.62
398.595	425.62
398.82	436.62
399.044	445.62
399.268	464.62
399.492	489.62
399.717	532.62
399.941	552.62
400.165	553.62
400.389	549.62
400.613	486.62
400.837	466.62
401.062	472.62
401.286	450.62
401.51	438.62
401.734	420.62
401.958	442.62
402.182	451.62
402.406	451.62
402.63	438.62
402.854	449.62
403.078	448.62
403.302	445.62
403.526	449.62
403.75	470.62
403.974	459.62
404.198	456.62
404.422	459.62
404.645	447.62
404.869	478.62
405.093	479.62
405.317	504.62
405.541	501.62
405.765	489.62
405.988	462.62
406.212	460.62
406.436	488.62
406.66	490.62
406.883	471.62
407.107	508.62
407.331	546.62
407.555	574.62
407.778	566.62
408.002	500.62
408.226	502.62
408.449	499.62
408.673	481.62
408.896	496.62
409.12	540.62
409.344	508.62
409.567	457.62
409.791	455.62
410.014	463.62
410.238	443.62
410.461	433.62
410.685	457.62
410.908	445.62
411.132	460.62
411.355	503.62
411.578	489.62
411.802	459.62
412.025	434.62
412.249	444.62
412.472	479.62
412.695	475.62
412.919	472.62
413.142	464.62
413.365	442.62
413.589	443.62
413.812	420.62
414.035	413.62
414.258	421.62
414.482	428.62
414.705	430.62
414.928	415.62
415.151	432.62
415.374	430.62
415.597	411.62
415.821	432.62
416.044	434.62
416.267	419.62
416.49	416.62
416.713	416.62
416.936	411.62
417.159	424.62
417.382	419.62
417.605	425.62
417.828	401.62
418.051	430.62
418.274	414.62
418.497	417.62
418.72	418.62
418.943	421.62
419.166	435.62
419.389	455.62
419.611	451.62
419.834	465.62
420.057	440.62
420.28	433.62
420.503	436.62
420.726	414.62
420.948	440.62
421.171	449.62
421.394	488.62
421.617	443.62
421.839	432.62
422.062	434.62
422.285	419.62
422.507	484.62
422.73	515.62
422.953	492.62
423.175	458.62
423.398	461.62
423.621	440.62
423.843	464.62
424.066	466.62
424.288	452.62
424.511	472.62
424.733	508.62
424.956	555.62
425.178	495.62
425.401	524.62
425.623	533.62
425.846	475.62
426.068	431.62
426.291	431.62
426.513	450.62
426.735	447.62
426.958	482.62
427.18	521.62
427.402	617.62
427.625	674.62
427.847	546.62
428.069	487.62
428.292	443.62
428.514	443.62
428.736	430.62
428.958	418.62
429.181	417.62
429.403	418.62
429.625	407.62
429.847	416.62
430.069	486.62
430.292	459.62
430.514	418.62
430.736	426.62
430.958	419.62
431.18	414.62
431.402	401.62
431.624	392.62
431.846	408.62
432.068	393.62
432.29	391.62
432.512	382.62
432.734	401.62
432.956	384.62
433.178	412.62
433.4	426.62
433.622	405.62
433.844	394.62
434.066	395.62
434.287	409.62
434.509	402.62
434.731	412.62
434.953	427.62
435.175	440.62
435.397	458.62
435.618	426.62
435.84	458.62
436.062	520.62
436.284	564.62
436.505	486.62
436.727	434.62
436.949	422.62
437.17	416.62
437.392	405.62
437.614	420.62
437.835	426.62
438.057	483.62
438.278	535.62
438.5	563.62
438.721	598.62
438.943	585.62
439.165	469.62
439.386	435.62
439.608	445.62
439.829	456.62
440.05	452.62
440.272	467.62
440.493	432.62
440.715	425.62
440.936	414.62
441.158	444.62
441.379	410.62
441.6	424.62
441.822	438.62
442.043	456.62
442.264	500.62
442.486	531.62
442.707	479.62
442.928	438.62
443.149	458.62
443.371	456.62
443.592	478.62
443.813	553.62
444.034	579.62
444.255	495.62
444.476	462.62
444.698	455.62
444.919	454.62
445.14	567.62
445.361	509.62
445.582	458.62
445.803	498.62
446.024	552.62
446.245	561.62
446.466	513.62
446.687	459.62
446.908	435.62
447.129	413.62
447.35	411.62
447.571	406.62
447.792	397.62
448.013	415.62
448.234	411.62
448.455	440.62
448.675	518.62
448.896	603.62
449.117	527.62
449.338	477.62
449.559	554.62
449.779	625.62
450	510.62
450.221	412.62
450.442	400.62
450.662	400.62
450.883	379.62
451.104	372.62
451.324	382.62
451.545	393.62
451.766	369.62
451.986	369.62
452.207	352.62
452.428	351.62
452.648	362.62
452.869	342.62
453.089	367.62
453.31	362.62
453.53	360.62
453.751	358.62
453.971	344.62
454.192	360.62
454.412	369.62
454.633	336.62
454.853	366.62
455.073	342.62
455.294	363.62
455.514	402.62
455.734	402.62
455.955	359.62
456.175	374.62
456.395	342.62
456.616	333.62
456.836	350.62
457.056	338.62
457.276	340.62
457.497	364.62
457.717	343.62
457.937	349.62
458.157	359.62
458.377	359.62
458.598	376.62
458.818	383.62
459.038	430.62
459.258	461.62
459.478	372.62
459.698	392.62
459.918	393.62
460.138	408.62
460.358	400.62
460.578	407.62
460.798	415.62
461.018	403.62
461.238	410.62
461.458	425.62
461.678	424.62
461.898	438.62
462.118	407.62
462.338	421.62
462.558	440.62
462.777	431.62
462.997	444.62
463.217	477.62
463.437	484.62
463.657	470.62
463.876	459.62
464.096	434.62
464.316	441.62
464.536	458.62
464.755	436.62
464.975	425.62
465.195	424.62
465.414	451.62
465.634	419.62
465.854	428.62
466.073	417.62
466.293	384.62
466.512	380.62
466.732	384.62
466.951	371.62
467.171	375.62
467.391	385.62
467.61	380.62
467.829	384.62
468.049	364.62
468.268	378.62
468.488	366.62
468.707	356.62
468.927	392.62
469.146	374.62
469.365	376.62
469.585	348.62
469.804	376.62
470.023	392.62
470.243	366.62
470.462	380.62
470.681	384.62
470.901	385.62
471.12	374.62
471.339	384.62
471.558	396.62
471.777	379.62
471.997	380.62
472.216	392.62
472.435	386.62
472.654	377.62
472.873	376.62
473.092	376.62
473.311	375.62
473.53	390.62
473.749	394.62
473.968	394.62
474.187	466.62
474.406	459.62
474.625	423.62
474.844	387.62
475.063	382.62
475.282	368.62
475.501	368.62
475.72	394.62
475.939	374.62
476.158	365.62
476.377	388.62
476.596	374.62
476.814	402.62
477.033	426.62
477.252	394.62
477.471	379.62
477.69	416.62
477.908	379.62
478.127	422.62
478.346	425.62
478.564	420.62
478.783	430.62
479.002	417.62
479.22	404.62
479.439	448.62
479.658	451.62
479.876	440.62
480.095	446.62
480.313	473.62
480.532	457.62
480.751	478.62
480.969	463.62
481.188	472.62
481.406	474.62
481.624	460.62
481.843	443.62
482.061	446.62
482.28	443.62
482.498	422.62
482.717	448.62
482.935	425.62
483.153	438.62
483.372	421.62
483.59	424.62
483.808	436.62
484.027	457.62
484.245	463.62
484.463	447.62
484.681	443.62
484.9	447.62
485.118	419.62
485.336	454.62
485.554	428.62
485.772	449.62
485.99	444.62
486.209	449.62
486.427	455.62
486.645	435.62
486.863	479.62
487.081	451.62
487.299	469.62
487.517	470.62
487.735	461.62
487.953	463.62
488.171	462.62
488.389	468.62
488.607	436.62
488.825	464.62
489.043	470.62
489.261	470.62
489.479	447.62
489.696	466.62
489.914	485.62
490.132	450.62
490.35	473.62
490.568	476.62
490.786	498.62
491.003	481.62
491.221	494.62
491.439	475.62
491.657	497.62
491.874	506.62
492.092	509.62
492.31	510.62
492.527	521.62
492.745	499.62
492.963	516.62
493.18	511.62
493.398	560.62
493.615	544.62
493.833	518.62
494.05	538.62
494.268	529.62
494.485	491.62
494.703	521.62
494.92	513.62
495.138	535.62
495.355	537.62
495.573	524.62
495.79	537.62
496.008	542.62
496.225	532.62
496.442	517.62
496.66	551.62
496.877	529.62
497.094	536.62
497.312	556.62
497.529	563.62
497.746	547.62
497.963	570.62
498.181	574.62
498.398	609.62
498.615	608.62
498.832	625.62
499.049	642.62
499.267	673.62
499.484	707.62
499.701	727.62
499.918	782.62
500.135	822.62
500.352	847.62
500.569	870.62
500.786	871.62
501.003	875.62
501.22	800.62
501.437	775.62
501.654	768.62
501.871	726.62
502.088	678.62
