Data from 1977.PennyLincolnUp.Lamp.En5.5.200Scan.071719.P1_HRD10591_16-06-25-864.txt Node
Date: Thu Jul 18 16:06:25 EDT 2019
User: cochatt
Spectrometer: HR+D1059
Trigger mode: 1
Integration Time (sec): 1.000000E-1
Scans to average: 1
Electric dark correction enabled: true
Nonlinearity correction enabled: false
Boxcar width: 0
XAxis mode: Wavelengths
Number of Pixels in Spectrum: 2048
>>>>>Begin Spectral Data<<<<<
223.165	-20.81
223.4	-20.81
223.635	-20.81
223.869	-14.81
224.104	-16.81
224.338	-16.81
224.573	-12.81
224.808	-8.81
225.042	-8.81
225.277	-4.81
225.511	1.19
225.746	-11.81
225.98	9.19
226.215	9.19
226.449	11.19
226.683	23.19
226.918	36.19
227.152	26.19
227.387	27.19
227.621	25.19
227.856	40.19
228.09	46.19
228.324	52.19
228.559	56.19
228.793	69.19
229.027	90.19
229.262	94.19
229.496	106.19
229.73	114.19
229.964	144.19
230.199	112.19
230.433	96.19
230.667	105.19
230.901	121.19
231.136	104.19
231.37	106.19
231.604	85.19
231.838	103.19
232.072	113.19
232.306	110.19
232.541	96.19
232.775	104.19
233.009	104.19
233.243	111.19
233.477	113.19
233.711	108.19
233.945	112.19
234.179	114.19
234.413	103.19
234.647	116.19
234.881	112.19
235.115	111.19
235.349	106.19
235.583	116.19
235.817	102.19
236.051	110.19
236.285	120.19
236.519	132.19
236.753	130.19
236.987	145.19
237.221	152.19
237.455	199.19
237.689	154.19
237.922	116.19
238.156	134.19
238.39	138.19
238.624	117.19
238.858	113.19
239.091	111.19
239.325	124.19
239.559	119.19
239.793	115.19
240.027	122.19
240.26	138.19
240.494	133.19
240.728	128.19
240.961	162.19
241.195	139.19
241.429	149.19
241.662	128.19
241.896	136.19
242.13	131.19
242.363	136.19
242.597	130.19
242.83	145.19
243.064	135.19
243.298	139.19
243.531	137.19
243.765	136.19
243.998	144.19
244.232	131.19
244.465	127.19
244.699	144.19
244.932	148.19
245.166	132.19
245.399	152.19
245.633	132.19
245.866	130.19
246.099	146.19
246.333	140.19
246.566	153.19
246.8	148.19
247.033	157.19
247.266	141.19
247.5	152.19
247.733	159.19
247.966	154.19
248.2	158.19
248.433	159.19
248.666	154.19
248.899	166.19
249.133	183.19
249.366	194.19
249.599	202.19
249.832	172.19
250.066	171.19
250.299	165.19
250.532	181.19
250.765	195.19
250.998	203.19
251.231	214.19
251.465	212.19
251.698	184.19
251.931	186.19
252.164	174.19
252.397	190.19
252.63	182.19
252.863	204.19
253.096	200.19
253.329	208.19
253.562	215.19
253.795	218.19
254.028	203.19
254.261	210.19
254.494	220.19
254.727	246.19
254.96	265.19
255.193	245.19
255.426	227.19
255.659	216.19
255.892	228.19
256.124	211.19
256.357	211.19
256.59	217.19
256.823	188.19
257.056	217.19
257.289	209.19
257.521	226.19
257.754	213.19
257.987	200.19
258.22	214.19
258.452	189.19
258.685	190.19
258.918	200.19
259.151	211.19
259.383	238.19
259.616	206.19
259.849	208.19
260.081	219.19
260.314	254.19
260.547	270.19
260.779	235.19
261.012	223.19
261.244	218.19
261.477	214.19
261.71	208.19
261.942	200.19
262.175	211.19
262.407	220.19
262.64	209.19
262.872	211.19
263.105	225.19
263.337	207.19
263.57	225.19
263.802	212.19
264.035	208.19
264.267	211.19
264.499	234.19
264.732	226.19
264.964	214.19
265.197	216.19
265.429	230.19
265.661	207.19
265.894	198.19
266.126	203.19
266.358	226.19
266.591	230.19
266.823	230.19
267.055	226.19
267.287	225.19
267.52	228.19
267.752	223.19
267.984	232.19
268.216	224.19
268.448	229.19
268.681	223.19
268.913	247.19
269.145	254.19
269.377	268.19
269.609	270.19
269.841	255.19
270.073	278.19
270.306	283.19
270.538	300.19
270.77	289.19
271.002	287.19
271.234	289.19
271.466	287.19
271.698	312.19
271.93	300.19
272.162	298.19
272.394	303.19
272.626	296.19
272.858	312.19
273.09	289.19
273.322	269.19
273.553	252.19
273.785	257.19
274.017	259.19
274.249	261.19
274.481	256.19
274.713	263.19
274.945	289.19
275.176	268.19
275.408	256.19
275.64	256.19
275.872	247.19
276.104	268.19
276.335	276.19
276.567	267.19
276.799	278.19
277.031	299.19
277.262	316.19
277.494	304.19
277.726	318.19
277.957	284.19
278.189	296.19
278.421	269.19
278.652	277.19
278.884	297.19
279.115	269.19
279.347	275.19
279.579	283.19
279.81	264.19
280.042	277.19
280.273	274.19
280.505	281.19
280.736	264.19
280.968	281.19
281.199	263.19
281.431	274.19
281.662	282.19
281.894	277.19
282.125	279.19
282.356	305.19
282.588	304.19
282.819	296.19
283.051	273.19
283.282	288.19
283.513	266.19
283.745	278.19
283.976	292.19
284.207	292.19
284.439	301.19
284.67	294.19
284.901	291.19
285.132	286.19
285.364	292.19
285.595	303.19
285.826	266.19
286.057	308.19
286.288	322.19
286.52	292.19
286.751	298.19
286.982	274.19
287.213	283.19
287.444	302.19
287.675	302.19
287.906	310.19
288.138	319.19
288.369	314.19
288.6	288.19
288.831	304.19
289.062	310.19
289.293	300.19
289.524	296.19
289.755	292.19
289.986	295.19
290.217	302.19
290.448	306.19
290.679	314.19
290.91	300.19
291.141	314.19
291.371	279.19
291.602	303.19
291.833	287.19
292.064	306.19
292.295	322.19
292.526	309.19
292.757	300.19
292.987	308.19
293.218	303.19
293.449	293.19
293.68	315.19
293.91	305.19
294.141	302.19
294.372	314.19
294.603	314.19
294.833	303.19
295.064	308.19
295.295	306.19
295.525	316.19
295.756	315.19
295.987	313.19
296.217	345.19
296.448	343.19
296.679	319.19
296.909	312.19
297.14	306.19
297.37	329.19
297.601	323.19
297.831	328.19
298.062	326.19
298.292	314.19
298.523	330.19
298.753	325.19
298.984	319.19
299.214	334.19
299.445	340.19
299.675	331.19
299.905	327.19
300.136	322.19
300.366	320.19
300.597	327.19
300.827	346.19
301.057	330.19
301.288	331.19
301.518	352.19
301.748	323.19
301.979	340.19
302.209	346.19
302.439	355.19
302.669	351.19
302.9	358.19
303.13	360.19
303.36	336.19
303.59	360.19
303.82	343.19
304.051	321.19
304.281	347.19
304.511	343.19
304.741	341.19
304.971	353.19
305.201	351.19
305.431	343.19
305.661	339.19
305.891	345.19
306.121	352.19
306.352	351.19
306.582	360.19
306.812	367.19
307.042	355.19
307.272	350.19
307.502	353.19
307.731	343.19
307.961	336.19
308.191	353.19
308.421	328.19
308.651	363.19
308.881	345.19
309.111	353.19
309.341	354.19
309.571	353.19
309.8	374.19
310.03	384.19
310.26	384.19
310.49	380.19
310.72	386.19
310.949	382.19
311.179	380.19
311.409	379.19
311.639	372.19
311.868	376.19
312.098	379.19
312.328	376.19
312.557	400.19
312.787	408.19
313.017	389.19
313.246	396.19
313.476	399.19
313.706	379.19
313.935	401.19
314.165	380.19
314.394	379.19
314.624	390.19
314.853	388.19
315.083	392.19
315.312	394.19
315.542	390.19
315.771	378.19
316.001	368.19
316.23	368.19
316.46	393.19
316.689	386.19
316.919	379.19
317.148	387.19
317.377	392.19
317.607	392.19
317.836	386.19
318.065	381.19
318.295	380.19
318.524	386.19
318.753	370.19
318.983	377.19
319.212	397.19
319.441	395.19
319.67	391.19
319.9	397.19
320.129	396.19
320.358	398.19
320.587	392.19
320.816	391.19
321.046	378.19
321.275	418.19
321.504	404.19
321.733	417.19
321.962	410.19
322.191	409.19
322.42	402.19
322.649	430.19
322.878	439.19
323.108	430.19
323.337	456.19
323.566	468.19
323.795	514.19
324.024	554.19
324.253	603.19
324.482	860.19
324.71	1228.19
324.939	1690.19
325.168	1442.19
325.397	792.19
325.626	581.19
325.855	510.19
326.084	456.19
326.313	469.19
326.542	487.19
326.77	521.19
326.999	586.19
327.228	751.19
327.457	1099.19
327.686	1263.19
327.914	880.19
328.143	622.19
328.372	549.19
328.6	528.19
328.829	500.19
329.058	530.19
329.287	521.19
329.515	498.19
329.744	495.19
329.972	493.19
330.201	483.19
330.43	521.19
330.658	518.19
330.887	531.19
331.115	528.19
331.344	484.19
331.572	467.19
331.801	477.19
332.03	488.19
332.258	452.19
332.486	456.19
332.715	467.19
332.943	472.19
333.172	476.19
333.4	457.19
333.629	461.19
333.857	490.19
334.085	488.19
334.314	518.19
334.542	515.19
334.771	522.19
334.999	497.19
335.227	479.19
335.455	470.19
335.684	466.19
335.912	461.19
336.14	452.19
336.369	469.19
336.597	452.19
336.825	476.19
337.053	477.19
337.281	458.19
337.51	450.19
337.738	475.19
337.966	458.19
338.194	470.19
338.422	440.19
338.65	434.19
338.878	448.19
339.106	425.19
339.334	444.19
339.562	430.19
339.79	430.19
340.018	440.19
340.246	440.19
340.474	427.19
340.702	443.19
340.93	450.19
341.158	425.19
341.386	426.19
341.614	412.19
341.842	429.19
342.07	436.19
342.298	441.19
342.526	430.19
342.754	410.19
342.981	427.19
343.209	404.19
343.437	419.19
343.665	436.19
343.893	439.19
344.12	484.19
344.348	455.19
344.576	452.19
344.804	444.19
345.031	441.19
345.259	448.19
345.487	418.19
345.714	444.19
345.942	426.19
346.17	419.19
346.397	408.19
346.625	395.19
346.853	432.19
347.08	420.19
347.308	411.19
347.535	411.19
347.763	396.19
347.99	414.19
348.218	450.19
348.445	425.19
348.673	409.19
348.9	407.19
349.128	410.19
349.355	398.19
349.583	387.19
349.81	409.19
350.037	415.19
350.265	398.19
350.492	398.19
350.72	398.19
350.947	409.19
351.174	399.19
351.402	419.19
351.629	406.19
351.856	385.19
352.083	387.19
352.311	422.19
352.538	416.19
352.765	439.19
352.992	410.19
353.22	417.19
353.447	406.19
353.674	390.19
353.901	402.19
354.128	386.19
354.355	390.19
354.583	375.19
354.81	390.19
355.037	375.19
355.264	396.19
355.491	359.19
355.718	366.19
355.945	392.19
356.172	381.19
356.399	385.19
356.626	396.19
356.853	395.19
357.08	380.19
357.307	385.19
357.534	379.19
357.761	404.19
357.988	397.19
358.215	381.19
358.441	387.19
358.668	379.19
358.895	402.19
359.122	391.19
359.349	401.19
359.576	397.19
359.802	428.19
360.029	424.19
360.256	417.19
360.483	410.19
360.709	403.19
360.936	407.19
361.163	396.19
361.39	388.19
361.616	382.19
361.843	399.19
362.07	380.19
362.296	404.19
362.523	393.19
362.749	375.19
362.976	398.19
363.203	387.19
363.429	397.19
363.656	377.19
363.882	376.19
364.109	400.19
364.335	395.19
364.562	369.19
364.788	387.19
365.015	371.19
365.241	387.19
365.468	377.19
365.694	397.19
365.92	371.19
366.147	375.19
366.373	388.19
366.599	363.19
366.826	379.19
367.052	386.19
367.278	368.19
367.505	385.19
367.731	387.19
367.957	367.19
368.184	390.19
368.41	391.19
368.636	406.19
368.862	415.19
369.089	400.19
369.315	379.19
369.541	390.19
369.767	378.19
369.993	376.19
370.219	384.19
370.445	383.19
370.672	393.19
370.898	395.19
371.124	388.19
371.35	375.19
371.576	392.19
371.802	413.19
372.028	392.19
372.254	398.19
372.48	385.19
372.706	389.19
372.932	407.19
373.158	395.19
373.384	412.19
373.61	384.19
373.835	398.19
374.061	392.19
374.287	395.19
374.513	404.19
374.739	408.19
374.965	396.19
375.191	390.19
375.416	388.19
375.642	410.19
375.868	406.19
376.094	398.19
376.319	391.19
376.545	382.19
376.771	397.19
376.997	384.19
377.222	386.19
377.448	390.19
377.674	396.19
377.899	382.19
378.125	379.19
378.35	369.19
378.576	375.19
378.802	379.19
379.027	380.19
379.253	376.19
379.478	379.19
379.704	386.19
379.929	406.19
380.155	395.19
380.38	388.19
380.606	380.19
380.831	387.19
381.057	404.19
381.282	359.19
381.507	379.19
381.733	384.19
381.958	396.19
382.184	390.19
382.409	400.19
382.634	386.19
382.86	400.19
383.085	402.19
383.31	380.19
383.535	410.19
383.761	389.19
383.986	395.19
384.211	416.19
384.436	396.19
384.662	411.19
384.887	415.19
385.112	409.19
385.337	394.19
385.562	411.19
385.787	427.19
386.013	422.19
386.238	424.19
386.463	427.19
386.688	416.19
386.913	430.19
387.138	439.19
387.363	434.19
387.588	426.19
387.813	416.19
388.038	400.19
388.263	418.19
388.488	431.19
388.713	415.19
388.938	418.19
389.163	414.19
389.387	430.19
389.612	404.19
389.837	415.19
390.062	405.19
390.287	407.19
390.512	428.19
390.736	417.19
390.961	408.19
391.186	404.19
391.411	438.19
391.636	447.19
391.86	422.19
392.085	440.19
392.31	415.19
392.534	433.19
392.759	418.19
392.984	410.19
393.208	415.19
393.433	430.19
393.658	444.19
393.882	420.19
394.107	428.19
394.331	435.19
394.556	423.19
394.78	437.19
395.005	438.19
395.229	435.19
395.454	444.19
395.678	424.19
395.903	438.19
396.127	444.19
396.352	459.19
396.576	447.19
396.801	418.19
397.025	431.19
397.249	425.19
397.474	455.19
397.698	464.19
397.922	472.19
398.147	472.19
398.371	472.19
398.595	473.19
398.82	490.19
399.044	477.19
399.268	527.19
399.492	567.19
399.717	559.19
399.941	609.19
400.165	608.19
400.389	612.19
400.613	539.19
400.837	506.19
401.062	489.19
401.286	502.19
401.51	518.19
401.734	496.19
401.958	485.19
402.182	486.19
402.406	485.19
402.63	479.19
402.854	487.19
403.078	501.19
403.302	510.19
403.526	475.19
403.75	492.19
403.974	518.19
404.198	517.19
404.422	517.19
404.645	508.19
404.869	500.19
405.093	529.19
405.317	569.19
405.541	571.19
405.765	528.19
405.988	518.19
406.212	526.19
406.436	530.19
406.66	560.19
406.883	528.19
407.107	558.19
407.331	582.19
407.555	628.19
407.778	643.19
408.002	595.19
408.226	576.19
408.449	523.19
408.673	523.19
408.896	576.19
409.12	580.19
409.344	554.19
409.567	517.19
409.791	503.19
410.014	486.19
410.238	481.19
410.461	492.19
410.685	496.19
410.908	489.19
411.132	544.19
411.355	557.19
411.578	546.19
411.802	483.19
412.025	503.19
412.249	499.19
412.472	521.19
412.695	554.19
412.919	521.19
413.142	498.19
413.365	478.19
413.589	476.19
413.812	476.19
414.035	457.19
414.258	470.19
414.482	463.19
414.705	471.19
414.928	472.19
415.151	457.19
415.374	479.19
415.597	464.19
415.821	463.19
416.044	454.19
416.267	476.19
416.49	477.19
416.713	459.19
416.936	448.19
417.159	463.19
417.382	452.19
417.605	457.19
417.828	462.19
418.051	469.19
418.274	471.19
418.497	452.19
418.72	458.19
418.943	478.19
419.166	479.19
419.389	492.19
419.611	530.19
419.834	499.19
420.057	484.19
420.28	475.19
420.503	476.19
420.726	470.19
420.948	480.19
421.171	516.19
421.394	537.19
421.617	502.19
421.839	482.19
422.062	479.19
422.285	482.19
422.507	522.19
422.73	592.19
422.953	567.19
423.175	514.19
423.398	495.19
423.621	490.19
423.843	504.19
424.066	524.19
424.288	534.19
424.511	518.19
424.733	575.19
424.956	637.19
425.178	604.19
425.401	596.19
425.623	628.19
425.846	549.19
426.068	522.19
426.291	499.19
426.513	480.19
426.735	518.19
426.958	535.19
427.18	603.19
427.402	728.19
427.625	784.19
427.847	649.19
428.069	566.19
428.292	528.19
428.514	494.19
428.736	470.19
428.958	475.19
429.181	470.19
429.403	472.19
429.625	478.19
429.847	512.19
430.069	535.19
430.292	551.19
430.514	486.19
430.736	464.19
430.958	460.19
431.18	450.19
431.402	461.19
431.624	438.19
431.846	448.19
432.068	440.19
432.29	439.19
432.512	448.19
432.734	448.19
432.956	446.19
433.178	473.19
433.4	466.19
433.622	434.19
433.844	437.19
434.066	426.19
434.287	435.19
434.509	448.19
434.731	442.19
434.953	442.19
435.175	488.19
435.397	502.19
435.618	500.19
435.84	544.19
436.062	602.19
436.284	661.19
436.505	533.19
436.727	488.19
436.949	476.19
437.17	456.19
437.392	452.19
437.614	482.19
437.835	477.19
438.057	543.19
438.278	640.19
438.5	642.19
438.721	688.19
438.943	656.19
439.165	558.19
439.386	501.19
439.608	485.19
439.829	516.19
440.05	515.19
440.272	562.19
440.493	495.19
440.715	480.19
440.936	464.19
441.158	451.19
441.379	464.19
441.6	488.19
441.822	495.19
442.043	514.19
442.264	577.19
442.486	594.19
442.707	530.19
442.928	509.19
443.149	509.19
443.371	513.19
443.592	548.19
443.813	653.19
444.034	669.19
444.255	571.19
444.476	564.19
444.698	514.19
444.919	496.19
445.14	602.19
445.361	548.19
445.582	524.19
445.803	560.19
446.024	666.19
446.245	642.19
446.466	609.19
446.687	501.19
446.908	487.19
447.129	450.19
447.35	447.19
447.571	448.19
447.792	436.19
448.013	456.19
448.234	460.19
448.455	499.19
448.675	608.19
448.896	674.19
449.117	568.19
449.338	553.19
449.559	657.19
449.779	706.19
450	587.19
450.221	478.19
450.442	448.19
450.662	447.19
450.883	452.19
451.104	433.19
451.324	424.19
451.545	435.19
451.766	417.19
451.986	411.19
452.207	399.19
452.428	399.19
452.648	411.19
452.869	387.19
453.089	392.19
453.31	431.19
453.53	396.19
453.751	382.19
453.971	399.19
454.192	406.19
454.412	388.19
454.633	418.19
454.853	393.19
455.073	389.19
455.294	420.19
455.514	450.19
455.734	450.19
455.955	390.19
456.175	399.19
456.395	393.19
456.616	386.19
456.836	378.19
457.056	393.19
457.276	361.19
457.497	384.19
457.717	380.19
457.937	384.19
458.157	395.19
458.377	388.19
458.598	390.19
458.818	450.19
459.038	512.19
459.258	522.19
459.478	483.19
459.698	435.19
459.918	437.19
460.138	454.19
460.358	463.19
460.578	436.19
460.798	462.19
461.018	463.19
461.238	470.19
461.458	464.19
461.678	455.19
461.898	451.19
462.118	464.19
462.338	450.19
462.558	466.19
462.777	462.19
462.997	501.19
463.217	497.19
463.437	508.19
463.657	479.19
463.876	467.19
464.096	491.19
464.316	482.19
464.536	502.19
464.755	497.19
464.975	494.19
465.195	494.19
465.414	547.19
465.634	484.19
465.854	437.19
466.073	438.19
466.293	431.19
466.512	422.19
466.732	416.19
466.951	410.19
467.171	413.19
467.391	412.19
467.61	412.19
467.829	436.19
468.049	422.19
468.268	401.19
468.488	397.19
468.707	404.19
468.927	418.19
469.146	392.19
469.365	411.19
469.585	400.19
469.804	385.19
470.023	425.19
470.243	419.19
470.462	401.19
470.681	438.19
470.901	422.19
471.12	423.19
471.339	424.19
471.558	413.19
471.777	420.19
471.997	438.19
472.216	418.19
472.435	424.19
472.654	403.19
472.873	426.19
473.092	409.19
473.311	417.19
473.53	400.19
473.749	423.19
473.968	465.19
474.187	530.19
474.406	558.19
474.625	467.19
474.844	442.19
475.063	423.19
475.282	416.19
475.501	413.19
475.72	434.19
475.939	430.19
476.158	414.19
476.377	423.19
476.596	423.19
476.814	445.19
477.033	419.19
477.252	426.19
477.471	416.19
477.69	458.19
477.908	468.19
478.127	464.19
478.346	460.19
478.564	481.19
478.783	468.19
479.002	500.19
479.22	463.19
479.439	484.19
479.658	503.19
479.876	485.19
480.095	512.19
480.313	523.19
480.532	516.19
480.751	545.19
480.969	520.19
481.188	551.19
481.406	535.19
481.624	517.19
481.843	512.19
482.061	473.19
482.28	492.19
482.498	486.19
482.717	486.19
482.935	473.19
483.153	512.19
483.372	461.19
483.59	477.19
483.808	472.19
484.027	475.19
484.245	476.19
484.463	479.19
484.681	499.19
484.9	497.19
485.118	491.19
485.336	484.19
485.554	492.19
485.772	497.19
485.99	512.19
486.209	510.19
486.427	499.19
486.645	500.19
486.863	507.19
487.081	522.19
487.299	506.19
487.517	517.19
487.735	502.19
487.953	523.19
488.171	504.19
488.389	499.19
488.607	511.19
488.825	513.19
489.043	523.19
489.261	480.19
489.479	532.19
489.696	516.19
489.914	548.19
490.132	533.19
490.35	513.19
490.568	539.19
490.786	533.19
491.003	548.19
491.221	558.19
491.439	543.19
491.657	569.19
491.874	564.19
492.092	578.19
492.31	576.19
492.527	572.19
492.745	574.19
492.963	592.19
493.18	586.19
493.398	587.19
493.615	605.19
493.833	603.19
494.05	596.19
494.268	596.19
494.485	579.19
494.703	596.19
494.92	595.19
495.138	588.19
495.355	579.19
495.573	577.19
495.79	587.19
496.008	624.19
496.225	608.19
496.442	599.19
496.66	596.19
496.877	591.19
497.094	595.19
497.312	600.19
497.529	625.19
497.746	640.19
497.963	651.19
498.181	651.19
498.398	679.19
498.615	665.19
498.832	699.19
499.049	731.19
499.267	754.19
499.484	764.19
499.701	810.19
499.918	822.19
500.135	889.19
500.352	934.19
500.569	948.19
500.786	946.19
501.003	930.19
501.22	894.19
501.437	843.19
501.654	816.19
501.871	815.19
502.088	761.19
