Data from 1977.PennyLincolnUp.Lamp.En5.5.200Scan.071719.P1_HRD10591_16-06-37-865.txt Node
Date: Thu Jul 18 16:06:37 EDT 2019
User: cochatt
Spectrometer: HR+D1059
Trigger mode: 1
Integration Time (sec): 1.000000E-1
Scans to average: 1
Electric dark correction enabled: true
Nonlinearity correction enabled: false
Boxcar width: 0
XAxis mode: Wavelengths
Number of Pixels in Spectrum: 2048
>>>>>Begin Spectral Data<<<<<
223.165	-17
223.4	-17
223.635	-17
223.869	-4
224.104	-12
224.338	-8
224.573	-8
224.808	-18
225.042	-13
225.277	3
225.511	-12
225.746	-12
225.98	10
226.215	16
226.449	9
226.683	11
226.918	15
227.152	40
227.387	41
227.621	36
227.856	29
228.09	45
228.324	33
228.559	56
228.793	68
229.027	93
229.262	108
229.496	103
229.73	105
229.964	141
230.199	120
230.433	113
230.667	114
230.901	114
231.136	114
231.37	119
231.604	109
231.838	105
232.072	101
232.306	101
232.541	107
232.775	113
233.009	114
233.243	115
233.477	105
233.711	101
233.945	118
234.179	112
234.413	108
234.647	114
234.881	108
235.115	114
235.349	121
235.583	133
235.817	125
236.051	125
236.285	104
236.519	110
236.753	113
236.987	136
237.221	172
237.455	202
237.689	174
237.922	148
238.156	139
238.39	133
238.624	121
238.858	129
239.091	107
239.325	118
239.559	125
239.793	128
240.027	126
240.26	118
240.494	136
240.728	146
240.961	135
241.195	129
241.429	128
241.662	128
241.896	123
242.13	138
242.363	128
242.597	130
242.83	138
243.064	134
243.298	145
243.531	143
243.765	148
243.998	145
244.232	145
244.465	117
244.699	141
244.932	130
245.166	136
245.399	158
245.633	142
245.866	148
246.099	140
246.333	149
246.566	160
246.8	149
247.033	144
247.266	149
247.5	153
247.733	151
247.966	177
248.2	165
248.433	146
248.666	168
248.899	174
249.133	197
249.366	196
249.599	198
249.832	157
250.066	161
250.299	153
250.532	180
250.765	196
250.998	211
251.231	216
251.465	197
251.698	209
251.931	206
252.164	199
252.397	178
252.63	215
252.863	202
253.096	204
253.329	222
253.562	221
253.795	210
254.028	219
254.261	220
254.494	216
254.727	242
254.96	277
255.193	247
255.426	224
255.659	217
255.892	213
256.124	218
256.357	223
256.59	198
256.823	200
257.056	211
257.289	198
257.521	220
257.754	221
257.987	218
258.22	201
258.452	214
258.685	199
258.918	199
259.151	217
259.383	218
259.616	217
259.849	221
260.081	240
260.314	241
260.547	251
260.779	245
261.012	223
261.244	216
261.477	231
261.71	210
261.942	214
262.175	236
262.407	235
262.64	208
262.872	212
263.105	229
263.337	223
263.57	219
263.802	192
264.035	210
264.267	214
264.499	209
264.732	230
264.964	232
265.197	227
265.429	226
265.661	225
265.894	220
266.126	217
266.358	215
266.591	220
266.823	238
267.055	218
267.287	219
267.52	217
267.752	230
267.984	218
268.216	240
268.448	248
268.681	229
268.913	255
269.145	256
269.377	286
269.609	270
269.841	272
270.073	274
270.306	292
270.538	320
270.77	318
271.002	297
271.234	291
271.466	276
271.698	318
271.93	310
272.162	308
272.394	330
272.626	301
272.858	279
273.09	274
273.322	286
273.553	269
273.785	296
274.017	287
274.249	269
274.481	289
274.713	268
274.945	286
275.176	263
275.408	266
275.64	256
275.872	268
276.104	275
276.335	274
276.567	270
276.799	279
277.031	280
277.262	286
277.494	321
277.726	293
277.957	286
278.189	273
278.421	278
278.652	301
278.884	279
279.115	275
279.347	296
279.579	286
279.81	267
280.042	291
280.273	269
280.505	270
280.736	281
280.968	288
281.199	265
281.431	267
281.662	293
281.894	287
282.125	290
282.356	308
282.588	299
282.819	293
283.051	295
283.282	290
283.513	283
283.745	296
283.976	308
284.207	303
284.439	278
284.67	304
284.901	309
285.132	307
285.364	311
285.595	294
285.826	285
286.057	297
286.288	285
286.52	290
286.751	316
286.982	293
287.213	300
287.444	291
287.675	307
287.906	299
288.138	304
288.369	296
288.6	314
288.831	313
289.062	308
289.293	297
289.524	308
289.755	312
289.986	290
290.217	294
290.448	300
290.679	291
290.91	288
291.141	294
291.371	310
291.602	323
291.833	304
292.064	297
292.295	315
292.526	324
292.757	299
292.987	296
293.218	294
293.449	324
293.68	299
293.91	320
294.141	307
294.372	288
294.603	308
294.833	304
295.064	321
295.295	309
295.525	305
295.756	322
295.987	309
296.217	347
296.448	349
296.679	321
296.909	314
297.14	311
297.37	297
297.601	332
297.831	312
298.062	329
298.292	320
298.523	339
298.753	334
298.984	319
299.214	334
299.445	331
299.675	322
299.905	342
300.136	329
300.366	324
300.597	339
300.827	334
301.057	358
301.288	347
301.518	352
301.748	352
301.979	332
302.209	349
302.439	351
302.669	346
302.9	332
303.13	348
303.36	338
303.59	346
303.82	352
304.051	363
304.281	350
304.511	333
304.741	326
304.971	349
305.201	337
305.431	333
305.661	348
305.891	358
306.121	345
306.352	346
306.582	365
306.812	359
307.042	355
307.272	348
307.502	340
307.731	347
307.961	343
308.191	356
308.421	337
308.651	356
308.881	356
309.111	373
309.341	353
309.571	356
309.8	362
310.03	376
310.26	372
310.49	388
310.72	362
310.949	398
311.179	390
311.409	361
311.639	382
311.868	398
312.098	371
312.328	392
312.557	403
312.787	412
313.017	419
313.246	375
313.476	390
313.706	402
313.935	378
314.165	398
314.394	412
314.624	405
314.853	405
315.083	370
315.312	391
315.542	386
315.771	379
316.001	392
316.23	379
316.46	379
316.689	383
316.919	389
317.148	413
317.377	395
317.607	397
317.836	395
318.065	403
318.295	377
318.524	390
318.753	374
318.983	375
319.212	395
319.441	381
319.67	407
319.9	389
320.129	395
320.358	397
320.587	399
320.816	410
321.046	406
321.275	404
321.504	391
321.733	397
321.962	390
322.191	429
322.42	446
322.649	407
322.878	443
323.108	429
323.337	461
323.566	467
323.795	481
324.024	535
324.253	628
324.482	852
324.71	1222
324.939	1702
325.168	1437
325.397	807
325.626	572
325.855	515
326.084	482
326.313	485
326.542	480
326.77	547
326.999	580
327.228	778
327.457	1129
327.686	1271
327.914	876
328.143	626
328.372	566
328.6	532
328.829	529
329.058	535
329.287	522
329.515	523
329.744	490
329.972	476
330.201	491
330.43	534
330.658	530
330.887	557
331.115	542
331.344	504
331.572	473
331.801	471
332.03	473
332.258	458
332.486	457
332.715	451
332.943	484
333.172	472
333.4	495
333.629	478
333.857	500
334.085	484
334.314	529
334.542	515
334.771	505
334.999	500
335.227	478
335.455	466
335.684	467
335.912	474
336.14	474
336.369	440
336.597	456
336.825	466
337.053	469
337.281	450
337.51	434
337.738	468
337.966	462
338.194	419
338.422	456
338.65	458
338.878	438
339.106	430
339.334	443
339.562	441
339.79	450
340.018	432
340.246	436
340.474	437
340.702	429
340.93	435
341.158	440
341.386	422
341.614	440
341.842	436
342.07	422
342.298	416
342.526	436
342.754	430
342.981	434
343.209	425
343.437	436
343.665	452
343.893	459
344.12	446
344.348	429
344.576	433
344.804	450
345.031	434
345.259	454
345.487	465
345.714	436
345.942	400
346.17	427
346.397	414
346.625	412
346.853	418
347.08	399
347.308	415
347.535	419
347.763	424
347.99	434
348.218	416
348.445	408
348.673	415
348.9	434
349.128	398
349.355	398
349.583	405
349.81	418
350.037	394
350.265	406
350.492	401
350.72	407
350.947	427
351.174	412
351.402	412
351.629	407
351.856	414
352.083	391
352.311	405
352.538	418
352.765	421
352.992	425
353.22	394
353.447	399
353.674	394
353.901	382
354.128	388
354.355	365
354.583	385
354.81	379
355.037	391
355.264	393
355.491	384
355.718	404
355.945	373
356.172	380
356.399	376
356.626	381
356.853	397
357.08	382
357.307	386
357.534	385
357.761	371
357.988	384
358.215	387
358.441	385
358.668	392
358.895	397
359.122	385
359.349	389
359.576	396
359.802	410
360.029	437
360.256	445
360.483	433
360.709	398
360.936	378
361.163	398
361.39	388
361.616	398
361.843	388
362.07	402
362.296	410
362.523	402
362.749	397
362.976	379
363.203	408
363.429	395
363.656	402
363.882	391
364.109	382
364.335	393
364.562	383
364.788	377
365.015	396
365.241	395
365.468	416
365.694	370
365.92	402
366.147	380
366.373	395
366.599	379
366.826	373
367.052	379
367.278	373
367.505	401
367.731	407
367.957	394
368.184	398
368.41	379
368.636	375
368.862	405
369.089	395
369.315	377
369.541	386
369.767	388
369.993	397
370.219	398
370.445	372
370.672	405
370.898	387
371.124	384
371.35	382
371.576	384
371.802	390
372.028	388
372.254	391
372.48	398
372.706	398
372.932	374
373.158	369
373.384	387
373.61	380
373.835	399
374.061	400
374.287	378
374.513	398
374.739	408
374.965	393
375.191	411
375.416	402
375.642	398
375.868	404
376.094	382
376.319	391
376.545	388
376.771	374
376.997	382
377.222	387
377.448	380
377.674	379
377.899	395
378.125	376
378.35	379
378.576	396
378.802	394
379.027	394
379.253	387
379.478	364
379.704	374
379.929	384
380.155	373
380.38	395
380.606	396
380.831	382
381.057	392
381.282	374
381.507	388
381.733	368
381.958	381
382.184	382
382.409	382
382.634	395
382.86	380
383.085	393
383.31	414
383.535	396
383.761	394
383.986	402
384.211	402
384.436	412
384.662	403
384.887	413
385.112	398
385.337	420
385.562	418
385.787	403
386.013	436
386.238	420
386.463	417
386.688	417
386.913	406
387.138	405
387.363	437
387.588	398
387.813	420
388.038	412
388.263	397
388.488	420
388.713	424
388.938	418
389.163	438
389.387	429
389.612	412
389.837	434
390.062	408
390.287	404
390.512	404
390.736	424
390.961	417
391.186	394
391.411	432
391.636	428
391.86	426
392.085	433
392.31	455
392.534	432
392.759	422
392.984	425
393.208	430
393.433	406
393.658	412
393.882	413
394.107	433
394.331	408
394.556	418
394.78	433
395.005	420
395.229	422
395.454	407
395.678	435
395.903	451
396.127	462
396.352	449
396.576	438
396.801	446
397.025	438
397.249	438
397.474	437
397.698	436
397.922	481
398.147	466
398.371	466
398.595	474
398.82	471
399.044	514
399.268	503
399.492	543
399.717	579
399.941	595
400.165	608
400.389	583
400.613	520
400.837	501
401.062	480
401.286	490
401.51	479
401.734	482
401.958	467
402.182	474
402.406	502
402.63	486
402.854	480
403.078	502
403.302	492
403.526	490
403.75	516
403.974	489
404.198	510
404.422	512
404.645	487
404.869	499
405.093	532
405.317	556
405.541	589
405.765	547
405.988	521
406.212	514
406.436	526
406.66	551
406.883	523
407.107	550
407.331	600
407.555	641
407.778	650
408.002	597
408.226	544
408.449	536
408.673	548
408.896	545
409.12	580
409.344	549
409.567	524
409.791	500
410.014	503
410.238	514
410.461	486
410.685	500
410.908	493
411.132	536
411.355	544
411.578	564
411.802	512
412.025	483
412.249	483
412.472	517
412.695	558
412.919	538
413.142	504
413.365	482
413.589	471
413.812	483
414.035	467
414.258	426
414.482	476
414.705	489
414.928	438
415.151	454
415.374	461
415.597	446
415.821	456
416.044	455
416.267	475
416.49	465
416.713	482
416.936	473
417.159	460
417.382	474
417.605	468
417.828	480
418.051	479
418.274	469
418.497	478
418.72	455
418.943	486
419.166	479
419.389	512
419.611	498
419.834	493
420.057	473
420.28	466
420.503	485
420.726	477
420.948	471
421.171	516
421.394	552
421.617	516
421.839	476
422.062	482
422.285	469
422.507	536
422.73	588
422.953	583
423.175	490
423.398	501
423.621	496
423.843	507
424.066	544
424.288	510
424.511	510
424.733	563
424.956	608
425.178	587
425.401	576
425.623	579
425.846	526
426.068	497
426.291	465
426.513	487
426.735	494
426.958	527
427.18	614
427.402	711
427.625	774
427.847	638
428.069	560
428.292	529
428.514	478
428.736	472
428.958	461
429.181	467
429.403	462
429.625	455
429.847	496
430.069	547
430.292	536
430.514	469
430.736	468
430.958	454
431.18	438
431.402	444
431.624	454
431.846	443
432.068	438
432.29	432
432.512	428
432.734	437
432.956	446
433.178	440
433.4	480
433.622	442
433.844	440
434.066	421
434.287	438
434.509	445
434.731	450
434.953	472
435.175	462
435.397	485
435.618	507
435.84	537
436.062	586
436.284	637
436.505	544
436.727	482
436.949	474
437.17	471
437.392	465
437.614	473
437.835	488
438.057	550
438.278	634
438.5	633
438.721	701
438.943	692
439.165	546
439.386	487
439.608	501
439.829	500
440.05	514
440.272	556
440.493	510
440.715	474
440.936	465
441.158	440
441.379	459
441.6	472
441.822	507
442.043	525
442.264	579
442.486	608
442.707	518
442.928	523
443.149	513
443.371	512
443.592	567
443.813	628
444.034	674
444.255	582
444.476	529
444.698	526
444.919	514
445.14	624
445.361	543
445.582	516
445.803	567
446.024	639
446.245	672
446.466	589
446.687	522
446.908	518
447.129	482
447.35	449
447.571	464
447.792	440
448.013	453
448.234	487
448.455	489
448.675	561
448.896	681
449.117	600
449.338	549
449.559	631
449.779	706
450	587
450.221	486
450.442	427
450.662	440
450.883	435
451.104	444
451.324	424
451.545	424
451.766	435
451.986	418
452.207	412
452.428	417
452.648	398
452.869	384
453.089	408
453.31	411
453.53	413
453.751	394
453.971	401
454.192	420
454.412	398
454.633	412
454.853	395
455.073	388
455.294	429
455.514	486
455.734	472
455.955	412
456.175	404
456.395	388
456.616	387
456.836	361
457.056	390
457.276	378
457.497	391
457.717	382
457.937	393
458.157	381
458.377	397
458.598	403
458.818	459
459.038	507
459.258	530
459.478	458
459.698	434
459.918	433
460.138	420
460.358	446
460.578	439
460.798	443
461.018	471
461.238	460
461.458	447
461.678	428
461.898	458
462.118	444
462.338	484
462.558	465
462.777	472
462.997	512
463.217	525
463.437	515
463.657	486
463.876	484
464.096	486
464.316	474
464.536	474
464.755	471
464.975	467
465.195	491
465.414	522
465.634	468
465.854	454
466.073	438
466.293	449
466.512	440
466.732	428
466.951	408
467.171	425
467.391	416
467.61	432
467.829	413
468.049	424
468.268	413
468.488	388
468.707	404
468.927	403
469.146	376
469.365	410
469.585	402
469.804	416
470.023	403
470.243	391
470.462	410
470.681	456
470.901	432
471.12	444
471.339	404
471.558	422
471.777	414
471.997	408
472.216	413
472.435	443
472.654	410
472.873	406
473.092	403
473.311	393
473.53	412
473.749	426
473.968	466
474.187	530
474.406	522
474.625	454
474.844	432
475.063	412
475.282	414
475.501	429
475.72	437
475.939	433
476.158	427
476.377	419
476.596	421
476.814	437
477.033	427
477.252	454
477.471	444
477.69	456
477.908	473
478.127	442
478.346	468
478.564	449
478.783	470
479.002	465
479.22	473
479.439	506
479.658	479
479.876	498
480.095	503
480.313	532
480.532	540
480.751	513
480.969	524
481.188	566
481.406	537
481.624	502
481.843	506
482.061	481
482.28	476
482.498	493
482.717	476
482.935	489
483.153	485
483.372	484
483.59	469
483.808	468
484.027	470
484.245	488
484.463	471
484.681	496
484.9	485
485.118	489
485.336	471
485.554	501
485.772	488
485.99	526
486.209	474
486.427	480
486.645	516
486.863	500
487.081	512
487.299	491
487.517	522
487.735	508
487.953	506
488.171	512
488.389	510
488.607	512
488.825	517
489.043	521
489.261	507
489.479	521
489.696	521
489.914	510
490.132	538
490.35	533
490.568	526
490.786	541
491.003	540
491.221	544
491.439	569
491.657	562
491.874	557
492.092	566
492.31	577
492.527	593
492.745	573
492.963	570
493.18	598
493.398	584
493.615	602
493.833	621
494.05	595
494.268	588
494.485	586
494.703	598
494.92	614
495.138	593
495.355	599
495.573	594
495.79	579
496.008	599
496.225	600
496.442	610
496.66	613
496.877	602
497.094	609
497.312	601
497.529	635
497.746	616
497.963	650
498.181	669
498.398	644
498.615	688
498.832	704
499.049	710
499.267	745
499.484	773
499.701	794
499.918	808
500.135	859
500.352	926
500.569	934
500.786	932
501.003	903
501.22	884
501.437	871
501.654	840
501.871	761
502.088	744
502.305	737
502.522	680
502.739	683
502.956	666
503.172	660
503.389	640
503.606	653
503.823	641
504.04	640
504.256	633
504.473	613
504.69	613
504.907	602
505.123	598
505.34	603
505.557	571
505.773	578
505.99	576
506.207	582
506.423	544
506.64	562
506.856	558
507.073	540
507.289	544
507.506	546
507.722	553
507.939	580
508.155	535
508.372	539
508.588	535
508.805	515
509.021	547
509.238	540
509.454	537
509.67	547
509.887	527
510.103	537
510.319	537
510.536	598
510.752	878
510.968	695
511.184	518
511.401	502
511.617	489
511.833	512
512.049	511
512.265	490
512.481	480
512.698	495
512.914	491
513.13	514
513.346	504
513.562	497
513.778	521
513.994	508
514.21	483
514.426	517
514.642	561
514.858	557
515.074	595
515.29	652
515.506	862
515.721	732
515.937	562
516.153	541
516.369	556
516.585	530
516.801	548
517.016	529
517.232	546
517.448	570
517.664	562
517.879	553
518.095	557
518.311	541
518.527	527
518.742	522
518.958	547
519.173	506
519.389	500
519.605	509
519.82	488
520.036	513
520.251	526
520.467	530
520.682	538
520.898	527
521.113	563
521.329	589
521.544	638
521.76	701
521.975	1104
522.19	1038
522.406	653
522.621	556
522.836	496
523.052	458
523.267	474
523.482	465
523.698	463
523.913	471
524.128	471
524.343	453
524.559	466
524.774	451
524.989	451
525.204	429
525.419	439
525.634	446
525.849	430
526.064	428
526.28	428
526.495	433
526.71	442
526.925	428
527.14	434
527.355	432
527.57	447
527.785	421
527.999	418
528.214	433
528.429	436
528.644	420
528.859	413
529.074	413
529.289	413
529.503	496
529.718	439
529.933	428
530.148	416
530.363	433
530.577	433
530.792	422
531.007	411
531.221	432
531.436	399
531.651	393
531.865	408
532.08	416
532.295	393
532.509	396
532.724	403
532.938	422
533.153	408
533.367	405
533.582	406
533.796	409
534.011	408
534.225	402
534.44	407
534.654	408
534.868	391
535.083	412
535.297	390
535.511	400
535.726	403
535.94	406
536.154	390
536.369	392
536.583	389
536.797	396
537.011	386
537.225	391
537.44	406
537.654	383
537.868	375
538.082	393
538.296	396
538.51	408
538.724	406
538.938	377
539.153	395
539.367	392
539.581	416
539.795	414
540.009	381
540.222	389
540.436	386
540.65	393
540.864	383
541.078	403
541.292	396
541.506	391
541.72	387
541.934	387
542.147	397
542.361	394
542.575	397
542.789	387
543.002	397
543.216	381
543.43	386
543.644	393
543.857	405
544.071	402
544.285	379
544.498	397
544.712	390
544.925	369
545.139	389
545.352	363
545.566	378
545.779	378
545.993	389
546.206	400
546.42	382
546.633	373
546.847	371
547.06	381
547.274	374
547.487	375
547.7	373
547.914	375
548.127	376
548.34	374
548.554	382
548.767	374
548.98	371
549.193	376
549.407	369
549.62	369
549.833	381
550.046	375
550.259	371
550.473	370
550.686	381
550.899	381
551.112	374
551.325	364
551.538	379
551.751	361
551.964	374
552.177	382
552.39	391
552.603	382
552.816	379
553.029	377
553.242	386
553.455	374
553.667	382
553.88	391
554.093	384
554.306	372
554.519	378
554.732	382
554.944	372
555.157	348
555.37	368
555.583	367
555.795	335
556.008	352
556.221	357
556.433	359
556.646	346
556.859	344
557.071	340
557.284	356
557.496	349
557.709	337
557.921	337
558.134	353
558.346	334
558.559	332
558.771	324
558.984	324
559.196	354
559.409	340
559.621	324
559.833	310
560.046	333
560.258	325
560.47	322
560.683	316
560.895	318
561.107	336
561.32	337
561.532	331
561.744	318
561.956	332
562.168	342
562.381	332
562.593	315
562.805	324
563.017	320
563.229	331
563.441	344
563.653	340
