Data from 1977.PennyLincolnUp.Lamp.En5.5.200Scan.071719.P1_HRD10591_16-06-17-863.txt Node
Date: Thu Jul 18 16:06:17 EDT 2019
User: cochatt
Spectrometer: HR+D1059
Trigger mode: 1
Integration Time (sec): 1.000000E-1
Scans to average: 1
Electric dark correction enabled: true
Nonlinearity correction enabled: false
Boxcar width: 0
XAxis mode: Wavelengths
Number of Pixels in Spectrum: 2048
>>>>>Begin Spectral Data<<<<<
223.165	-15.19
223.4	-15.19
223.635	-15.19
223.869	-13.19
224.104	-14.19
224.338	-8.19
224.573	-22.19
224.808	-0.19
225.042	-7.19
225.277	17.81
225.511	-15.19
225.746	18.81
225.98	-1.19
226.215	-11.19
226.449	6.81
226.683	21.81
226.918	24.81
227.152	17.81
227.387	16.81
227.621	38.81
227.856	45.81
228.09	32.81
228.324	44.81
228.559	51.81
228.793	61.81
229.027	77.81
229.262	85.81
229.496	107.81
229.73	110.81
229.964	122.81
230.199	115.81
230.433	118.81
230.667	87.81
230.901	96.81
231.136	108.81
231.37	122.81
231.604	107.81
231.838	97.81
232.072	111.81
232.306	111.81
232.541	114.81
232.775	103.81
233.009	98.81
233.243	121.81
233.477	101.81
233.711	117.81
233.945	106.81
234.179	120.81
234.413	127.81
234.647	115.81
234.881	130.81
235.115	121.81
235.349	112.81
235.583	106.81
235.817	106.81
236.051	126.81
236.285	140.81
236.519	120.81
236.753	129.81
236.987	137.81
237.221	168.81
237.455	201.81
237.689	161.81
237.922	135.81
238.156	130.81
238.39	107.81
238.624	122.81
238.858	115.81
239.091	118.81
239.325	120.81
239.559	117.81
239.793	131.81
240.027	133.81
240.26	128.81
240.494	143.81
240.728	141.81
240.961	140.81
241.195	134.81
241.429	126.81
241.662	128.81
241.896	127.81
242.13	129.81
242.363	122.81
242.597	129.81
242.83	139.81
243.064	127.81
243.298	132.81
243.531	129.81
243.765	140.81
243.998	154.81
244.232	131.81
244.465	141.81
244.699	130.81
244.932	143.81
245.166	121.81
245.399	143.81
245.633	147.81
245.866	127.81
246.099	146.81
246.333	136.81
246.566	150.81
246.8	140.81
247.033	139.81
247.266	148.81
247.5	152.81
247.733	158.81
247.966	174.81
248.2	151.81
248.433	176.81
248.666	185.81
248.899	169.81
249.133	194.81
249.366	191.81
249.599	179.81
249.832	177.81
250.066	178.81
250.299	181.81
250.532	185.81
250.765	193.81
250.998	213.81
251.231	198.81
251.465	196.81
251.698	175.81
251.931	203.81
252.164	179.81
252.397	190.81
252.63	194.81
252.863	192.81
253.096	210.81
253.329	200.81
253.562	206.81
253.795	208.81
254.028	195.81
254.261	200.81
254.494	222.81
254.727	242.81
254.96	262.81
255.193	241.81
255.426	227.81
255.659	233.81
255.892	203.81
256.124	209.81
256.357	219.81
256.59	202.81
256.823	213.81
257.056	219.81
257.289	195.81
257.521	225.81
257.754	219.81
257.987	223.81
258.22	219.81
258.452	213.81
258.685	199.81
258.918	209.81
259.151	209.81
259.383	198.81
259.616	209.81
259.849	218.81
260.081	233.81
260.314	246.81
260.547	261.81
260.779	254.81
261.012	245.81
261.244	223.81
261.477	227.81
261.71	207.81
261.942	223.81
262.175	220.81
262.407	211.81
262.64	205.81
262.872	215.81
263.105	197.81
263.337	199.81
263.57	211.81
263.802	222.81
264.035	200.81
264.267	219.81
264.499	223.81
264.732	215.81
264.964	218.81
265.197	205.81
265.429	220.81
265.661	212.81
265.894	220.81
266.126	208.81
266.358	205.81
266.591	228.81
266.823	241.81
267.055	226.81
267.287	227.81
267.52	212.81
267.752	218.81
267.984	226.81
268.216	234.81
268.448	234.81
268.681	234.81
268.913	255.81
269.145	261.81
269.377	275.81
269.609	253.81
269.841	287.81
270.073	267.81
270.306	278.81
270.538	293.81
270.77	322.81
271.002	292.81
271.234	283.81
271.466	283.81
271.698	296.81
271.93	291.81
272.162	309.81
272.394	307.81
272.626	279.81
272.858	277.81
273.09	283.81
273.322	272.81
273.553	266.81
273.785	259.81
274.017	270.81
274.249	263.81
274.481	265.81
274.713	270.81
274.945	269.81
275.176	268.81
275.408	280.81
275.64	260.81
275.872	242.81
276.104	278.81
276.335	267.81
276.567	265.81
276.799	280.81
277.031	318.81
277.262	309.81
277.494	317.81
277.726	294.81
277.957	298.81
278.189	282.81
278.421	265.81
278.652	286.81
278.884	297.81
279.115	279.81
279.347	284.81
279.579	282.81
279.81	246.81
280.042	265.81
280.273	269.81
280.505	261.81
280.736	273.81
280.968	289.81
281.199	278.81
281.431	290.81
281.662	285.81
281.894	284.81
282.125	292.81
282.356	290.81
282.588	295.81
282.819	306.81
283.051	291.81
283.282	280.81
283.513	288.81
283.745	299.81
283.976	283.81
284.207	291.81
284.439	295.81
284.67	279.81
284.901	303.81
285.132	274.81
285.364	279.81
285.595	290.81
285.826	305.81
286.057	304.81
286.288	291.81
286.52	291.81
286.751	279.81
286.982	290.81
287.213	296.81
287.444	297.81
287.675	311.81
287.906	299.81
288.138	310.81
288.369	306.81
288.6	313.81
288.831	319.81
289.062	283.81
289.293	309.81
289.524	291.81
289.755	313.81
289.986	324.81
290.217	311.81
290.448	325.81
290.679	308.81
290.91	306.81
291.141	315.81
291.371	299.81
291.602	308.81
291.833	310.81
292.064	314.81
292.295	309.81
292.526	314.81
292.757	302.81
292.987	294.81
293.218	283.81
293.449	309.81
293.68	308.81
293.91	311.81
294.141	310.81
294.372	305.81
294.603	313.81
294.833	312.81
295.064	305.81
295.295	322.81
295.525	311.81
295.756	325.81
295.987	310.81
296.217	329.81
296.448	327.81
296.679	315.81
296.909	304.81
297.14	312.81
297.37	321.81
297.601	318.81
297.831	322.81
298.062	314.81
298.292	308.81
298.523	334.81
298.753	322.81
298.984	319.81
299.214	343.81
299.445	318.81
299.675	325.81
299.905	337.81
300.136	331.81
300.366	330.81
300.597	335.81
300.827	330.81
301.057	324.81
301.288	327.81
301.518	336.81
301.748	341.81
301.979	342.81
302.209	339.81
302.439	341.81
302.669	341.81
302.9	354.81
303.13	350.81
303.36	347.81
303.59	334.81
303.82	342.81
304.051	337.81
304.281	362.81
304.511	341.81
304.741	343.81
304.971	345.81
305.201	352.81
305.431	342.81
305.661	346.81
305.891	350.81
306.121	359.81
306.352	342.81
306.582	352.81
306.812	335.81
307.042	352.81
307.272	360.81
307.502	349.81
307.731	344.81
307.961	351.81
308.191	341.81
308.421	362.81
308.651	354.81
308.881	336.81
309.111	337.81
309.341	342.81
309.571	373.81
309.8	389.81
310.03	373.81
310.26	357.81
310.49	394.81
310.72	382.81
310.949	404.81
311.179	387.81
311.409	385.81
311.639	369.81
311.868	367.81
312.098	377.81
312.328	392.81
312.557	399.81
312.787	405.81
313.017	403.81
313.246	390.81
313.476	381.81
313.706	386.81
313.935	385.81
314.165	390.81
314.394	399.81
314.624	398.81
314.853	408.81
315.083	403.81
315.312	391.81
315.542	378.81
315.771	370.81
316.001	369.81
316.23	413.81
316.46	379.81
316.689	385.81
316.919	382.81
317.148	385.81
317.377	405.81
317.607	402.81
317.836	387.81
318.065	381.81
318.295	383.81
318.524	370.81
318.753	395.81
318.983	388.81
319.212	393.81
319.441	407.81
319.67	400.81
319.9	390.81
320.129	405.81
320.358	389.81
320.587	384.81
320.816	419.81
321.046	416.81
321.275	399.81
321.504	401.81
321.733	413.81
321.962	403.81
322.191	417.81
322.42	418.81
322.649	430.81
322.878	446.81
323.108	444.81
323.337	471.81
323.566	468.81
323.795	477.81
324.024	511.81
324.253	616.81
324.482	831.81
324.71	1217.81
324.939	1706.81
325.168	1447.81
325.397	785.81
325.626	597.81
325.855	498.81
326.084	470.81
326.313	487.81
326.542	467.81
326.77	507.81
326.999	573.81
327.228	738.81
327.457	1102.81
327.686	1245.81
327.914	851.81
328.143	609.81
328.372	546.81
328.6	528.81
328.829	511.81
329.058	501.81
329.287	512.81
329.515	495.81
329.744	478.81
329.972	500.81
330.201	503.81
330.43	521.81
330.658	543.81
330.887	543.81
331.115	528.81
331.344	489.81
331.572	479.81
331.801	468.81
332.03	470.81
332.258	460.81
332.486	473.81
332.715	459.81
332.943	459.81
333.172	449.81
333.4	476.81
333.629	470.81
333.857	464.81
334.085	510.81
334.314	496.81
334.542	503.81
334.771	524.81
334.999	497.81
335.227	490.81
335.455	478.81
335.684	462.81
335.912	464.81
336.14	460.81
336.369	443.81
336.597	453.81
336.825	473.81
337.053	449.81
337.281	459.81
337.51	458.81
337.738	442.81
337.966	417.81
338.194	425.81
338.422	416.81
338.65	456.81
338.878	438.81
339.106	447.81
339.334	429.81
339.562	419.81
339.79	435.81
340.018	417.81
340.246	415.81
340.474	442.81
340.702	433.81
340.93	422.81
341.158	457.81
341.386	426.81
341.614	423.81
341.842	446.81
342.07	433.81
342.298	449.81
342.526	427.81
342.754	417.81
342.981	421.81
343.209	441.81
343.437	435.81
343.665	456.81
343.893	448.81
344.12	452.81
344.348	449.81
344.576	452.81
344.804	463.81
345.031	442.81
345.259	434.81
345.487	429.81
345.714	438.81
345.942	408.81
346.17	415.81
346.397	399.81
346.625	433.81
346.853	407.81
347.08	403.81
347.308	417.81
347.535	419.81
347.763	413.81
347.99	421.81
348.218	406.81
348.445	417.81
348.673	429.81
348.9	409.81
349.128	402.81
349.355	388.81
349.583	394.81
349.81	404.81
350.037	399.81
350.265	403.81
350.492	395.81
350.72	400.81
350.947	413.81
351.174	420.81
351.402	416.81
351.629	405.81
351.856	399.81
352.083	394.81
352.311	421.81
352.538	400.81
352.765	411.81
352.992	413.81
353.22	391.81
353.447	371.81
353.674	404.81
353.901	381.81
354.128	378.81
354.355	381.81
354.583	402.81
354.81	383.81
355.037	389.81
355.264	386.81
355.491	380.81
355.718	396.81
355.945	400.81
356.172	386.81
356.399	385.81
356.626	386.81
356.853	385.81
357.08	374.81
357.307	393.81
357.534	387.81
357.761	394.81
357.988	374.81
358.215	390.81
358.441	386.81
358.668	382.81
358.895	393.81
359.122	381.81
359.349	399.81
359.576	392.81
359.802	403.81
360.029	407.81
360.256	444.81
360.483	405.81
360.709	384.81
360.936	402.81
361.163	390.81
361.39	392.81
361.616	389.81
361.843	393.81
362.07	408.81
362.296	392.81
362.523	393.81
362.749	411.81
362.976	398.81
363.203	374.81
363.429	398.81
363.656	388.81
363.882	380.81
364.109	390.81
364.335	363.81
364.562	375.81
364.788	394.81
365.015	399.81
365.241	386.81
365.468	378.81
365.694	362.81
365.92	376.81
366.147	392.81
366.373	386.81
366.599	396.81
366.826	389.81
367.052	379.81
367.278	390.81
367.505	387.81
367.731	378.81
367.957	393.81
368.184	392.81
368.41	382.81
368.636	387.81
368.862	404.81
369.089	396.81
369.315	414.81
369.541	395.81
369.767	393.81
369.993	376.81
370.219	374.81
370.445	378.81
370.672	377.81
370.898	390.81
371.124	398.81
371.35	402.81
371.576	395.81
371.802	385.81
372.028	388.81
372.254	393.81
372.48	385.81
372.706	402.81
372.932	371.81
373.158	385.81
373.384	401.81
373.61	396.81
373.835	409.81
374.061	364.81
374.287	381.81
374.513	402.81
374.739	386.81
374.965	384.81
375.191	408.81
375.416	397.81
375.642	410.81
375.868	394.81
376.094	386.81
376.319	381.81
376.545	386.81
376.771	399.81
376.997	381.81
377.222	388.81
377.448	381.81
377.674	367.81
377.899	374.81
378.125	392.81
378.35	388.81
378.576	369.81
378.802	373.81
379.027	369.81
379.253	386.81
379.478	389.81
379.704	384.81
379.929	395.81
380.155	383.81
380.38	381.81
380.606	360.81
380.831	376.81
381.057	379.81
381.282	374.81
381.507	385.81
381.733	376.81
381.958	377.81
382.184	398.81
382.409	392.81
382.634	386.81
382.86	410.81
383.085	394.81
383.31	353.81
383.535	381.81
383.761	396.81
383.986	412.81
384.211	379.81
384.436	403.81
384.662	393.81
384.887	423.81
385.112	408.81
385.337	415.81
385.562	416.81
385.787	417.81
386.013	419.81
386.238	434.81
386.463	435.81
386.688	413.81
386.913	425.81
387.138	407.81
387.363	410.81
387.588	423.81
387.813	410.81
388.038	429.81
388.263	419.81
388.488	445.81
388.713	432.81
388.938	425.81
389.163	449.81
389.387	413.81
389.612	423.81
389.837	412.81
390.062	414.81
390.287	426.81
390.512	415.81
390.736	415.81
390.961	430.81
391.186	435.81
391.411	434.81
391.636	428.81
391.86	421.81
392.085	451.81
392.31	435.81
392.534	435.81
392.759	420.81
392.984	438.81
393.208	415.81
393.433	434.81
393.658	420.81
393.882	429.81
394.107	420.81
394.331	419.81
394.556	410.81
394.78	429.81
395.005	425.81
395.229	435.81
395.454	423.81
395.678	443.81
395.903	438.81
396.127	454.81
396.352	455.81
396.576	447.81
396.801	428.81
397.025	429.81
397.249	454.81
397.474	453.81
397.698	452.81
397.922	446.81
398.147	451.81
398.371	468.81
398.595	455.81
398.82	482.81
399.044	487.81
399.268	505.81
399.492	549.81
399.717	563.81
399.941	615.81
400.165	602.81
400.389	603.81
400.613	535.81
400.837	529.81
401.062	476.81
401.286	455.81
401.51	477.81
401.734	491.81
401.958	488.81
402.182	471.81
402.406	509.81
402.63	473.81
402.854	477.81
403.078	488.81
403.302	482.81
403.526	487.81
403.75	488.81
403.974	489.81
404.198	488.81
404.422	507.81
404.645	513.81
404.869	500.81
405.093	542.81
405.317	570.81
405.541	584.81
405.765	550.81
405.988	529.81
406.212	535.81
406.436	541.81
406.66	544.81
406.883	527.81
407.107	565.81
407.331	586.81
407.555	635.81
407.778	643.81
408.002	607.81
408.226	559.81
408.449	549.81
408.673	543.81
408.896	569.81
409.12	591.81
409.344	553.81
409.567	511.81
409.791	526.81
410.014	501.81
410.238	500.81
410.461	491.81
410.685	507.81
410.908	494.81
411.132	545.81
411.355	570.81
411.578	541.81
411.802	504.81
412.025	497.81
412.249	502.81
412.472	512.81
412.695	542.81
412.919	503.81
413.142	491.81
413.365	466.81
413.589	477.81
413.812	471.81
414.035	478.81
414.258	463.81
414.482	448.81
414.705	476.81
414.928	454.81
415.151	453.81
415.374	448.81
415.597	456.81
415.821	464.81
416.044	464.81
416.267	463.81
416.49	453.81
416.713	433.81
416.936	454.81
417.159	471.81
417.382	449.81
417.605	443.81
417.828	465.81
418.051	475.81
418.274	464.81
418.497	437.81
418.72	459.81
418.943	472.81
419.166	478.81
419.389	507.81
419.611	495.81
419.834	499.81
420.057	497.81
420.28	476.81
420.503	477.81
420.726	478.81
420.948	495.81
421.171	507.81
421.394	549.81
421.617	515.81
421.839	471.81
422.062	474.81
422.285	487.81
422.507	532.81
422.73	613.81
422.953	564.81
423.175	522.81
423.398	500.81
423.621	485.81
423.843	498.81
424.066	513.81
424.288	504.81
424.511	527.81
424.733	567.81
424.956	633.81
425.178	601.81
425.401	601.81
425.623	600.81
425.846	544.81
426.068	521.81
426.291	482.81
426.513	520.81
426.735	509.81
426.958	525.81
427.18	593.81
427.402	705.81
427.625	781.81
427.847	667.81
428.069	579.81
428.292	524.81
428.514	508.81
428.736	479.81
428.958	471.81
429.181	466.81
429.403	437.81
429.625	471.81
429.847	490.81
430.069	547.81
430.292	541.81
430.514	475.81
430.736	434.81
430.958	465.81
431.18	453.81
431.402	440.81
431.624	425.81
431.846	414.81
432.068	442.81
432.29	429.81
432.512	429.81
432.734	459.81
432.956	452.81
433.178	439.81
433.4	467.81
433.622	448.81
433.844	444.81
434.066	430.81
434.287	431.81
434.509	438.81
434.731	434.81
434.953	464.81
435.175	475.81
435.397	495.81
435.618	510.81
435.84	517.81
436.062	615.81
436.284	663.81
436.505	548.81
436.727	522.81
436.949	470.81
437.17	459.81
437.392	455.81
437.614	479.81
437.835	486.81
438.057	566.81
438.278	642.81
438.5	645.81
438.721	707.81
438.943	694.81
439.165	566.81
439.386	514.81
439.608	491.81
439.829	474.81
440.05	510.81
440.272	541.81
440.493	511.81
440.715	465.81
440.936	477.81
441.158	447.81
441.379	439.81
441.6	481.81
441.822	479.81
442.043	530.81
442.264	584.81
442.486	623.81
442.707	553.81
442.928	511.81
443.149	521.81
443.371	531.81
443.592	568.81
443.813	657.81
444.034	679.81
444.255	595.81
444.476	536.81
444.698	517.81
444.919	534.81
445.14	615.81
445.361	573.81
445.582	561.81
445.803	582.81
446.024	657.81
446.245	647.81
446.466	579.81
446.687	538.81
446.908	483.81
447.129	466.81
447.35	442.81
447.571	443.81
447.792	453.81
448.013	425.81
448.234	448.81
448.455	521.81
448.675	610.81
448.896	680.81
449.117	601.81
449.338	564.81
449.559	659.81
449.779	718.81
450	582.81
450.221	490.81
450.442	459.81
450.662	421.81
450.883	448.81
451.104	438.81
451.324	445.81
451.545	435.81
451.766	432.81
451.986	432.81
452.207	405.81
452.428	390.81
452.648	406.81
452.869	402.81
453.089	416.81
453.31	410.81
453.53	409.81
453.751	389.81
453.971	387.81
454.192	424.81
454.412	404.81
454.633	394.81
454.853	386.81
455.073	385.81
455.294	415.81
455.514	461.81
455.734	458.81
455.955	409.81
456.175	389.81
456.395	379.81
456.616	373.81
456.836	400.81
457.056	372.81
457.276	373.81
457.497	379.81
457.717	345.81
457.937	389.81
458.157	385.81
458.377	407.81
458.598	395.81
458.818	456.81
459.038	510.81
459.258	507.81
459.478	448.81
459.698	437.81
459.918	438.81
460.138	440.81
460.358	441.81
460.578	453.81
460.798	455.81
461.018	450.81
461.238	448.81
461.458	450.81
461.678	440.81
461.898	447.81
462.118	443.81
462.338	476.81
462.558	473.81
462.777	479.81
462.997	477.81
463.217	512.81
463.437	502.81
463.657	506.81
463.876	483.81
464.096	472.81
464.316	456.81
464.536	472.81
464.755	495.81
464.975	486.81
465.195	484.81
465.414	518.81
465.634	473.81
465.854	456.81
466.073	450.81
466.293	416.81
466.512	431.81
466.732	431.81
466.951	421.81
467.171	419.81
467.391	417.81
467.61	412.81
467.829	416.81
468.049	431.81
468.268	435.81
468.488	414.81
468.707	407.81
468.927	392.81
469.146	393.81
469.365	403.81
469.585	429.81
469.804	417.81
470.023	411.81
470.243	419.81
470.462	427.81
470.681	450.81
470.901	407.81
471.12	444.81
471.339	405.81
471.558	425.81
471.777	415.81
471.997	423.81
472.216	414.81
472.435	419.81
472.654	417.81
472.873	418.81
473.092	408.81
473.311	415.81
473.53	421.81
473.749	397.81
473.968	438.81
474.187	542.81
474.406	562.81
474.625	452.81
474.844	422.81
475.063	407.81
475.282	438.81
475.501	433.81
475.72	438.81
475.939	422.81
476.158	431.81
476.377	426.81
476.596	415.81
476.814	442.81
477.033	415.81
477.252	452.81
477.471	446.81
477.69	454.81
477.908	464.81
478.127	446.81
478.346	438.81
478.564	469.81
478.783	451.81
479.002	482.81
479.22	495.81
479.439	509.81
479.658	509.81
479.876	498.81
480.095	497.81
480.313	519.81
480.532	511.81
480.751	517.81
480.969	499.81
481.188	535.81
481.406	549.81
481.624	520.81
481.843	512.81
482.061	502.81
482.28	475.81
482.498	485.81
482.717	475.81
482.935	469.81
483.153	500.81
483.372	482.81
483.59	481.81
483.808	481.81
484.027	479.81
484.245	463.81
484.463	471.81
484.681	495.81
484.9	492.81
485.118	478.81
485.336	480.81
485.554	474.81
485.772	512.81
485.99	490.81
486.209	478.81
486.427	483.81
486.645	513.81
486.863	512.81
487.081	491.81
487.299	513.81
487.517	507.81
487.735	497.81
487.953	509.81
488.171	489.81
488.389	517.81
488.607	511.81
488.825	519.81
489.043	501.81
489.261	511.81
489.479	504.81
489.696	507.81
489.914	511.81
490.132	529.81
490.35	532.81
490.568	522.81
490.786	550.81
491.003	555.81
491.221	557.81
491.439	558.81
491.657	572.81
491.874	572.81
492.092	578.81
492.31	568.81
492.527	568.81
492.745	562.81
492.963	588.81
493.18	594.81
493.398	585.81
493.615	596.81
493.833	608.81
494.05	607.81
494.268	612.81
494.485	609.81
494.703	586.81
494.92	552.81
495.138	594.81
495.355	596.81
495.573	580.81
495.79	597.81
496.008	572.81
496.225	589.81
496.442	587.81
496.66	608.81
496.877	606.81
497.094	613.81
497.312	624.81
497.529	628.81
497.746	634.81
497.963	650.81
498.181	645.81
498.398	643.81
498.615	668.81
498.832	702.81
499.049	705.81
499.267	721.81
499.484	771.81
499.701	777.81
499.918	824.81
500.135	899.81
500.352	917.81
500.569	957.81
500.786	936.81
501.003	936.81
501.22	892.81
501.437	853.81
501.654	832.81
501.871	803.81
502.088	782.81
