Data from 1977.PennyLincolnUp.Lamp.En5.5.200Scan.071719.P1_HRD10591_16-05-43-863.txt Node
Date: Thu Jul 18 16:05:43 EDT 2019
User: cochatt
Spectrometer: HR+D1059
Trigger mode: 1
Integration Time (sec): 1.000000E-1
Scans to average: 1
Electric dark correction enabled: true
Nonlinearity correction enabled: false
Boxcar width: 0
XAxis mode: Wavelengths
Number of Pixels in Spectrum: 2048
>>>>>Begin Spectral Data<<<<<
223.165	-24.56
223.4	-24.56
223.635	-24.56
223.869	-8.56
224.104	-23.56
224.338	-11.56
224.573	-1.56
224.808	-9.56
225.042	-8.56
225.277	-0.56
225.511	-3.56
225.746	5.44
225.98	5.44
226.215	9.44
226.449	17.44
226.683	18.44
226.918	14.44
227.152	21.44
227.387	21.44
227.621	42.44
227.856	37.44
228.09	43.44
228.324	40.44
228.559	45.44
228.793	66.44
229.027	85.44
229.262	89.44
229.496	101.44
229.73	114.44
229.964	125.44
230.199	100.44
230.433	114.44
230.667	104.44
230.901	96.44
231.136	104.44
231.37	110.44
231.604	108.44
231.838	101.44
232.072	119.44
232.306	113.44
232.541	107.44
232.775	107.44
233.009	113.44
233.243	123.44
233.477	119.44
233.711	123.44
233.945	117.44
234.179	106.44
234.413	125.44
234.647	114.44
234.881	116.44
235.115	108.44
235.349	106.44
235.583	116.44
235.817	123.44
236.051	127.44
236.285	105.44
236.519	121.44
236.753	114.44
236.987	131.44
237.221	153.44
237.455	203.44
237.689	158.44
237.922	126.44
238.156	111.44
238.39	115.44
238.624	120.44
238.858	119.44
239.091	134.44
239.325	129.44
239.559	126.44
239.793	116.44
240.027	126.44
240.26	126.44
240.494	147.44
240.728	136.44
240.961	147.44
241.195	143.44
241.429	131.44
241.662	138.44
241.896	127.44
242.13	136.44
242.363	131.44
242.597	130.44
242.83	98.44
243.064	130.44
243.298	143.44
243.531	128.44
243.765	142.44
243.998	126.44
244.232	137.44
244.465	140.44
244.699	133.44
244.932	136.44
245.166	162.44
245.399	149.44
245.633	133.44
245.866	151.44
246.099	135.44
246.333	137.44
246.566	141.44
246.8	142.44
247.033	146.44
247.266	149.44
247.5	155.44
247.733	168.44
247.966	161.44
248.2	139.44
248.433	172.44
248.666	159.44
248.899	163.44
249.133	179.44
249.366	207.44
249.599	181.44
249.832	179.44
250.066	167.44
250.299	154.44
250.532	181.44
250.765	199.44
250.998	201.44
251.231	206.44
251.465	186.44
251.698	187.44
251.931	194.44
252.164	177.44
252.397	188.44
252.63	187.44
252.863	173.44
253.096	204.44
253.329	205.44
253.562	210.44
253.795	206.44
254.028	188.44
254.261	213.44
254.494	208.44
254.727	236.44
254.96	244.44
255.193	243.44
255.426	215.44
255.659	221.44
255.892	214.44
256.124	218.44
256.357	212.44
256.59	210.44
256.823	195.44
257.056	202.44
257.289	192.44
257.521	180.44
257.754	213.44
257.987	214.44
258.22	196.44
258.452	197.44
258.685	199.44
258.918	210.44
259.151	212.44
259.383	193.44
259.616	191.44
259.849	205.44
260.081	226.44
260.314	235.44
260.547	242.44
260.779	230.44
261.012	221.44
261.244	219.44
261.477	216.44
261.71	228.44
261.942	233.44
262.175	218.44
262.407	221.44
262.64	228.44
262.872	213.44
263.105	203.44
263.337	223.44
263.57	198.44
263.802	214.44
264.035	220.44
264.267	196.44
264.499	202.44
264.732	213.44
264.964	223.44
265.197	215.44
265.429	210.44
265.661	215.44
265.894	217.44
266.126	220.44
266.358	204.44
266.591	226.44
266.823	209.44
267.055	229.44
267.287	237.44
267.52	232.44
267.752	227.44
267.984	234.44
268.216	228.44
268.448	236.44
268.681	244.44
268.913	244.44
269.145	253.44
269.377	268.44
269.609	250.44
269.841	259.44
270.073	264.44
270.306	287.44
270.538	296.44
270.77	313.44
271.002	284.44
271.234	287.44
271.466	286.44
271.698	278.44
271.93	294.44
272.162	287.44
272.394	298.44
272.626	295.44
272.858	279.44
273.09	267.44
273.322	275.44
273.553	247.44
273.785	243.44
274.017	249.44
274.249	275.44
274.481	278.44
274.713	255.44
274.945	264.44
275.176	248.44
275.408	276.44
275.64	266.44
275.872	257.44
276.104	257.44
276.335	277.44
276.567	283.44
276.799	268.44
277.031	289.44
277.262	303.44
277.494	294.44
277.726	304.44
277.957	291.44
278.189	279.44
278.421	256.44
278.652	270.44
278.884	263.44
279.115	272.44
279.347	264.44
279.579	265.44
279.81	255.44
280.042	254.44
280.273	278.44
280.505	263.44
280.736	278.44
280.968	266.44
281.199	273.44
281.431	261.44
281.662	263.44
281.894	277.44
282.125	285.44
282.356	294.44
282.588	293.44
282.819	275.44
283.051	276.44
283.282	280.44
283.513	286.44
283.745	293.44
283.976	282.44
284.207	294.44
284.439	299.44
284.67	302.44
284.901	290.44
285.132	267.44
285.364	287.44
285.595	298.44
285.826	275.44
286.057	279.44
286.288	276.44
286.52	309.44
286.751	292.44
286.982	307.44
287.213	286.44
287.444	294.44
287.675	306.44
287.906	306.44
288.138	309.44
288.369	322.44
288.6	299.44
288.831	318.44
289.062	297.44
289.293	300.44
289.524	290.44
289.755	307.44
289.986	292.44
290.217	298.44
290.448	299.44
290.679	311.44
290.91	295.44
291.141	331.44
291.371	296.44
291.602	313.44
291.833	305.44
292.064	296.44
292.295	304.44
292.526	302.44
292.757	295.44
292.987	309.44
293.218	313.44
293.449	303.44
293.68	317.44
293.91	294.44
294.141	308.44
294.372	313.44
294.603	295.44
294.833	314.44
295.064	299.44
295.295	298.44
295.525	303.44
295.756	329.44
295.987	319.44
296.217	323.44
296.448	316.44
296.679	300.44
296.909	334.44
297.14	334.44
297.37	313.44
297.601	320.44
297.831	338.44
298.062	323.44
298.292	335.44
298.523	322.44
298.753	319.44
298.984	339.44
299.214	313.44
299.445	313.44
299.675	335.44
299.905	319.44
300.136	335.44
300.366	330.44
300.597	318.44
300.827	323.44
301.057	326.44
301.288	337.44
301.518	352.44
301.748	342.44
301.979	346.44
302.209	334.44
302.439	346.44
302.669	335.44
302.9	342.44
303.13	330.44
303.36	325.44
303.59	333.44
303.82	361.44
304.051	350.44
304.281	355.44
304.511	335.44
304.741	337.44
304.971	338.44
305.201	345.44
305.431	323.44
305.661	342.44
305.891	334.44
306.121	338.44
306.352	357.44
306.582	350.44
306.812	337.44
307.042	350.44
307.272	333.44
307.502	334.44
307.731	341.44
307.961	343.44
308.191	353.44
308.421	335.44
308.651	342.44
308.881	347.44
309.111	356.44
309.341	326.44
309.571	365.44
309.8	350.44
310.03	362.44
310.26	364.44
310.49	378.44
310.72	357.44
310.949	373.44
311.179	379.44
311.409	375.44
311.639	382.44
311.868	361.44
312.098	381.44
312.328	382.44
312.557	386.44
312.787	397.44
313.017	376.44
313.246	383.44
313.476	365.44
313.706	381.44
313.935	385.44
314.165	411.44
314.394	375.44
314.624	389.44
314.853	393.44
315.083	379.44
315.312	387.44
315.542	371.44
315.771	381.44
316.001	369.44
316.23	386.44
316.46	378.44
316.689	380.44
316.919	378.44
317.148	395.44
317.377	373.44
317.607	380.44
317.836	373.44
318.065	384.44
318.295	397.44
318.524	378.44
318.753	382.44
318.983	379.44
319.212	394.44
319.441	391.44
319.67	379.44
319.9	371.44
320.129	390.44
320.358	369.44
320.587	387.44
320.816	379.44
321.046	392.44
321.275	413.44
321.504	418.44
321.733	387.44
321.962	406.44
322.191	413.44
322.42	419.44
322.649	415.44
322.878	427.44
323.108	444.44
323.337	441.44
323.566	458.44
323.795	470.44
324.024	506.44
324.253	571.44
324.482	780.44
324.71	1131.44
324.939	1569.44
325.168	1321.44
325.397	734.44
325.626	545.44
325.855	496.44
326.084	479.44
326.313	460.44
326.542	465.44
326.77	491.44
326.999	566.44
327.228	704.44
327.457	1032.44
327.686	1189.44
327.914	824.44
328.143	617.44
328.372	512.44
328.6	497.44
328.829	507.44
329.058	497.44
329.287	500.44
329.515	483.44
329.744	479.44
329.972	472.44
330.201	490.44
330.43	498.44
330.658	518.44
330.887	522.44
331.115	503.44
331.344	480.44
331.572	473.44
331.801	469.44
332.03	462.44
332.258	464.44
332.486	453.44
332.715	460.44
332.943	449.44
333.172	473.44
333.4	474.44
333.629	460.44
333.857	515.44
334.085	470.44
334.314	510.44
334.542	493.44
334.771	477.44
334.999	475.44
335.227	466.44
335.455	450.44
335.684	479.44
335.912	465.44
336.14	430.44
336.369	456.44
336.597	457.44
336.825	455.44
337.053	440.44
337.281	446.44
337.51	414.44
337.738	436.44
337.966	421.44
338.194	439.44
338.422	426.44
338.65	441.44
338.878	428.44
339.106	444.44
339.334	426.44
339.562	417.44
339.79	433.44
340.018	438.44
340.246	427.44
340.474	409.44
340.702	401.44
340.93	414.44
341.158	414.44
341.386	409.44
341.614	422.44
341.842	444.44
342.07	417.44
342.298	403.44
342.526	410.44
342.754	426.44
342.981	417.44
343.209	408.44
343.437	437.44
343.665	445.44
343.893	448.44
344.12	445.44
344.348	443.44
344.576	440.44
344.804	441.44
345.031	442.44
345.259	433.44
345.487	453.44
345.714	426.44
345.942	419.44
346.17	424.44
346.397	408.44
346.625	404.44
346.853	426.44
347.08	417.44
347.308	411.44
347.535	400.44
347.763	404.44
347.99	389.44
348.218	407.44
348.445	383.44
348.673	409.44
348.9	410.44
349.128	387.44
349.355	378.44
349.583	406.44
349.81	409.44
350.037	400.44
350.265	415.44
350.492	415.44
350.72	381.44
350.947	399.44
351.174	378.44
351.402	391.44
351.629	409.44
351.856	403.44
352.083	412.44
352.311	392.44
352.538	412.44
352.765	403.44
352.992	411.44
353.22	387.44
353.447	389.44
353.674	392.44
353.901	398.44
354.128	383.44
354.355	374.44
354.583	378.44
354.81	383.44
355.037	385.44
355.264	379.44
355.491	394.44
355.718	373.44
355.945	404.44
356.172	385.44
356.399	367.44
356.626	360.44
356.853	400.44
357.08	384.44
357.307	381.44
357.534	367.44
357.761	373.44
357.988	378.44
358.215	389.44
358.441	398.44
358.668	387.44
358.895	389.44
359.122	419.44
359.349	402.44
359.576	399.44
359.802	402.44
360.029	414.44
360.256	427.44
360.483	417.44
360.709	406.44
360.936	399.44
361.163	413.44
361.39	398.44
361.616	396.44
361.843	386.44
362.07	381.44
362.296	390.44
362.523	388.44
362.749	393.44
362.976	395.44
363.203	393.44
363.429	383.44
363.656	407.44
363.882	388.44
364.109	391.44
364.335	399.44
364.562	365.44
364.788	375.44
365.015	385.44
365.241	385.44
365.468	419.44
365.694	372.44
365.92	388.44
366.147	377.44
366.373	382.44
366.599	393.44
366.826	393.44
367.052	378.44
367.278	373.44
367.505	389.44
367.731	375.44
367.957	395.44
368.184	390.44
368.41	373.44
368.636	383.44
368.862	383.44
369.089	378.44
369.315	397.44
369.541	389.44
369.767	395.44
369.993	389.44
370.219	365.44
370.445	389.44
370.672	366.44
370.898	399.44
371.124	394.44
371.35	388.44
371.576	403.44
371.802	389.44
372.028	388.44
372.254	389.44
372.48	397.44
372.706	378.44
372.932	389.44
373.158	380.44
373.384	391.44
373.61	389.44
373.835	390.44
374.061	388.44
374.287	398.44
374.513	388.44
374.739	391.44
374.965	393.44
375.191	395.44
375.416	402.44
375.642	381.44
375.868	397.44
376.094	388.44
376.319	390.44
376.545	391.44
376.771	388.44
376.997	417.44
377.222	377.44
377.448	372.44
377.674	361.44
377.899	387.44
378.125	379.44
378.35	381.44
378.576	374.44
378.802	370.44
379.027	387.44
379.253	370.44
379.478	370.44
379.704	381.44
379.929	378.44
380.155	375.44
380.38	380.44
380.606	391.44
380.831	396.44
381.057	402.44
381.282	371.44
381.507	393.44
381.733	375.44
381.958	379.44
382.184	400.44
382.409	381.44
382.634	387.44
382.86	405.44
383.085	397.44
383.31	397.44
383.535	397.44
383.761	418.44
383.986	406.44
384.211	400.44
384.436	408.44
384.662	409.44
384.887	407.44
385.112	424.44
385.337	405.44
385.562	412.44
385.787	405.44
386.013	422.44
386.238	420.44
386.463	417.44
386.688	404.44
386.913	413.44
387.138	430.44
387.363	449.44
387.588	411.44
387.813	415.44
388.038	418.44
388.263	420.44
388.488	419.44
388.713	406.44
388.938	404.44
389.163	450.44
389.387	408.44
389.612	421.44
389.837	430.44
390.062	428.44
390.287	437.44
390.512	432.44
390.736	409.44
390.961	417.44
391.186	412.44
391.411	433.44
391.636	439.44
391.86	428.44
392.085	437.44
392.31	460.44
392.534	458.44
392.759	427.44
392.984	427.44
393.208	438.44
393.433	413.44
393.658	415.44
393.882	421.44
394.107	437.44
394.331	427.44
394.556	408.44
394.78	426.44
395.005	440.44
395.229	428.44
395.454	433.44
395.678	453.44
395.903	449.44
396.127	449.44
396.352	459.44
396.576	447.44
396.801	442.44
397.025	453.44
397.249	431.44
397.474	449.44
397.698	440.44
397.922	458.44
398.147	471.44
398.371	474.44
398.595	468.44
398.82	480.44
399.044	514.44
399.268	542.44
399.492	554.44
399.717	581.44
399.941	579.44
400.165	580.44
400.389	583.44
400.613	534.44
400.837	515.44
401.062	500.44
401.286	497.44
401.51	491.44
401.734	479.44
401.958	467.44
402.182	462.44
402.406	487.44
402.63	469.44
402.854	492.44
403.078	496.44
403.302	493.44
403.526	479.44
403.75	498.44
403.974	502.44
404.198	521.44
404.422	531.44
404.645	494.44
404.869	513.44
405.093	525.44
405.317	540.44
405.541	563.44
405.765	533.44
405.988	516.44
406.212	520.44
406.436	513.44
406.66	543.44
406.883	510.44
407.107	542.44
407.331	605.44
407.555	636.44
407.778	645.44
408.002	602.44
408.226	561.44
408.449	528.44
408.673	528.44
408.896	547.44
409.12	587.44
409.344	552.44
409.567	519.44
409.791	500.44
410.014	505.44
410.238	486.44
410.461	474.44
410.685	490.44
410.908	517.44
411.132	525.44
411.355	547.44
411.578	535.44
411.802	488.44
412.025	494.44
412.249	491.44
412.472	499.44
412.695	537.44
412.919	531.44
413.142	489.44
413.365	475.44
413.589	477.44
413.812	484.44
414.035	467.44
414.258	466.44
414.482	458.44
414.705	452.44
414.928	457.44
415.151	466.44
415.374	478.44
415.597	456.44
415.821	446.44
416.044	455.44
416.267	443.44
416.49	445.44
416.713	463.44
416.936	456.44
417.159	468.44
417.382	446.44
417.605	452.44
417.828	440.44
418.051	485.44
418.274	469.44
418.497	455.44
418.72	449.44
418.943	451.44
419.166	486.44
419.389	498.44
419.611	494.44
419.834	493.44
420.057	485.44
420.28	490.44
420.503	485.44
420.726	475.44
420.948	476.44
421.171	512.44
421.394	517.44
421.617	497.44
421.839	472.44
422.062	484.44
422.285	493.44
422.507	523.44
422.73	563.44
422.953	550.44
423.175	508.44
423.398	517.44
423.621	484.44
423.843	488.44
424.066	496.44
424.288	506.44
424.511	524.44
424.733	549.44
424.956	627.44
425.178	573.44
425.401	583.44
425.623	596.44
425.846	537.44
426.068	490.44
426.291	500.44
426.513	494.44
426.735	486.44
426.958	519.44
427.18	568.44
427.402	657.44
427.625	765.44
427.847	621.44
428.069	561.44
428.292	487.44
428.514	471.44
428.736	458.44
428.958	486.44
429.181	460.44
429.403	451.44
429.625	467.44
429.847	467.44
430.069	549.44
430.292	523.44
430.514	453.44
430.736	460.44
430.958	462.44
431.18	440.44
431.402	405.44
431.624	434.44
431.846	415.44
432.068	426.44
432.29	442.44
432.512	469.44
432.734	429.44
432.956	456.44
433.178	451.44
433.4	423.44
433.622	435.44
433.844	452.44
434.066	438.44
434.287	426.44
434.509	435.44
434.731	443.44
434.953	461.44
435.175	466.44
435.397	476.44
435.618	505.44
435.84	516.44
436.062	559.44
436.284	641.44
436.505	535.44
436.727	469.44
436.949	450.44
437.17	446.44
437.392	430.44
437.614	452.44
437.835	484.44
438.057	549.44
438.278	623.44
438.5	644.44
438.721	697.44
438.943	656.44
439.165	543.44
439.386	488.44
439.608	462.44
439.829	470.44
440.05	485.44
440.272	543.44
440.493	520.44
440.715	477.44
440.936	457.44
441.158	449.44
441.379	450.44
441.6	466.44
441.822	465.44
442.043	501.44
442.264	571.44
442.486	601.44
442.707	533.44
442.928	485.44
443.149	526.44
443.371	518.44
443.592	553.44
443.813	643.44
444.034	649.44
444.255	561.44
444.476	507.44
444.698	529.44
444.919	539.44
445.14	620.44
445.361	541.44
445.582	536.44
445.803	581.44
446.024	639.44
446.245	641.44
446.466	561.44
446.687	519.44
446.908	462.44
447.129	441.44
447.35	442.44
447.571	445.44
447.792	441.44
448.013	457.44
448.234	466.44
448.455	486.44
448.675	593.44
448.896	676.44
449.117	572.44
449.338	536.44
449.559	618.44
449.779	705.44
450	567.44
450.221	486.44
450.442	451.44
450.662	426.44
450.883	421.44
451.104	446.44
451.324	419.44
451.545	402.44
451.766	395.44
451.986	401.44
452.207	409.44
452.428	402.44
452.648	412.44
452.869	403.44
453.089	388.44
453.31	406.44
453.53	389.44
453.751	403.44
453.971	393.44
454.192	399.44
454.412	393.44
454.633	415.44
454.853	403.44
455.073	397.44
455.294	401.44
455.514	443.44
455.734	442.44
455.955	389.44
456.175	377.44
456.395	370.44
456.616	381.44
456.836	382.44
457.056	366.44
457.276	363.44
457.497	378.44
457.717	389.44
457.937	398.44
458.157	408.44
458.377	390.44
458.598	396.44
458.818	437.44
459.038	476.44
459.258	514.44
459.478	461.44
459.698	421.44
459.918	418.44
460.138	437.44
460.358	447.44
460.578	444.44
460.798	460.44
461.018	434.44
461.238	453.44
461.458	433.44
461.678	429.44
461.898	449.44
462.118	445.44
462.338	473.44
462.558	487.44
462.777	468.44
462.997	504.44
463.217	500.44
463.437	507.44
463.657	517.44
463.876	474.44
464.096	489.44
464.316	477.44
464.536	494.44
464.755	471.44
464.975	483.44
465.195	476.44
465.414	504.44
465.634	465.44
465.854	449.44
466.073	424.44
466.293	442.44
466.512	409.44
466.732	410.44
466.951	429.44
467.171	409.44
467.391	398.44
467.61	428.44
467.829	404.44
468.049	405.44
468.268	422.44
468.488	398.44
468.707	389.44
468.927	383.44
469.146	379.44
469.365	411.44
469.585	394.44
469.804	407.44
470.023	420.44
470.243	417.44
470.462	422.44
470.681	411.44
470.901	414.44
471.12	430.44
471.339	410.44
471.558	408.44
471.777	410.44
471.997	400.44
472.216	399.44
472.435	413.44
472.654	425.44
472.873	407.44
473.092	389.44
473.311	397.44
473.53	399.44
473.749	415.44
473.968	450.44
474.187	487.44
474.406	531.44
474.625	476.44
474.844	435.44
475.063	411.44
475.282	417.44
475.501	418.44
475.72	406.44
475.939	427.44
476.158	418.44
476.377	409.44
476.596	428.44
476.814	426.44
477.033	427.44
477.252	428.44
477.471	430.44
477.69	425.44
477.908	453.44
478.127	455.44
478.346	455.44
478.564	449.44
478.783	474.44
479.002	473.44
479.22	486.44
479.439	489.44
479.658	479.44
479.876	458.44
480.095	504.44
480.313	494.44
480.532	494.44
480.751	498.44
480.969	492.44
481.188	518.44
481.406	525.44
481.624	507.44
481.843	474.44
482.061	457.44
482.28	460.44
482.498	459.44
482.717	486.44
482.935	470.44
483.153	499.44
483.372	484.44
483.59	470.44
483.808	465.44
484.027	486.44
484.245	483.44
484.463	450.44
484.681	484.44
484.9	483.44
485.118	494.44
485.336	486.44
485.554	488.44
485.772	485.44
485.99	482.44
486.209	499.44
486.427	493.44
486.645	513.44
486.863	527.44
487.081	480.44
487.299	495.44
487.517	486.44
487.735	473.44
487.953	494.44
488.171	519.44
488.389	506.44
488.607	499.44
488.825	488.44
489.043	513.44
489.261	518.44
489.479	493.44
489.696	517.44
489.914	510.44
490.132	532.44
490.35	498.44
490.568	522.44
490.786	535.44
491.003	537.44
491.221	534.44
491.439	556.44
491.657	545.44
491.874	549.44
492.092	543.44
492.31	537.44
492.527	546.44
492.745	553.44
492.963	563.44
493.18	583.44
493.398	563.44
493.615	565.44
493.833	567.44
494.05	577.44
494.268	573.44
494.485	589.44
494.703	574.44
494.92	597.44
495.138	578.44
495.355	557.44
495.573	569.44
495.79	603.44
496.008	599.44
496.225	591.44
496.442	589.44
496.66	598.44
496.877	605.44
497.094	611.44
497.312	598.44
497.529	609.44
497.746	602.44
497.963	627.44
498.181	641.44
498.398	648.44
498.615	675.44
498.832	679.44
499.049	677.44
499.267	705.44
499.484	789.44
499.701	810.44
499.918	835.44
500.135	888.44
500.352	884.44
500.569	924.44
500.786	936.44
501.003	932.44
501.22	867.44
501.437	833.44
501.654	811.44
501.871	801.44
502.088	759.44
