Data from 1977.PennyLincolnUp.Lamp.En5.5.200Scan.071719.P1_HRD10591_16-05-38-863.txt Node
Date: Thu Jul 18 16:05:38 EDT 2019
User: cochatt
Spectrometer: HR+D1059
Trigger mode: 1
Integration Time (sec): 1.000000E-1
Scans to average: 1
Electric dark correction enabled: true
Nonlinearity correction enabled: false
Boxcar width: 0
XAxis mode: Wavelengths
Number of Pixels in Spectrum: 2048
>>>>>Begin Spectral Data<<<<<
223.165	-16.12
223.4	-16.12
223.635	-16.12
223.869	-14.12
224.104	-15.12
224.338	-12.12
224.573	-16.12
224.808	-5.12
225.042	-10.12
225.277	-10.12
225.511	-6.12
225.746	11.88
225.98	-2.12
226.215	-1.12
226.449	19.88
226.683	24.88
226.918	24.88
227.152	26.88
227.387	26.88
227.621	53.88
227.856	30.88
228.09	39.88
228.324	48.88
228.559	48.88
228.793	52.88
229.027	86.88
229.262	93.88
229.496	82.88
229.73	109.88
229.964	119.88
230.199	104.88
230.433	100.88
230.667	96.88
230.901	106.88
231.136	103.88
231.37	97.88
231.604	96.88
231.838	111.88
232.072	109.88
232.306	109.88
232.541	96.88
232.775	93.88
233.009	103.88
233.243	99.88
233.477	112.88
233.711	110.88
233.945	106.88
234.179	98.88
234.413	119.88
234.647	115.88
234.881	105.88
235.115	103.88
235.349	104.88
235.583	100.88
235.817	122.88
236.051	111.88
236.285	111.88
236.519	105.88
236.753	112.88
236.987	134.88
237.221	148.88
237.455	178.88
237.689	154.88
237.922	126.88
238.156	115.88
238.39	111.88
238.624	114.88
238.858	115.88
239.091	120.88
239.325	113.88
239.559	107.88
239.793	121.88
240.027	126.88
240.26	129.88
240.494	140.88
240.728	143.88
240.961	133.88
241.195	134.88
241.429	133.88
241.662	120.88
241.896	119.88
242.13	115.88
242.363	122.88
242.597	101.88
242.83	129.88
243.064	123.88
243.298	123.88
243.531	118.88
243.765	121.88
243.998	132.88
244.232	122.88
244.465	141.88
244.699	136.88
244.932	121.88
245.166	137.88
245.399	139.88
245.633	125.88
245.866	139.88
246.099	127.88
246.333	128.88
246.566	158.88
246.8	128.88
247.033	134.88
247.266	147.88
247.5	130.88
247.733	157.88
247.966	146.88
248.2	136.88
248.433	145.88
248.666	144.88
248.899	159.88
249.133	179.88
249.366	170.88
249.599	170.88
249.832	173.88
250.066	154.88
250.299	151.88
250.532	166.88
250.765	180.88
250.998	177.88
251.231	203.88
251.465	187.88
251.698	182.88
251.931	166.88
252.164	166.88
252.397	185.88
252.63	199.88
252.863	197.88
253.096	193.88
253.329	209.88
253.562	201.88
253.795	208.88
254.028	200.88
254.261	183.88
254.494	200.88
254.727	213.88
254.96	237.88
255.193	248.88
255.426	220.88
255.659	191.88
255.892	182.88
256.124	187.88
256.357	199.88
256.59	201.88
256.823	200.88
257.056	183.88
257.289	187.88
257.521	192.88
257.754	183.88
257.987	191.88
258.22	178.88
258.452	191.88
258.685	200.88
258.918	197.88
259.151	184.88
259.383	192.88
259.616	192.88
259.849	210.88
260.081	209.88
260.314	211.88
260.547	220.88
260.779	218.88
261.012	205.88
261.244	189.88
261.477	190.88
261.71	197.88
261.942	195.88
262.175	210.88
262.407	208.88
262.64	208.88
262.872	203.88
263.105	204.88
263.337	209.88
263.57	219.88
263.802	190.88
264.035	192.88
264.267	190.88
264.499	214.88
264.732	212.88
264.964	208.88
265.197	209.88
265.429	192.88
265.661	194.88
265.894	209.88
266.126	213.88
266.358	196.88
266.591	198.88
266.823	225.88
267.055	210.88
267.287	216.88
267.52	202.88
267.752	218.88
267.984	228.88
268.216	197.88
268.448	215.88
268.681	221.88
268.913	219.88
269.145	237.88
269.377	249.88
269.609	262.88
269.841	242.88
270.073	259.88
270.306	268.88
270.538	277.88
270.77	291.88
271.002	285.88
271.234	256.88
271.466	263.88
271.698	280.88
271.93	307.88
272.162	273.88
272.394	267.88
272.626	267.88
272.858	259.88
273.09	263.88
273.322	239.88
273.553	242.88
273.785	245.88
274.017	238.88
274.249	230.88
274.481	250.88
274.713	259.88
274.945	257.88
275.176	232.88
275.408	243.88
275.64	234.88
275.872	245.88
276.104	251.88
276.335	252.88
276.567	253.88
276.799	269.88
277.031	284.88
277.262	280.88
277.494	289.88
277.726	285.88
277.957	276.88
278.189	257.88
278.421	253.88
278.652	245.88
278.884	273.88
279.115	250.88
279.347	258.88
279.579	251.88
279.81	233.88
280.042	267.88
280.273	251.88
280.505	243.88
280.736	258.88
280.968	262.88
281.199	285.88
281.431	257.88
281.662	254.88
281.894	265.88
282.125	258.88
282.356	265.88
282.588	273.88
282.819	277.88
283.051	267.88
283.282	263.88
283.513	267.88
283.745	271.88
283.976	271.88
284.207	269.88
284.439	268.88
284.67	267.88
284.901	279.88
285.132	274.88
285.364	278.88
285.595	278.88
285.826	271.88
286.057	255.88
286.288	277.88
286.52	274.88
286.751	265.88
286.982	267.88
287.213	271.88
287.444	282.88
287.675	291.88
287.906	292.88
288.138	305.88
288.369	287.88
288.6	303.88
288.831	277.88
289.062	280.88
289.293	290.88
289.524	302.88
289.755	275.88
289.986	299.88
290.217	278.88
290.448	282.88
290.679	282.88
290.91	270.88
291.141	275.88
291.371	298.88
291.602	274.88
291.833	264.88
292.064	287.88
292.295	286.88
292.526	283.88
292.757	292.88
292.987	294.88
293.218	294.88
293.449	296.88
293.68	286.88
293.91	282.88
294.141	291.88
294.372	282.88
294.603	282.88
294.833	307.88
295.064	287.88
295.295	311.88
295.525	305.88
295.756	309.88
295.987	292.88
296.217	317.88
296.448	313.88
296.679	280.88
296.909	311.88
297.14	281.88
297.37	301.88
297.601	298.88
297.831	322.88
298.062	292.88
298.292	305.88
298.523	301.88
298.753	296.88
298.984	301.88
299.214	294.88
299.445	301.88
299.675	309.88
299.905	304.88
300.136	309.88
300.366	299.88
300.597	304.88
300.827	326.88
301.057	322.88
301.288	307.88
301.518	337.88
301.748	331.88
301.979	308.88
302.209	340.88
302.439	325.88
302.669	320.88
302.9	315.88
303.13	317.88
303.36	341.88
303.59	309.88
303.82	326.88
304.051	325.88
304.281	336.88
304.511	307.88
304.741	315.88
304.971	316.88
305.201	323.88
305.431	323.88
305.661	314.88
305.891	327.88
306.121	334.88
306.352	340.88
306.582	313.88
306.812	325.88
307.042	342.88
307.272	304.88
307.502	317.88
307.731	323.88
307.961	333.88
308.191	330.88
308.421	326.88
308.651	331.88
308.881	333.88
309.111	326.88
309.341	335.88
309.571	342.88
309.8	346.88
310.03	343.88
310.26	353.88
310.49	339.88
310.72	379.88
310.949	361.88
311.179	375.88
311.409	357.88
311.639	351.88
311.868	351.88
312.098	363.88
312.328	367.88
312.557	375.88
312.787	375.88
313.017	374.88
313.246	357.88
313.476	354.88
313.706	359.88
313.935	359.88
314.165	374.88
314.394	360.88
314.624	357.88
314.853	374.88
315.083	369.88
315.312	362.88
315.542	389.88
315.771	367.88
316.001	371.88
316.23	354.88
316.46	384.88
316.689	356.88
316.919	356.88
317.148	358.88
317.377	365.88
317.607	373.88
317.836	370.88
318.065	380.88
318.295	357.88
318.524	347.88
318.753	343.88
318.983	368.88
319.212	360.88
319.441	362.88
319.67	372.88
319.9	366.88
320.129	363.88
320.358	367.88
320.587	337.88
320.816	360.88
321.046	368.88
321.275	389.88
321.504	375.88
321.733	382.88
321.962	359.88
322.191	379.88
322.42	381.88
322.649	389.88
322.878	406.88
323.108	395.88
323.337	423.88
323.566	433.88
323.795	465.88
324.024	491.88
324.253	536.88
324.482	733.88
324.71	1071.88
324.939	1445.88
325.168	1238.88
325.397	692.88
325.626	509.88
325.855	466.88
326.084	439.88
326.313	454.88
326.542	433.88
326.77	463.88
326.999	525.88
327.228	658.88
327.457	947.88
327.686	1090.88
327.914	761.88
328.143	551.88
328.372	491.88
328.6	476.88
328.829	474.88
329.058	452.88
329.287	466.88
329.515	457.88
329.744	451.88
329.972	419.88
330.201	429.88
330.43	474.88
330.658	498.88
330.887	503.88
331.115	463.88
331.344	431.88
331.572	450.88
331.801	448.88
332.03	443.88
332.258	430.88
332.486	415.88
332.715	430.88
332.943	431.88
333.172	446.88
333.4	459.88
333.629	442.88
333.857	448.88
334.085	448.88
334.314	454.88
334.542	463.88
334.771	463.88
334.999	465.88
335.227	448.88
335.455	434.88
335.684	442.88
335.912	425.88
336.14	419.88
336.369	415.88
336.597	444.88
336.825	415.88
337.053	433.88
337.281	415.88
337.51	403.88
337.738	409.88
337.966	425.88
338.194	412.88
338.422	422.88
338.65	405.88
338.878	402.88
339.106	413.88
339.334	396.88
339.562	421.88
339.79	396.88
340.018	388.88
340.246	399.88
340.474	406.88
340.702	392.88
340.93	394.88
341.158	395.88
341.386	409.88
341.614	390.88
341.842	407.88
342.07	384.88
342.298	403.88
342.526	394.88
342.754	378.88
342.981	405.88
343.209	372.88
343.437	413.88
343.665	389.88
343.893	419.88
344.12	438.88
344.348	438.88
344.576	410.88
344.804	435.88
345.031	416.88
345.259	393.88
345.487	398.88
345.714	393.88
345.942	399.88
346.17	376.88
346.397	386.88
346.625	379.88
346.853	367.88
347.08	384.88
347.308	384.88
347.535	365.88
347.763	390.88
347.99	379.88
348.218	386.88
348.445	389.88
348.673	391.88
348.9	386.88
349.128	378.88
349.355	386.88
349.583	378.88
349.81	367.88
350.037	365.88
350.265	365.88
350.492	359.88
350.72	363.88
350.947	391.88
351.174	367.88
351.402	379.88
351.629	375.88
351.856	375.88
352.083	362.88
352.311	387.88
352.538	373.88
352.765	383.88
352.992	387.88
353.22	382.88
353.447	374.88
353.674	365.88
353.901	379.88
354.128	358.88
354.355	369.88
354.583	370.88
354.81	368.88
355.037	359.88
355.264	363.88
355.491	351.88
355.718	362.88
355.945	360.88
356.172	361.88
356.399	356.88
356.626	359.88
356.853	366.88
357.08	354.88
357.307	361.88
357.534	374.88
357.761	389.88
357.988	351.88
358.215	354.88
358.441	368.88
358.668	359.88
358.895	365.88
359.122	365.88
359.349	372.88
359.576	358.88
359.802	387.88
360.029	385.88
360.256	380.88
360.483	407.88
360.709	377.88
360.936	359.88
361.163	389.88
361.39	369.88
361.616	358.88
361.843	381.88
362.07	365.88
362.296	361.88
362.523	361.88
362.749	372.88
362.976	383.88
363.203	365.88
363.429	373.88
363.656	359.88
363.882	375.88
364.109	367.88
364.335	343.88
364.562	341.88
364.788	360.88
365.015	375.88
365.241	366.88
365.468	345.88
365.694	377.88
365.92	371.88
366.147	355.88
366.373	358.88
366.599	360.88
366.826	373.88
367.052	356.88
367.278	361.88
367.505	369.88
367.731	381.88
367.957	340.88
368.184	349.88
368.41	368.88
368.636	373.88
368.862	376.88
369.089	365.88
369.315	367.88
369.541	361.88
369.767	373.88
369.993	340.88
370.219	357.88
370.445	368.88
370.672	367.88
370.898	368.88
371.124	374.88
371.35	360.88
371.576	369.88
371.802	366.88
372.028	342.88
372.254	352.88
372.48	374.88
372.706	379.88
372.932	366.88
373.158	356.88
373.384	357.88
373.61	375.88
373.835	367.88
374.061	358.88
374.287	347.88
374.513	375.88
374.739	374.88
374.965	365.88
375.191	382.88
375.416	375.88
375.642	362.88
375.868	373.88
376.094	377.88
376.319	372.88
376.545	355.88
376.771	357.88
376.997	354.88
377.222	362.88
377.448	336.88
377.674	346.88
377.899	354.88
378.125	389.88
378.35	373.88
378.576	366.88
378.802	363.88
379.027	359.88
379.253	351.88
379.478	355.88
379.704	350.88
379.929	376.88
380.155	359.88
380.38	370.88
380.606	373.88
380.831	362.88
381.057	354.88
381.282	361.88
381.507	362.88
381.733	357.88
381.958	375.88
382.184	370.88
382.409	352.88
382.634	381.88
382.86	359.88
383.085	381.88
383.31	371.88
383.535	384.88
383.761	373.88
383.986	386.88
384.211	381.88
384.436	377.88
384.662	383.88
384.887	391.88
385.112	365.88
385.337	385.88
385.562	406.88
385.787	391.88
386.013	414.88
386.238	409.88
386.463	404.88
386.688	406.88
386.913	406.88
387.138	374.88
387.363	392.88
387.588	398.88
387.813	380.88
388.038	395.88
388.263	386.88
388.488	389.88
388.713	393.88
388.938	391.88
389.163	397.88
389.387	387.88
389.612	381.88
389.837	385.88
390.062	382.88
390.287	383.88
390.512	394.88
390.736	391.88
390.961	410.88
391.186	407.88
391.411	423.88
391.636	414.88
391.86	420.88
392.085	426.88
392.31	398.88
392.534	399.88
392.759	407.88
392.984	412.88
393.208	391.88
393.433	393.88
393.658	426.88
393.882	379.88
394.107	396.88
394.331	383.88
394.556	401.88
394.78	401.88
395.005	409.88
395.229	409.88
395.454	431.88
395.678	414.88
395.903	417.88
396.127	432.88
396.352	443.88
396.576	411.88
396.801	426.88
397.025	410.88
397.249	418.88
397.474	429.88
397.698	417.88
397.922	420.88
398.147	437.88
398.371	462.88
398.595	427.88
398.82	441.88
399.044	462.88
399.268	480.88
399.492	502.88
399.717	518.88
399.941	561.88
400.165	537.88
400.389	558.88
400.613	496.88
400.837	489.88
401.062	458.88
401.286	477.88
401.51	458.88
401.734	436.88
401.958	476.88
402.182	454.88
402.406	462.88
402.63	447.88
402.854	459.88
403.078	463.88
403.302	450.88
403.526	482.88
403.75	459.88
403.974	478.88
404.198	442.88
404.422	476.88
404.645	483.88
404.869	464.88
405.093	482.88
405.317	505.88
405.541	532.88
405.765	514.88
405.988	492.88
406.212	496.88
406.436	488.88
406.66	495.88
406.883	495.88
407.107	519.88
407.331	535.88
407.555	595.88
407.778	601.88
408.002	557.88
408.226	517.88
408.449	513.88
408.673	507.88
408.896	508.88
409.12	571.88
409.344	533.88
409.567	475.88
409.791	465.88
410.014	471.88
410.238	445.88
410.461	465.88
410.685	461.88
410.908	481.88
411.132	503.88
411.355	524.88
411.578	498.88
411.802	449.88
412.025	450.88
412.249	478.88
412.472	478.88
412.695	501.88
412.919	479.88
413.142	447.88
413.365	455.88
413.589	463.88
413.812	454.88
414.035	427.88
414.258	443.88
414.482	449.88
414.705	426.88
414.928	412.88
415.151	447.88
415.374	438.88
415.597	429.88
415.821	427.88
416.044	433.88
416.267	435.88
416.49	424.88
416.713	453.88
416.936	421.88
417.159	438.88
417.382	426.88
417.605	403.88
417.828	427.88
418.051	454.88
418.274	445.88
418.497	408.88
418.72	443.88
418.943	419.88
419.166	433.88
419.389	461.88
419.611	462.88
419.834	452.88
420.057	449.88
420.28	444.88
420.503	453.88
420.726	462.88
420.948	447.88
421.171	484.88
421.394	485.88
421.617	463.88
421.839	433.88
422.062	440.88
422.285	461.88
422.507	494.88
422.73	534.88
422.953	510.88
423.175	473.88
423.398	449.88
423.621	458.88
423.843	486.88
424.066	463.88
424.288	453.88
424.511	481.88
424.733	516.88
424.956	571.88
425.178	541.88
425.401	550.88
425.623	572.88
425.846	514.88
426.068	452.88
426.291	479.88
426.513	453.88
426.735	461.88
426.958	498.88
427.18	549.88
427.402	622.88
427.625	701.88
427.847	595.88
428.069	517.88
428.292	489.88
428.514	453.88
428.736	434.88
428.958	415.88
429.181	436.88
429.403	424.88
429.625	413.88
429.847	434.88
430.069	509.88
430.292	503.88
430.514	450.88
430.736	432.88
430.958	411.88
431.18	415.88
431.402	435.88
431.624	407.88
431.846	415.88
432.068	416.88
432.29	415.88
432.512	410.88
432.734	417.88
432.956	409.88
433.178	416.88
433.4	421.88
433.622	404.88
433.844	429.88
434.066	412.88
434.287	406.88
434.509	429.88
434.731	434.88
434.953	446.88
435.175	423.88
435.397	458.88
435.618	472.88
435.84	492.88
436.062	586.88
436.284	601.88
436.505	507.88
436.727	465.88
436.949	442.88
437.17	419.88
437.392	408.88
437.614	427.88
437.835	458.88
438.057	518.88
438.278	575.88
438.5	585.88
438.721	642.88
438.943	638.88
439.165	500.88
439.386	465.88
439.608	442.88
439.829	466.88
440.05	475.88
440.272	503.88
440.493	451.88
440.715	438.88
440.936	432.88
441.158	427.88
441.379	415.88
441.6	422.88
441.822	437.88
442.043	452.88
442.264	537.88
442.486	569.88
442.707	498.88
442.928	456.88
443.149	475.88
443.371	472.88
443.592	526.88
443.813	579.88
444.034	647.88
444.255	563.88
444.476	499.88
444.698	484.88
444.919	478.88
445.14	555.88
445.361	521.88
445.582	493.88
445.803	516.88
446.024	571.88
446.245	595.88
446.466	555.88
446.687	470.88
446.908	442.88
447.129	415.88
447.35	435.88
447.571	415.88
447.792	419.88
448.013	423.88
448.234	430.88
448.455	462.88
448.675	524.88
448.896	614.88
449.117	533.88
449.338	516.88
449.559	590.88
449.779	657.88
450	535.88
450.221	457.88
450.442	429.88
450.662	429.88
450.883	407.88
451.104	408.88
451.324	399.88
451.545	390.88
451.766	390.88
451.986	364.88
452.207	394.88
452.428	353.88
452.648	389.88
452.869	385.88
453.089	375.88
453.31	424.88
453.53	370.88
453.751	383.88
453.971	372.88
454.192	375.88
454.412	374.88
454.633	370.88
454.853	358.88
455.073	371.88
455.294	383.88
455.514	435.88
455.734	423.88
455.955	371.88
456.175	359.88
456.395	359.88
456.616	351.88
456.836	361.88
457.056	357.88
457.276	355.88
457.497	369.88
457.717	365.88
457.937	359.88
458.157	374.88
458.377	374.88
458.598	375.88
458.818	445.88
459.038	481.88
459.258	486.88
459.478	432.88
459.698	422.88
459.918	410.88
460.138	410.88
460.358	414.88
460.578	425.88
460.798	440.88
461.018	424.88
461.238	427.88
461.458	414.88
461.678	407.88
461.898	439.88
462.118	431.88
462.338	424.88
462.558	448.88
462.777	451.88
462.997	453.88
463.217	464.88
463.437	476.88
463.657	458.88
463.876	446.88
464.096	457.88
464.316	453.88
464.536	457.88
464.755	447.88
464.975	471.88
465.195	475.88
465.414	484.88
465.634	454.88
465.854	423.88
466.073	395.88
466.293	412.88
466.512	387.88
466.732	397.88
466.951	383.88
467.171	374.88
467.391	393.88
467.61	376.88
467.829	373.88
468.049	393.88
468.268	402.88
468.488	354.88
468.707	361.88
468.927	353.88
469.146	372.88
469.365	374.88
469.585	372.88
469.804	376.88
470.023	410.88
470.243	382.88
470.462	384.88
470.681	411.88
470.901	400.88
471.12	399.88
471.339	391.88
471.558	410.88
471.777	379.88
471.997	382.88
472.216	380.88
472.435	399.88
472.654	387.88
472.873	371.88
473.092	400.88
473.311	399.88
473.53	370.88
473.749	381.88
473.968	413.88
474.187	498.88
474.406	498.88
474.625	431.88
474.844	424.88
475.063	401.88
475.282	392.88
475.501	398.88
475.72	403.88
475.939	408.88
476.158	378.88
476.377	392.88
476.596	398.88
476.814	393.88
477.033	417.88
477.252	395.88
477.471	413.88
477.69	447.88
477.908	411.88
478.127	438.88
478.346	419.88
478.564	434.88
478.783	435.88
479.002	442.88
479.22	459.88
479.439	452.88
479.658	459.88
479.876	462.88
480.095	474.88
480.313	484.88
480.532	483.88
480.751	472.88
480.969	486.88
481.188	488.88
481.406	490.88
481.624	477.88
481.843	453.88
482.061	435.88
482.28	438.88
482.498	442.88
482.717	443.88
482.935	457.88
483.153	436.88
483.372	447.88
483.59	454.88
483.808	442.88
484.027	440.88
484.245	443.88
484.463	451.88
484.681	461.88
484.9	463.88
485.118	453.88
485.336	463.88
485.554	455.88
485.772	454.88
485.99	435.88
486.209	463.88
486.427	465.88
486.645	458.88
486.863	475.88
487.081	477.88
487.299	466.88
487.517	457.88
487.735	498.88
487.953	483.88
488.171	478.88
488.389	468.88
488.607	459.88
488.825	470.88
489.043	483.88
489.261	482.88
489.479	500.88
489.696	504.88
489.914	481.88
490.132	480.88
490.35	493.88
490.568	490.88
490.786	482.88
491.003	515.88
491.221	514.88
491.439	522.88
491.657	508.88
491.874	535.88
492.092	505.88
492.31	545.88
492.527	507.88
492.745	537.88
492.963	535.88
493.18	557.88
493.398	546.88
493.615	531.88
493.833	547.88
494.05	552.88
494.268	525.88
494.485	531.88
494.703	537.88
494.92	516.88
495.138	545.88
495.355	541.88
495.573	550.88
495.79	551.88
496.008	542.88
496.225	546.88
496.442	575.88
496.66	573.88
496.877	571.88
497.094	578.88
497.312	563.88
497.529	587.88
497.746	622.88
497.963	591.88
498.181	623.88
498.398	621.88
498.615	629.88
498.832	650.88
499.049	685.88
499.267	667.88
499.484	714.88
499.701	734.88
499.918	791.88
500.135	827.88
500.352	862.88
500.569	909.88
500.786	883.88
501.003	872.88
501.22	840.88
501.437	793.88
501.654	757.88
501.871	720.88
502.088	709.88
