Data from 1977.PennyLincolnUp.Lamp.En5.5.200Scan.071719.P1_HRD10591_16-07-49-865.txt Node
Date: Thu Jul 18 16:07:49 EDT 2019
User: cochatt
Spectrometer: HR+D1059
Trigger mode: 1
Integration Time (sec): 1.000000E-1
Scans to average: 1
Electric dark correction enabled: true
Nonlinearity correction enabled: false
Boxcar width: 0
XAxis mode: Wavelengths
Number of Pixels in Spectrum: 2048
>>>>>Begin Spectral Data<<<<<
223.165	-25.25
223.4	-25.25
223.635	-25.25
223.869	0.75
224.104	-19.25
224.338	-23.25
224.573	-21.25
224.808	-22.25
225.042	-5.25
225.277	6.75
225.511	-10.25
225.746	8.75
225.98	-6.25
226.215	6.75
226.449	31.75
226.683	25.75
226.918	24.75
227.152	27.75
227.387	34.75
227.621	28.75
227.856	43.75
228.09	41.75
228.324	50.75
228.559	44.75
228.793	74.75
229.027	88.75
229.262	100.75
229.496	100.75
229.73	118.75
229.964	144.75
230.199	118.75
230.433	112.75
230.667	100.75
230.901	101.75
231.136	113.75
231.37	105.75
231.604	105.75
231.838	118.75
232.072	107.75
232.306	121.75
232.541	115.75
232.775	106.75
233.009	112.75
233.243	122.75
233.477	115.75
233.711	108.75
233.945	119.75
234.179	116.75
234.413	128.75
234.647	118.75
234.881	114.75
235.115	125.75
235.349	113.75
235.583	134.75
235.817	128.75
236.051	117.75
236.285	120.75
236.519	132.75
236.753	128.75
236.987	143.75
237.221	169.75
237.455	214.75
237.689	170.75
237.922	129.75
238.156	120.75
238.39	117.75
238.624	119.75
238.858	135.75
239.091	125.75
239.325	131.75
239.559	121.75
239.793	122.75
240.027	134.75
240.26	136.75
240.494	153.75
240.728	157.75
240.961	142.75
241.195	154.75
241.429	131.75
241.662	135.75
241.896	123.75
242.13	128.75
242.363	132.75
242.597	140.75
242.83	133.75
243.064	145.75
243.298	142.75
243.531	129.75
243.765	132.75
243.998	141.75
244.232	148.75
244.465	143.75
244.699	130.75
244.932	116.75
245.166	134.75
245.399	164.75
245.633	145.75
245.866	152.75
246.099	145.75
246.333	164.75
246.566	148.75
246.8	154.75
247.033	152.75
247.266	164.75
247.5	176.75
247.733	162.75
247.966	156.75
248.2	176.75
248.433	160.75
248.666	171.75
248.899	178.75
249.133	201.75
249.366	186.75
249.599	185.75
249.832	180.75
250.066	165.75
250.299	192.75
250.532	192.75
250.765	192.75
250.998	197.75
251.231	214.75
251.465	192.75
251.698	202.75
251.931	189.75
252.164	184.75
252.397	213.75
252.63	204.75
252.863	213.75
253.096	208.75
253.329	212.75
253.562	242.75
253.795	195.75
254.028	208.75
254.261	211.75
254.494	219.75
254.727	241.75
254.96	264.75
255.193	265.75
255.426	223.75
255.659	219.75
255.892	224.75
256.124	234.75
256.357	228.75
256.59	219.75
256.823	206.75
257.056	200.75
257.289	187.75
257.521	198.75
257.754	204.75
257.987	220.75
258.22	206.75
258.452	190.75
258.685	200.75
258.918	200.75
259.151	214.75
259.383	224.75
259.616	221.75
259.849	206.75
260.081	223.75
260.314	247.75
260.547	246.75
260.779	236.75
261.012	226.75
261.244	220.75
261.477	221.75
261.71	217.75
261.942	226.75
262.175	249.75
262.407	221.75
262.64	223.75
262.872	213.75
263.105	212.75
263.337	209.75
263.57	212.75
263.802	219.75
264.035	227.75
264.267	203.75
264.499	211.75
264.732	212.75
264.964	212.75
265.197	216.75
265.429	227.75
265.661	206.75
265.894	211.75
266.126	219.75
266.358	224.75
266.591	224.75
266.823	243.75
267.055	241.75
267.287	221.75
267.52	240.75
267.752	235.75
267.984	234.75
268.216	247.75
268.448	251.75
268.681	227.75
268.913	257.75
269.145	272.75
269.377	274.75
269.609	279.75
269.841	272.75
270.073	274.75
270.306	279.75
270.538	308.75
270.77	295.75
271.002	297.75
271.234	292.75
271.466	282.75
271.698	291.75
271.93	298.75
272.162	318.75
272.394	322.75
272.626	314.75
272.858	284.75
273.09	289.75
273.322	277.75
273.553	296.75
273.785	262.75
274.017	289.75
274.249	265.75
274.481	284.75
274.713	278.75
274.945	276.75
275.176	276.75
275.408	280.75
275.64	267.75
275.872	247.75
276.104	275.75
276.335	282.75
276.567	284.75
276.799	286.75
277.031	305.75
277.262	325.75
277.494	334.75
277.726	323.75
277.957	304.75
278.189	287.75
278.421	301.75
278.652	285.75
278.884	287.75
279.115	284.75
279.347	293.75
279.579	292.75
279.81	278.75
280.042	272.75
280.273	289.75
280.505	280.75
280.736	262.75
280.968	276.75
281.199	293.75
281.431	293.75
281.662	281.75
281.894	277.75
282.125	275.75
282.356	288.75
282.588	309.75
282.819	296.75
283.051	294.75
283.282	301.75
283.513	304.75
283.745	290.75
283.976	304.75
284.207	285.75
284.439	298.75
284.67	304.75
284.901	283.75
285.132	300.75
285.364	316.75
285.595	294.75
285.826	299.75
286.057	317.75
286.288	289.75
286.52	288.75
286.751	317.75
286.982	304.75
287.213	299.75
287.444	268.75
287.675	312.75
287.906	323.75
288.138	315.75
288.369	330.75
288.6	315.75
288.831	308.75
289.062	300.75
289.293	300.75
289.524	313.75
289.755	316.75
289.986	299.75
290.217	307.75
290.448	308.75
290.679	302.75
290.91	297.75
291.141	312.75
291.371	308.75
291.602	317.75
291.833	295.75
292.064	300.75
292.295	303.75
292.526	304.75
292.757	316.75
292.987	300.75
293.218	316.75
293.449	322.75
293.68	294.75
293.91	306.75
294.141	306.75
294.372	306.75
294.603	319.75
294.833	313.75
295.064	317.75
295.295	308.75
295.525	314.75
295.756	310.75
295.987	329.75
296.217	324.75
296.448	334.75
296.679	317.75
296.909	328.75
297.14	327.75
297.37	315.75
297.601	314.75
297.831	316.75
298.062	328.75
298.292	323.75
298.523	319.75
298.753	317.75
298.984	332.75
299.214	324.75
299.445	332.75
299.675	336.75
299.905	339.75
300.136	331.75
300.366	327.75
300.597	339.75
300.827	349.75
301.057	360.75
301.288	342.75
301.518	337.75
301.748	346.75
301.979	356.75
302.209	343.75
302.439	340.75
302.669	359.75
302.9	354.75
303.13	349.75
303.36	340.75
303.59	356.75
303.82	361.75
304.051	334.75
304.281	347.75
304.511	332.75
304.741	323.75
304.971	330.75
305.201	342.75
305.431	347.75
305.661	373.75
305.891	357.75
306.121	335.75
306.352	338.75
306.582	349.75
306.812	354.75
307.042	349.75
307.272	347.75
307.502	337.75
307.731	363.75
307.961	338.75
308.191	365.75
308.421	355.75
308.651	364.75
308.881	340.75
309.111	360.75
309.341	354.75
309.571	341.75
309.8	370.75
310.03	380.75
310.26	377.75
310.49	376.75
310.72	390.75
310.949	382.75
311.179	389.75
311.409	379.75
311.639	381.75
311.868	386.75
312.098	383.75
312.328	392.75
312.557	398.75
312.787	388.75
313.017	410.75
313.246	377.75
313.476	390.75
313.706	378.75
313.935	385.75
314.165	407.75
314.394	398.75
314.624	403.75
314.853	386.75
315.083	402.75
315.312	389.75
315.542	397.75
315.771	368.75
316.001	384.75
316.23	391.75
316.46	391.75
316.689	377.75
316.919	398.75
317.148	404.75
317.377	410.75
317.607	405.75
317.836	371.75
318.065	400.75
318.295	392.75
318.524	394.75
318.753	397.75
318.983	379.75
319.212	389.75
319.441	374.75
319.67	393.75
319.9	390.75
320.129	406.75
320.358	396.75
320.587	380.75
320.816	407.75
321.046	393.75
321.275	408.75
321.504	418.75
321.733	412.75
321.962	416.75
322.191	408.75
322.42	420.75
322.649	441.75
322.878	448.75
323.108	447.75
323.337	467.75
323.566	495.75
323.795	502.75
324.024	540.75
324.253	643.75
324.482	874.75
324.71	1269.75
324.939	1785.75
325.168	1534.75
325.397	820.75
325.626	596.75
325.855	540.75
326.084	476.75
326.313	476.75
326.542	492.75
326.77	534.75
326.999	614.75
327.228	790.75
327.457	1114.75
327.686	1328.75
327.914	906.75
328.143	635.75
328.372	569.75
328.6	546.75
328.829	538.75
329.058	521.75
329.287	542.75
329.515	525.75
329.744	491.75
329.972	510.75
330.201	516.75
330.43	522.75
330.658	545.75
330.887	563.75
331.115	555.75
331.344	531.75
331.572	485.75
331.801	493.75
332.03	490.75
332.258	460.75
332.486	471.75
332.715	479.75
332.943	455.75
333.172	468.75
333.4	484.75
333.629	479.75
333.857	499.75
334.085	493.75
334.314	499.75
334.542	515.75
334.771	525.75
334.999	504.75
335.227	472.75
335.455	469.75
335.684	473.75
335.912	459.75
336.14	462.75
336.369	469.75
336.597	447.75
336.825	455.75
337.053	463.75
337.281	455.75
337.51	454.75
337.738	455.75
337.966	428.75
338.194	456.75
338.422	443.75
338.65	441.75
338.878	421.75
339.106	452.75
339.334	439.75
339.562	430.75
339.79	449.75
340.018	441.75
340.246	418.75
340.474	445.75
340.702	430.75
340.93	441.75
341.158	442.75
341.386	426.75
341.614	418.75
341.842	439.75
342.07	447.75
342.298	415.75
342.526	424.75
342.754	433.75
342.981	418.75
343.209	415.75
343.437	448.75
343.665	435.75
343.893	459.75
344.12	475.75
344.348	462.75
344.576	444.75
344.804	457.75
345.031	459.75
345.259	453.75
345.487	440.75
345.714	446.75
345.942	412.75
346.17	422.75
346.397	397.75
346.625	404.75
346.853	398.75
347.08	407.75
347.308	430.75
347.535	408.75
347.763	422.75
347.99	419.75
348.218	424.75
348.445	420.75
348.673	421.75
348.9	417.75
349.128	409.75
349.355	402.75
349.583	404.75
349.81	386.75
350.037	398.75
350.265	399.75
350.492	407.75
350.72	416.75
350.947	411.75
351.174	397.75
351.402	416.75
351.629	426.75
351.856	433.75
352.083	398.75
352.311	412.75
352.538	409.75
352.765	436.75
352.992	410.75
353.22	396.75
353.447	425.75
353.674	421.75
353.901	386.75
354.128	384.75
354.355	377.75
354.583	404.75
354.81	410.75
355.037	388.75
355.264	392.75
355.491	377.75
355.718	373.75
355.945	372.75
356.172	384.75
356.399	375.75
356.626	381.75
356.853	380.75
357.08	386.75
357.307	391.75
357.534	380.75
357.761	404.75
357.988	387.75
358.215	390.75
358.441	385.75
358.668	393.75
358.895	377.75
359.122	382.75
359.349	389.75
359.576	411.75
359.802	425.75
360.029	442.75
360.256	471.75
360.483	440.75
360.709	396.75
360.936	406.75
361.163	408.75
361.39	402.75
361.616	423.75
361.843	408.75
362.07	415.75
362.296	396.75
362.523	393.75
362.749	404.75
362.976	384.75
363.203	395.75
363.429	390.75
363.656	384.75
363.882	397.75
364.109	414.75
364.335	409.75
364.562	398.75
364.788	394.75
365.015	376.75
365.241	398.75
365.468	397.75
365.694	376.75
365.92	386.75
366.147	394.75
366.373	374.75
366.599	382.75
366.826	391.75
367.052	398.75
367.278	395.75
367.505	378.75
367.731	386.75
367.957	377.75
368.184	393.75
368.41	392.75
368.636	403.75
368.862	403.75
369.089	375.75
369.315	388.75
369.541	384.75
369.767	395.75
369.993	395.75
370.219	377.75
370.445	380.75
370.672	388.75
370.898	373.75
371.124	389.75
371.35	397.75
371.576	387.75
371.802	392.75
372.028	350.75
372.254	386.75
372.48	384.75
372.706	395.75
372.932	378.75
373.158	373.75
373.384	389.75
373.61	388.75
373.835	397.75
374.061	391.75
374.287	393.75
374.513	389.75
374.739	390.75
374.965	386.75
375.191	407.75
375.416	394.75
375.642	388.75
375.868	388.75
376.094	411.75
376.319	384.75
376.545	372.75
376.771	377.75
376.997	370.75
377.222	377.75
377.448	370.75
377.674	379.75
377.899	374.75
378.125	383.75
378.35	394.75
378.576	365.75
378.802	393.75
379.027	371.75
379.253	365.75
379.478	386.75
379.704	386.75
379.929	374.75
380.155	374.75
380.38	383.75
380.606	385.75
380.831	394.75
381.057	387.75
381.282	393.75
381.507	388.75
381.733	395.75
381.958	400.75
382.184	382.75
382.409	391.75
382.634	396.75
382.86	388.75
383.085	398.75
383.31	403.75
383.535	398.75
383.761	394.75
383.986	407.75
384.211	404.75
384.436	404.75
384.662	412.75
384.887	396.75
385.112	413.75
385.337	412.75
385.562	408.75
385.787	418.75
386.013	420.75
386.238	418.75
386.463	427.75
386.688	438.75
386.913	411.75
387.138	414.75
387.363	423.75
387.588	440.75
387.813	420.75
388.038	405.75
388.263	418.75
388.488	402.75
388.713	424.75
388.938	413.75
389.163	414.75
389.387	429.75
389.612	422.75
389.837	422.75
390.062	418.75
390.287	415.75
390.512	422.75
390.736	418.75
390.961	426.75
391.186	405.75
391.411	432.75
391.636	419.75
391.86	428.75
392.085	450.75
392.31	444.75
392.534	442.75
392.759	413.75
392.984	430.75
393.208	468.75
393.433	426.75
393.658	420.75
393.882	426.75
394.107	416.75
394.331	413.75
394.556	419.75
394.78	415.75
395.005	431.75
395.229	418.75
395.454	429.75
395.678	450.75
395.903	443.75
396.127	476.75
396.352	448.75
396.576	432.75
396.801	436.75
397.025	429.75
397.249	425.75
397.474	455.75
397.698	439.75
397.922	460.75
398.147	450.75
398.371	466.75
398.595	482.75
398.82	467.75
399.044	504.75
399.268	489.75
399.492	529.75
399.717	586.75
399.941	590.75
400.165	581.75
400.389	609.75
400.613	544.75
400.837	496.75
401.062	517.75
401.286	469.75
401.51	484.75
401.734	470.75
401.958	468.75
402.182	488.75
402.406	466.75
402.63	495.75
402.854	482.75
403.078	477.75
403.302	465.75
403.526	525.75
403.75	480.75
403.974	494.75
404.198	470.75
404.422	502.75
404.645	518.75
404.869	516.75
405.093	523.75
405.317	558.75
405.541	568.75
405.765	552.75
405.988	503.75
406.212	513.75
406.436	539.75
406.66	532.75
406.883	538.75
407.107	566.75
407.331	603.75
407.555	654.75
407.778	648.75
408.002	555.75
408.226	544.75
408.449	525.75
408.673	562.75
408.896	552.75
409.12	600.75
409.344	564.75
409.567	496.75
409.791	517.75
410.014	513.75
410.238	496.75
410.461	501.75
410.685	494.75
410.908	504.75
411.132	532.75
411.355	558.75
411.578	531.75
411.802	477.75
412.025	493.75
412.249	482.75
412.472	524.75
412.695	527.75
412.919	536.75
413.142	485.75
413.365	474.75
413.589	481.75
413.812	464.75
414.035	460.75
414.258	470.75
414.482	471.75
414.705	464.75
414.928	463.75
415.151	481.75
415.374	481.75
415.597	456.75
415.821	449.75
416.044	453.75
416.267	464.75
416.49	454.75
416.713	459.75
416.936	476.75
417.159	455.75
417.382	454.75
417.605	454.75
417.828	477.75
418.051	477.75
418.274	477.75
418.497	474.75
418.72	484.75
418.943	468.75
419.166	472.75
419.389	504.75
419.611	498.75
419.834	487.75
420.057	514.75
420.28	487.75
420.503	467.75
420.726	489.75
420.948	483.75
421.171	528.75
421.394	554.75
421.617	493.75
421.839	487.75
422.062	476.75
422.285	477.75
422.507	530.75
422.73	621.75
422.953	593.75
423.175	513.75
423.398	498.75
423.621	493.75
423.843	501.75
424.066	496.75
424.288	510.75
424.511	520.75
424.733	573.75
424.956	634.75
425.178	604.75
425.401	625.75
425.623	642.75
425.846	534.75
426.068	490.75
426.291	516.75
426.513	525.75
426.735	489.75
426.958	540.75
427.18	616.75
427.402	724.75
427.625	783.75
427.847	639.75
428.069	564.75
428.292	547.75
428.514	489.75
428.736	475.75
428.958	469.75
429.181	469.75
429.403	461.75
429.625	473.75
429.847	517.75
430.069	564.75
430.292	553.75
430.514	474.75
430.736	465.75
430.958	458.75
431.18	451.75
431.402	418.75
431.624	434.75
431.846	448.75
432.068	449.75
432.29	409.75
432.512	439.75
432.734	452.75
432.956	447.75
433.178	476.75
433.4	458.75
433.622	452.75
433.844	443.75
434.066	441.75
434.287	440.75
434.509	444.75
434.731	449.75
434.953	469.75
435.175	469.75
435.397	485.75
435.618	506.75
435.84	518.75
436.062	587.75
436.284	662.75
436.505	560.75
436.727	480.75
436.949	471.75
437.17	459.75
437.392	457.75
437.614	457.75
437.835	500.75
438.057	572.75
438.278	646.75
438.5	666.75
438.721	718.75
438.943	684.75
439.165	547.75
439.386	487.75
439.608	501.75
439.829	483.75
440.05	538.75
440.272	568.75
440.493	537.75
440.715	482.75
440.936	479.75
441.158	492.75
441.379	470.75
441.6	480.75
441.822	517.75
442.043	534.75
442.264	596.75
442.486	635.75
442.707	546.75
442.928	521.75
443.149	498.75
443.371	540.75
443.592	557.75
443.813	653.75
444.034	700.75
444.255	578.75
444.476	532.75
444.698	526.75
444.919	530.75
445.14	635.75
445.361	568.75
445.582	542.75
445.803	605.75
446.024	657.75
446.245	661.75
446.466	618.75
446.687	549.75
446.908	482.75
447.129	476.75
447.35	465.75
447.571	451.75
447.792	459.75
448.013	467.75
448.234	467.75
448.455	505.75
448.675	617.75
448.896	689.75
449.117	596.75
449.338	586.75
449.559	669.75
449.779	778.75
450	592.75
450.221	503.75
450.442	470.75
450.662	434.75
450.883	440.75
451.104	458.75
451.324	449.75
451.545	413.75
451.766	427.75
451.986	419.75
452.207	405.75
452.428	403.75
452.648	411.75
452.869	417.75
453.089	429.75
453.31	444.75
453.53	416.75
453.751	423.75
453.971	398.75
454.192	438.75
454.412	401.75
454.633	394.75
454.853	406.75
455.073	395.75
455.294	446.75
455.514	489.75
455.734	468.75
455.955	416.75
456.175	393.75
456.395	376.75
456.616	365.75
456.836	381.75
457.056	380.75
457.276	387.75
457.497	391.75
457.717	397.75
457.937	406.75
458.157	396.75
458.377	383.75
458.598	426.75
458.818	456.75
459.038	510.75
459.258	539.75
459.478	468.75
459.698	450.75
459.918	436.75
460.138	459.75
460.358	442.75
460.578	445.75
460.798	460.75
461.018	473.75
461.238	447.75
461.458	443.75
461.678	452.75
461.898	448.75
462.118	442.75
462.338	466.75
462.558	453.75
462.777	456.75
462.997	505.75
463.217	502.75
463.437	517.75
463.657	484.75
463.876	469.75
464.096	484.75
464.316	481.75
464.536	476.75
464.755	467.75
464.975	484.75
465.195	492.75
465.414	515.75
465.634	483.75
465.854	448.75
466.073	437.75
466.293	444.75
466.512	432.75
466.732	418.75
466.951	425.75
467.171	405.75
467.391	413.75
467.61	413.75
467.829	406.75
468.049	425.75
468.268	427.75
468.488	402.75
468.707	416.75
468.927	408.75
469.146	410.75
469.365	401.75
469.585	419.75
469.804	418.75
470.023	401.75
470.243	421.75
470.462	425.75
470.681	420.75
470.901	432.75
471.12	440.75
471.339	426.75
471.558	432.75
471.777	409.75
471.997	404.75
472.216	437.75
472.435	425.75
472.654	421.75
472.873	418.75
473.092	409.75
473.311	424.75
473.53	411.75
473.749	426.75
473.968	470.75
474.187	538.75
474.406	564.75
474.625	461.75
474.844	420.75
475.063	429.75
475.282	416.75
475.501	425.75
475.72	439.75
475.939	442.75
476.158	430.75
476.377	440.75
476.596	413.75
476.814	432.75
477.033	430.75
477.252	431.75
477.471	443.75
477.69	439.75
477.908	462.75
478.127	432.75
478.346	448.75
478.564	454.75
478.783	464.75
479.002	467.75
479.22	465.75
479.439	470.75
479.658	498.75
479.876	492.75
480.095	508.75
480.313	534.75
480.532	539.75
480.751	524.75
480.969	500.75
481.188	548.75
481.406	548.75
481.624	532.75
481.843	514.75
482.061	493.75
482.28	480.75
482.498	502.75
482.717	497.75
482.935	521.75
483.153	481.75
483.372	456.75
483.59	462.75
483.808	468.75
484.027	480.75
484.245	476.75
484.463	501.75
484.681	505.75
484.9	501.75
485.118	488.75
485.336	489.75
485.554	491.75
485.772	503.75
485.99	490.75
486.209	503.75
486.427	512.75
486.645	501.75
486.863	516.75
487.081	502.75
487.299	501.75
487.517	514.75
487.735	505.75
487.953	531.75
488.171	509.75
488.389	522.75
488.607	541.75
488.825	515.75
489.043	542.75
489.261	508.75
489.479	521.75
489.696	530.75
489.914	536.75
490.132	523.75
490.35	529.75
490.568	554.75
490.786	547.75
491.003	555.75
491.221	560.75
491.439	570.75
491.657	581.75
491.874	596.75
492.092	579.75
492.31	577.75
492.527	574.75
492.745	600.75
492.963	585.75
493.18	607.75
493.398	612.75
493.615	601.75
493.833	589.75
494.05	577.75
494.268	589.75
494.485	602.75
494.703	594.75
494.92	601.75
495.138	616.75
495.355	624.75
495.573	595.75
495.79	590.75
496.008	588.75
496.225	618.75
496.442	599.75
496.66	599.75
496.877	620.75
497.094	610.75
497.312	609.75
497.529	631.75
497.746	632.75
497.963	640.75
498.181	674.75
498.398	662.75
498.615	679.75
498.832	722.75
499.049	744.75
499.267	758.75
499.484	795.75
499.701	784.75
499.918	820.75
500.135	885.75
500.352	920.75
500.569	963.75
500.786	926.75
501.003	892.75
501.22	881.75
501.437	853.75
501.654	820.75
501.871	790.75
