Data from 1977.PennyLincolnUp.Lamp.En5.5.200Scan.071719.P1_HRD10591_16-07-34-864.txt Node
Date: Thu Jul 18 16:07:34 EDT 2019
User: cochatt
Spectrometer: HR+D1059
Trigger mode: 1
Integration Time (sec): 1.000000E-1
Scans to average: 1
Electric dark correction enabled: true
Nonlinearity correction enabled: false
Boxcar width: 0
XAxis mode: Wavelengths
Number of Pixels in Spectrum: 2048
>>>>>Begin Spectral Data<<<<<
223.165	-15.69
223.4	-15.69
223.635	-15.69
223.869	-25.69
224.104	-22.69
224.338	-22.69
224.573	-10.69
224.808	-6.69
225.042	-11.69
225.277	-7.69
225.511	-4.69
225.746	-5.69
225.98	19.31
226.215	19.31
226.449	18.31
226.683	17.31
226.918	23.31
227.152	36.31
227.387	33.31
227.621	36.31
227.856	33.31
228.09	39.31
228.324	53.31
228.559	48.31
228.793	56.31
229.027	89.31
229.262	103.31
229.496	99.31
229.73	110.31
229.964	136.31
230.199	135.31
230.433	111.31
230.667	107.31
230.901	107.31
231.136	119.31
231.37	114.31
231.604	111.31
231.838	117.31
232.072	109.31
232.306	118.31
232.541	94.31
232.775	107.31
233.009	99.31
233.243	103.31
233.477	113.31
233.711	116.31
233.945	125.31
234.179	104.31
234.413	105.31
234.647	110.31
234.881	104.31
235.115	99.31
235.349	123.31
235.583	120.31
235.817	111.31
236.051	115.31
236.285	138.31
236.519	122.31
236.753	132.31
236.987	146.31
237.221	162.31
237.455	195.31
237.689	154.31
237.922	132.31
238.156	138.31
238.39	121.31
238.624	126.31
238.858	131.31
239.091	128.31
239.325	121.31
239.559	120.31
239.793	135.31
240.027	127.31
240.26	131.31
240.494	138.31
240.728	154.31
240.961	137.31
241.195	125.31
241.429	120.31
241.662	141.31
241.896	137.31
242.13	132.31
242.363	132.31
242.597	130.31
242.83	137.31
243.064	127.31
243.298	134.31
243.531	135.31
243.765	128.31
243.998	140.31
244.232	137.31
244.465	141.31
244.699	138.31
244.932	137.31
245.166	130.31
245.399	157.31
245.633	163.31
245.866	142.31
246.099	141.31
246.333	151.31
246.566	137.31
246.8	150.31
247.033	147.31
247.266	157.31
247.5	151.31
247.733	156.31
247.966	162.31
248.2	159.31
248.433	169.31
248.666	173.31
248.899	185.31
249.133	185.31
249.366	194.31
249.599	194.31
249.832	177.31
250.066	181.31
250.299	183.31
250.532	185.31
250.765	183.31
250.998	194.31
251.231	203.31
251.465	214.31
251.698	208.31
251.931	192.31
252.164	189.31
252.397	191.31
252.63	201.31
252.863	196.31
253.096	208.31
253.329	198.31
253.562	221.31
253.795	213.31
254.028	199.31
254.261	207.31
254.494	234.31
254.727	224.31
254.96	274.31
255.193	245.31
255.426	227.31
255.659	230.31
255.892	234.31
256.124	214.31
256.357	221.31
256.59	232.31
256.823	211.31
257.056	205.31
257.289	205.31
257.521	207.31
257.754	207.31
257.987	206.31
258.22	193.31
258.452	190.31
258.685	203.31
258.918	212.31
259.151	215.31
259.383	220.31
259.616	222.31
259.849	210.31
260.081	230.31
260.314	238.31
260.547	262.31
260.779	228.31
261.012	224.31
261.244	232.31
261.477	219.31
261.71	214.31
261.942	232.31
262.175	211.31
262.407	218.31
262.64	213.31
262.872	213.31
263.105	230.31
263.337	229.31
263.57	224.31
263.802	211.31
264.035	217.31
264.267	215.31
264.499	231.31
264.732	219.31
264.964	211.31
265.197	234.31
265.429	217.31
265.661	203.31
265.894	216.31
266.126	229.31
266.358	217.31
266.591	231.31
266.823	223.31
267.055	218.31
267.287	224.31
267.52	229.31
267.752	225.31
267.984	226.31
268.216	232.31
268.448	238.31
268.681	242.31
268.913	264.31
269.145	263.31
269.377	267.31
269.609	273.31
269.841	249.31
270.073	267.31
270.306	278.31
270.538	313.31
270.77	303.31
271.002	327.31
271.234	305.31
271.466	304.31
271.698	319.31
271.93	293.31
272.162	313.31
272.394	303.31
272.626	293.31
272.858	305.31
273.09	304.31
273.322	282.31
273.553	267.31
273.785	288.31
274.017	282.31
274.249	281.31
274.481	274.31
274.713	251.31
274.945	273.31
275.176	271.31
275.408	289.31
275.64	264.31
275.872	270.31
276.104	269.31
276.335	267.31
276.567	267.31
276.799	289.31
277.031	290.31
277.262	309.31
277.494	329.31
277.726	312.31
277.957	289.31
278.189	275.31
278.421	289.31
278.652	278.31
278.884	275.31
279.115	278.31
279.347	275.31
279.579	282.31
279.81	283.31
280.042	275.31
280.273	267.31
280.505	279.31
280.736	271.31
280.968	289.31
281.199	267.31
281.431	286.31
281.662	279.31
281.894	279.31
282.125	280.31
282.356	308.31
282.588	296.31
282.819	314.31
283.051	281.31
283.282	278.31
283.513	301.31
283.745	272.31
283.976	301.31
284.207	298.31
284.439	303.31
284.67	295.31
284.901	262.31
285.132	288.31
285.364	297.31
285.595	302.31
285.826	289.31
286.057	295.31
286.288	287.31
286.52	298.31
286.751	300.31
286.982	302.31
287.213	297.31
287.444	307.31
287.675	302.31
287.906	291.31
288.138	307.31
288.369	319.31
288.6	311.31
288.831	315.31
289.062	306.31
289.293	312.31
289.524	309.31
289.755	302.31
289.986	295.31
290.217	324.31
290.448	288.31
290.679	305.31
290.91	303.31
291.141	308.31
291.371	287.31
291.602	307.31
291.833	301.31
292.064	298.31
292.295	312.31
292.526	293.31
292.757	297.31
292.987	305.31
293.218	307.31
293.449	314.31
293.68	319.31
293.91	293.31
294.141	317.31
294.372	299.31
294.603	305.31
294.833	318.31
295.064	314.31
295.295	323.31
295.525	305.31
295.756	324.31
295.987	313.31
296.217	350.31
296.448	335.31
296.679	319.31
296.909	310.31
297.14	310.31
297.37	314.31
297.601	325.31
297.831	322.31
298.062	294.31
298.292	312.31
298.523	334.31
298.753	343.31
298.984	327.31
299.214	314.31
299.445	323.31
299.675	314.31
299.905	331.31
300.136	321.31
300.366	337.31
300.597	342.31
300.827	326.31
301.057	330.31
301.288	338.31
301.518	336.31
301.748	339.31
301.979	347.31
302.209	352.31
302.439	331.31
302.669	339.31
302.9	341.31
303.13	335.31
303.36	361.31
303.59	341.31
303.82	351.31
304.051	363.31
304.281	369.31
304.511	357.31
304.741	371.31
304.971	327.31
305.201	330.31
305.431	364.31
305.661	353.31
305.891	347.31
306.121	361.31
306.352	348.31
306.582	350.31
306.812	360.31
307.042	357.31
307.272	323.31
307.502	345.31
307.731	354.31
307.961	360.31
308.191	336.31
308.421	356.31
308.651	373.31
308.881	358.31
309.111	360.31
309.341	373.31
309.571	357.31
309.8	371.31
310.03	377.31
310.26	396.31
310.49	395.31
310.72	373.31
310.949	387.31
311.179	391.31
311.409	377.31
311.639	367.31
311.868	393.31
312.098	396.31
312.328	377.31
312.557	380.31
312.787	423.31
313.017	395.31
313.246	387.31
313.476	390.31
313.706	404.31
313.935	396.31
314.165	404.31
314.394	403.31
314.624	407.31
314.853	382.31
315.083	397.31
315.312	395.31
315.542	405.31
315.771	381.31
316.001	382.31
316.23	379.31
316.46	381.31
316.689	383.31
316.919	402.31
317.148	408.31
317.377	403.31
317.607	404.31
317.836	389.31
318.065	381.31
318.295	386.31
318.524	396.31
318.753	381.31
318.983	391.31
319.212	384.31
319.441	378.31
319.67	392.31
319.9	400.31
320.129	408.31
320.358	401.31
320.587	410.31
320.816	411.31
321.046	420.31
321.275	418.31
321.504	416.31
321.733	419.31
321.962	423.31
322.191	413.31
322.42	452.31
322.649	439.31
322.878	433.31
323.108	457.31
323.337	450.31
323.566	474.31
323.795	486.31
324.024	550.31
324.253	627.31
324.482	867.31
324.71	1249.31
324.939	1789.31
325.168	1563.31
325.397	827.31
325.626	593.31
325.855	537.31
326.084	519.31
326.313	487.31
326.542	502.31
326.77	538.31
326.999	606.31
327.228	773.31
327.457	1147.31
327.686	1341.31
327.914	895.31
328.143	661.31
328.372	569.31
328.6	525.31
328.829	516.31
329.058	543.31
329.287	537.31
329.515	513.31
329.744	485.31
329.972	510.31
330.201	506.31
330.43	508.31
330.658	539.31
330.887	550.31
331.115	544.31
331.344	499.31
331.572	482.31
331.801	486.31
332.03	469.31
332.258	480.31
332.486	470.31
332.715	471.31
332.943	456.31
333.172	474.31
333.4	477.31
333.629	484.31
333.857	480.31
334.085	487.31
334.314	514.31
334.542	534.31
334.771	531.31
334.999	499.31
335.227	473.31
335.455	478.31
335.684	470.31
335.912	473.31
336.14	456.31
336.369	454.31
336.597	452.31
336.825	465.31
337.053	458.31
337.281	446.31
337.51	458.31
337.738	452.31
337.966	437.31
338.194	455.31
338.422	454.31
338.65	441.31
338.878	432.31
339.106	435.31
339.334	445.31
339.562	437.31
339.79	436.31
340.018	441.31
340.246	431.31
340.474	427.31
340.702	445.31
340.93	453.31
341.158	427.31
341.386	430.31
341.614	438.31
341.842	425.31
342.07	419.31
342.298	424.31
342.526	438.31
342.754	422.31
342.981	423.31
343.209	428.31
343.437	456.31
343.665	443.31
343.893	464.31
344.12	465.31
344.348	444.31
344.576	457.31
344.804	452.31
345.031	416.31
345.259	453.31
345.487	433.31
345.714	423.31
345.942	407.31
346.17	414.31
346.397	426.31
346.625	410.31
346.853	398.31
347.08	408.31
347.308	420.31
347.535	420.31
347.763	440.31
347.99	417.31
348.218	424.31
348.445	406.31
348.673	423.31
348.9	413.31
349.128	409.31
349.355	424.31
349.583	394.31
349.81	412.31
350.037	419.31
350.265	383.31
350.492	400.31
350.72	399.31
350.947	411.31
351.174	422.31
351.402	415.31
351.629	401.31
351.856	415.31
352.083	409.31
352.311	416.31
352.538	426.31
352.765	419.31
352.992	407.31
353.22	398.31
353.447	403.31
353.674	426.31
353.901	392.31
354.128	389.31
354.355	400.31
354.583	385.31
354.81	379.31
355.037	374.31
355.264	395.31
355.491	394.31
355.718	378.31
355.945	372.31
356.172	373.31
356.399	377.31
356.626	395.31
356.853	384.31
357.08	408.31
357.307	397.31
357.534	360.31
357.761	389.31
357.988	399.31
358.215	383.31
358.441	405.31
358.668	374.31
358.895	394.31
359.122	395.31
359.349	415.31
359.576	425.31
359.802	423.31
360.029	447.31
360.256	409.31
360.483	438.31
360.709	431.31
360.936	416.31
361.163	391.31
361.39	397.31
361.616	403.31
361.843	410.31
362.07	395.31
362.296	406.31
362.523	371.31
362.749	397.31
362.976	391.31
363.203	410.31
363.429	401.31
363.656	402.31
363.882	381.31
364.109	394.31
364.335	366.31
364.562	383.31
364.788	379.31
365.015	392.31
365.241	375.31
365.468	386.31
365.694	382.31
365.92	381.31
366.147	399.31
366.373	389.31
366.599	376.31
366.826	371.31
367.052	366.31
367.278	363.31
367.505	404.31
367.731	397.31
367.957	371.31
368.184	387.31
368.41	384.31
368.636	386.31
368.862	402.31
369.089	382.31
369.315	364.31
369.541	386.31
369.767	383.31
369.993	370.31
370.219	381.31
370.445	381.31
370.672	391.31
370.898	391.31
371.124	392.31
371.35	383.31
371.576	384.31
371.802	376.31
372.028	375.31
372.254	379.31
372.48	391.31
372.706	405.31
372.932	400.31
373.158	390.31
373.384	403.31
373.61	388.31
373.835	377.31
374.061	394.31
374.287	381.31
374.513	390.31
374.739	409.31
374.965	407.31
375.191	384.31
375.416	406.31
375.642	418.31
375.868	392.31
376.094	383.31
376.319	393.31
376.545	376.31
376.771	372.31
376.997	374.31
377.222	383.31
377.448	395.31
377.674	383.31
377.899	374.31
378.125	384.31
378.35	369.31
378.576	395.31
378.802	372.31
379.027	385.31
379.253	385.31
379.478	385.31
379.704	373.31
379.929	401.31
380.155	379.31
380.38	390.31
380.606	380.31
380.831	389.31
381.057	366.31
381.282	371.31
381.507	373.31
381.733	376.31
381.958	369.31
382.184	369.31
382.409	386.31
382.634	381.31
382.86	383.31
383.085	393.31
383.31	382.31
383.535	381.31
383.761	391.31
383.986	407.31
384.211	405.31
384.436	406.31
384.662	420.31
384.887	433.31
385.112	438.31
385.337	418.31
385.562	434.31
385.787	399.31
386.013	419.31
386.238	423.31
386.463	400.31
386.688	443.31
386.913	407.31
387.138	414.31
387.363	404.31
387.588	410.31
387.813	446.31
388.038	417.31
388.263	414.31
388.488	433.31
388.713	422.31
388.938	417.31
389.163	411.31
389.387	406.31
389.612	421.31
389.837	422.31
390.062	412.31
390.287	410.31
390.512	421.31
390.736	410.31
390.961	431.31
391.186	431.31
391.411	435.31
391.636	419.31
391.86	435.31
392.085	424.31
392.31	425.31
392.534	418.31
392.759	421.31
392.984	425.31
393.208	418.31
393.433	426.31
393.658	441.31
393.882	419.31
394.107	423.31
394.331	426.31
394.556	422.31
394.78	434.31
395.005	401.31
395.229	415.31
395.454	437.31
395.678	445.31
395.903	440.31
396.127	462.31
396.352	458.31
396.576	445.31
396.801	440.31
397.025	431.31
397.249	443.31
397.474	451.31
397.698	439.31
397.922	440.31
398.147	481.31
398.371	471.31
398.595	452.31
398.82	481.31
399.044	489.31
399.268	520.31
399.492	527.31
399.717	563.31
399.941	601.31
400.165	595.31
400.389	602.31
400.613	539.31
400.837	523.31
401.062	502.31
401.286	480.31
401.51	490.31
401.734	487.31
401.958	473.31
402.182	478.31
402.406	478.31
402.63	483.31
402.854	472.31
403.078	495.31
403.302	495.31
403.526	512.31
403.75	497.31
403.974	495.31
404.198	487.31
404.422	501.31
404.645	515.31
404.869	479.31
405.093	535.31
405.317	563.31
405.541	576.31
405.765	526.31
405.988	523.31
406.212	507.31
406.436	533.31
406.66	528.31
406.883	549.31
407.107	547.31
407.331	584.31
407.555	641.31
407.778	664.31
408.002	607.31
408.226	555.31
408.449	553.31
408.673	526.31
408.896	555.31
409.12	584.31
409.344	555.31
409.567	531.31
409.791	524.31
410.014	501.31
410.238	486.31
410.461	498.31
410.685	511.31
410.908	522.31
411.132	550.31
411.355	552.31
411.578	544.31
411.802	472.31
412.025	489.31
412.249	491.31
412.472	519.31
412.695	557.31
412.919	533.31
413.142	499.31
413.365	488.31
413.589	476.31
413.812	476.31
414.035	470.31
414.258	451.31
414.482	436.31
414.705	435.31
414.928	474.31
415.151	447.31
415.374	463.31
415.597	476.31
415.821	451.31
416.044	462.31
416.267	467.31
416.49	458.31
416.713	464.31
416.936	452.31
417.159	455.31
417.382	457.31
417.605	466.31
417.828	469.31
418.051	471.31
418.274	481.31
418.497	461.31
418.72	457.31
418.943	449.31
419.166	473.31
419.389	513.31
419.611	469.31
419.834	495.31
420.057	485.31
420.28	485.31
420.503	487.31
420.726	472.31
420.948	480.31
421.171	532.31
421.394	561.31
421.617	502.31
421.839	480.31
422.062	472.31
422.285	473.31
422.507	526.31
422.73	600.31
422.953	589.31
423.175	512.31
423.398	518.31
423.621	496.31
423.843	514.31
424.066	522.31
424.288	518.31
424.511	528.31
424.733	558.31
424.956	625.31
425.178	617.31
425.401	611.31
425.623	633.31
425.846	553.31
426.068	508.31
426.291	489.31
426.513	498.31
426.735	507.31
426.958	552.31
427.18	634.31
427.402	717.31
427.625	799.31
427.847	675.31
428.069	592.31
428.292	515.31
428.514	477.31
428.736	479.31
428.958	483.31
429.181	457.31
429.403	451.31
429.625	485.31
429.847	509.31
430.069	567.31
430.292	538.31
430.514	477.31
430.736	487.31
430.958	455.31
431.18	458.31
431.402	441.31
431.624	420.31
431.846	445.31
432.068	415.31
432.29	425.31
432.512	445.31
432.734	446.31
432.956	461.31
433.178	465.31
433.4	450.31
433.622	440.31
433.844	445.31
434.066	448.31
434.287	433.31
434.509	458.31
434.731	438.31
434.953	461.31
435.175	477.31
435.397	498.31
435.618	490.31
435.84	549.31
436.062	605.31
436.284	667.31
436.505	555.31
436.727	495.31
436.949	467.31
437.17	485.31
437.392	449.31
437.614	471.31
437.835	488.31
438.057	558.31
438.278	647.31
438.5	661.31
438.721	712.31
438.943	707.31
439.165	565.31
439.386	511.31
439.608	508.31
439.829	506.31
440.05	510.31
440.272	561.31
440.493	523.31
440.715	461.31
440.936	475.31
441.158	431.31
441.379	453.31
441.6	472.31
441.822	484.31
442.043	515.31
442.264	596.31
442.486	634.31
442.707	542.31
442.928	543.31
443.149	512.31
443.371	536.31
443.592	566.31
443.813	661.31
444.034	662.31
444.255	595.31
444.476	545.31
444.698	523.31
444.919	514.31
445.14	648.31
445.361	570.31
445.582	543.31
445.803	585.31
446.024	672.31
446.245	687.31
446.466	640.31
446.687	542.31
446.908	481.31
447.129	454.31
447.35	453.31
447.571	449.31
447.792	435.31
448.013	435.31
448.234	469.31
448.455	517.31
448.675	594.31
448.896	698.31
449.117	592.31
449.338	533.31
449.559	646.31
449.779	749.31
450	600.31
450.221	475.31
450.442	458.31
450.662	438.31
450.883	428.31
451.104	462.31
451.324	445.31
451.545	411.31
451.766	418.31
451.986	392.31
452.207	410.31
452.428	421.31
452.648	405.31
452.869	394.31
453.089	422.31
453.31	434.31
453.53	402.31
453.751	376.31
453.971	396.31
454.192	402.31
454.412	414.31
454.633	414.31
454.853	398.31
455.073	388.31
455.294	422.31
455.514	474.31
455.734	457.31
455.955	413.31
456.175	379.31
456.395	391.31
456.616	396.31
456.836	385.31
457.056	399.31
457.276	360.31
457.497	371.31
457.717	389.31
457.937	385.31
458.157	395.31
458.377	391.31
458.598	417.31
458.818	450.31
459.038	521.31
459.258	549.31
459.478	467.31
459.698	437.31
459.918	427.31
460.138	417.31
460.358	435.31
460.578	458.31
460.798	457.31
461.018	447.31
461.238	467.31
461.458	431.31
461.678	432.31
461.898	457.31
462.118	429.31
462.338	467.31
462.558	458.31
462.777	483.31
462.997	481.31
463.217	492.31
463.437	515.31
463.657	513.31
463.876	474.31
464.096	481.31
464.316	461.31
464.536	496.31
464.755	496.31
464.975	479.31
465.195	491.31
465.414	521.31
465.634	484.31
465.854	455.31
466.073	434.31
466.293	413.31
466.512	430.31
466.732	422.31
466.951	414.31
467.171	411.31
467.391	413.31
467.61	423.31
467.829	419.31
468.049	421.31
468.268	419.31
468.488	383.31
468.707	415.31
468.927	392.31
469.146	394.31
469.365	412.31
469.585	402.31
469.804	410.31
470.023	433.31
470.243	421.31
470.462	434.31
470.681	440.31
470.901	443.31
471.12	434.31
471.339	415.31
471.558	389.31
471.777	421.31
471.997	414.31
472.216	433.31
472.435	447.31
472.654	434.31
472.873	417.31
473.092	435.31
473.311	418.31
473.53	427.31
473.749	413.31
473.968	457.31
474.187	539.31
474.406	552.31
474.625	466.31
474.844	440.31
475.063	407.31
475.282	423.31
475.501	414.31
475.72	434.31
475.939	420.31
476.158	439.31
476.377	425.31
476.596	410.31
476.814	426.31
477.033	437.31
477.252	451.31
477.471	461.31
477.69	463.31
477.908	467.31
478.127	450.31
478.346	464.31
478.564	485.31
478.783	487.31
479.002	453.31
479.22	482.31
479.439	489.31
479.658	492.31
479.876	500.31
480.095	501.31
480.313	528.31
480.532	529.31
480.751	518.31
480.969	537.31
481.188	535.31
481.406	551.31
481.624	531.31
481.843	498.31
482.061	500.31
482.28	473.31
482.498	476.31
482.717	474.31
482.935	479.31
483.153	471.31
483.372	485.31
483.59	488.31
483.808	472.31
484.027	490.31
484.245	470.31
484.463	478.31
484.681	485.31
484.9	503.31
485.118	509.31
485.336	512.31
485.554	482.31
485.772	501.31
485.99	488.31
486.209	511.31
486.427	508.31
486.645	519.31
486.863	516.31
487.081	506.31
487.299	514.31
487.517	522.31
487.735	532.31
487.953	520.31
488.171	526.31
488.389	505.31
488.607	499.31
488.825	520.31
489.043	495.31
489.261	520.31
489.479	535.31
489.696	542.31
489.914	544.31
490.132	539.31
490.35	527.31
490.568	538.31
490.786	553.31
491.003	549.31
491.221	580.31
491.439	577.31
491.657	569.31
491.874	582.31
492.092	602.31
492.31	598.31
492.527	578.31
492.745	590.31
492.963	605.31
493.18	594.31
493.398	594.31
493.615	601.31
493.833	594.31
494.05	597.31
494.268	594.31
494.485	611.31
494.703	609.31
494.92	593.31
495.138	609.31
495.355	598.31
495.573	613.31
495.79	592.31
496.008	584.31
496.225	601.31
496.442	610.31
496.66	595.31
496.877	602.31
497.094	624.31
497.312	612.31
497.529	653.31
497.746	637.31
497.963	658.31
498.181	652.31
498.398	682.31
498.615	708.31
498.832	696.31
499.049	719.31
499.267	746.31
499.484	759.31
499.701	793.31
499.918	837.31
500.135	881.31
500.352	934.31
500.569	959.31
500.786	933.31
501.003	892.31
501.22	904.31
501.437	839.31
501.654	817.31
501.871	793.31
