Data from 1977.PennyLincolnUp.Lamp.En5.5.200Scan.071719.P1_HRD10591_16-06-52-864.txt Node
Date: Thu Jul 18 16:06:52 EDT 2019
User: cochatt
Spectrometer: HR+D1059
Trigger mode: 1
Integration Time (sec): 1.000000E-1
Scans to average: 1
Electric dark correction enabled: true
Nonlinearity correction enabled: false
Boxcar width: 0
XAxis mode: Wavelengths
Number of Pixels in Spectrum: 2048
>>>>>Begin Spectral Data<<<<<
223.165	-16.44
223.4	-16.44
223.635	-16.44
223.869	-13.44
224.104	-18.44
224.338	-23.44
224.573	-14.44
224.808	-0.44
225.042	-10.44
225.277	-6.44
225.511	1.56
225.746	3.56
225.98	-0.44
226.215	3.56
226.449	21.56
226.683	8.56
226.918	39.56
227.152	25.56
227.387	32.56
227.621	25.56
227.856	43.56
228.09	40.56
228.324	55.56
228.559	59.56
228.793	55.56
229.027	84.56
229.262	106.56
229.496	108.56
229.73	104.56
229.964	139.56
230.199	128.56
230.433	98.56
230.667	93.56
230.901	100.56
231.136	122.56
231.37	104.56
231.604	121.56
231.838	99.56
232.072	99.56
232.306	109.56
232.541	105.56
232.775	108.56
233.009	112.56
233.243	121.56
233.477	108.56
233.711	112.56
233.945	106.56
234.179	103.56
234.413	118.56
234.647	101.56
234.881	117.56
235.115	115.56
235.349	105.56
235.583	120.56
235.817	113.56
236.051	117.56
236.285	116.56
236.519	113.56
236.753	121.56
236.987	155.56
237.221	171.56
237.455	204.56
237.689	171.56
237.922	119.56
238.156	122.56
238.39	118.56
238.624	113.56
238.858	116.56
239.091	116.56
239.325	138.56
239.559	125.56
239.793	115.56
240.027	133.56
240.26	133.56
240.494	141.56
240.728	141.56
240.961	137.56
241.195	140.56
241.429	133.56
241.662	119.56
241.896	123.56
242.13	129.56
242.363	124.56
242.597	126.56
242.83	140.56
243.064	136.56
243.298	138.56
243.531	146.56
243.765	120.56
243.998	129.56
244.232	141.56
244.465	138.56
244.699	151.56
244.932	124.56
245.166	141.56
245.399	141.56
245.633	138.56
245.866	137.56
246.099	135.56
246.333	145.56
246.566	145.56
246.8	153.56
247.033	160.56
247.266	148.56
247.5	155.56
247.733	159.56
247.966	156.56
248.2	173.56
248.433	169.56
248.666	170.56
248.899	175.56
249.133	188.56
249.366	203.56
249.599	196.56
249.832	163.56
250.066	175.56
250.299	169.56
250.532	207.56
250.765	195.56
250.998	216.56
251.231	213.56
251.465	199.56
251.698	184.56
251.931	184.56
252.164	186.56
252.397	196.56
252.63	198.56
252.863	183.56
253.096	215.56
253.329	219.56
253.562	219.56
253.795	208.56
254.028	204.56
254.261	189.56
254.494	207.56
254.727	217.56
254.96	249.56
255.193	259.56
255.426	225.56
255.659	229.56
255.892	219.56
256.124	230.56
256.357	220.56
256.59	214.56
256.823	212.56
257.056	211.56
257.289	204.56
257.521	204.56
257.754	213.56
257.987	195.56
258.22	194.56
258.452	200.56
258.685	202.56
258.918	199.56
259.151	204.56
259.383	208.56
259.616	201.56
259.849	216.56
260.081	213.56
260.314	233.56
260.547	244.56
260.779	253.56
261.012	237.56
261.244	224.56
261.477	222.56
261.71	220.56
261.942	220.56
262.175	219.56
262.407	221.56
262.64	219.56
262.872	226.56
263.105	218.56
263.337	229.56
263.57	228.56
263.802	216.56
264.035	217.56
264.267	221.56
264.499	213.56
264.732	191.56
264.964	204.56
265.197	204.56
265.429	209.56
265.661	221.56
265.894	228.56
266.126	223.56
266.358	226.56
266.591	237.56
266.823	225.56
267.055	227.56
267.287	217.56
267.52	244.56
267.752	227.56
267.984	241.56
268.216	224.56
268.448	235.56
268.681	244.56
268.913	256.56
269.145	261.56
269.377	259.56
269.609	273.56
269.841	257.56
270.073	271.56
270.306	293.56
270.538	307.56
270.77	305.56
271.002	284.56
271.234	289.56
271.466	291.56
271.698	287.56
271.93	293.56
272.162	309.56
272.394	292.56
272.626	291.56
272.858	301.56
273.09	270.56
273.322	281.56
273.553	265.56
273.785	284.56
274.017	263.56
274.249	260.56
274.481	264.56
274.713	306.56
274.945	273.56
275.176	277.56
275.408	255.56
275.64	267.56
275.872	268.56
276.104	269.56
276.335	247.56
276.567	263.56
276.799	298.56
277.031	308.56
277.262	322.56
277.494	324.56
277.726	298.56
277.957	302.56
278.189	296.56
278.421	271.56
278.652	277.56
278.884	274.56
279.115	279.56
279.347	297.56
279.579	280.56
279.81	275.56
280.042	281.56
280.273	293.56
280.505	280.56
280.736	263.56
280.968	275.56
281.199	268.56
281.431	267.56
281.662	282.56
281.894	276.56
282.125	275.56
282.356	290.56
282.588	312.56
282.819	324.56
283.051	292.56
283.282	269.56
283.513	268.56
283.745	280.56
283.976	288.56
284.207	296.56
284.439	294.56
284.67	283.56
284.901	299.56
285.132	297.56
285.364	290.56
285.595	288.56
285.826	293.56
286.057	313.56
286.288	290.56
286.52	287.56
286.751	290.56
286.982	311.56
287.213	296.56
287.444	301.56
287.675	295.56
287.906	321.56
288.138	328.56
288.369	327.56
288.6	329.56
288.831	318.56
289.062	315.56
289.293	307.56
289.524	316.56
289.755	298.56
289.986	296.56
290.217	294.56
290.448	319.56
290.679	290.56
290.91	299.56
291.141	281.56
291.371	295.56
291.602	320.56
291.833	311.56
292.064	303.56
292.295	312.56
292.526	303.56
292.757	306.56
292.987	290.56
293.218	294.56
293.449	319.56
293.68	315.56
293.91	314.56
294.141	305.56
294.372	296.56
294.603	307.56
294.833	319.56
295.064	318.56
295.295	292.56
295.525	327.56
295.756	316.56
295.987	315.56
296.217	341.56
296.448	327.56
296.679	319.56
296.909	332.56
297.14	308.56
297.37	321.56
297.601	330.56
297.831	305.56
298.062	304.56
298.292	325.56
298.523	334.56
298.753	303.56
298.984	310.56
299.214	316.56
299.445	321.56
299.675	323.56
299.905	337.56
300.136	315.56
300.366	324.56
300.597	356.56
300.827	334.56
301.057	353.56
301.288	338.56
301.518	348.56
301.748	337.56
301.979	351.56
302.209	361.56
302.439	347.56
302.669	350.56
302.9	354.56
303.13	333.56
303.36	352.56
303.59	359.56
303.82	353.56
304.051	351.56
304.281	354.56
304.511	339.56
304.741	348.56
304.971	352.56
305.201	339.56
305.431	349.56
305.661	352.56
305.891	339.56
306.121	347.56
306.352	351.56
306.582	353.56
306.812	339.56
307.042	355.56
307.272	344.56
307.502	346.56
307.731	343.56
307.961	348.56
308.191	367.56
308.421	339.56
308.651	367.56
308.881	364.56
309.111	364.56
309.341	354.56
309.571	380.56
309.8	369.56
310.03	377.56
310.26	368.56
310.49	373.56
310.72	393.56
310.949	383.56
311.179	380.56
311.409	377.56
311.639	367.56
311.868	379.56
312.098	387.56
312.328	393.56
312.557	403.56
312.787	391.56
313.017	395.56
313.246	393.56
313.476	381.56
313.706	390.56
313.935	388.56
314.165	397.56
314.394	406.56
314.624	401.56
314.853	387.56
315.083	396.56
315.312	386.56
315.542	387.56
315.771	377.56
316.001	391.56
316.23	396.56
316.46	374.56
316.689	403.56
316.919	392.56
317.148	394.56
317.377	388.56
317.607	384.56
317.836	385.56
318.065	383.56
318.295	371.56
318.524	395.56
318.753	379.56
318.983	385.56
319.212	383.56
319.441	403.56
319.67	420.56
319.9	413.56
320.129	396.56
320.358	388.56
320.587	396.56
320.816	382.56
321.046	408.56
321.275	419.56
321.504	399.56
321.733	395.56
321.962	417.56
322.191	425.56
322.42	420.56
322.649	447.56
322.878	438.56
323.108	442.56
323.337	462.56
323.566	475.56
323.795	490.56
324.024	549.56
324.253	619.56
324.482	860.56
324.71	1281.56
324.939	1744.56
325.168	1480.56
325.397	831.56
325.626	591.56
325.855	535.56
326.084	472.56
326.313	452.56
326.542	497.56
326.77	522.56
326.999	613.56
327.228	790.56
327.457	1119.56
327.686	1336.56
327.914	901.56
328.143	638.56
328.372	595.56
328.6	547.56
328.829	508.56
329.058	519.56
329.287	509.56
329.515	459.56
329.744	480.56
329.972	523.56
330.201	490.56
330.43	530.56
330.658	553.56
330.887	567.56
331.115	531.56
331.344	517.56
331.572	486.56
331.801	500.56
332.03	484.56
332.258	471.56
332.486	467.56
332.715	464.56
332.943	461.56
333.172	485.56
333.4	473.56
333.629	491.56
333.857	509.56
334.085	492.56
334.314	522.56
334.542	518.56
334.771	548.56
334.999	501.56
335.227	489.56
335.455	477.56
335.684	481.56
335.912	459.56
336.14	475.56
336.369	453.56
336.597	465.56
336.825	450.56
337.053	451.56
337.281	473.56
337.51	459.56
337.738	471.56
337.966	440.56
338.194	453.56
338.422	455.56
338.65	446.56
338.878	428.56
339.106	456.56
339.334	440.56
339.562	435.56
339.79	433.56
340.018	428.56
340.246	445.56
340.474	430.56
340.702	434.56
340.93	440.56
341.158	399.56
341.386	436.56
341.614	442.56
341.842	451.56
342.07	443.56
342.298	429.56
342.526	419.56
342.754	425.56
342.981	421.56
343.209	457.56
343.437	435.56
343.665	432.56
343.893	434.56
344.12	466.56
344.348	459.56
344.576	432.56
344.804	435.56
345.031	449.56
345.259	454.56
345.487	453.56
345.714	413.56
345.942	427.56
346.17	424.56
346.397	426.56
346.625	412.56
346.853	424.56
347.08	403.56
347.308	434.56
347.535	443.56
347.763	415.56
347.99	400.56
348.218	412.56
348.445	415.56
348.673	424.56
348.9	409.56
349.128	398.56
349.355	401.56
349.583	390.56
349.81	398.56
350.037	392.56
350.265	400.56
350.492	381.56
350.72	405.56
350.947	418.56
351.174	408.56
351.402	404.56
351.629	433.56
351.856	416.56
352.083	412.56
352.311	406.56
352.538	424.56
352.765	405.56
352.992	410.56
353.22	408.56
353.447	395.56
353.674	403.56
353.901	395.56
354.128	397.56
354.355	376.56
354.583	380.56
354.81	388.56
355.037	405.56
355.264	407.56
355.491	388.56
355.718	386.56
355.945	372.56
356.172	386.56
356.399	377.56
356.626	397.56
356.853	387.56
357.08	395.56
357.307	365.56
357.534	393.56
357.761	391.56
357.988	390.56
358.215	374.56
358.441	397.56
358.668	411.56
358.895	395.56
359.122	392.56
359.349	405.56
359.576	413.56
359.802	428.56
360.029	438.56
360.256	449.56
360.483	441.56
360.709	392.56
360.936	411.56
361.163	430.56
361.39	412.56
361.616	410.56
361.843	414.56
362.07	404.56
362.296	409.56
362.523	400.56
362.749	393.56
362.976	399.56
363.203	391.56
363.429	371.56
363.656	385.56
363.882	367.56
364.109	365.56
364.335	407.56
364.562	393.56
364.788	377.56
365.015	379.56
365.241	387.56
365.468	394.56
365.694	390.56
365.92	386.56
366.147	396.56
366.373	389.56
366.599	381.56
366.826	374.56
367.052	365.56
367.278	387.56
367.505	395.56
367.731	383.56
367.957	381.56
368.184	390.56
368.41	396.56
368.636	376.56
368.862	404.56
369.089	390.56
369.315	382.56
369.541	373.56
369.767	391.56
369.993	371.56
370.219	372.56
370.445	397.56
370.672	392.56
370.898	389.56
371.124	401.56
371.35	390.56
371.576	381.56
371.802	368.56
372.028	401.56
372.254	375.56
372.48	377.56
372.706	387.56
372.932	395.56
373.158	393.56
373.384	406.56
373.61	403.56
373.835	372.56
374.061	379.56
374.287	383.56
374.513	384.56
374.739	417.56
374.965	400.56
375.191	396.56
375.416	381.56
375.642	383.56
375.868	403.56
376.094	392.56
376.319	403.56
376.545	373.56
376.771	380.56
376.997	377.56
377.222	395.56
377.448	391.56
377.674	363.56
377.899	398.56
378.125	384.56
378.35	357.56
378.576	383.56
378.802	358.56
379.027	388.56
379.253	379.56
379.478	362.56
379.704	369.56
379.929	385.56
380.155	372.56
380.38	383.56
380.606	372.56
380.831	372.56
381.057	394.56
381.282	401.56
381.507	393.56
381.733	364.56
381.958	379.56
382.184	395.56
382.409	378.56
382.634	404.56
382.86	382.56
383.085	403.56
383.31	392.56
383.535	402.56
383.761	400.56
383.986	407.56
384.211	415.56
384.436	415.56
384.662	420.56
384.887	421.56
385.112	408.56
385.337	413.56
385.562	411.56
385.787	419.56
386.013	433.56
386.238	419.56
386.463	447.56
386.688	433.56
386.913	405.56
387.138	427.56
387.363	417.56
387.588	420.56
387.813	428.56
388.038	444.56
388.263	429.56
388.488	444.56
388.713	428.56
388.938	411.56
389.163	441.56
389.387	419.56
389.612	425.56
389.837	420.56
390.062	427.56
390.287	415.56
390.512	402.56
390.736	404.56
390.961	440.56
391.186	421.56
391.411	444.56
391.636	458.56
391.86	440.56
392.085	438.56
392.31	443.56
392.534	438.56
392.759	418.56
392.984	421.56
393.208	438.56
393.433	425.56
393.658	433.56
393.882	421.56
394.107	431.56
394.331	413.56
394.556	408.56
394.78	424.56
395.005	426.56
395.229	422.56
395.454	431.56
395.678	428.56
395.903	428.56
396.127	456.56
396.352	467.56
396.576	426.56
396.801	429.56
397.025	434.56
397.249	457.56
397.474	453.56
397.698	468.56
397.922	472.56
398.147	456.56
398.371	475.56
398.595	453.56
398.82	480.56
399.044	503.56
399.268	503.56
399.492	545.56
399.717	585.56
399.941	583.56
400.165	597.56
400.389	589.56
400.613	567.56
400.837	506.56
401.062	530.56
401.286	471.56
401.51	482.56
401.734	492.56
401.958	483.56
402.182	475.56
402.406	477.56
402.63	485.56
402.854	498.56
403.078	507.56
403.302	504.56
403.526	497.56
403.75	493.56
403.974	518.56
404.198	509.56
404.422	497.56
404.645	500.56
404.869	522.56
405.093	540.56
405.317	564.56
405.541	587.56
405.765	544.56
405.988	531.56
406.212	535.56
406.436	511.56
406.66	535.56
406.883	545.56
407.107	580.56
407.331	572.56
407.555	656.56
407.778	627.56
408.002	584.56
408.226	570.56
408.449	542.56
408.673	536.56
408.896	552.56
409.12	593.56
409.344	561.56
409.567	513.56
409.791	503.56
410.014	483.56
410.238	508.56
410.461	495.56
410.685	489.56
410.908	508.56
411.132	521.56
411.355	584.56
411.578	562.56
411.802	484.56
412.025	479.56
412.249	487.56
412.472	526.56
412.695	550.56
412.919	533.56
413.142	521.56
413.365	476.56
413.589	487.56
413.812	470.56
414.035	458.56
414.258	468.56
414.482	437.56
414.705	471.56
414.928	490.56
415.151	465.56
415.374	464.56
415.597	464.56
415.821	448.56
416.044	441.56
416.267	471.56
416.49	472.56
416.713	472.56
416.936	458.56
417.159	452.56
417.382	463.56
417.605	463.56
417.828	487.56
418.051	480.56
418.274	471.56
418.497	460.56
418.72	466.56
418.943	457.56
419.166	482.56
419.389	506.56
419.611	486.56
419.834	492.56
420.057	479.56
420.28	480.56
420.503	481.56
420.726	486.56
420.948	491.56
421.171	501.56
421.394	550.56
421.617	491.56
421.839	476.56
422.062	474.56
422.285	503.56
422.507	543.56
422.73	572.56
422.953	577.56
423.175	504.56
423.398	510.56
423.621	506.56
423.843	519.56
424.066	519.56
424.288	509.56
424.511	546.56
424.733	582.56
424.956	627.56
425.178	605.56
425.401	615.56
425.623	612.56
425.846	532.56
426.068	507.56
426.291	482.56
426.513	507.56
426.735	493.56
426.958	553.56
427.18	614.56
427.402	742.56
427.625	780.56
427.847	667.56
428.069	580.56
428.292	498.56
428.514	498.56
428.736	478.56
428.958	469.56
429.181	462.56
429.403	461.56
429.625	471.56
429.847	487.56
430.069	547.56
430.292	535.56
430.514	479.56
430.736	457.56
430.958	460.56
431.18	442.56
431.402	447.56
431.624	411.56
431.846	426.56
432.068	453.56
432.29	433.56
432.512	431.56
432.734	450.56
432.956	458.56
433.178	452.56
433.4	458.56
433.622	452.56
433.844	461.56
434.066	433.56
434.287	431.56
434.509	431.56
434.731	467.56
434.953	475.56
435.175	483.56
435.397	482.56
435.618	479.56
435.84	549.56
436.062	618.56
436.284	669.56
436.505	568.56
436.727	515.56
436.949	464.56
437.17	474.56
437.392	483.56
437.614	476.56
437.835	481.56
438.057	559.56
438.278	642.56
438.5	641.56
438.721	722.56
438.943	687.56
439.165	537.56
439.386	491.56
439.608	474.56
439.829	509.56
440.05	511.56
440.272	538.56
440.493	523.56
440.715	466.56
440.936	457.56
441.158	502.56
441.379	475.56
441.6	479.56
441.822	513.56
442.043	537.56
442.264	572.56
442.486	637.56
442.707	531.56
442.928	497.56
443.149	509.56
443.371	523.56
443.592	556.56
443.813	647.56
444.034	700.56
444.255	607.56
444.476	516.56
444.698	525.56
444.919	521.56
445.14	610.56
445.361	537.56
445.582	545.56
445.803	602.56
446.024	675.56
446.245	649.56
446.466	590.56
446.687	520.56
446.908	481.56
447.129	446.56
447.35	464.56
447.571	442.56
447.792	458.56
448.013	451.56
448.234	453.56
448.455	508.56
448.675	609.56
448.896	693.56
449.117	591.56
449.338	572.56
449.559	649.56
449.779	705.56
450	584.56
450.221	481.56
450.442	450.56
450.662	465.56
450.883	473.56
451.104	457.56
451.324	441.56
451.545	426.56
451.766	418.56
451.986	414.56
452.207	403.56
452.428	409.56
452.648	408.56
452.869	415.56
453.089	397.56
453.31	408.56
453.53	428.56
453.751	395.56
453.971	422.56
454.192	408.56
454.412	414.56
454.633	400.56
454.853	403.56
455.073	410.56
455.294	422.56
455.514	483.56
455.734	485.56
455.955	407.56
456.175	396.56
456.395	376.56
456.616	379.56
456.836	397.56
457.056	395.56
457.276	387.56
457.497	399.56
457.717	389.56
457.937	386.56
458.157	405.56
458.377	414.56
458.598	429.56
458.818	491.56
459.038	517.56
459.258	522.56
459.478	480.56
459.698	473.56
459.918	427.56
460.138	442.56
460.358	433.56
460.578	440.56
460.798	460.56
461.018	464.56
461.238	469.56
461.458	450.56
461.678	451.56
461.898	444.56
462.118	463.56
462.338	461.56
462.558	456.56
462.777	490.56
462.997	489.56
463.217	512.56
463.437	500.56
463.657	503.56
463.876	506.56
464.096	495.56
464.316	487.56
464.536	488.56
464.755	491.56
464.975	476.56
465.195	539.56
465.414	550.56
465.634	481.56
465.854	435.56
466.073	433.56
466.293	408.56
466.512	405.56
466.732	412.56
466.951	419.56
467.171	407.56
467.391	447.56
467.61	442.56
467.829	412.56
468.049	412.56
468.268	393.56
468.488	403.56
468.707	405.56
468.927	413.56
469.146	422.56
469.365	418.56
469.585	415.56
469.804	410.56
470.023	418.56
470.243	419.56
470.462	438.56
470.681	421.56
470.901	420.56
471.12	427.56
471.339	427.56
471.558	437.56
471.777	418.56
471.997	405.56
472.216	426.56
472.435	451.56
472.654	442.56
472.873	431.56
473.092	438.56
473.311	409.56
473.53	414.56
473.749	432.56
473.968	463.56
474.187	532.56
474.406	549.56
474.625	462.56
474.844	441.56
475.063	423.56
475.282	407.56
475.501	421.56
475.72	415.56
475.939	436.56
476.158	419.56
476.377	440.56
476.596	401.56
476.814	458.56
477.033	426.56
477.252	431.56
477.471	463.56
477.69	433.56
477.908	455.56
478.127	461.56
478.346	454.56
478.564	443.56
478.783	480.56
479.002	483.56
479.22	471.56
479.439	487.56
479.658	495.56
479.876	509.56
480.095	508.56
480.313	545.56
480.532	543.56
480.751	503.56
480.969	520.56
481.188	551.56
481.406	555.56
481.624	528.56
481.843	519.56
482.061	498.56
482.28	491.56
482.498	466.56
482.717	476.56
482.935	514.56
483.153	477.56
483.372	488.56
483.59	480.56
483.808	474.56
484.027	471.56
484.245	474.56
484.463	475.56
484.681	471.56
484.9	498.56
485.118	501.56
485.336	512.56
485.554	499.56
485.772	475.56
485.99	508.56
486.209	495.56
486.427	497.56
486.645	500.56
486.863	513.56
487.081	521.56
487.299	523.56
487.517	521.56
487.735	525.56
487.953	515.56
488.171	502.56
488.389	523.56
488.607	507.56
488.825	495.56
489.043	485.56
489.261	513.56
489.479	525.56
489.696	516.56
489.914	515.56
490.132	521.56
490.35	529.56
490.568	538.56
490.786	546.56
491.003	551.56
491.221	556.56
491.439	559.56
491.657	579.56
491.874	583.56
492.092	588.56
492.31	571.56
492.527	585.56
492.745	584.56
492.963	576.56
493.18	575.56
493.398	577.56
493.615	594.56
493.833	615.56
494.05	593.56
494.268	592.56
494.485	575.56
494.703	595.56
494.92	609.56
495.138	585.56
495.355	607.56
495.573	619.56
495.79	604.56
496.008	580.56
496.225	599.56
496.442	601.56
496.66	589.56
496.877	596.56
497.094	598.56
497.312	616.56
497.529	604.56
497.746	635.56
497.963	661.56
498.181	689.56
498.398	683.56
498.615	682.56
498.832	716.56
499.049	712.56
499.267	745.56
499.484	771.56
499.701	781.56
499.918	848.56
500.135	890.56
500.352	911.56
500.569	956.56
500.786	951.56
501.003	928.56
501.22	907.56
501.437	856.56
501.654	811.56
501.871	803.56
502.088	761.56
