Data from 1977.PennyLincolnUp.Lamp.En5.5.200Scan.071719.P1_HRD10591_16-07-11-873.txt Node
Date: Thu Jul 18 16:07:11 EDT 2019
User: cochatt
Spectrometer: HR+D1059
Trigger mode: 1
Integration Time (sec): 1.000000E-1
Scans to average: 1
Electric dark correction enabled: true
Nonlinearity correction enabled: false
Boxcar width: 0
XAxis mode: Wavelengths
Number of Pixels in Spectrum: 2048
>>>>>Begin Spectral Data<<<<<
223.165	-24.44
223.4	-24.44
223.635	-24.44
223.869	-23.44
224.104	-18.44
224.338	-21.44
224.573	-3.44
224.808	-5.44
225.042	-9.44
225.277	-0.44
225.511	9.56
225.746	8.56
225.98	-4.44
226.215	6.56
226.449	20.56
226.683	21.56
226.918	4.56
227.152	39.56
227.387	34.56
227.621	31.56
227.856	44.56
228.09	52.56
228.324	57.56
228.559	51.56
228.793	70.56
229.027	81.56
229.262	100.56
229.496	108.56
229.73	132.56
229.964	143.56
230.199	136.56
230.433	118.56
230.667	106.56
230.901	111.56
231.136	112.56
231.37	111.56
231.604	117.56
231.838	109.56
232.072	114.56
232.306	114.56
232.541	127.56
232.775	115.56
233.009	103.56
233.243	120.56
233.477	139.56
233.711	120.56
233.945	115.56
234.179	122.56
234.413	126.56
234.647	117.56
234.881	122.56
235.115	116.56
235.349	103.56
235.583	127.56
235.817	130.56
236.051	139.56
236.285	124.56
236.519	120.56
236.753	128.56
236.987	136.56
237.221	180.56
237.455	223.56
237.689	181.56
237.922	135.56
238.156	127.56
238.39	127.56
238.624	114.56
238.858	121.56
239.091	128.56
239.325	124.56
239.559	125.56
239.793	116.56
240.027	130.56
240.26	160.56
240.494	146.56
240.728	171.56
240.961	148.56
241.195	150.56
241.429	150.56
241.662	135.56
241.896	121.56
242.13	132.56
242.363	147.56
242.597	134.56
242.83	141.56
243.064	148.56
243.298	140.56
243.531	143.56
243.765	158.56
243.998	156.56
244.232	155.56
244.465	148.56
244.699	147.56
244.932	154.56
245.166	151.56
245.399	137.56
245.633	154.56
245.866	142.56
246.099	150.56
246.333	154.56
246.566	139.56
246.8	155.56
247.033	156.56
247.266	150.56
247.5	165.56
247.733	159.56
247.966	175.56
248.2	184.56
248.433	165.56
248.666	192.56
248.899	182.56
249.133	190.56
249.366	204.56
249.599	191.56
249.832	187.56
250.066	182.56
250.299	191.56
250.532	186.56
250.765	204.56
250.998	215.56
251.231	197.56
251.465	198.56
251.698	200.56
251.931	198.56
252.164	192.56
252.397	194.56
252.63	205.56
252.863	204.56
253.096	213.56
253.329	222.56
253.562	223.56
253.795	203.56
254.028	224.56
254.261	222.56
254.494	211.56
254.727	251.56
254.96	274.56
255.193	255.56
255.426	239.56
255.659	223.56
255.892	245.56
256.124	231.56
256.357	231.56
256.59	210.56
256.823	215.56
257.056	213.56
257.289	204.56
257.521	204.56
257.754	199.56
257.987	213.56
258.22	202.56
258.452	217.56
258.685	219.56
258.918	210.56
259.151	208.56
259.383	228.56
259.616	231.56
259.849	227.56
260.081	233.56
260.314	261.56
260.547	268.56
260.779	254.56
261.012	237.56
261.244	230.56
261.477	222.56
261.71	221.56
261.942	235.56
262.175	230.56
262.407	228.56
262.64	220.56
262.872	209.56
263.105	208.56
263.337	228.56
263.57	245.56
263.802	228.56
264.035	212.56
264.267	227.56
264.499	210.56
264.732	221.56
264.964	224.56
265.197	236.56
265.429	226.56
265.661	221.56
265.894	220.56
266.126	230.56
266.358	215.56
266.591	219.56
266.823	241.56
267.055	234.56
267.287	230.56
267.52	223.56
267.752	246.56
267.984	228.56
268.216	245.56
268.448	245.56
268.681	262.56
268.913	247.56
269.145	266.56
269.377	267.56
269.609	272.56
269.841	290.56
270.073	277.56
270.306	294.56
270.538	311.56
270.77	298.56
271.002	308.56
271.234	279.56
271.466	294.56
271.698	296.56
271.93	318.56
272.162	320.56
272.394	337.56
272.626	314.56
272.858	283.56
273.09	300.56
273.322	283.56
273.553	274.56
273.785	262.56
274.017	268.56
274.249	270.56
274.481	272.56
274.713	282.56
274.945	275.56
275.176	286.56
275.408	291.56
275.64	284.56
275.872	270.56
276.104	292.56
276.335	272.56
276.567	280.56
276.799	275.56
277.031	306.56
277.262	322.56
277.494	320.56
277.726	298.56
277.957	288.56
278.189	283.56
278.421	303.56
278.652	277.56
278.884	300.56
279.115	292.56
279.347	270.56
279.579	281.56
279.81	274.56
280.042	278.56
280.273	309.56
280.505	286.56
280.736	285.56
280.968	286.56
281.199	281.56
281.431	278.56
281.662	295.56
281.894	279.56
282.125	294.56
282.356	294.56
282.588	309.56
282.819	322.56
283.051	302.56
283.282	300.56
283.513	279.56
283.745	303.56
283.976	306.56
284.207	296.56
284.439	300.56
284.67	292.56
284.901	312.56
285.132	303.56
285.364	279.56
285.595	316.56
285.826	281.56
286.057	314.56
286.288	293.56
286.52	308.56
286.751	299.56
286.982	314.56
287.213	300.56
287.444	310.56
287.675	295.56
287.906	314.56
288.138	332.56
288.369	311.56
288.6	310.56
288.831	303.56
289.062	306.56
289.293	315.56
289.524	314.56
289.755	310.56
289.986	298.56
290.217	323.56
290.448	320.56
290.679	330.56
290.91	324.56
291.141	329.56
291.371	324.56
291.602	318.56
291.833	297.56
292.064	318.56
292.295	319.56
292.526	314.56
292.757	306.56
292.987	316.56
293.218	321.56
293.449	326.56
293.68	307.56
293.91	295.56
294.141	315.56
294.372	326.56
294.603	314.56
294.833	313.56
295.064	306.56
295.295	328.56
295.525	342.56
295.756	301.56
295.987	339.56
296.217	355.56
296.448	342.56
296.679	306.56
296.909	334.56
297.14	325.56
297.37	328.56
297.601	320.56
297.831	326.56
298.062	332.56
298.292	322.56
298.523	326.56
298.753	322.56
298.984	323.56
299.214	349.56
299.445	328.56
299.675	346.56
299.905	339.56
300.136	347.56
300.366	342.56
300.597	340.56
300.827	324.56
301.057	355.56
301.288	375.56
301.518	354.56
301.748	340.56
301.979	364.56
302.209	363.56
302.439	344.56
302.669	339.56
302.9	334.56
303.13	358.56
303.36	356.56
303.59	376.56
303.82	356.56
304.051	359.56
304.281	364.56
304.511	364.56
304.741	351.56
304.971	357.56
305.201	363.56
305.431	360.56
305.661	344.56
305.891	334.56
306.121	360.56
306.352	353.56
306.582	360.56
306.812	372.56
307.042	352.56
307.272	364.56
307.502	342.56
307.731	359.56
307.961	357.56
308.191	344.56
308.421	360.56
308.651	348.56
308.881	360.56
309.111	358.56
309.341	365.56
309.571	356.56
309.8	376.56
310.03	400.56
310.26	406.56
310.49	381.56
310.72	430.56
310.949	379.56
311.179	396.56
311.409	387.56
311.639	400.56
311.868	400.56
312.098	384.56
312.328	391.56
312.557	400.56
312.787	422.56
313.017	416.56
313.246	398.56
313.476	374.56
313.706	410.56
313.935	412.56
314.165	420.56
314.394	424.56
314.624	429.56
314.853	410.56
315.083	375.56
315.312	408.56
315.542	397.56
315.771	396.56
316.001	396.56
316.23	398.56
316.46	399.56
316.689	380.56
316.919	388.56
317.148	428.56
317.377	414.56
317.607	404.56
317.836	403.56
318.065	401.56
318.295	404.56
318.524	396.56
318.753	397.56
318.983	404.56
319.212	406.56
319.441	391.56
319.67	391.56
319.9	411.56
320.129	395.56
320.358	404.56
320.587	387.56
320.816	412.56
321.046	422.56
321.275	425.56
321.504	417.56
321.733	412.56
321.962	428.56
322.191	414.56
322.42	413.56
322.649	454.56
322.878	462.56
323.108	453.56
323.337	466.56
323.566	467.56
323.795	516.56
324.024	572.56
324.253	655.56
324.482	894.56
324.71	1358.56
324.939	1858.56
325.168	1575.56
325.397	834.56
325.626	598.56
325.855	524.56
326.084	498.56
326.313	483.56
326.542	536.56
326.77	526.56
326.999	626.56
327.228	826.56
327.457	1152.56
327.686	1380.56
327.914	941.56
328.143	631.56
328.372	589.56
328.6	558.56
328.829	527.56
329.058	566.56
329.287	556.56
329.515	529.56
329.744	511.56
329.972	499.56
330.201	534.56
330.43	553.56
330.658	564.56
330.887	580.56
331.115	552.56
331.344	512.56
331.572	499.56
331.801	483.56
332.03	493.56
332.258	473.56
332.486	489.56
332.715	478.56
332.943	470.56
333.172	470.56
333.4	488.56
333.629	516.56
333.857	487.56
334.085	518.56
334.314	504.56
334.542	514.56
334.771	527.56
334.999	527.56
335.227	482.56
335.455	462.56
335.684	479.56
335.912	464.56
336.14	457.56
336.369	471.56
336.597	446.56
336.825	453.56
337.053	473.56
337.281	451.56
337.51	452.56
337.738	462.56
337.966	460.56
338.194	451.56
338.422	447.56
338.65	446.56
338.878	458.56
339.106	457.56
339.334	458.56
339.562	434.56
339.79	452.56
340.018	424.56
340.246	457.56
340.474	431.56
340.702	439.56
340.93	440.56
341.158	440.56
341.386	426.56
341.614	447.56
341.842	440.56
342.07	427.56
342.298	443.56
342.526	439.56
342.754	404.56
342.981	438.56
343.209	424.56
343.437	440.56
343.665	449.56
343.893	438.56
344.12	477.56
344.348	465.56
344.576	444.56
344.804	459.56
345.031	451.56
345.259	461.56
345.487	442.56
345.714	436.56
345.942	445.56
346.17	434.56
346.397	428.56
346.625	417.56
346.853	438.56
347.08	402.56
347.308	400.56
347.535	442.56
347.763	424.56
347.99	411.56
348.218	434.56
348.445	408.56
348.673	414.56
348.9	397.56
349.128	418.56
349.355	398.56
349.583	392.56
349.81	391.56
350.037	413.56
350.265	407.56
350.492	420.56
350.72	415.56
350.947	398.56
351.174	418.56
351.402	420.56
351.629	413.56
351.856	414.56
352.083	414.56
352.311	425.56
352.538	434.56
352.765	418.56
352.992	437.56
353.22	443.56
353.447	402.56
353.674	399.56
353.901	413.56
354.128	393.56
354.355	396.56
354.583	391.56
354.81	404.56
355.037	388.56
355.264	378.56
355.491	385.56
355.718	399.56
355.945	387.56
356.172	380.56
356.399	416.56
356.626	394.56
356.853	391.56
357.08	409.56
357.307	388.56
357.534	409.56
357.761	394.56
357.988	388.56
358.215	399.56
358.441	391.56
358.668	401.56
358.895	386.56
359.122	392.56
359.349	386.56
359.576	403.56
359.802	415.56
360.029	445.56
360.256	456.56
360.483	428.56
360.709	424.56
360.936	422.56
361.163	396.56
361.39	409.56
361.616	400.56
361.843	412.56
362.07	398.56
362.296	416.56
362.523	424.56
362.749	406.56
362.976	378.56
363.203	390.56
363.429	401.56
363.656	415.56
363.882	388.56
364.109	394.56
364.335	390.56
364.562	384.56
364.788	380.56
365.015	405.56
365.241	397.56
365.468	411.56
365.694	381.56
365.92	380.56
366.147	404.56
366.373	411.56
366.599	397.56
366.826	393.56
367.052	370.56
367.278	390.56
367.505	380.56
367.731	409.56
367.957	381.56
368.184	397.56
368.41	404.56
368.636	397.56
368.862	410.56
369.089	402.56
369.315	406.56
369.541	399.56
369.767	386.56
369.993	401.56
370.219	388.56
370.445	393.56
370.672	395.56
370.898	396.56
371.124	395.56
371.35	399.56
371.576	391.56
371.802	393.56
372.028	392.56
372.254	378.56
372.48	404.56
372.706	397.56
372.932	408.56
373.158	398.56
373.384	390.56
373.61	387.56
373.835	401.56
374.061	396.56
374.287	403.56
374.513	404.56
374.739	410.56
374.965	395.56
375.191	414.56
375.416	404.56
375.642	397.56
375.868	388.56
376.094	410.56
376.319	386.56
376.545	393.56
376.771	393.56
376.997	396.56
377.222	380.56
377.448	391.56
377.674	390.56
377.899	378.56
378.125	378.56
378.35	387.56
378.576	399.56
378.802	393.56
379.027	381.56
379.253	394.56
379.478	380.56
379.704	413.56
379.929	405.56
380.155	384.56
380.38	399.56
380.606	394.56
380.831	370.56
381.057	383.56
381.282	382.56
381.507	378.56
381.733	397.56
381.958	388.56
382.184	397.56
382.409	383.56
382.634	389.56
382.86	408.56
383.085	385.56
383.31	394.56
383.535	391.56
383.761	396.56
383.986	400.56
384.211	382.56
384.436	421.56
384.662	409.56
384.887	418.56
385.112	416.56
385.337	432.56
385.562	417.56
385.787	433.56
386.013	442.56
386.238	439.56
386.463	442.56
386.688	450.56
386.913	408.56
387.138	423.56
387.363	407.56
387.588	440.56
387.813	439.56
388.038	423.56
388.263	439.56
388.488	436.56
388.713	445.56
388.938	426.56
389.163	431.56
389.387	423.56
389.612	417.56
389.837	424.56
390.062	434.56
390.287	420.56
390.512	432.56
390.736	421.56
390.961	438.56
391.186	439.56
391.411	432.56
391.636	425.56
391.86	428.56
392.085	445.56
392.31	441.56
392.534	443.56
392.759	451.56
392.984	426.56
393.208	449.56
393.433	425.56
393.658	423.56
393.882	420.56
394.107	438.56
394.331	426.56
394.556	428.56
394.78	446.56
395.005	446.56
395.229	436.56
395.454	447.56
395.678	439.56
395.903	464.56
396.127	460.56
396.352	453.56
396.576	448.56
396.801	436.56
397.025	425.56
397.249	440.56
397.474	460.56
397.698	451.56
397.922	467.56
398.147	473.56
398.371	484.56
398.595	488.56
398.82	491.56
399.044	514.56
399.268	518.56
399.492	563.56
399.717	579.56
399.941	616.56
400.165	601.56
400.389	623.56
400.613	568.56
400.837	502.56
401.062	514.56
401.286	504.56
401.51	491.56
401.734	495.56
401.958	501.56
402.182	509.56
402.406	499.56
402.63	502.56
402.854	490.56
403.078	505.56
403.302	481.56
403.526	512.56
403.75	511.56
403.974	523.56
404.198	502.56
404.422	522.56
404.645	526.56
404.869	509.56
405.093	547.56
405.317	581.56
405.541	583.56
405.765	552.56
405.988	522.56
406.212	520.56
406.436	536.56
406.66	559.56
406.883	535.56
407.107	564.56
407.331	589.56
407.555	658.56
407.778	661.56
408.002	596.56
408.226	559.56
408.449	550.56
408.673	568.56
408.896	583.56
409.12	605.56
409.344	564.56
409.567	534.56
409.791	528.56
410.014	518.56
410.238	498.56
410.461	507.56
410.685	490.56
410.908	542.56
411.132	546.56
411.355	570.56
411.578	562.56
411.802	510.56
412.025	495.56
412.249	499.56
412.472	537.56
412.695	555.56
412.919	548.56
413.142	507.56
413.365	485.56
413.589	492.56
413.812	478.56
414.035	483.56
414.258	500.56
414.482	470.56
414.705	482.56
414.928	458.56
415.151	454.56
415.374	475.56
415.597	457.56
415.821	474.56
416.044	473.56
416.267	487.56
416.49	473.56
416.713	465.56
416.936	464.56
417.159	455.56
417.382	472.56
417.605	463.56
417.828	479.56
418.051	505.56
418.274	478.56
418.497	483.56
418.72	468.56
418.943	439.56
419.166	483.56
419.389	514.56
419.611	501.56
419.834	490.56
420.057	490.56
420.28	513.56
420.503	490.56
420.726	476.56
420.948	523.56
421.171	553.56
421.394	539.56
421.617	509.56
421.839	484.56
422.062	478.56
422.285	513.56
422.507	541.56
422.73	588.56
422.953	589.56
423.175	518.56
423.398	507.56
423.621	513.56
423.843	520.56
424.066	525.56
424.288	512.56
424.511	538.56
424.733	579.56
424.956	633.56
425.178	602.56
425.401	628.56
425.623	626.56
425.846	537.56
426.068	503.56
426.291	475.56
426.513	516.56
426.735	503.56
426.958	547.56
427.18	626.56
427.402	740.56
427.625	813.56
427.847	664.56
428.069	604.56
428.292	536.56
428.514	485.56
428.736	475.56
428.958	482.56
429.181	476.56
429.403	459.56
429.625	474.56
429.847	514.56
430.069	573.56
430.292	557.56
430.514	507.56
430.736	457.56
430.958	458.56
431.18	453.56
431.402	452.56
431.624	455.56
431.846	451.56
432.068	449.56
432.29	458.56
432.512	460.56
432.734	442.56
432.956	438.56
433.178	474.56
433.4	468.56
433.622	465.56
433.844	447.56
434.066	439.56
434.287	460.56
434.509	470.56
434.731	488.56
434.953	467.56
435.175	492.56
435.397	494.56
435.618	487.56
435.84	528.56
436.062	617.56
436.284	695.56
436.505	562.56
436.727	510.56
436.949	448.56
437.17	470.56
437.392	461.56
437.614	498.56
437.835	510.56
438.057	577.56
438.278	664.56
438.5	681.56
438.721	737.56
438.943	710.56
439.165	569.56
439.386	534.56
439.608	523.56
439.829	490.56
440.05	535.56
440.272	568.56
440.493	543.56
440.715	510.56
440.936	476.56
441.158	481.56
441.379	459.56
441.6	458.56
441.822	536.56
442.043	557.56
442.264	638.56
442.486	654.56
442.707	544.56
442.928	545.56
443.149	514.56
443.371	531.56
443.592	566.56
443.813	643.56
444.034	718.56
444.255	558.56
444.476	536.56
444.698	528.56
444.919	510.56
445.14	619.56
445.361	582.56
445.582	549.56
445.803	580.56
446.024	674.56
446.245	672.56
446.466	612.56
446.687	559.56
446.908	517.56
447.129	485.56
447.35	465.56
447.571	456.56
447.792	464.56
448.013	448.56
448.234	475.56
448.455	521.56
448.675	633.56
448.896	710.56
449.117	583.56
449.338	582.56
449.559	657.56
449.779	770.56
450	607.56
450.221	510.56
450.442	485.56
450.662	454.56
450.883	463.56
451.104	464.56
451.324	459.56
451.545	441.56
451.766	427.56
451.986	423.56
452.207	421.56
452.428	420.56
452.648	396.56
452.869	412.56
453.089	400.56
453.31	432.56
453.53	412.56
453.751	392.56
453.971	410.56
454.192	410.56
454.412	433.56
454.633	405.56
454.853	418.56
455.073	406.56
455.294	435.56
455.514	489.56
455.734	480.56
455.955	442.56
456.175	415.56
456.395	404.56
456.616	386.56
456.836	401.56
457.056	413.56
457.276	381.56
457.497	378.56
457.717	383.56
457.937	407.56
458.157	406.56
458.377	412.56
458.598	410.56
458.818	478.56
459.038	526.56
459.258	567.56
459.478	484.56
459.698	452.56
459.918	474.56
460.138	446.56
460.358	455.56
460.578	449.56
460.798	467.56
461.018	455.56
461.238	485.56
461.458	472.56
461.678	463.56
461.898	455.56
462.118	457.56
462.338	465.56
462.558	453.56
462.777	478.56
462.997	489.56
463.217	503.56
463.437	515.56
463.657	521.56
463.876	502.56
464.096	501.56
464.316	487.56
464.536	482.56
464.755	481.56
464.975	467.56
465.195	479.56
465.414	550.56
465.634	479.56
465.854	470.56
466.073	453.56
466.293	423.56
466.512	428.56
466.732	420.56
466.951	421.56
467.171	412.56
467.391	436.56
467.61	433.56
467.829	435.56
468.049	436.56
468.268	431.56
468.488	406.56
468.707	416.56
468.927	411.56
469.146	406.56
469.365	414.56
469.585	412.56
469.804	424.56
470.023	423.56
470.243	429.56
470.462	425.56
470.681	435.56
470.901	438.56
471.12	468.56
471.339	443.56
471.558	448.56
471.777	429.56
471.997	436.56
472.216	443.56
472.435	468.56
472.654	431.56
472.873	422.56
473.092	419.56
473.311	424.56
473.53	397.56
473.749	424.56
473.968	454.56
474.187	538.56
474.406	579.56
474.625	466.56
474.844	463.56
475.063	414.56
475.282	400.56
475.501	431.56
475.72	429.56
475.939	435.56
476.158	426.56
476.377	424.56
476.596	440.56
476.814	455.56
477.033	441.56
477.252	464.56
477.471	455.56
477.69	441.56
477.908	455.56
478.127	499.56
478.346	469.56
478.564	480.56
478.783	480.56
479.002	463.56
479.22	494.56
479.439	490.56
479.658	505.56
479.876	522.56
480.095	534.56
480.313	545.56
480.532	542.56
480.751	520.56
480.969	508.56
481.188	570.56
481.406	569.56
481.624	528.56
481.843	509.56
482.061	500.56
482.28	483.56
482.498	494.56
482.717	498.56
482.935	499.56
483.153	482.56
483.372	488.56
483.59	488.56
483.808	477.56
484.027	485.56
484.245	484.56
484.463	488.56
484.681	495.56
484.9	478.56
485.118	509.56
485.336	500.56
485.554	494.56
485.772	504.56
485.99	523.56
486.209	516.56
486.427	495.56
486.645	522.56
486.863	518.56
487.081	536.56
487.299	546.56
487.517	516.56
487.735	530.56
487.953	539.56
488.171	523.56
488.389	520.56
488.607	522.56
488.825	526.56
489.043	532.56
489.261	520.56
489.479	520.56
489.696	536.56
489.914	543.56
490.132	535.56
490.35	549.56
490.568	559.56
490.786	574.56
491.003	560.56
491.221	586.56
491.439	576.56
491.657	555.56
491.874	591.56
492.092	572.56
492.31	607.56
492.527	578.56
492.745	602.56
492.963	603.56
493.18	594.56
493.398	614.56
493.615	604.56
493.833	605.56
494.05	618.56
494.268	588.56
494.485	596.56
494.703	597.56
494.92	603.56
495.138	616.56
495.355	592.56
495.573	625.56
495.79	590.56
496.008	602.56
496.225	616.56
496.442	620.56
496.66	629.56
496.877	596.56
497.094	600.56
497.312	627.56
497.529	633.56
497.746	639.56
497.963	656.56
498.181	688.56
498.398	706.56
498.615	711.56
498.832	748.56
499.049	739.56
499.267	748.56
499.484	803.56
499.701	806.56
499.918	818.56
500.135	877.56
500.352	950.56
500.569	989.56
500.786	969.56
501.003	922.56
501.22	901.56
501.437	848.56
501.654	859.56
501.871	837.56
502.088	771.56
