Data from 1977.PennyLincolnUp.Lamp.En5.5.200Scan.071719.P1_HRD10591_16-05-53-863.txt Node
Date: Thu Jul 18 16:05:53 EDT 2019
User: cochatt
Spectrometer: HR+D1059
Trigger mode: 1
Integration Time (sec): 1.000000E-1
Scans to average: 1
Electric dark correction enabled: true
Nonlinearity correction enabled: false
Boxcar width: 0
XAxis mode: Wavelengths
Number of Pixels in Spectrum: 2048
>>>>>Begin Spectral Data<<<<<
223.165	-8.75
223.4	-8.75
223.635	-8.75
223.869	-18.75
224.104	0.25
224.338	6.25
224.573	2.25
224.808	-13.75
225.042	-4.75
225.277	-4.75
225.511	-12.75
225.746	-4.75
225.98	-0.75
226.215	0.25
226.449	9.25
226.683	2.25
226.918	26.25
227.152	22.25
227.387	32.25
227.621	40.25
227.856	42.25
228.09	50.25
228.324	45.25
228.559	54.25
228.793	77.25
229.027	83.25
229.262	89.25
229.496	93.25
229.73	98.25
229.964	124.25
230.199	126.25
230.433	103.25
230.667	118.25
230.901	86.25
231.136	110.25
231.37	103.25
231.604	107.25
231.838	104.25
232.072	108.25
232.306	107.25
232.541	109.25
232.775	116.25
233.009	100.25
233.243	99.25
233.477	102.25
233.711	98.25
233.945	116.25
234.179	121.25
234.413	111.25
234.647	99.25
234.881	101.25
235.115	122.25
235.349	118.25
235.583	110.25
235.817	108.25
236.051	108.25
236.285	121.25
236.519	134.25
236.753	130.25
236.987	135.25
237.221	133.25
237.455	184.25
237.689	164.25
237.922	142.25
238.156	132.25
238.39	109.25
238.624	120.25
238.858	116.25
239.091	116.25
239.325	118.25
239.559	127.25
239.793	119.25
240.027	122.25
240.26	136.25
240.494	145.25
240.728	141.25
240.961	146.25
241.195	128.25
241.429	137.25
241.662	130.25
241.896	135.25
242.13	135.25
242.363	130.25
242.597	130.25
242.83	119.25
243.064	144.25
243.298	127.25
243.531	135.25
243.765	134.25
243.998	138.25
244.232	148.25
244.465	142.25
244.699	142.25
244.932	138.25
245.166	139.25
245.399	134.25
245.633	143.25
245.866	157.25
246.099	140.25
246.333	137.25
246.566	158.25
246.8	125.25
247.033	148.25
247.266	167.25
247.5	159.25
247.733	149.25
247.966	152.25
248.2	157.25
248.433	150.25
248.666	158.25
248.899	171.25
249.133	187.25
249.366	187.25
249.599	179.25
249.832	162.25
250.066	162.25
250.299	161.25
250.532	181.25
250.765	171.25
250.998	222.25
251.231	217.25
251.465	216.25
251.698	180.25
251.931	178.25
252.164	195.25
252.397	185.25
252.63	178.25
252.863	196.25
253.096	191.25
253.329	189.25
253.562	203.25
253.795	200.25
254.028	183.25
254.261	183.25
254.494	195.25
254.727	229.25
254.96	259.25
255.193	240.25
255.426	227.25
255.659	210.25
255.892	203.25
256.124	194.25
256.357	210.25
256.59	205.25
256.823	204.25
257.056	199.25
257.289	192.25
257.521	208.25
257.754	218.25
257.987	205.25
258.22	206.25
258.452	189.25
258.685	213.25
258.918	195.25
259.151	230.25
259.383	219.25
259.616	198.25
259.849	213.25
260.081	226.25
260.314	233.25
260.547	245.25
260.779	229.25
261.012	227.25
261.244	202.25
261.477	232.25
261.71	223.25
261.942	215.25
262.175	219.25
262.407	229.25
262.64	224.25
262.872	205.25
263.105	204.25
263.337	228.25
263.57	196.25
263.802	213.25
264.035	214.25
264.267	221.25
264.499	210.25
264.732	219.25
264.964	206.25
265.197	214.25
265.429	213.25
265.661	220.25
265.894	207.25
266.126	228.25
266.358	204.25
266.591	214.25
266.823	234.25
267.055	226.25
267.287	221.25
267.52	228.25
267.752	219.25
267.984	223.25
268.216	227.25
268.448	232.25
268.681	232.25
268.913	247.25
269.145	239.25
269.377	269.25
269.609	262.25
269.841	253.25
270.073	284.25
270.306	266.25
270.538	298.25
270.77	284.25
271.002	285.25
271.234	276.25
271.466	279.25
271.698	284.25
271.93	293.25
272.162	292.25
272.394	302.25
272.626	286.25
272.858	272.25
273.09	260.25
273.322	239.25
273.553	264.25
273.785	243.25
274.017	253.25
274.249	257.25
274.481	260.25
274.713	269.25
274.945	257.25
275.176	273.25
275.408	274.25
275.64	271.25
275.872	262.25
276.104	268.25
276.335	263.25
276.567	260.25
276.799	264.25
277.031	270.25
277.262	286.25
277.494	319.25
277.726	312.25
277.957	278.25
278.189	283.25
278.421	273.25
278.652	287.25
278.884	266.25
279.115	278.25
279.347	297.25
279.579	277.25
279.81	270.25
280.042	266.25
280.273	281.25
280.505	268.25
280.736	272.25
280.968	294.25
281.199	266.25
281.431	283.25
281.662	280.25
281.894	277.25
282.125	251.25
282.356	267.25
282.588	291.25
282.819	314.25
283.051	276.25
283.282	311.25
283.513	284.25
283.745	280.25
283.976	266.25
284.207	295.25
284.439	297.25
284.67	283.25
284.901	293.25
285.132	290.25
285.364	261.25
285.595	288.25
285.826	278.25
286.057	311.25
286.288	319.25
286.52	284.25
286.751	276.25
286.982	288.25
287.213	286.25
287.444	293.25
287.675	298.25
287.906	305.25
288.138	303.25
288.369	298.25
288.6	295.25
288.831	298.25
289.062	295.25
289.293	294.25
289.524	320.25
289.755	312.25
289.986	295.25
290.217	306.25
290.448	290.25
290.679	311.25
290.91	310.25
291.141	291.25
291.371	302.25
291.602	317.25
291.833	294.25
292.064	306.25
292.295	280.25
292.526	298.25
292.757	314.25
292.987	301.25
293.218	294.25
293.449	303.25
293.68	295.25
293.91	299.25
294.141	293.25
294.372	309.25
294.603	303.25
294.833	307.25
295.064	302.25
295.295	299.25
295.525	311.25
295.756	318.25
295.987	302.25
296.217	323.25
296.448	317.25
296.679	324.25
296.909	322.25
297.14	311.25
297.37	318.25
297.601	303.25
297.831	311.25
298.062	316.25
298.292	318.25
298.523	309.25
298.753	321.25
298.984	310.25
299.214	292.25
299.445	320.25
299.675	336.25
299.905	299.25
300.136	322.25
300.366	314.25
300.597	333.25
300.827	350.25
301.057	318.25
301.288	331.25
301.518	320.25
301.748	333.25
301.979	340.25
302.209	342.25
302.439	328.25
302.669	345.25
302.9	332.25
303.13	334.25
303.36	339.25
303.59	345.25
303.82	339.25
304.051	335.25
304.281	349.25
304.511	346.25
304.741	335.25
304.971	338.25
305.201	336.25
305.431	334.25
305.661	342.25
305.891	329.25
306.121	344.25
306.352	342.25
306.582	349.25
306.812	343.25
307.042	354.25
307.272	335.25
307.502	334.25
307.731	348.25
307.961	348.25
308.191	326.25
308.421	345.25
308.651	350.25
308.881	336.25
309.111	347.25
309.341	372.25
309.571	358.25
309.8	361.25
310.03	366.25
310.26	371.25
310.49	381.25
310.72	388.25
310.949	378.25
311.179	385.25
311.409	381.25
311.639	380.25
311.868	358.25
312.098	374.25
312.328	371.25
312.557	382.25
312.787	394.25
313.017	381.25
313.246	386.25
313.476	375.25
313.706	384.25
313.935	385.25
314.165	390.25
314.394	375.25
314.624	396.25
314.853	370.25
315.083	371.25
315.312	363.25
315.542	370.25
315.771	382.25
316.001	394.25
316.23	379.25
316.46	366.25
316.689	389.25
316.919	388.25
317.148	375.25
317.377	379.25
317.607	386.25
317.836	404.25
318.065	379.25
318.295	383.25
318.524	393.25
318.753	382.25
318.983	386.25
319.212	400.25
319.441	386.25
319.67	394.25
319.9	363.25
320.129	376.25
320.358	378.25
320.587	390.25
320.816	372.25
321.046	392.25
321.275	393.25
321.504	382.25
321.733	393.25
321.962	402.25
322.191	406.25
322.42	419.25
322.649	414.25
322.878	410.25
323.108	407.25
323.337	446.25
323.566	433.25
323.795	460.25
324.024	464.25
324.253	568.25
324.482	757.25
324.71	1086.25
324.939	1471.25
325.168	1308.25
325.397	734.25
325.626	532.25
325.855	485.25
326.084	447.25
326.313	459.25
326.542	477.25
326.77	486.25
326.999	573.25
327.228	708.25
327.457	1032.25
327.686	1160.25
327.914	794.25
328.143	588.25
328.372	526.25
328.6	506.25
328.829	479.25
329.058	495.25
329.287	493.25
329.515	478.25
329.744	465.25
329.972	476.25
330.201	482.25
330.43	487.25
330.658	505.25
330.887	525.25
331.115	514.25
331.344	457.25
331.572	469.25
331.801	460.25
332.03	472.25
332.258	445.25
332.486	429.25
332.715	439.25
332.943	456.25
333.172	460.25
333.4	478.25
333.629	466.25
333.857	474.25
334.085	487.25
334.314	485.25
334.542	481.25
334.771	516.25
334.999	467.25
335.227	468.25
335.455	459.25
335.684	448.25
335.912	474.25
336.14	454.25
336.369	446.25
336.597	457.25
336.825	445.25
337.053	443.25
337.281	440.25
337.51	425.25
337.738	442.25
337.966	441.25
338.194	428.25
338.422	469.25
338.65	442.25
338.878	432.25
339.106	415.25
339.334	450.25
339.562	420.25
339.79	423.25
340.018	434.25
340.246	438.25
340.474	431.25
340.702	427.25
340.93	434.25
341.158	422.25
341.386	426.25
341.614	434.25
341.842	415.25
342.07	409.25
342.298	401.25
342.526	410.25
342.754	416.25
342.981	423.25
343.209	420.25
343.437	437.25
343.665	428.25
343.893	444.25
344.12	460.25
344.348	453.25
344.576	430.25
344.804	440.25
345.031	449.25
345.259	435.25
345.487	446.25
345.714	434.25
345.942	418.25
346.17	403.25
346.397	409.25
346.625	382.25
346.853	421.25
347.08	416.25
347.308	390.25
347.535	406.25
347.763	406.25
347.99	388.25
348.218	399.25
348.445	380.25
348.673	396.25
348.9	403.25
349.128	402.25
349.355	402.25
349.583	396.25
349.81	390.25
350.037	406.25
350.265	396.25
350.492	420.25
350.72	400.25
350.947	394.25
351.174	397.25
351.402	414.25
351.629	401.25
351.856	406.25
352.083	406.25
352.311	390.25
352.538	404.25
352.765	420.25
352.992	403.25
353.22	400.25
353.447	384.25
353.674	383.25
353.901	374.25
354.128	387.25
354.355	376.25
354.583	394.25
354.81	374.25
355.037	397.25
355.264	376.25
355.491	389.25
355.718	377.25
355.945	375.25
356.172	378.25
356.399	385.25
356.626	375.25
356.853	384.25
357.08	388.25
357.307	397.25
357.534	394.25
357.761	357.25
357.988	372.25
358.215	376.25
358.441	385.25
358.668	381.25
358.895	378.25
359.122	398.25
359.349	381.25
359.576	383.25
359.802	410.25
360.029	415.25
360.256	428.25
360.483	414.25
360.709	403.25
360.936	382.25
361.163	381.25
361.39	386.25
361.616	365.25
361.843	392.25
362.07	378.25
362.296	416.25
362.523	387.25
362.749	390.25
362.976	366.25
363.203	379.25
363.429	394.25
363.656	389.25
363.882	377.25
364.109	366.25
364.335	376.25
364.562	364.25
364.788	363.25
365.015	404.25
365.241	392.25
365.468	370.25
365.694	379.25
365.92	384.25
366.147	367.25
366.373	370.25
366.599	360.25
366.826	381.25
367.052	392.25
367.278	372.25
367.505	392.25
367.731	380.25
367.957	367.25
368.184	388.25
368.41	392.25
368.636	390.25
368.862	373.25
369.089	384.25
369.315	383.25
369.541	376.25
369.767	375.25
369.993	382.25
370.219	383.25
370.445	387.25
370.672	361.25
370.898	380.25
371.124	382.25
371.35	379.25
371.576	387.25
371.802	378.25
372.028	386.25
372.254	380.25
372.48	405.25
372.706	387.25
372.932	395.25
373.158	390.25
373.384	395.25
373.61	354.25
373.835	378.25
374.061	395.25
374.287	411.25
374.513	377.25
374.739	394.25
374.965	380.25
375.191	393.25
375.416	387.25
375.642	374.25
375.868	414.25
376.094	397.25
376.319	382.25
376.545	385.25
376.771	361.25
376.997	370.25
377.222	382.25
377.448	371.25
377.674	372.25
377.899	372.25
378.125	367.25
378.35	378.25
378.576	387.25
378.802	384.25
379.027	382.25
379.253	367.25
379.478	376.25
379.704	390.25
379.929	377.25
380.155	364.25
380.38	382.25
380.606	396.25
380.831	355.25
381.057	376.25
381.282	378.25
381.507	370.25
381.733	381.25
381.958	380.25
382.184	375.25
382.409	378.25
382.634	403.25
382.86	382.25
383.085	386.25
383.31	399.25
383.535	404.25
383.761	404.25
383.986	413.25
384.211	401.25
384.436	407.25
384.662	398.25
384.887	402.25
385.112	418.25
385.337	386.25
385.562	404.25
385.787	416.25
386.013	424.25
386.238	420.25
386.463	421.25
386.688	411.25
386.913	409.25
387.138	413.25
387.363	402.25
387.588	391.25
387.813	408.25
388.038	403.25
388.263	439.25
388.488	426.25
388.713	426.25
388.938	411.25
389.163	420.25
389.387	420.25
389.612	414.25
389.837	414.25
390.062	413.25
390.287	424.25
390.512	407.25
390.736	405.25
390.961	409.25
391.186	407.25
391.411	410.25
391.636	435.25
391.86	436.25
392.085	418.25
392.31	438.25
392.534	424.25
392.759	417.25
392.984	423.25
393.208	428.25
393.433	416.25
393.658	434.25
393.882	426.25
394.107	428.25
394.331	411.25
394.556	422.25
394.78	426.25
395.005	411.25
395.229	431.25
395.454	439.25
395.678	428.25
395.903	446.25
396.127	439.25
396.352	455.25
396.576	437.25
396.801	449.25
397.025	442.25
397.249	427.25
397.474	427.25
397.698	432.25
397.922	442.25
398.147	449.25
398.371	469.25
398.595	462.25
398.82	464.25
399.044	462.25
399.268	501.25
399.492	538.25
399.717	563.25
399.941	585.25
400.165	580.25
400.389	587.25
400.613	546.25
400.837	520.25
401.062	495.25
401.286	480.25
401.51	484.25
401.734	467.25
401.958	467.25
402.182	466.25
402.406	478.25
402.63	466.25
402.854	478.25
403.078	459.25
403.302	482.25
403.526	502.25
403.75	489.25
403.974	501.25
404.198	488.25
404.422	481.25
404.645	502.25
404.869	510.25
405.093	517.25
405.317	547.25
405.541	541.25
405.765	531.25
405.988	504.25
406.212	546.25
406.436	519.25
406.66	523.25
406.883	524.25
407.107	542.25
407.331	568.25
407.555	617.25
407.778	609.25
408.002	571.25
408.226	553.25
408.449	525.25
408.673	534.25
408.896	550.25
409.12	595.25
409.344	532.25
409.567	486.25
409.791	508.25
410.014	474.25
410.238	483.25
410.461	490.25
410.685	503.25
410.908	514.25
411.132	526.25
411.355	560.25
411.578	516.25
411.802	498.25
412.025	496.25
412.249	482.25
412.472	498.25
412.695	526.25
412.919	512.25
413.142	476.25
413.365	482.25
413.589	462.25
413.812	461.25
414.035	464.25
414.258	484.25
414.482	463.25
414.705	467.25
414.928	462.25
415.151	450.25
415.374	443.25
415.597	463.25
415.821	457.25
416.044	453.25
416.267	455.25
416.49	446.25
416.713	445.25
416.936	436.25
417.159	461.25
417.382	487.25
417.605	474.25
417.828	469.25
418.051	478.25
418.274	465.25
418.497	457.25
418.72	472.25
418.943	454.25
419.166	462.25
419.389	477.25
419.611	484.25
419.834	496.25
420.057	468.25
420.28	460.25
420.503	465.25
420.726	488.25
420.948	468.25
421.171	514.25
421.394	528.25
421.617	503.25
421.839	464.25
422.062	450.25
422.285	466.25
422.507	502.25
422.73	578.25
422.953	539.25
423.175	500.25
423.398	469.25
423.621	481.25
423.843	478.25
424.066	484.25
424.288	517.25
424.511	524.25
424.733	528.25
424.956	596.25
425.178	572.25
425.401	571.25
425.623	595.25
425.846	529.25
426.068	490.25
426.291	466.25
426.513	478.25
426.735	497.25
426.958	523.25
427.18	579.25
427.402	684.25
427.625	732.25
427.847	628.25
428.069	547.25
428.292	512.25
428.514	467.25
428.736	477.25
428.958	477.25
429.181	439.25
429.403	438.25
429.625	442.25
429.847	477.25
430.069	520.25
430.292	518.25
430.514	450.25
430.736	451.25
430.958	449.25
431.18	448.25
431.402	445.25
431.624	445.25
431.846	420.25
432.068	428.25
432.29	434.25
432.512	444.25
432.734	441.25
432.956	424.25
433.178	445.25
433.4	436.25
433.622	441.25
433.844	431.25
434.066	450.25
434.287	442.25
434.509	429.25
434.731	448.25
434.953	447.25
435.175	456.25
435.397	478.25
435.618	474.25
435.84	522.25
436.062	572.25
436.284	628.25
436.505	518.25
436.727	491.25
436.949	460.25
437.17	445.25
437.392	453.25
437.614	444.25
437.835	466.25
438.057	507.25
438.278	593.25
438.5	606.25
438.721	647.25
438.943	620.25
439.165	506.25
439.386	469.25
439.608	472.25
439.829	483.25
440.05	500.25
440.272	525.25
440.493	501.25
440.715	472.25
440.936	441.25
441.158	457.25
441.379	444.25
441.6	463.25
441.822	488.25
442.043	509.25
442.264	550.25
442.486	581.25
442.707	512.25
442.928	502.25
443.149	474.25
443.371	494.25
443.592	534.25
443.813	604.25
444.034	637.25
444.255	576.25
444.476	514.25
444.698	499.25
444.919	505.25
445.14	584.25
445.361	534.25
445.582	527.25
445.803	546.25
446.024	629.25
446.245	628.25
446.466	580.25
446.687	487.25
446.908	453.25
447.129	438.25
447.35	441.25
447.571	451.25
447.792	446.25
448.013	415.25
448.234	440.25
448.455	498.25
448.675	557.25
448.896	650.25
449.117	548.25
449.338	538.25
449.559	614.25
449.779	687.25
450	542.25
450.221	463.25
450.442	452.25
450.662	425.25
450.883	410.25
451.104	435.25
451.324	442.25
451.545	400.25
451.766	419.25
451.986	396.25
452.207	406.25
452.428	398.25
452.648	409.25
452.869	397.25
453.089	406.25
453.31	401.25
453.53	398.25
453.751	385.25
453.971	389.25
454.192	383.25
454.412	389.25
454.633	384.25
454.853	382.25
455.073	393.25
455.294	424.25
455.514	453.25
455.734	447.25
455.955	388.25
456.175	396.25
456.395	387.25
456.616	389.25
456.836	364.25
457.056	376.25
457.276	392.25
457.497	385.25
457.717	390.25
457.937	381.25
458.157	394.25
458.377	388.25
458.598	403.25
458.818	431.25
459.038	490.25
459.258	528.25
459.478	451.25
459.698	420.25
459.918	434.25
460.138	430.25
460.358	451.25
460.578	450.25
460.798	431.25
461.018	444.25
461.238	442.25
461.458	436.25
461.678	441.25
461.898	451.25
462.118	444.25
462.338	444.25
462.558	470.25
462.777	450.25
462.997	480.25
463.217	510.25
463.437	508.25
463.657	489.25
463.876	476.25
464.096	489.25
464.316	477.25
464.536	461.25
464.755	485.25
464.975	464.25
465.195	469.25
465.414	492.25
465.634	453.25
465.854	442.25
466.073	413.25
466.293	408.25
466.512	416.25
466.732	407.25
466.951	418.25
467.171	388.25
467.391	383.25
467.61	424.25
467.829	421.25
468.049	401.25
468.268	420.25
468.488	397.25
468.707	391.25
468.927	405.25
469.146	385.25
469.365	408.25
469.585	386.25
469.804	419.25
470.023	412.25
470.243	407.25
470.462	413.25
470.681	426.25
470.901	407.25
471.12	412.25
471.339	396.25
471.558	418.25
471.777	418.25
471.997	408.25
472.216	391.25
472.435	430.25
472.654	410.25
472.873	398.25
473.092	408.25
473.311	410.25
473.53	394.25
473.749	398.25
473.968	446.25
474.187	504.25
474.406	514.25
474.625	446.25
474.844	407.25
475.063	423.25
475.282	391.25
475.501	419.25
475.72	434.25
475.939	394.25
476.158	421.25
476.377	414.25
476.596	410.25
476.814	427.25
477.033	438.25
477.252	456.25
477.471	437.25
477.69	440.25
477.908	447.25
478.127	469.25
478.346	457.25
478.564	453.25
478.783	469.25
479.002	473.25
479.22	476.25
479.439	471.25
479.658	487.25
479.876	492.25
480.095	501.25
480.313	499.25
480.532	516.25
480.751	492.25
480.969	497.25
481.188	519.25
481.406	519.25
481.624	491.25
481.843	478.25
482.061	493.25
482.28	481.25
482.498	454.25
482.717	461.25
482.935	468.25
483.153	493.25
483.372	473.25
483.59	460.25
483.808	454.25
484.027	483.25
484.245	490.25
484.463	477.25
484.681	467.25
484.9	495.25
485.118	462.25
485.336	483.25
485.554	487.25
485.772	487.25
485.99	476.25
486.209	488.25
486.427	513.25
486.645	491.25
486.863	475.25
487.081	508.25
487.299	490.25
487.517	498.25
487.735	480.25
487.953	500.25
488.171	488.25
488.389	502.25
488.607	494.25
488.825	502.25
489.043	489.25
489.261	508.25
489.479	486.25
489.696	493.25
489.914	511.25
490.132	508.25
490.35	514.25
490.568	514.25
490.786	547.25
491.003	525.25
491.221	550.25
491.439	520.25
491.657	562.25
491.874	550.25
492.092	554.25
492.31	557.25
492.527	573.25
492.745	571.25
492.963	566.25
493.18	559.25
493.398	565.25
493.615	570.25
493.833	580.25
494.05	555.25
494.268	584.25
494.485	593.25
494.703	580.25
494.92	549.25
495.138	574.25
495.355	549.25
495.573	570.25
495.79	583.25
496.008	574.25
496.225	589.25
496.442	572.25
496.66	567.25
496.877	570.25
497.094	607.25
497.312	598.25
497.529	612.25
497.746	600.25
497.963	629.25
498.181	664.25
498.398	657.25
498.615	684.25
498.832	690.25
499.049	710.25
499.267	734.25
499.484	768.25
499.701	821.25
499.918	820.25
500.135	846.25
500.352	915.25
500.569	944.25
500.786	957.25
501.003	932.25
501.22	871.25
501.437	836.25
501.654	794.25
501.871	773.25
502.088	762.25
