Data from 1977.PennyLincolnUp.Lamp.En5.5.200Scan.071719.P1_HRD10591_16-05-09-863.txt Node
Date: Thu Jul 18 16:05:09 EDT 2019
User: cochatt
Spectrometer: HR+D1059
Trigger mode: 1
Integration Time (sec): 1.000000E-1
Scans to average: 1
Electric dark correction enabled: true
Nonlinearity correction enabled: false
Boxcar width: 0
XAxis mode: Wavelengths
Number of Pixels in Spectrum: 2048
>>>>>Begin Spectral Data<<<<<
223.165	-22.69
223.4	-22.69
223.635	-22.69
223.869	-10.69
224.104	-14.69
224.338	-17.69
224.573	-12.69
224.808	-13.69
225.042	3.31
225.277	-4.69
225.511	-15.69
225.746	5.31
225.98	3.31
226.215	12.31
226.449	21.31
226.683	13.31
226.918	26.31
227.152	27.31
227.387	44.31
227.621	29.31
227.856	51.31
228.09	42.31
228.324	55.31
228.559	57.31
228.793	53.31
229.027	94.31
229.262	114.31
229.496	107.31
229.73	108.31
229.964	114.31
230.199	119.31
230.433	93.31
230.667	102.31
230.901	116.31
231.136	103.31
231.37	111.31
231.604	127.31
231.838	104.31
232.072	119.31
232.306	97.31
232.541	115.31
232.775	107.31
233.009	114.31
233.243	120.31
233.477	96.31
233.711	104.31
233.945	120.31
234.179	102.31
234.413	100.31
234.647	108.31
234.881	130.31
235.115	118.31
235.349	101.31
235.583	111.31
235.817	114.31
236.051	120.31
236.285	115.31
236.519	114.31
236.753	125.31
236.987	126.31
237.221	147.31
237.455	174.31
237.689	148.31
237.922	121.31
238.156	128.31
238.39	116.31
238.624	108.31
238.858	104.31
239.091	119.31
239.325	90.31
239.559	108.31
239.793	113.31
240.027	128.31
240.26	134.31
240.494	130.31
240.728	125.31
240.961	131.31
241.195	131.31
241.429	132.31
241.662	131.31
241.896	125.31
242.13	125.31
242.363	130.31
242.597	124.31
242.83	129.31
243.064	117.31
243.298	129.31
243.531	124.31
243.765	129.31
243.998	119.31
244.232	143.31
244.465	147.31
244.699	131.31
244.932	130.31
245.166	134.31
245.399	125.31
245.633	137.31
245.866	140.31
246.099	130.31
246.333	125.31
246.566	133.31
246.8	137.31
247.033	153.31
247.266	129.31
247.5	155.31
247.733	161.31
247.966	152.31
248.2	169.31
248.433	167.31
248.666	156.31
248.899	147.31
249.133	170.31
249.366	183.31
249.599	179.31
249.832	157.31
250.066	155.31
250.299	162.31
250.532	167.31
250.765	180.31
250.998	182.31
251.231	173.31
251.465	177.31
251.698	163.31
251.931	158.31
252.164	194.31
252.397	165.31
252.63	184.31
252.863	188.31
253.096	189.31
253.329	194.31
253.562	193.31
253.795	168.31
254.028	198.31
254.261	187.31
254.494	214.31
254.727	223.31
254.96	215.31
255.193	210.31
255.426	206.31
255.659	200.31
255.892	194.31
256.124	193.31
256.357	202.31
256.59	190.31
256.823	175.31
257.056	191.31
257.289	198.31
257.521	202.31
257.754	191.31
257.987	185.31
258.22	188.31
258.452	181.31
258.685	187.31
258.918	183.31
259.151	193.31
259.383	187.31
259.616	191.31
259.849	205.31
260.081	210.31
260.314	214.31
260.547	212.31
260.779	194.31
261.012	219.31
261.244	205.31
261.477	211.31
261.71	209.31
261.942	201.31
262.175	202.31
262.407	188.31
262.64	212.31
262.872	194.31
263.105	185.31
263.337	211.31
263.57	200.31
263.802	199.31
264.035	196.31
264.267	195.31
264.499	194.31
264.732	204.31
264.964	203.31
265.197	197.31
265.429	202.31
265.661	196.31
265.894	211.31
266.126	209.31
266.358	217.31
266.591	207.31
266.823	217.31
267.055	222.31
267.287	222.31
267.52	206.31
267.752	211.31
267.984	220.31
268.216	205.31
268.448	226.31
268.681	223.31
268.913	227.31
269.145	230.31
269.377	222.31
269.609	246.31
269.841	221.31
270.073	228.31
270.306	253.31
270.538	259.31
270.77	247.31
271.002	250.31
271.234	254.31
271.466	255.31
271.698	252.31
271.93	263.31
272.162	286.31
272.394	259.31
272.626	260.31
272.858	276.31
273.09	248.31
273.322	255.31
273.553	234.31
273.785	234.31
274.017	249.31
274.249	242.31
274.481	241.31
274.713	258.31
274.945	259.31
275.176	252.31
275.408	250.31
275.64	239.31
275.872	249.31
276.104	250.31
276.335	247.31
276.567	264.31
276.799	259.31
277.031	265.31
277.262	282.31
277.494	271.31
277.726	274.31
277.957	246.31
278.189	263.31
278.421	253.31
278.652	277.31
278.884	261.31
279.115	242.31
279.347	246.31
279.579	275.31
279.81	245.31
280.042	245.31
280.273	274.31
280.505	270.31
280.736	249.31
280.968	247.31
281.199	277.31
281.431	267.31
281.662	251.31
281.894	262.31
282.125	266.31
282.356	268.31
282.588	273.31
282.819	289.31
283.051	262.31
283.282	256.31
283.513	283.31
283.745	254.31
283.976	273.31
284.207	282.31
284.439	274.31
284.67	254.31
284.901	248.31
285.132	268.31
285.364	263.31
285.595	291.31
285.826	282.31
286.057	299.31
286.288	266.31
286.52	286.31
286.751	272.31
286.982	278.31
287.213	279.31
287.444	282.31
287.675	274.31
287.906	269.31
288.138	289.31
288.369	271.31
288.6	289.31
288.831	301.31
289.062	282.31
289.293	263.31
289.524	260.31
289.755	270.31
289.986	264.31
290.217	270.31
290.448	270.31
290.679	282.31
290.91	292.31
291.141	261.31
291.371	280.31
291.602	299.31
291.833	291.31
292.064	292.31
292.295	284.31
292.526	290.31
292.757	289.31
292.987	269.31
293.218	277.31
293.449	287.31
293.68	269.31
293.91	293.31
294.141	270.31
294.372	285.31
294.603	291.31
294.833	277.31
295.064	287.31
295.295	278.31
295.525	272.31
295.756	298.31
295.987	294.31
296.217	316.31
296.448	289.31
296.679	296.31
296.909	287.31
297.14	276.31
297.37	303.31
297.601	280.31
297.831	289.31
298.062	289.31
298.292	302.31
298.523	305.31
298.753	305.31
298.984	310.31
299.214	302.31
299.445	291.31
299.675	310.31
299.905	302.31
300.136	302.31
300.366	306.31
300.597	295.31
300.827	301.31
301.057	328.31
301.288	309.31
301.518	318.31
301.748	316.31
301.979	300.31
302.209	318.31
302.439	331.31
302.669	319.31
302.9	315.31
303.13	313.31
303.36	312.31
303.59	297.31
303.82	322.31
304.051	338.31
304.281	320.31
304.511	318.31
304.741	323.31
304.971	321.31
305.201	305.31
305.431	320.31
305.661	311.31
305.891	316.31
306.121	296.31
306.352	308.31
306.582	309.31
306.812	311.31
307.042	334.31
307.272	323.31
307.502	316.31
307.731	314.31
307.961	313.31
308.191	314.31
308.421	327.31
308.651	345.31
308.881	333.31
309.111	323.31
309.341	317.31
309.571	307.31
309.8	325.31
310.03	327.31
310.26	331.31
310.49	341.31
310.72	318.31
310.949	341.31
311.179	337.31
311.409	332.31
311.639	331.31
311.868	344.31
312.098	345.31
312.328	343.31
312.557	357.31
312.787	348.31
313.017	350.31
313.246	347.31
313.476	348.31
313.706	351.31
313.935	358.31
314.165	349.31
314.394	355.31
314.624	339.31
314.853	355.31
315.083	344.31
315.312	348.31
315.542	345.31
315.771	339.31
316.001	361.31
316.23	347.31
316.46	340.31
316.689	363.31
316.919	331.31
317.148	362.31
317.377	353.31
317.607	336.31
317.836	348.31
318.065	333.31
318.295	338.31
318.524	350.31
318.753	349.31
318.983	345.31
319.212	365.31
319.441	352.31
319.67	371.31
319.9	353.31
320.129	349.31
320.358	362.31
320.587	348.31
320.816	365.31
321.046	361.31
321.275	379.31
321.504	346.31
321.733	365.31
321.962	371.31
322.191	371.31
322.42	376.31
322.649	382.31
322.878	396.31
323.108	382.31
323.337	393.31
323.566	402.31
323.795	421.31
324.024	443.31
324.253	501.31
324.482	637.31
324.71	926.31
324.939	1254.31
325.168	1066.31
325.397	601.31
325.626	470.31
325.855	429.31
326.084	425.31
326.313	395.31
326.542	398.31
326.77	436.31
326.999	507.31
327.228	602.31
327.457	853.31
327.686	950.31
327.914	643.31
328.143	479.31
328.372	466.31
328.6	434.31
328.829	428.31
329.058	446.31
329.287	428.31
329.515	413.31
329.744	422.31
329.972	421.31
330.201	431.31
330.43	437.31
330.658	446.31
330.887	457.31
331.115	439.31
331.344	440.31
331.572	382.31
331.801	418.31
332.03	402.31
332.258	414.31
332.486	437.31
332.715	399.31
332.943	389.31
333.172	434.31
333.4	443.31
333.629	428.31
333.857	449.31
334.085	428.31
334.314	441.31
334.542	458.31
334.771	442.31
334.999	451.31
335.227	421.31
335.455	434.31
335.684	428.31
335.912	417.31
336.14	419.31
336.369	409.31
336.597	420.31
336.825	425.31
337.053	413.31
337.281	410.31
337.51	406.31
337.738	416.31
337.966	393.31
338.194	412.31
338.422	393.31
338.65	390.31
338.878	407.31
339.106	394.31
339.334	399.31
339.562	406.31
339.79	393.31
340.018	405.31
340.246	412.31
340.474	402.31
340.702	404.31
340.93	389.31
341.158	406.31
341.386	396.31
341.614	402.31
341.842	396.31
342.07	396.31
342.298	377.31
342.526	387.31
342.754	405.31
342.981	374.31
343.209	400.31
343.437	396.31
343.665	388.31
343.893	405.31
344.12	414.31
344.348	412.31
344.576	410.31
344.804	417.31
345.031	405.31
345.259	379.31
345.487	405.31
345.714	393.31
345.942	407.31
346.17	378.31
346.397	375.31
346.625	397.31
346.853	392.31
347.08	395.31
347.308	390.31
347.535	362.31
347.763	366.31
347.99	381.31
348.218	365.31
348.445	376.31
348.673	372.31
348.9	373.31
349.128	366.31
349.355	360.31
349.583	385.31
349.81	375.31
350.037	370.31
350.265	366.31
350.492	383.31
350.72	369.31
350.947	360.31
351.174	360.31
351.402	366.31
351.629	365.31
351.856	371.31
352.083	370.31
352.311	372.31
352.538	392.31
352.765	379.31
352.992	371.31
353.22	341.31
353.447	348.31
353.674	372.31
353.901	353.31
354.128	347.31
354.355	357.31
354.583	352.31
354.81	346.31
355.037	365.31
355.264	354.31
355.491	350.31
355.718	353.31
355.945	362.31
356.172	351.31
356.399	379.31
356.626	363.31
356.853	358.31
357.08	350.31
357.307	359.31
357.534	337.31
357.761	353.31
357.988	340.31
358.215	349.31
358.441	365.31
358.668	356.31
358.895	359.31
359.122	358.31
359.349	374.31
359.576	360.31
359.802	369.31
360.029	383.31
360.256	371.31
360.483	376.31
360.709	368.31
360.936	373.31
361.163	363.31
361.39	356.31
361.616	371.31
361.843	371.31
362.07	375.31
362.296	371.31
362.523	354.31
362.749	341.31
362.976	363.31
363.203	341.31
363.429	365.31
363.656	365.31
363.882	347.31
364.109	362.31
364.335	358.31
364.562	344.31
364.788	343.31
365.015	360.31
365.241	340.31
365.468	350.31
365.694	357.31
365.92	350.31
366.147	364.31
366.373	346.31
366.599	358.31
366.826	367.31
367.052	356.31
367.278	351.31
367.505	349.31
367.731	347.31
367.957	349.31
368.184	373.31
368.41	353.31
368.636	350.31
368.862	360.31
369.089	348.31
369.315	354.31
369.541	373.31
369.767	341.31
369.993	343.31
370.219	352.31
370.445	349.31
370.672	333.31
370.898	347.31
371.124	344.31
371.35	357.31
371.576	349.31
371.802	356.31
372.028	352.31
372.254	361.31
372.48	354.31
372.706	351.31
372.932	365.31
373.158	371.31
373.384	367.31
373.61	362.31
373.835	365.31
374.061	348.31
374.287	362.31
374.513	350.31
374.739	396.31
374.965	369.31
375.191	359.31
375.416	380.31
375.642	349.31
375.868	360.31
376.094	386.31
376.319	357.31
376.545	359.31
376.771	339.31
376.997	367.31
377.222	369.31
377.448	343.31
377.674	357.31
377.899	359.31
378.125	348.31
378.35	363.31
378.576	351.31
378.802	347.31
379.027	373.31
379.253	361.31
379.478	355.31
379.704	343.31
379.929	354.31
380.155	339.31
380.38	355.31
380.606	358.31
380.831	361.31
381.057	373.31
381.282	381.31
381.507	356.31
381.733	360.31
381.958	328.31
382.184	356.31
382.409	378.31
382.634	343.31
382.86	367.31
383.085	381.31
383.31	373.31
383.535	358.31
383.761	379.31
383.986	379.31
384.211	363.31
384.436	373.31
384.662	375.31
384.887	386.31
385.112	367.31
385.337	378.31
385.562	381.31
385.787	366.31
386.013	384.31
386.238	387.31
386.463	371.31
386.688	389.31
386.913	381.31
387.138	380.31
387.363	376.31
387.588	378.31
387.813	396.31
388.038	382.31
388.263	393.31
388.488	390.31
388.713	395.31
388.938	393.31
389.163	380.31
389.387	387.31
389.612	389.31
389.837	386.31
390.062	377.31
390.287	402.31
390.512	381.31
390.736	388.31
390.961	369.31
391.186	383.31
391.411	405.31
391.636	422.31
391.86	390.31
392.085	418.31
392.31	423.31
392.534	395.31
392.759	397.31
392.984	411.31
393.208	396.31
393.433	402.31
393.658	411.31
393.882	419.31
394.107	396.31
394.331	408.31
394.556	405.31
394.78	398.31
395.005	400.31
395.229	391.31
395.454	421.31
395.678	425.31
395.903	421.31
396.127	430.31
396.352	425.31
396.576	419.31
396.801	407.31
397.025	404.31
397.249	402.31
397.474	419.31
397.698	416.31
397.922	410.31
398.147	418.31
398.371	429.31
398.595	442.31
398.82	451.31
399.044	454.31
399.268	474.31
399.492	516.31
399.717	525.31
399.941	558.31
400.165	542.31
400.389	532.31
400.613	498.31
400.837	469.31
401.062	460.31
401.286	460.31
401.51	450.31
401.734	430.31
401.958	435.31
402.182	433.31
402.406	450.31
402.63	462.31
402.854	447.31
403.078	458.31
403.302	455.31
403.526	471.31
403.75	470.31
403.974	466.31
404.198	460.31
404.422	473.31
404.645	472.31
404.869	459.31
405.093	469.31
405.317	504.31
405.541	511.31
405.765	483.31
405.988	482.31
406.212	459.31
406.436	475.31
406.66	476.31
406.883	488.31
407.107	499.31
407.331	548.31
407.555	569.31
407.778	591.31
408.002	542.31
408.226	510.31
408.449	506.31
408.673	497.31
408.896	499.31
409.12	532.31
409.344	510.31
409.567	486.31
409.791	453.31
410.014	448.31
410.238	445.31
410.461	430.31
410.685	458.31
410.908	463.31
411.132	466.31
411.355	485.31
411.578	502.31
411.802	467.31
412.025	454.31
412.249	450.31
412.472	458.31
412.695	483.31
412.919	480.31
413.142	461.31
413.365	426.31
413.589	455.31
413.812	420.31
414.035	425.31
414.258	445.31
414.482	447.31
414.705	446.31
414.928	412.31
415.151	413.31
415.374	437.31
415.597	437.31
415.821	421.31
416.044	423.31
416.267	429.31
416.49	441.31
416.713	423.31
416.936	414.31
417.159	410.31
417.382	414.31
417.605	429.31
417.828	461.31
418.051	424.31
418.274	433.31
418.497	423.31
418.72	424.31
418.943	418.31
419.166	453.31
419.389	465.31
419.611	464.31
419.834	446.31
420.057	427.31
420.28	459.31
420.503	420.31
420.726	437.31
420.948	437.31
421.171	493.31
421.394	502.31
421.617	450.31
421.839	451.31
422.062	442.31
422.285	441.31
422.507	471.31
422.73	537.31
422.953	499.31
423.175	461.31
423.398	446.31
423.621	431.31
423.843	455.31
424.066	441.31
424.288	460.31
424.511	464.31
424.733	514.31
424.956	555.31
425.178	525.31
425.401	530.31
425.623	531.31
425.846	460.31
426.068	473.31
426.291	449.31
426.513	446.31
426.735	445.31
426.958	457.31
427.18	556.31
427.402	605.31
427.625	689.31
427.847	545.31
428.069	484.31
428.292	456.31
428.514	444.31
428.736	426.31
428.958	425.31
429.181	416.31
429.403	411.31
429.625	418.31
429.847	425.31
430.069	475.31
430.292	482.31
430.514	409.31
430.736	387.31
430.958	399.31
431.18	416.31
431.402	397.31
431.624	403.31
431.846	402.31
432.068	407.31
432.29	416.31
432.512	385.31
432.734	402.31
432.956	395.31
433.178	404.31
433.4	405.31
433.622	419.31
433.844	411.31
434.066	400.31
434.287	411.31
434.509	422.31
434.731	417.31
434.953	406.31
435.175	428.31
435.397	430.31
435.618	442.31
435.84	462.31
436.062	545.31
436.284	583.31
436.505	473.31
436.727	453.31
436.949	422.31
437.17	422.31
437.392	430.31
437.614	413.31
437.835	414.31
438.057	478.31
438.278	560.31
438.5	558.31
438.721	633.31
438.943	609.31
439.165	464.31
439.386	446.31
439.608	442.31
439.829	450.31
440.05	462.31
440.272	459.31
440.493	440.31
440.715	428.31
440.936	412.31
441.158	419.31
441.379	389.31
441.6	424.31
441.822	446.31
442.043	463.31
442.264	518.31
442.486	523.31
442.707	464.31
442.928	451.31
443.149	437.31
443.371	446.31
443.592	489.31
443.813	543.31
444.034	612.31
444.255	513.31
444.476	483.31
444.698	474.31
444.919	467.31
445.14	559.31
445.361	522.31
445.582	471.31
445.803	511.31
446.024	555.31
446.245	535.31
446.466	535.31
446.687	457.31
446.908	433.31
447.129	423.31
447.35	409.31
447.571	405.31
447.792	393.31
448.013	389.31
448.234	408.31
448.455	437.31
448.675	526.31
448.896	572.31
449.117	513.31
449.338	486.31
449.559	589.31
449.779	652.31
450	516.31
450.221	441.31
450.442	429.31
450.662	389.31
450.883	401.31
451.104	402.31
451.324	388.31
451.545	394.31
451.766	371.31
451.986	377.31
452.207	372.31
452.428	376.31
452.648	348.31
452.869	375.31
453.089	383.31
453.31	377.31
453.53	348.31
453.751	346.31
453.971	360.31
454.192	371.31
454.412	367.31
454.633	356.31
454.853	340.31
455.073	381.31
455.294	361.31
455.514	400.31
455.734	391.31
455.955	380.31
456.175	364.31
456.395	353.31
456.616	359.31
456.836	373.31
457.056	336.31
457.276	359.31
457.497	353.31
457.717	338.31
457.937	361.31
458.157	357.31
458.377	355.31
458.598	363.31
458.818	406.31
459.038	441.31
459.258	451.31
459.478	416.31
459.698	405.31
459.918	390.31
460.138	418.31
460.358	413.31
460.578	423.31
460.798	404.31
461.018	429.31
461.238	421.31
461.458	407.31
461.678	413.31
461.898	422.31
462.118	426.31
462.338	444.31
462.558	455.31
462.777	468.31
462.997	481.31
463.217	493.31
463.437	462.31
463.657	459.31
463.876	449.31
464.096	468.31
464.316	439.31
464.536	443.31
464.755	441.31
464.975	427.31
465.195	441.31
465.414	455.31
465.634	440.31
465.854	402.31
466.073	405.31
466.293	400.31
466.512	380.31
466.732	395.31
466.951	391.31
467.171	390.31
467.391	379.31
467.61	374.31
467.829	371.31
468.049	383.31
468.268	385.31
468.488	385.31
468.707	361.31
468.927	376.31
469.146	381.31
469.365	363.31
469.585	370.31
469.804	369.31
470.023	399.31
470.243	389.31
470.462	380.31
470.681	408.31
470.901	392.31
471.12	392.31
471.339	384.31
471.558	387.31
471.777	379.31
471.997	391.31
472.216	397.31
472.435	392.31
472.654	383.31
472.873	366.31
473.092	371.31
473.311	373.31
473.53	376.31
473.749	380.31
473.968	426.31
474.187	462.31
474.406	471.31
474.625	387.31
474.844	381.31
475.063	385.31
475.282	391.31
475.501	387.31
475.72	382.31
475.939	386.31
476.158	383.31
476.377	365.31
476.596	378.31
476.814	402.31
477.033	402.31
477.252	394.31
477.471	385.31
477.69	394.31
477.908	406.31
478.127	398.31
478.346	417.31
478.564	433.31
478.783	429.31
479.002	446.31
479.22	440.31
479.439	459.31
479.658	435.31
479.876	430.31
480.095	455.31
480.313	474.31
480.532	477.31
480.751	463.31
480.969	452.31
481.188	492.31
481.406	498.31
481.624	468.31
481.843	466.31
482.061	440.31
482.28	453.31
482.498	454.31
482.717	427.31
482.935	447.31
483.153	415.31
483.372	439.31
483.59	455.31
483.808	450.31
484.027	452.31
484.245	435.31
484.463	429.31
484.681	432.31
484.9	462.31
485.118	452.31
485.336	454.31
485.554	438.31
485.772	442.31
485.99	453.31
486.209	457.31
486.427	449.31
486.645	445.31
486.863	458.31
487.081	484.31
487.299	447.31
487.517	440.31
487.735	449.31
487.953	461.31
488.171	463.31
488.389	459.31
488.607	474.31
488.825	479.31
489.043	460.31
489.261	472.31
489.479	449.31
489.696	483.31
489.914	447.31
490.132	468.31
490.35	469.31
490.568	471.31
490.786	484.31
491.003	485.31
491.221	485.31
491.439	504.31
491.657	513.31
491.874	503.31
492.092	502.31
492.31	492.31
492.527	485.31
492.745	513.31
492.963	508.31
493.18	501.31
493.398	521.31
493.615	532.31
493.833	540.31
494.05	534.31
494.268	534.31
494.485	534.31
494.703	534.31
494.92	541.31
495.138	503.31
495.355	549.31
495.573	537.31
495.79	522.31
496.008	555.31
496.225	547.31
496.442	538.31
496.66	559.31
496.877	533.31
497.094	544.31
497.312	562.31
497.529	578.31
497.746	563.31
497.963	583.31
498.181	596.31
498.398	590.31
498.615	621.31
498.832	625.31
499.049	641.31
499.267	693.31
499.484	703.31
499.701	742.31
499.918	717.31
500.135	803.31
500.352	856.31
500.569	883.31
500.786	865.31
501.003	846.31
501.22	830.31
501.437	780.31
501.654	765.31
501.871	732.31
502.088	684.31
