Data from 1977.PennyLincolnUp.Lamp.En5.5.200Scan.071719.P1_HRD10591_16-05-17-864.txt Node
Date: Thu Jul 18 16:05:17 EDT 2019
User: cochatt
Spectrometer: HR+D1059
Trigger mode: 1
Integration Time (sec): 1.000000E-1
Scans to average: 1
Electric dark correction enabled: true
Nonlinearity correction enabled: false
Boxcar width: 0
XAxis mode: Wavelengths
Number of Pixels in Spectrum: 2048
>>>>>Begin Spectral Data<<<<<
223.165	-1.56
223.4	-1.56
223.635	-1.56
223.869	-14.56
224.104	-21.56
224.338	-16.56
224.573	-21.56
224.808	-21.56
225.042	-4.56
225.277	2.44
225.511	-7.56
225.746	-1.56
225.98	7.44
226.215	7.44
226.449	23.44
226.683	19.44
226.918	19.44
227.152	31.44
227.387	31.44
227.621	36.44
227.856	35.44
228.09	39.44
228.324	49.44
228.559	58.44
228.793	63.44
229.027	78.44
229.262	90.44
229.496	98.44
229.73	94.44
229.964	127.44
230.199	111.44
230.433	95.44
230.667	106.44
230.901	94.44
231.136	95.44
231.37	107.44
231.604	93.44
231.838	112.44
232.072	97.44
232.306	112.44
232.541	102.44
232.775	106.44
233.009	112.44
233.243	104.44
233.477	114.44
233.711	130.44
233.945	91.44
234.179	102.44
234.413	118.44
234.647	107.44
234.881	114.44
235.115	91.44
235.349	110.44
235.583	118.44
235.817	115.44
236.051	106.44
236.285	122.44
236.519	115.44
236.753	108.44
236.987	137.44
237.221	145.44
237.455	173.44
237.689	157.44
237.922	124.44
238.156	122.44
238.39	105.44
238.624	120.44
238.858	127.44
239.091	120.44
239.325	117.44
239.559	106.44
239.793	114.44
240.027	123.44
240.26	126.44
240.494	120.44
240.728	146.44
240.961	124.44
241.195	136.44
241.429	127.44
241.662	123.44
241.896	128.44
242.13	124.44
242.363	129.44
242.597	122.44
242.83	135.44
243.064	135.44
243.298	117.44
243.531	128.44
243.765	130.44
243.998	126.44
244.232	126.44
244.465	139.44
244.699	136.44
244.932	131.44
245.166	146.44
245.399	134.44
245.633	148.44
245.866	144.44
246.099	132.44
246.333	162.44
246.566	134.44
246.8	146.44
247.033	145.44
247.266	147.44
247.5	153.44
247.733	156.44
247.966	147.44
248.2	140.44
248.433	144.44
248.666	148.44
248.899	158.44
249.133	177.44
249.366	188.44
249.599	170.44
249.832	168.44
250.066	169.44
250.299	169.44
250.532	166.44
250.765	188.44
250.998	202.44
251.231	217.44
251.465	182.44
251.698	189.44
251.931	188.44
252.164	174.44
252.397	180.44
252.63	175.44
252.863	188.44
253.096	188.44
253.329	194.44
253.562	200.44
253.795	197.44
254.028	185.44
254.261	201.44
254.494	193.44
254.727	211.44
254.96	203.44
255.193	222.44
255.426	223.44
255.659	214.44
255.892	200.44
256.124	195.44
256.357	202.44
256.59	193.44
256.823	184.44
257.056	194.44
257.289	202.44
257.521	198.44
257.754	191.44
257.987	199.44
258.22	198.44
258.452	191.44
258.685	186.44
258.918	199.44
259.151	210.44
259.383	204.44
259.616	203.44
259.849	200.44
260.081	211.44
260.314	216.44
260.547	231.44
260.779	218.44
261.012	222.44
261.244	203.44
261.477	210.44
261.71	204.44
261.942	214.44
262.175	212.44
262.407	209.44
262.64	214.44
262.872	202.44
263.105	204.44
263.337	211.44
263.57	208.44
263.802	189.44
264.035	199.44
264.267	197.44
264.499	209.44
264.732	192.44
264.964	216.44
265.197	210.44
265.429	189.44
265.661	215.44
265.894	212.44
266.126	201.44
266.358	218.44
266.591	227.44
266.823	209.44
267.055	228.44
267.287	197.44
267.52	221.44
267.752	223.44
267.984	205.44
268.216	213.44
268.448	227.44
268.681	226.44
268.913	231.44
269.145	231.44
269.377	248.44
269.609	244.44
269.841	232.44
270.073	255.44
270.306	251.44
270.538	272.44
270.77	264.44
271.002	278.44
271.234	281.44
271.466	276.44
271.698	273.44
271.93	291.44
272.162	297.44
272.394	286.44
272.626	281.44
272.858	276.44
273.09	265.44
273.322	258.44
273.553	257.44
273.785	233.44
274.017	255.44
274.249	247.44
274.481	255.44
274.713	268.44
274.945	258.44
275.176	267.44
275.408	264.44
275.64	254.44
275.872	262.44
276.104	266.44
276.335	276.44
276.567	268.44
276.799	265.44
277.031	274.44
277.262	309.44
277.494	289.44
277.726	274.44
277.957	264.44
278.189	255.44
278.421	251.44
278.652	248.44
278.884	258.44
279.115	281.44
279.347	261.44
279.579	278.44
279.81	255.44
280.042	245.44
280.273	275.44
280.505	275.44
280.736	262.44
280.968	260.44
281.199	276.44
281.431	273.44
281.662	279.44
281.894	269.44
282.125	268.44
282.356	279.44
282.588	288.44
282.819	279.44
283.051	264.44
283.282	269.44
283.513	269.44
283.745	271.44
283.976	293.44
284.207	288.44
284.439	290.44
284.67	277.44
284.901	280.44
285.132	286.44
285.364	268.44
285.595	289.44
285.826	274.44
286.057	293.44
286.288	278.44
286.52	272.44
286.751	274.44
286.982	297.44
287.213	280.44
287.444	277.44
287.675	291.44
287.906	298.44
288.138	327.44
288.369	303.44
288.6	290.44
288.831	291.44
289.062	300.44
289.293	271.44
289.524	292.44
289.755	295.44
289.986	281.44
290.217	267.44
290.448	292.44
290.679	289.44
290.91	299.44
291.141	281.44
291.371	299.44
291.602	290.44
291.833	292.44
292.064	291.44
292.295	296.44
292.526	296.44
292.757	269.44
292.987	298.44
293.218	306.44
293.449	296.44
293.68	293.44
293.91	296.44
294.141	307.44
294.372	278.44
294.603	298.44
294.833	315.44
295.064	305.44
295.295	319.44
295.525	288.44
295.756	310.44
295.987	292.44
296.217	320.44
296.448	312.44
296.679	318.44
296.909	310.44
297.14	307.44
297.37	303.44
297.601	326.44
297.831	317.44
298.062	314.44
298.292	319.44
298.523	305.44
298.753	306.44
298.984	312.44
299.214	316.44
299.445	324.44
299.675	319.44
299.905	304.44
300.136	325.44
300.366	320.44
300.597	303.44
300.827	338.44
301.057	337.44
301.288	326.44
301.518	341.44
301.748	333.44
301.979	338.44
302.209	330.44
302.439	345.44
302.669	355.44
302.9	317.44
303.13	331.44
303.36	336.44
303.59	345.44
303.82	315.44
304.051	337.44
304.281	321.44
304.511	316.44
304.741	330.44
304.971	339.44
305.201	341.44
305.431	329.44
305.661	319.44
305.891	343.44
306.121	334.44
306.352	326.44
306.582	349.44
306.812	346.44
307.042	322.44
307.272	318.44
307.502	340.44
307.731	339.44
307.961	331.44
308.191	343.44
308.421	335.44
308.651	339.44
308.881	325.44
309.111	335.44
309.341	345.44
309.571	336.44
309.8	353.44
310.03	374.44
310.26	354.44
310.49	349.44
310.72	349.44
310.949	369.44
311.179	360.44
311.409	361.44
311.639	350.44
311.868	353.44
312.098	369.44
312.328	356.44
312.557	376.44
312.787	370.44
313.017	354.44
313.246	356.44
313.476	374.44
313.706	354.44
313.935	382.44
314.165	359.44
314.394	378.44
314.624	372.44
314.853	370.44
315.083	370.44
315.312	361.44
315.542	373.44
315.771	353.44
316.001	380.44
316.23	359.44
316.46	373.44
316.689	370.44
316.919	378.44
317.148	384.44
317.377	377.44
317.607	380.44
317.836	355.44
318.065	381.44
318.295	360.44
318.524	378.44
318.753	366.44
318.983	375.44
319.212	371.44
319.441	361.44
319.67	361.44
319.9	367.44
320.129	392.44
320.358	367.44
320.587	402.44
320.816	375.44
321.046	368.44
321.275	370.44
321.504	379.44
321.733	374.44
321.962	395.44
322.191	406.44
322.42	394.44
322.649	399.44
322.878	401.44
323.108	414.44
323.337	423.44
323.566	414.44
323.795	449.44
324.024	465.44
324.253	536.44
324.482	712.44
324.71	1037.44
324.939	1386.44
325.168	1192.44
325.397	649.44
325.626	494.44
325.855	456.44
326.084	427.44
326.313	433.44
326.542	430.44
326.77	464.44
326.999	530.44
327.228	669.44
327.457	920.44
327.686	1068.44
327.914	723.44
328.143	538.44
328.372	490.44
328.6	455.44
328.829	460.44
329.058	470.44
329.287	468.44
329.515	449.44
329.744	454.44
329.972	446.44
330.201	447.44
330.43	464.44
330.658	477.44
330.887	494.44
331.115	471.44
331.344	438.44
331.572	437.44
331.801	432.44
332.03	443.44
332.258	447.44
332.486	436.44
332.715	449.44
332.943	440.44
333.172	448.44
333.4	451.44
333.629	451.44
333.857	467.44
334.085	475.44
334.314	476.44
334.542	482.44
334.771	467.44
334.999	452.44
335.227	467.44
335.455	449.44
335.684	479.44
335.912	445.44
336.14	431.44
336.369	440.44
336.597	453.44
336.825	444.44
337.053	427.44
337.281	423.44
337.51	419.44
337.738	444.44
337.966	448.44
338.194	444.44
338.422	415.44
338.65	430.44
338.878	428.44
339.106	420.44
339.334	418.44
339.562	431.44
339.79	404.44
340.018	408.44
340.246	406.44
340.474	403.44
340.702	422.44
340.93	423.44
341.158	409.44
341.386	406.44
341.614	394.44
341.842	411.44
342.07	396.44
342.298	395.44
342.526	412.44
342.754	415.44
342.981	410.44
343.209	421.44
343.437	417.44
343.665	400.44
343.893	441.44
344.12	432.44
344.348	443.44
344.576	414.44
344.804	436.44
345.031	414.44
345.259	428.44
345.487	415.44
345.714	402.44
345.942	387.44
346.17	399.44
346.397	402.44
346.625	385.44
346.853	375.44
347.08	395.44
347.308	385.44
347.535	418.44
347.763	405.44
347.99	390.44
348.218	414.44
348.445	399.44
348.673	393.44
348.9	391.44
349.128	385.44
349.355	394.44
349.583	377.44
349.81	383.44
350.037	376.44
350.265	374.44
350.492	366.44
350.72	395.44
350.947	379.44
351.174	407.44
351.402	383.44
351.629	381.44
351.856	388.44
352.083	382.44
352.311	379.44
352.538	412.44
352.765	397.44
352.992	375.44
353.22	392.44
353.447	370.44
353.674	370.44
353.901	377.44
354.128	349.44
354.355	359.44
354.583	375.44
354.81	369.44
355.037	362.44
355.264	378.44
355.491	378.44
355.718	375.44
355.945	392.44
356.172	365.44
356.399	375.44
356.626	385.44
356.853	353.44
357.08	360.44
357.307	372.44
357.534	359.44
357.761	368.44
357.988	379.44
358.215	374.44
358.441	368.44
358.668	369.44
358.895	366.44
359.122	370.44
359.349	375.44
359.576	374.44
359.802	369.44
360.029	399.44
360.256	401.44
360.483	390.44
360.709	378.44
360.936	382.44
361.163	368.44
361.39	397.44
361.616	408.44
361.843	393.44
362.07	357.44
362.296	374.44
362.523	380.44
362.749	386.44
362.976	368.44
363.203	358.44
363.429	358.44
363.656	383.44
363.882	362.44
364.109	376.44
364.335	380.44
364.562	378.44
364.788	371.44
365.015	359.44
365.241	373.44
365.468	370.44
365.694	357.44
365.92	376.44
366.147	381.44
366.373	390.44
366.599	356.44
366.826	364.44
367.052	386.44
367.278	359.44
367.505	388.44
367.731	377.44
367.957	358.44
368.184	355.44
368.41	376.44
368.636	374.44
368.862	371.44
369.089	367.44
369.315	353.44
369.541	361.44
369.767	387.44
369.993	382.44
370.219	377.44
370.445	380.44
370.672	375.44
370.898	366.44
371.124	370.44
371.35	377.44
371.576	370.44
371.802	379.44
372.028	383.44
372.254	369.44
372.48	383.44
372.706	384.44
372.932	378.44
373.158	376.44
373.384	385.44
373.61	353.44
373.835	374.44
374.061	392.44
374.287	377.44
374.513	390.44
374.739	373.44
374.965	388.44
375.191	373.44
375.416	366.44
375.642	371.44
375.868	386.44
376.094	386.44
376.319	358.44
376.545	360.44
376.771	364.44
376.997	359.44
377.222	377.44
377.448	375.44
377.674	366.44
377.899	374.44
378.125	353.44
378.35	374.44
378.576	355.44
378.802	376.44
379.027	362.44
379.253	368.44
379.478	364.44
379.704	374.44
379.929	345.44
380.155	359.44
380.38	374.44
380.606	367.44
380.831	374.44
381.057	371.44
381.282	378.44
381.507	355.44
381.733	378.44
381.958	368.44
382.184	382.44
382.409	388.44
382.634	397.44
382.86	381.44
383.085	393.44
383.31	388.44
383.535	393.44
383.761	387.44
383.986	393.44
384.211	384.44
384.436	398.44
384.662	402.44
384.887	419.44
385.112	384.44
385.337	395.44
385.562	403.44
385.787	409.44
386.013	426.44
386.238	406.44
386.463	383.44
386.688	396.44
386.913	400.44
387.138	397.44
387.363	414.44
387.588	407.44
387.813	410.44
388.038	393.44
388.263	409.44
388.488	414.44
388.713	418.44
388.938	401.44
389.163	420.44
389.387	378.44
389.612	390.44
389.837	385.44
390.062	387.44
390.287	396.44
390.512	401.44
390.736	384.44
390.961	395.44
391.186	397.44
391.411	410.44
391.636	413.44
391.86	428.44
392.085	433.44
392.31	424.44
392.534	430.44
392.759	412.44
392.984	418.44
393.208	411.44
393.433	416.44
393.658	405.44
393.882	426.44
394.107	406.44
394.331	403.44
394.556	400.44
394.78	418.44
395.005	442.44
395.229	411.44
395.454	421.44
395.678	446.44
395.903	415.44
396.127	452.44
396.352	448.44
396.576	412.44
396.801	427.44
397.025	399.44
397.249	441.44
397.474	429.44
397.698	435.44
397.922	444.44
398.147	440.44
398.371	456.44
398.595	470.44
398.82	459.44
399.044	483.44
399.268	506.44
399.492	535.44
399.717	552.44
399.941	588.44
400.165	581.44
400.389	593.44
400.613	529.44
400.837	482.44
401.062	480.44
401.286	472.44
401.51	457.44
401.734	454.44
401.958	455.44
402.182	479.44
402.406	463.44
402.63	495.44
402.854	452.44
403.078	478.44
403.302	471.44
403.526	487.44
403.75	483.44
403.974	485.44
404.198	462.44
404.422	481.44
404.645	496.44
404.869	472.44
405.093	512.44
405.317	521.44
405.541	555.44
405.765	508.44
405.988	486.44
406.212	502.44
406.436	508.44
406.66	489.44
406.883	504.44
407.107	532.44
407.331	551.44
407.555	613.44
407.778	606.44
408.002	569.44
408.226	538.44
408.449	524.44
408.673	532.44
408.896	522.44
409.12	581.44
409.344	534.44
409.567	500.44
409.791	489.44
410.014	472.44
410.238	456.44
410.461	463.44
410.685	473.44
410.908	472.44
411.132	500.44
411.355	537.44
411.578	515.44
411.802	492.44
412.025	467.44
412.249	478.44
412.472	478.44
412.695	515.44
412.919	504.44
413.142	470.44
413.365	454.44
413.589	430.44
413.812	460.44
414.035	451.44
414.258	463.44
414.482	432.44
414.705	457.44
414.928	458.44
415.151	457.44
415.374	457.44
415.597	457.44
415.821	440.44
416.044	454.44
416.267	444.44
416.49	465.44
416.713	449.44
416.936	446.44
417.159	459.44
417.382	448.44
417.605	443.44
417.828	457.44
418.051	455.44
418.274	441.44
418.497	456.44
418.72	470.44
418.943	453.44
419.166	451.44
419.389	501.44
419.611	487.44
419.834	465.44
420.057	458.44
420.28	475.44
420.503	449.44
420.726	442.44
420.948	469.44
421.171	486.44
421.394	514.44
421.617	493.44
421.839	464.44
422.062	446.44
422.285	476.44
422.507	516.44
422.73	559.44
422.953	539.44
423.175	492.44
423.398	476.44
423.621	478.44
423.843	498.44
424.066	485.44
424.288	507.44
424.511	496.44
424.733	534.44
424.956	598.44
425.178	552.44
425.401	541.44
425.623	580.44
425.846	500.44
426.068	478.44
426.291	461.44
426.513	451.44
426.735	470.44
426.958	494.44
427.18	556.44
427.402	646.44
427.625	706.44
427.847	604.44
428.069	534.44
428.292	491.44
428.514	444.44
428.736	448.44
428.958	450.44
429.181	427.44
429.403	424.44
429.625	434.44
429.847	478.44
430.069	532.44
430.292	516.44
430.514	465.44
430.736	437.44
430.958	421.44
431.18	434.44
431.402	431.44
431.624	409.44
431.846	417.44
432.068	409.44
432.29	407.44
432.512	432.44
432.734	434.44
432.956	426.44
433.178	429.44
433.4	436.44
433.622	416.44
433.844	416.44
434.066	424.44
434.287	433.44
434.509	412.44
434.731	425.44
434.953	440.44
435.175	434.44
435.397	452.44
435.618	459.44
435.84	503.44
436.062	550.44
436.284	608.44
436.505	505.44
436.727	462.44
436.949	433.44
437.17	410.44
437.392	442.44
437.614	454.44
437.835	439.44
438.057	535.44
438.278	582.44
438.5	601.44
438.721	656.44
438.943	634.44
439.165	487.44
439.386	476.44
439.608	470.44
439.829	460.44
440.05	479.44
440.272	514.44
440.493	472.44
440.715	464.44
440.936	444.44
441.158	443.44
441.379	427.44
441.6	450.44
441.822	467.44
442.043	504.44
442.264	553.44
442.486	579.44
442.707	492.44
442.928	474.44
443.149	483.44
443.371	492.44
443.592	534.44
443.813	600.44
444.034	656.44
444.255	534.44
444.476	494.44
444.698	493.44
444.919	476.44
445.14	567.44
445.361	522.44
445.582	483.44
445.803	534.44
446.024	582.44
446.245	599.44
446.466	546.44
446.687	475.44
446.908	482.44
447.129	463.44
447.35	430.44
447.571	441.44
447.792	419.44
448.013	410.44
448.234	419.44
448.455	465.44
448.675	567.44
448.896	618.44
449.117	547.44
449.338	506.44
449.559	590.44
449.779	677.44
450	535.44
450.221	466.44
450.442	428.44
450.662	389.44
450.883	416.44
451.104	432.44
451.324	418.44
451.545	422.44
451.766	392.44
451.986	374.44
452.207	391.44
452.428	368.44
452.648	382.44
452.869	379.44
453.089	380.44
453.31	404.44
453.53	391.44
453.751	382.44
453.971	396.44
454.192	408.44
454.412	369.44
454.633	378.44
454.853	368.44
455.073	363.44
455.294	414.44
455.514	427.44
455.734	430.44
455.955	386.44
456.175	372.44
456.395	361.44
456.616	372.44
456.836	378.44
457.056	374.44
457.276	377.44
457.497	368.44
457.717	368.44
457.937	374.44
458.157	378.44
458.377	370.44
458.598	394.44
458.818	419.44
459.038	476.44
459.258	486.44
459.478	448.44
459.698	410.44
459.918	431.44
460.138	415.44
460.358	418.44
460.578	431.44
460.798	436.44
461.018	435.44
461.238	435.44
461.458	447.44
461.678	446.44
461.898	436.44
462.118	425.44
462.338	451.44
462.558	449.44
462.777	453.44
462.997	479.44
463.217	488.44
463.437	501.44
463.657	471.44
463.876	470.44
464.096	482.44
464.316	472.44
464.536	460.44
464.755	471.44
464.975	470.44
465.195	476.44
465.414	498.44
465.634	442.44
465.854	447.44
466.073	438.44
466.293	407.44
466.512	411.44
466.732	420.44
466.951	384.44
467.171	399.44
467.391	414.44
467.61	407.44
467.829	394.44
468.049	397.44
468.268	416.44
468.488	390.44
468.707	398.44
468.927	402.44
469.146	392.44
469.365	383.44
469.585	387.44
469.804	369.44
470.023	401.44
470.243	402.44
470.462	387.44
470.681	422.44
470.901	398.44
471.12	395.44
471.339	414.44
471.558	391.44
471.777	395.44
471.997	410.44
472.216	405.44
472.435	424.44
472.654	383.44
472.873	396.44
473.092	407.44
473.311	411.44
473.53	405.44
473.749	420.44
473.968	438.44
474.187	484.44
474.406	489.44
474.625	438.44
474.844	418.44
475.063	426.44
475.282	404.44
475.501	408.44
475.72	396.44
475.939	424.44
476.158	410.44
476.377	404.44
476.596	429.44
476.814	430.44
477.033	420.44
477.252	404.44
477.471	419.44
477.69	411.44
477.908	451.44
478.127	462.44
478.346	441.44
478.564	442.44
478.783	467.44
479.002	450.44
479.22	479.44
479.439	472.44
479.658	482.44
479.876	475.44
480.095	464.44
480.313	501.44
480.532	500.44
480.751	497.44
480.969	500.44
481.188	509.44
481.406	516.44
481.624	483.44
481.843	456.44
482.061	480.44
482.28	481.44
482.498	469.44
482.717	449.44
482.935	478.44
483.153	463.44
483.372	438.44
483.59	477.44
483.808	462.44
484.027	462.44
484.245	454.44
484.463	466.44
484.681	479.44
484.9	489.44
485.118	508.44
485.336	460.44
485.554	480.44
485.772	454.44
485.99	481.44
486.209	472.44
486.427	468.44
486.645	495.44
486.863	490.44
487.081	477.44
487.299	481.44
487.517	472.44
487.735	483.44
487.953	489.44
488.171	507.44
488.389	487.44
488.607	474.44
488.825	495.44
489.043	497.44
489.261	489.44
489.479	508.44
489.696	512.44
489.914	517.44
490.132	491.44
490.35	491.44
490.568	502.44
490.786	512.44
491.003	497.44
491.221	528.44
491.439	536.44
491.657	539.44
491.874	518.44
492.092	539.44
492.31	560.44
492.527	528.44
492.745	556.44
492.963	563.44
493.18	530.44
493.398	555.44
493.615	548.44
493.833	567.44
494.05	562.44
494.268	574.44
494.485	567.44
494.703	549.44
494.92	545.44
495.138	552.44
495.355	554.44
495.573	566.44
495.79	548.44
496.008	558.44
496.225	554.44
496.442	561.44
496.66	569.44
496.877	578.44
497.094	570.44
497.312	598.44
497.529	617.44
497.746	609.44
497.963	626.44
498.181	632.44
498.398	625.44
498.615	665.44
498.832	676.44
499.049	678.44
499.267	718.44
499.484	723.44
499.701	775.44
499.918	824.44
500.135	857.44
500.352	896.44
500.569	944.44
500.786	936.44
501.003	896.44
501.22	871.44
501.437	806.44
501.654	790.44
501.871	743.44
502.088	744.44
