Data from 1977.PennyLincolnUp.Lamp.En5.5.200Scan.071719.P1_HRD10591_16-07-32-864.txt Node
Date: Thu Jul 18 16:07:32 EDT 2019
User: cochatt
Spectrometer: HR+D1059
Trigger mode: 1
Integration Time (sec): 1.000000E-1
Scans to average: 1
Electric dark correction enabled: true
Nonlinearity correction enabled: false
Boxcar width: 0
XAxis mode: Wavelengths
Number of Pixels in Spectrum: 2048
>>>>>Begin Spectral Data<<<<<
223.165	-22.44
223.4	-22.44
223.635	-22.44
223.869	-1.44
224.104	-23.44
224.338	-12.44
224.573	-8.44
224.808	-12.44
225.042	-11.44
225.277	2.56
225.511	6.56
225.746	-0.44
225.98	6.56
226.215	-7.44
226.449	11.56
226.683	15.56
226.918	21.56
227.152	35.56
227.387	36.56
227.621	41.56
227.856	44.56
228.09	42.56
228.324	49.56
228.559	49.56
228.793	59.56
229.027	98.56
229.262	105.56
229.496	104.56
229.73	136.56
229.964	158.56
230.199	133.56
230.433	107.56
230.667	113.56
230.901	110.56
231.136	92.56
231.37	124.56
231.604	99.56
231.838	115.56
232.072	115.56
232.306	114.56
232.541	92.56
232.775	110.56
233.009	124.56
233.243	118.56
233.477	135.56
233.711	119.56
233.945	103.56
234.179	123.56
234.413	125.56
234.647	126.56
234.881	116.56
235.115	108.56
235.349	125.56
235.583	124.56
235.817	127.56
236.051	135.56
236.285	132.56
236.519	140.56
236.753	140.56
236.987	137.56
237.221	171.56
237.455	220.56
237.689	172.56
237.922	144.56
238.156	140.56
238.39	130.56
238.624	125.56
238.858	133.56
239.091	133.56
239.325	122.56
239.559	127.56
239.793	120.56
240.027	129.56
240.26	147.56
240.494	160.56
240.728	141.56
240.961	153.56
241.195	143.56
241.429	153.56
241.662	149.56
241.896	141.56
242.13	140.56
242.363	147.56
242.597	149.56
242.83	138.56
243.064	134.56
243.298	134.56
243.531	136.56
243.765	143.56
243.998	134.56
244.232	144.56
244.465	132.56
244.699	159.56
244.932	143.56
245.166	151.56
245.399	152.56
245.633	141.56
245.866	156.56
246.099	141.56
246.333	160.56
246.566	152.56
246.8	151.56
247.033	157.56
247.266	151.56
247.5	159.56
247.733	175.56
247.966	194.56
248.2	181.56
248.433	171.56
248.666	165.56
248.899	197.56
249.133	191.56
249.366	206.56
249.599	197.56
249.832	180.56
250.066	185.56
250.299	189.56
250.532	211.56
250.765	218.56
250.998	218.56
251.231	226.56
251.465	216.56
251.698	198.56
251.931	194.56
252.164	200.56
252.397	211.56
252.63	212.56
252.863	211.56
253.096	225.56
253.329	238.56
253.562	241.56
253.795	209.56
254.028	215.56
254.261	236.56
254.494	218.56
254.727	246.56
254.96	276.56
255.193	261.56
255.426	247.56
255.659	246.56
255.892	236.56
256.124	233.56
256.357	238.56
256.59	223.56
256.823	246.56
257.056	221.56
257.289	218.56
257.521	215.56
257.754	219.56
257.987	219.56
258.22	238.56
258.452	220.56
258.685	216.56
258.918	212.56
259.151	204.56
259.383	228.56
259.616	232.56
259.849	229.56
260.081	242.56
260.314	248.56
260.547	253.56
260.779	261.56
261.012	249.56
261.244	255.56
261.477	229.56
261.71	216.56
261.942	236.56
262.175	235.56
262.407	238.56
262.64	232.56
262.872	236.56
263.105	231.56
263.337	234.56
263.57	218.56
263.802	223.56
264.035	237.56
264.267	230.56
264.499	247.56
264.732	231.56
264.964	220.56
265.197	227.56
265.429	230.56
265.661	232.56
265.894	220.56
266.126	237.56
266.358	229.56
266.591	235.56
266.823	258.56
267.055	261.56
267.287	246.56
267.52	233.56
267.752	257.56
267.984	251.56
268.216	245.56
268.448	252.56
268.681	255.56
268.913	248.56
269.145	279.56
269.377	278.56
269.609	276.56
269.841	280.56
270.073	276.56
270.306	311.56
270.538	330.56
270.77	322.56
271.002	327.56
271.234	323.56
271.466	328.56
271.698	340.56
271.93	336.56
272.162	320.56
272.394	307.56
272.626	324.56
272.858	292.56
273.09	311.56
273.322	311.56
273.553	285.56
273.785	295.56
274.017	293.56
274.249	289.56
274.481	301.56
274.713	285.56
274.945	312.56
275.176	302.56
275.408	286.56
275.64	257.56
275.872	283.56
276.104	301.56
276.335	299.56
276.567	310.56
276.799	323.56
277.031	333.56
277.262	341.56
277.494	365.56
277.726	327.56
277.957	314.56
278.189	315.56
278.421	293.56
278.652	291.56
278.884	306.56
279.115	299.56
279.347	293.56
279.579	290.56
279.81	293.56
280.042	290.56
280.273	292.56
280.505	294.56
280.736	286.56
280.968	293.56
281.199	286.56
281.431	302.56
281.662	290.56
281.894	307.56
282.125	317.56
282.356	316.56
282.588	329.56
282.819	329.56
283.051	319.56
283.282	309.56
283.513	308.56
283.745	298.56
283.976	319.56
284.207	306.56
284.439	323.56
284.67	320.56
284.901	317.56
285.132	297.56
285.364	307.56
285.595	316.56
285.826	327.56
286.057	327.56
286.288	311.56
286.52	308.56
286.751	321.56
286.982	312.56
287.213	310.56
287.444	318.56
287.675	320.56
287.906	321.56
288.138	340.56
288.369	336.56
288.6	343.56
288.831	347.56
289.062	338.56
289.293	324.56
289.524	337.56
289.755	333.56
289.986	362.56
290.217	313.56
290.448	328.56
290.679	314.56
290.91	321.56
291.141	303.56
291.371	318.56
291.602	310.56
291.833	318.56
292.064	312.56
292.295	335.56
292.526	318.56
292.757	339.56
292.987	321.56
293.218	325.56
293.449	325.56
293.68	313.56
293.91	321.56
294.141	333.56
294.372	342.56
294.603	339.56
294.833	337.56
295.064	325.56
295.295	325.56
295.525	334.56
295.756	341.56
295.987	339.56
296.217	340.56
296.448	347.56
296.679	328.56
296.909	312.56
297.14	339.56
297.37	346.56
297.601	358.56
297.831	331.56
298.062	330.56
298.292	322.56
298.523	349.56
298.753	354.56
298.984	351.56
299.214	355.56
299.445	375.56
299.675	334.56
299.905	359.56
300.136	356.56
300.366	344.56
300.597	353.56
300.827	367.56
301.057	381.56
301.288	377.56
301.518	383.56
301.748	374.56
301.979	355.56
302.209	362.56
302.439	375.56
302.669	369.56
302.9	370.56
303.13	375.56
303.36	356.56
303.59	364.56
303.82	362.56
304.051	364.56
304.281	360.56
304.511	376.56
304.741	363.56
304.971	360.56
305.201	358.56
305.431	371.56
305.661	363.56
305.891	365.56
306.121	346.56
306.352	362.56
306.582	355.56
306.812	355.56
307.042	362.56
307.272	360.56
307.502	356.56
307.731	350.56
307.961	338.56
308.191	371.56
308.421	374.56
308.651	382.56
308.881	358.56
309.111	385.56
309.341	368.56
309.571	394.56
309.8	394.56
310.03	402.56
310.26	406.56
310.49	417.56
310.72	407.56
310.949	437.56
311.179	419.56
311.409	382.56
311.639	411.56
311.868	417.56
312.098	404.56
312.328	410.56
312.557	449.56
312.787	433.56
313.017	435.56
313.246	421.56
313.476	436.56
313.706	428.56
313.935	427.56
314.165	423.56
314.394	420.56
314.624	454.56
314.853	408.56
315.083	403.56
315.312	430.56
315.542	395.56
315.771	397.56
316.001	395.56
316.23	415.56
316.46	413.56
316.689	402.56
316.919	419.56
317.148	451.56
317.377	421.56
317.607	433.56
317.836	427.56
318.065	417.56
318.295	407.56
318.524	440.56
318.753	426.56
318.983	409.56
319.212	403.56
319.441	426.56
319.67	424.56
319.9	417.56
320.129	406.56
320.358	425.56
320.587	438.56
320.816	401.56
321.046	421.56
321.275	435.56
321.504	437.56
321.733	433.56
321.962	439.56
322.191	437.56
322.42	473.56
322.649	476.56
322.878	464.56
323.108	488.56
323.337	500.56
323.566	503.56
323.795	543.56
324.024	583.56
324.253	667.56
324.482	962.56
324.71	1393.56
324.939	1965.56
325.168	1690.56
325.397	903.56
325.626	643.56
325.855	563.56
326.084	531.56
326.313	519.56
326.542	519.56
326.77	578.56
326.999	654.56
327.228	893.56
327.457	1276.56
327.686	1485.56
327.914	985.56
328.143	670.56
328.372	620.56
328.6	577.56
328.829	578.56
329.058	574.56
329.287	568.56
329.515	545.56
329.744	549.56
329.972	524.56
330.201	530.56
330.43	585.56
330.658	581.56
330.887	596.56
331.115	586.56
331.344	539.56
331.572	530.56
331.801	523.56
332.03	533.56
332.258	506.56
332.486	499.56
332.715	513.56
332.943	508.56
333.172	512.56
333.4	522.56
333.629	520.56
333.857	533.56
334.085	543.56
334.314	546.56
334.542	540.56
334.771	564.56
334.999	522.56
335.227	507.56
335.455	489.56
335.684	497.56
335.912	491.56
336.14	517.56
336.369	515.56
336.597	487.56
336.825	485.56
337.053	487.56
337.281	486.56
337.51	482.56
337.738	468.56
337.966	478.56
338.194	478.56
338.422	489.56
338.65	464.56
338.878	468.56
339.106	459.56
339.334	474.56
339.562	461.56
339.79	449.56
340.018	451.56
340.246	467.56
340.474	477.56
340.702	454.56
340.93	467.56
341.158	462.56
341.386	451.56
341.614	460.56
341.842	461.56
342.07	442.56
342.298	433.56
342.526	457.56
342.754	440.56
342.981	431.56
343.209	461.56
343.437	446.56
343.665	486.56
343.893	484.56
344.12	508.56
344.348	470.56
344.576	466.56
344.804	462.56
345.031	471.56
345.259	449.56
345.487	474.56
345.714	449.56
345.942	448.56
346.17	429.56
346.397	423.56
346.625	428.56
346.853	432.56
347.08	436.56
347.308	456.56
347.535	436.56
347.763	443.56
347.99	452.56
348.218	429.56
348.445	459.56
348.673	446.56
348.9	417.56
349.128	447.56
349.355	398.56
349.583	430.56
349.81	426.56
350.037	436.56
350.265	416.56
350.492	421.56
350.72	423.56
350.947	398.56
351.174	437.56
351.402	443.56
351.629	439.56
351.856	431.56
352.083	441.56
352.311	441.56
352.538	429.56
352.765	437.56
352.992	417.56
353.22	431.56
353.447	417.56
353.674	433.56
353.901	418.56
354.128	403.56
354.355	407.56
354.583	398.56
354.81	424.56
355.037	414.56
355.264	413.56
355.491	421.56
355.718	398.56
355.945	416.56
356.172	413.56
356.399	409.56
356.626	410.56
356.853	399.56
357.08	410.56
357.307	393.56
357.534	410.56
357.761	408.56
357.988	417.56
358.215	429.56
358.441	393.56
358.668	417.56
358.895	422.56
359.122	430.56
359.349	435.56
359.576	416.56
359.802	434.56
360.029	455.56
360.256	426.56
360.483	429.56
360.709	447.56
360.936	421.56
361.163	420.56
361.39	411.56
361.616	431.56
361.843	427.56
362.07	422.56
362.296	427.56
362.523	419.56
362.749	418.56
362.976	419.56
363.203	403.56
363.429	409.56
363.656	409.56
363.882	398.56
364.109	397.56
364.335	400.56
364.562	405.56
364.788	412.56
365.015	413.56
365.241	407.56
365.468	427.56
365.694	414.56
365.92	408.56
366.147	419.56
366.373	419.56
366.599	412.56
366.826	403.56
367.052	391.56
367.278	407.56
367.505	406.56
367.731	413.56
367.957	410.56
368.184	417.56
368.41	425.56
368.636	419.56
368.862	426.56
369.089	426.56
369.315	402.56
369.541	401.56
369.767	387.56
369.993	399.56
370.219	395.56
370.445	425.56
370.672	413.56
370.898	410.56
371.124	407.56
371.35	402.56
371.576	405.56
371.802	407.56
372.028	413.56
372.254	410.56
372.48	398.56
372.706	402.56
372.932	415.56
373.158	402.56
373.384	407.56
373.61	412.56
373.835	407.56
374.061	414.56
374.287	411.56
374.513	410.56
374.739	420.56
374.965	436.56
375.191	437.56
375.416	433.56
375.642	402.56
375.868	416.56
376.094	380.56
376.319	415.56
376.545	394.56
376.771	406.56
376.997	408.56
377.222	413.56
377.448	402.56
377.674	389.56
377.899	379.56
378.125	406.56
378.35	404.56
378.576	416.56
378.802	405.56
379.027	376.56
379.253	411.56
379.478	389.56
379.704	400.56
379.929	393.56
380.155	376.56
380.38	406.56
380.606	400.56
380.831	421.56
381.057	388.56
381.282	384.56
381.507	405.56
381.733	383.56
381.958	426.56
382.184	406.56
382.409	398.56
382.634	416.56
382.86	414.56
383.085	406.56
383.31	415.56
383.535	419.56
383.761	406.56
383.986	421.56
384.211	402.56
384.436	428.56
384.662	421.56
384.887	436.56
385.112	443.56
385.337	425.56
385.562	441.56
385.787	408.56
386.013	439.56
386.238	428.56
386.463	430.56
386.688	472.56
386.913	459.56
387.138	424.56
387.363	459.56
387.588	449.56
387.813	425.56
388.038	436.56
388.263	439.56
388.488	451.56
388.713	431.56
388.938	457.56
389.163	448.56
389.387	449.56
389.612	408.56
389.837	421.56
390.062	448.56
390.287	443.56
390.512	456.56
390.736	466.56
390.961	446.56
391.186	465.56
391.411	457.56
391.636	431.56
391.86	468.56
392.085	447.56
392.31	445.56
392.534	470.56
392.759	478.56
392.984	452.56
393.208	445.56
393.433	442.56
393.658	457.56
393.882	437.56
394.107	438.56
394.331	423.56
394.556	438.56
394.78	431.56
395.005	453.56
395.229	424.56
395.454	461.56
395.678	455.56
395.903	457.56
396.127	490.56
396.352	475.56
396.576	471.56
396.801	450.56
397.025	464.56
397.249	483.56
397.474	470.56
397.698	472.56
397.922	494.56
398.147	505.56
398.371	483.56
398.595	478.56
398.82	501.56
399.044	495.56
399.268	533.56
399.492	573.56
399.717	615.56
399.941	635.56
400.165	641.56
400.389	647.56
400.613	589.56
400.837	554.56
401.062	507.56
401.286	510.56
401.51	497.56
401.734	515.56
401.958	499.56
402.182	511.56
402.406	532.56
402.63	519.56
402.854	521.56
403.078	521.56
403.302	527.56
403.526	553.56
403.75	534.56
403.974	541.56
404.198	499.56
404.422	521.56
404.645	520.56
404.869	528.56
405.093	563.56
405.317	584.56
405.541	607.56
405.765	570.56
405.988	546.56
406.212	567.56
406.436	539.56
406.66	592.56
406.883	572.56
407.107	571.56
407.331	605.56
407.555	671.56
407.778	662.56
408.002	639.56
408.226	622.56
408.449	588.56
408.673	552.56
408.896	597.56
409.12	640.56
409.344	583.56
409.567	544.56
409.791	536.56
410.014	550.56
410.238	517.56
410.461	521.56
410.685	526.56
410.908	546.56
411.132	566.56
411.355	573.56
411.578	578.56
411.802	516.56
412.025	504.56
412.249	517.56
412.472	552.56
412.695	552.56
412.919	539.56
413.142	515.56
413.365	501.56
413.589	503.56
413.812	509.56
414.035	497.56
414.258	463.56
414.482	503.56
414.705	503.56
414.928	494.56
415.151	505.56
415.374	489.56
415.597	491.56
415.821	469.56
416.044	479.56
416.267	477.56
416.49	487.56
416.713	482.56
416.936	469.56
417.159	472.56
417.382	486.56
417.605	482.56
417.828	473.56
418.051	516.56
418.274	504.56
418.497	485.56
418.72	459.56
418.943	484.56
419.166	493.56
419.389	509.56
419.611	538.56
419.834	506.56
420.057	503.56
420.28	513.56
420.503	488.56
420.726	480.56
420.948	515.56
421.171	544.56
421.394	583.56
421.617	504.56
421.839	489.56
422.062	504.56
422.285	516.56
422.507	559.56
422.73	637.56
422.953	625.56
423.175	537.56
423.398	506.56
423.621	534.56
423.843	546.56
424.066	529.56
424.288	531.56
424.511	550.56
424.733	613.56
424.956	674.56
425.178	643.56
425.401	607.56
425.623	676.56
425.846	561.56
426.068	521.56
426.291	547.56
426.513	528.56
426.735	517.56
426.958	565.56
427.18	647.56
427.402	762.56
427.625	821.56
427.847	711.56
428.069	626.56
428.292	566.56
428.514	517.56
428.736	518.56
428.958	514.56
429.181	499.56
429.403	498.56
429.625	493.56
429.847	531.56
430.069	598.56
430.292	563.56
430.514	525.56
430.736	491.56
430.958	481.56
431.18	463.56
431.402	470.56
431.624	451.56
431.846	453.56
432.068	453.56
432.29	473.56
432.512	467.56
432.734	484.56
432.956	472.56
433.178	465.56
433.4	480.56
433.622	468.56
433.844	474.56
434.066	462.56
434.287	444.56
434.509	451.56
434.731	506.56
434.953	486.56
435.175	493.56
435.397	531.56
435.618	550.56
435.84	598.56
436.062	652.56
436.284	691.56
436.505	575.56
436.727	530.56
436.949	511.56
437.17	481.56
437.392	503.56
437.614	488.56
437.835	526.56
438.057	589.56
438.278	686.56
438.5	679.56
438.721	762.56
438.943	718.56
439.165	580.56
439.386	545.56
439.608	555.56
439.829	512.56
440.05	547.56
440.272	563.56
440.493	548.56
440.715	537.56
440.936	513.56
441.158	480.56
441.379	496.56
441.6	500.56
441.822	490.56
442.043	568.56
442.264	636.56
442.486	671.56
442.707	566.56
442.928	537.56
443.149	544.56
443.371	545.56
443.592	592.56
443.813	664.56
444.034	733.56
444.255	621.56
444.476	562.56
444.698	530.56
444.919	535.56
445.14	652.56
445.361	587.56
445.582	581.56
445.803	626.56
446.024	690.56
446.245	715.56
446.466	648.56
446.687	552.56
446.908	502.56
447.129	493.56
447.35	494.56
447.571	463.56
447.792	455.56
448.013	470.56
448.234	492.56
448.455	533.56
448.675	631.56
448.896	723.56
449.117	617.56
449.338	621.56
449.559	678.56
449.779	759.56
450	632.56
450.221	513.56
450.442	493.56
450.662	477.56
450.883	471.56
451.104	466.56
451.324	455.56
451.545	436.56
451.766	414.56
451.986	436.56
452.207	427.56
452.428	434.56
452.648	423.56
452.869	433.56
453.089	426.56
453.31	451.56
453.53	443.56
453.751	411.56
453.971	422.56
454.192	440.56
454.412	439.56
454.633	443.56
454.853	418.56
455.073	420.56
455.294	454.56
455.514	503.56
455.734	491.56
455.955	431.56
456.175	410.56
456.395	423.56
456.616	424.56
456.836	422.56
457.056	417.56
457.276	378.56
457.497	392.56
457.717	407.56
457.937	418.56
458.157	415.56
458.377	429.56
458.598	455.56
458.818	480.56
459.038	541.56
459.258	556.56
459.478	498.56
459.698	459.56
459.918	475.56
460.138	473.56
460.358	498.56
460.578	457.56
460.798	477.56
461.018	487.56
461.238	483.56
461.458	488.56
461.678	472.56
461.898	458.56
462.118	477.56
462.338	493.56
462.558	495.56
462.777	493.56
462.997	520.56
463.217	517.56
463.437	545.56
463.657	514.56
463.876	501.56
464.096	526.56
464.316	503.56
464.536	501.56
464.755	538.56
464.975	513.56
465.195	543.56
465.414	577.56
465.634	519.56
465.854	488.56
466.073	463.56
466.293	426.56
466.512	448.56
466.732	443.56
466.951	420.56
467.171	408.56
467.391	455.56
467.61	443.56
467.829	447.56
468.049	450.56
468.268	428.56
468.488	433.56
468.707	423.56
468.927	433.56
469.146	433.56
469.365	419.56
469.585	428.56
469.804	435.56
470.023	463.56
470.243	438.56
470.462	450.56
470.681	446.56
470.901	454.56
471.12	443.56
471.339	450.56
471.558	451.56
471.777	434.56
471.997	456.56
472.216	441.56
472.435	449.56
472.654	478.56
472.873	447.56
473.092	441.56
473.311	429.56
473.53	437.56
473.749	430.56
473.968	478.56
474.187	552.56
474.406	586.56
474.625	481.56
474.844	459.56
475.063	434.56
475.282	443.56
475.501	446.56
475.72	453.56
475.939	437.56
476.158	442.56
476.377	467.56
476.596	444.56
476.814	469.56
477.033	446.56
477.252	462.56
477.471	460.56
477.69	470.56
477.908	486.56
478.127	459.56
478.346	496.56
478.564	461.56
478.783	493.56
479.002	491.56
479.22	521.56
479.439	515.56
479.658	517.56
479.876	519.56
480.095	536.56
480.313	557.56
480.532	535.56
480.751	533.56
480.969	531.56
481.188	580.56
481.406	575.56
481.624	564.56
481.843	533.56
482.061	520.56
482.28	531.56
482.498	519.56
482.717	500.56
482.935	511.56
483.153	499.56
483.372	518.56
483.59	520.56
483.808	522.56
484.027	482.56
484.245	485.56
484.463	505.56
484.681	522.56
484.9	509.56
485.118	519.56
485.336	540.56
485.554	515.56
485.772	513.56
485.99	538.56
486.209	521.56
486.427	511.56
486.645	569.56
486.863	545.56
487.081	548.56
487.299	549.56
487.517	539.56
487.735	538.56
487.953	541.56
488.171	524.56
488.389	555.56
488.607	534.56
488.825	519.56
489.043	552.56
489.261	537.56
489.479	559.56
489.696	553.56
489.914	539.56
490.132	582.56
490.35	565.56
490.568	553.56
490.786	553.56
491.003	596.56
491.221	595.56
491.439	622.56
491.657	601.56
491.874	605.56
492.092	600.56
492.31	619.56
492.527	608.56
492.745	604.56
492.963	631.56
493.18	625.56
493.398	633.56
493.615	634.56
493.833	622.56
494.05	633.56
494.268	627.56
494.485	644.56
494.703	618.56
494.92	590.56
495.138	627.56
495.355	620.56
495.573	629.56
495.79	632.56
496.008	623.56
496.225	611.56
496.442	637.56
496.66	639.56
496.877	658.56
497.094	638.56
497.312	622.56
497.529	691.56
497.746	678.56
497.963	679.56
498.181	711.56
498.398	714.56
498.615	724.56
498.832	739.56
499.049	782.56
499.267	758.56
499.484	824.56
499.701	834.56
499.918	864.56
500.135	929.56
500.352	986.56
500.569	975.56
500.786	990.56
501.003	945.56
501.22	945.56
501.437	895.56
501.654	875.56
501.871	834.56
502.088	802.56
