Data from 1977.PennyLincolnUp.Lamp.En5.5.200Scan.071719.P1_HRD10591_16-05-29-863.txt Node
Date: Thu Jul 18 16:05:29 EDT 2019
User: cochatt
Spectrometer: HR+D1059
Trigger mode: 1
Integration Time (sec): 1.000000E-1
Scans to average: 1
Electric dark correction enabled: true
Nonlinearity correction enabled: false
Boxcar width: 0
XAxis mode: Wavelengths
Number of Pixels in Spectrum: 2048
>>>>>Begin Spectral Data<<<<<
223.165	-20.75
223.4	-20.75
223.635	-20.75
223.869	-6.75
224.104	-12.75
224.338	-20.75
224.573	-16.75
224.808	7.25
225.042	-13.75
225.277	-8.75
225.511	-5.75
225.746	5.25
225.98	2.25
226.215	7.25
226.449	13.25
226.683	22.25
226.918	19.25
227.152	29.25
227.387	49.25
227.621	23.25
227.856	33.25
228.09	40.25
228.324	34.25
228.559	53.25
228.793	49.25
229.027	85.25
229.262	88.25
229.496	98.25
229.73	117.25
229.964	123.25
230.199	119.25
230.433	93.25
230.667	104.25
230.901	108.25
231.136	115.25
231.37	125.25
231.604	106.25
231.838	111.25
232.072	103.25
232.306	111.25
232.541	115.25
232.775	119.25
233.009	112.25
233.243	118.25
233.477	103.25
233.711	100.25
233.945	101.25
234.179	117.25
234.413	119.25
234.647	94.25
234.881	119.25
235.115	109.25
235.349	122.25
235.583	104.25
235.817	118.25
236.051	123.25
236.285	121.25
236.519	104.25
236.753	119.25
236.987	133.25
237.221	159.25
237.455	190.25
237.689	148.25
237.922	114.25
238.156	134.25
238.39	112.25
238.624	105.25
238.858	141.25
239.091	113.25
239.325	118.25
239.559	118.25
239.793	117.25
240.027	124.25
240.26	140.25
240.494	123.25
240.728	129.25
240.961	149.25
241.195	143.25
241.429	133.25
241.662	121.25
241.896	130.25
242.13	128.25
242.363	136.25
242.597	127.25
242.83	123.25
243.064	125.25
243.298	134.25
243.531	126.25
243.765	126.25
243.998	129.25
244.232	130.25
244.465	138.25
244.699	135.25
244.932	147.25
245.166	132.25
245.399	141.25
245.633	146.25
245.866	147.25
246.099	144.25
246.333	146.25
246.566	145.25
246.8	147.25
247.033	143.25
247.266	159.25
247.5	142.25
247.733	152.25
247.966	155.25
248.2	149.25
248.433	138.25
248.666	161.25
248.899	167.25
249.133	181.25
249.366	174.25
249.599	159.25
249.832	170.25
250.066	167.25
250.299	161.25
250.532	184.25
250.765	181.25
250.998	197.25
251.231	197.25
251.465	187.25
251.698	198.25
251.931	194.25
252.164	166.25
252.397	182.25
252.63	185.25
252.863	187.25
253.096	197.25
253.329	216.25
253.562	205.25
253.795	195.25
254.028	178.25
254.261	193.25
254.494	208.25
254.727	230.25
254.96	237.25
255.193	241.25
255.426	216.25
255.659	227.25
255.892	198.25
256.124	210.25
256.357	206.25
256.59	198.25
256.823	190.25
257.056	181.25
257.289	207.25
257.521	193.25
257.754	199.25
257.987	194.25
258.22	195.25
258.452	192.25
258.685	194.25
258.918	193.25
259.151	187.25
259.383	212.25
259.616	201.25
259.849	194.25
260.081	218.25
260.314	240.25
260.547	239.25
260.779	214.25
261.012	211.25
261.244	221.25
261.477	227.25
261.71	220.25
261.942	201.25
262.175	221.25
262.407	219.25
262.64	223.25
262.872	226.25
263.105	198.25
263.337	208.25
263.57	194.25
263.802	195.25
264.035	208.25
264.267	198.25
264.499	209.25
264.732	204.25
264.964	201.25
265.197	203.25
265.429	219.25
265.661	208.25
265.894	215.25
266.126	207.25
266.358	220.25
266.591	214.25
266.823	221.25
267.055	217.25
267.287	218.25
267.52	206.25
267.752	214.25
267.984	222.25
268.216	226.25
268.448	217.25
268.681	229.25
268.913	232.25
269.145	241.25
269.377	259.25
269.609	235.25
269.841	254.25
270.073	260.25
270.306	279.25
270.538	261.25
270.77	281.25
271.002	281.25
271.234	264.25
271.466	283.25
271.698	279.25
271.93	277.25
272.162	302.25
272.394	297.25
272.626	264.25
272.858	277.25
273.09	254.25
273.322	271.25
273.553	242.25
273.785	245.25
274.017	259.25
274.249	246.25
274.481	243.25
274.713	248.25
274.945	265.25
275.176	246.25
275.408	270.25
275.64	263.25
275.872	247.25
276.104	279.25
276.335	270.25
276.567	275.25
276.799	276.25
277.031	295.25
277.262	283.25
277.494	305.25
277.726	293.25
277.957	285.25
278.189	274.25
278.421	285.25
278.652	271.25
278.884	273.25
279.115	273.25
279.347	265.25
279.579	262.25
279.81	258.25
280.042	290.25
280.273	272.25
280.505	269.25
280.736	259.25
280.968	263.25
281.199	273.25
281.431	285.25
281.662	271.25
281.894	285.25
282.125	275.25
282.356	276.25
282.588	288.25
282.819	274.25
283.051	285.25
283.282	276.25
283.513	271.25
283.745	288.25
283.976	285.25
284.207	282.25
284.439	290.25
284.67	296.25
284.901	285.25
285.132	287.25
285.364	276.25
285.595	287.25
285.826	286.25
286.057	283.25
286.288	282.25
286.52	273.25
286.751	281.25
286.982	305.25
287.213	279.25
287.444	291.25
287.675	301.25
287.906	304.25
288.138	303.25
288.369	320.25
288.6	301.25
288.831	302.25
289.062	289.25
289.293	314.25
289.524	309.25
289.755	294.25
289.986	274.25
290.217	290.25
290.448	291.25
290.679	279.25
290.91	294.25
291.141	281.25
291.371	304.25
291.602	290.25
291.833	288.25
292.064	276.25
292.295	297.25
292.526	293.25
292.757	278.25
292.987	298.25
293.218	279.25
293.449	316.25
293.68	295.25
293.91	301.25
294.141	293.25
294.372	303.25
294.603	303.25
294.833	297.25
295.064	311.25
295.295	319.25
295.525	307.25
295.756	294.25
295.987	313.25
296.217	310.25
296.448	311.25
296.679	297.25
296.909	304.25
297.14	277.25
297.37	324.25
297.601	293.25
297.831	293.25
298.062	307.25
298.292	309.25
298.523	315.25
298.753	299.25
298.984	309.25
299.214	303.25
299.445	312.25
299.675	310.25
299.905	318.25
300.136	305.25
300.366	308.25
300.597	322.25
300.827	331.25
301.057	319.25
301.288	338.25
301.518	344.25
301.748	343.25
301.979	343.25
302.209	348.25
302.439	333.25
302.669	338.25
302.9	329.25
303.13	323.25
303.36	331.25
303.59	345.25
303.82	332.25
304.051	345.25
304.281	346.25
304.511	337.25
304.741	337.25
304.971	337.25
305.201	346.25
305.431	326.25
305.661	327.25
305.891	345.25
306.121	353.25
306.352	322.25
306.582	327.25
306.812	342.25
307.042	343.25
307.272	351.25
307.502	338.25
307.731	336.25
307.961	335.25
308.191	351.25
308.421	321.25
308.651	317.25
308.881	345.25
309.111	350.25
309.341	346.25
309.571	359.25
309.8	358.25
310.03	367.25
310.26	366.25
310.49	370.25
310.72	375.25
310.949	368.25
311.179	374.25
311.409	361.25
311.639	357.25
311.868	361.25
312.098	376.25
312.328	398.25
312.557	399.25
312.787	392.25
313.017	379.25
313.246	366.25
313.476	365.25
313.706	393.25
313.935	373.25
314.165	373.25
314.394	363.25
314.624	376.25
314.853	377.25
315.083	372.25
315.312	368.25
315.542	371.25
315.771	371.25
316.001	374.25
316.23	378.25
316.46	351.25
316.689	377.25
316.919	371.25
317.148	386.25
317.377	380.25
317.607	376.25
317.836	384.25
318.065	376.25
318.295	354.25
318.524	354.25
318.753	371.25
318.983	375.25
319.212	367.25
319.441	366.25
319.67	377.25
319.9	372.25
320.129	389.25
320.358	402.25
320.587	374.25
320.816	380.25
321.046	375.25
321.275	379.25
321.504	390.25
321.733	387.25
321.962	387.25
322.191	410.25
322.42	386.25
322.649	413.25
322.878	388.25
323.108	403.25
323.337	425.25
323.566	442.25
323.795	447.25
324.024	479.25
324.253	548.25
324.482	715.25
324.71	1057.25
324.939	1451.25
325.168	1233.25
325.397	685.25
325.626	527.25
325.855	471.25
326.084	441.25
326.313	438.25
326.542	431.25
326.77	469.25
326.999	543.25
327.228	697.25
327.457	953.25
327.686	1086.25
327.914	769.25
328.143	554.25
328.372	520.25
328.6	501.25
328.829	491.25
329.058	493.25
329.287	483.25
329.515	461.25
329.744	460.25
329.972	452.25
330.201	449.25
330.43	488.25
330.658	489.25
330.887	481.25
331.115	501.25
331.344	457.25
331.572	461.25
331.801	425.25
332.03	431.25
332.258	449.25
332.486	421.25
332.715	457.25
332.943	455.25
333.172	458.25
333.4	431.25
333.629	459.25
333.857	454.25
334.085	457.25
334.314	467.25
334.542	477.25
334.771	503.25
334.999	473.25
335.227	477.25
335.455	479.25
335.684	456.25
335.912	450.25
336.14	464.25
336.369	435.25
336.597	451.25
336.825	443.25
337.053	456.25
337.281	429.25
337.51	410.25
337.738	436.25
337.966	422.25
338.194	447.25
338.422	429.25
338.65	443.25
338.878	433.25
339.106	417.25
339.334	422.25
339.562	411.25
339.79	407.25
340.018	417.25
340.246	413.25
340.474	408.25
340.702	409.25
340.93	439.25
341.158	438.25
341.386	418.25
341.614	438.25
341.842	438.25
342.07	426.25
342.298	405.25
342.526	442.25
342.754	420.25
342.981	417.25
343.209	421.25
343.437	413.25
343.665	444.25
343.893	430.25
344.12	449.25
344.348	433.25
344.576	435.25
344.804	448.25
345.031	428.25
345.259	417.25
345.487	418.25
345.714	417.25
345.942	393.25
346.17	410.25
346.397	402.25
346.625	396.25
346.853	396.25
347.08	391.25
347.308	400.25
347.535	388.25
347.763	395.25
347.99	403.25
348.218	401.25
348.445	415.25
348.673	410.25
348.9	401.25
349.128	384.25
349.355	371.25
349.583	380.25
349.81	377.25
350.037	381.25
350.265	386.25
350.492	392.25
350.72	382.25
350.947	401.25
351.174	401.25
351.402	400.25
351.629	398.25
351.856	390.25
352.083	377.25
352.311	389.25
352.538	401.25
352.765	387.25
352.992	394.25
353.22	391.25
353.447	376.25
353.674	404.25
353.901	380.25
354.128	384.25
354.355	376.25
354.583	365.25
354.81	365.25
355.037	365.25
355.264	382.25
355.491	386.25
355.718	365.25
355.945	368.25
356.172	403.25
356.399	344.25
356.626	362.25
356.853	377.25
357.08	367.25
357.307	344.25
357.534	374.25
357.761	403.25
357.988	382.25
358.215	385.25
358.441	381.25
358.668	360.25
358.895	381.25
359.122	385.25
359.349	370.25
359.576	367.25
359.802	385.25
360.029	400.25
360.256	387.25
360.483	401.25
360.709	390.25
360.936	375.25
361.163	386.25
361.39	395.25
361.616	393.25
361.843	394.25
362.07	384.25
362.296	394.25
362.523	369.25
362.749	376.25
362.976	389.25
363.203	387.25
363.429	393.25
363.656	406.25
363.882	359.25
364.109	369.25
364.335	374.25
364.562	377.25
364.788	383.25
365.015	382.25
365.241	383.25
365.468	382.25
365.694	377.25
365.92	378.25
366.147	367.25
366.373	375.25
366.599	375.25
366.826	391.25
367.052	362.25
367.278	390.25
367.505	358.25
367.731	393.25
367.957	337.25
368.184	362.25
368.41	397.25
368.636	381.25
368.862	382.25
369.089	387.25
369.315	384.25
369.541	386.25
369.767	390.25
369.993	383.25
370.219	372.25
370.445	372.25
370.672	374.25
370.898	381.25
371.124	374.25
371.35	381.25
371.576	385.25
371.802	381.25
372.028	361.25
372.254	364.25
372.48	380.25
372.706	381.25
372.932	355.25
373.158	379.25
373.384	377.25
373.61	387.25
373.835	410.25
374.061	374.25
374.287	369.25
374.513	381.25
374.739	377.25
374.965	381.25
375.191	391.25
375.416	373.25
375.642	400.25
375.868	382.25
376.094	395.25
376.319	363.25
376.545	371.25
376.771	371.25
376.997	381.25
377.222	373.25
377.448	374.25
377.674	354.25
377.899	356.25
378.125	378.25
378.35	373.25
378.576	381.25
378.802	365.25
379.027	366.25
379.253	375.25
379.478	365.25
379.704	366.25
379.929	369.25
380.155	337.25
380.38	379.25
380.606	378.25
380.831	369.25
381.057	375.25
381.282	377.25
381.507	361.25
381.733	376.25
381.958	367.25
382.184	369.25
382.409	367.25
382.634	393.25
382.86	387.25
383.085	409.25
383.31	391.25
383.535	389.25
383.761	372.25
383.986	377.25
384.211	386.25
384.436	396.25
384.662	403.25
384.887	400.25
385.112	394.25
385.337	425.25
385.562	403.25
385.787	406.25
386.013	430.25
386.238	417.25
386.463	415.25
386.688	426.25
386.913	407.25
387.138	394.25
387.363	403.25
387.588	413.25
387.813	395.25
388.038	399.25
388.263	415.25
388.488	408.25
388.713	416.25
388.938	394.25
389.163	434.25
389.387	394.25
389.612	406.25
389.837	404.25
390.062	407.25
390.287	420.25
390.512	406.25
390.736	380.25
390.961	413.25
391.186	433.25
391.411	403.25
391.636	423.25
391.86	419.25
392.085	406.25
392.31	437.25
392.534	414.25
392.759	431.25
392.984	411.25
393.208	422.25
393.433	426.25
393.658	440.25
393.882	424.25
394.107	407.25
394.331	414.25
394.556	412.25
394.78	415.25
395.005	409.25
395.229	395.25
395.454	434.25
395.678	439.25
395.903	441.25
396.127	447.25
396.352	449.25
396.576	436.25
396.801	420.25
397.025	422.25
397.249	425.25
397.474	438.25
397.698	447.25
397.922	458.25
398.147	465.25
398.371	470.25
398.595	469.25
398.82	480.25
399.044	467.25
399.268	501.25
399.492	519.25
399.717	575.25
399.941	570.25
400.165	581.25
400.389	547.25
400.613	533.25
400.837	486.25
401.062	484.25
401.286	490.25
401.51	471.25
401.734	464.25
401.958	470.25
402.182	473.25
402.406	465.25
402.63	473.25
402.854	506.25
403.078	494.25
403.302	478.25
403.526	494.25
403.75	487.25
403.974	461.25
404.198	453.25
404.422	479.25
404.645	489.25
404.869	485.25
405.093	504.25
405.317	531.25
405.541	549.25
405.765	523.25
405.988	503.25
406.212	521.25
406.436	494.25
406.66	522.25
406.883	511.25
407.107	549.25
407.331	566.25
407.555	626.25
407.778	623.25
408.002	560.25
408.226	537.25
408.449	523.25
408.673	536.25
408.896	547.25
409.12	591.25
409.344	563.25
409.567	502.25
409.791	493.25
410.014	495.25
410.238	486.25
410.461	480.25
410.685	486.25
410.908	491.25
411.132	504.25
411.355	520.25
411.578	504.25
411.802	487.25
412.025	469.25
412.249	455.25
412.472	478.25
412.695	498.25
412.919	509.25
413.142	485.25
413.365	452.25
413.589	472.25
413.812	465.25
414.035	474.25
414.258	462.25
414.482	427.25
414.705	429.25
414.928	456.25
415.151	463.25
415.374	441.25
415.597	445.25
415.821	427.25
416.044	442.25
416.267	435.25
416.49	441.25
416.713	436.25
416.936	445.25
417.159	434.25
417.382	458.25
417.605	454.25
417.828	463.25
418.051	447.25
418.274	431.25
418.497	431.25
418.72	464.25
418.943	450.25
419.166	465.25
419.389	474.25
419.611	465.25
419.834	457.25
420.057	465.25
420.28	477.25
420.503	466.25
420.726	466.25
420.948	478.25
421.171	489.25
421.394	516.25
421.617	493.25
421.839	449.25
422.062	466.25
422.285	459.25
422.507	486.25
422.73	565.25
422.953	541.25
423.175	496.25
423.398	479.25
423.621	493.25
423.843	484.25
424.066	488.25
424.288	471.25
424.511	511.25
424.733	519.25
424.956	610.25
425.178	585.25
425.401	553.25
425.623	591.25
425.846	528.25
426.068	481.25
426.291	466.25
426.513	478.25
426.735	494.25
426.958	517.25
427.18	574.25
427.402	664.25
427.625	724.25
427.847	617.25
428.069	559.25
428.292	488.25
428.514	465.25
428.736	449.25
428.958	448.25
429.181	449.25
429.403	424.25
429.625	441.25
429.847	464.25
430.069	498.25
430.292	518.25
430.514	454.25
430.736	447.25
430.958	433.25
431.18	445.25
431.402	415.25
431.624	434.25
431.846	448.25
432.068	426.25
432.29	413.25
432.512	419.25
432.734	419.25
432.956	402.25
433.178	419.25
433.4	424.25
433.622	451.25
433.844	441.25
434.066	441.25
434.287	415.25
434.509	446.25
434.731	449.25
434.953	465.25
435.175	448.25
435.397	479.25
435.618	483.25
435.84	482.25
436.062	565.25
436.284	605.25
436.505	514.25
436.727	473.25
436.949	451.25
437.17	453.25
437.392	441.25
437.614	416.25
437.835	471.25
438.057	540.25
438.278	599.25
438.5	607.25
438.721	685.25
438.943	647.25
439.165	503.25
439.386	484.25
439.608	464.25
439.829	489.25
440.05	470.25
440.272	498.25
440.493	471.25
440.715	461.25
440.936	447.25
441.158	470.25
441.379	450.25
441.6	453.25
441.822	461.25
442.043	480.25
442.264	558.25
442.486	597.25
442.707	514.25
442.928	494.25
443.149	492.25
443.371	504.25
443.592	515.25
443.813	599.25
444.034	640.25
444.255	533.25
444.476	518.25
444.698	501.25
444.919	508.25
445.14	582.25
445.361	530.25
445.582	505.25
445.803	529.25
446.024	607.25
446.245	618.25
446.466	567.25
446.687	493.25
446.908	478.25
447.129	457.25
447.35	432.25
447.571	426.25
447.792	425.25
448.013	432.25
448.234	443.25
448.455	460.25
448.675	560.25
448.896	643.25
449.117	554.25
449.338	526.25
449.559	623.25
449.779	671.25
450	546.25
450.221	466.25
450.442	439.25
450.662	435.25
450.883	418.25
451.104	422.25
451.324	398.25
451.545	415.25
451.766	401.25
451.986	394.25
452.207	383.25
452.428	384.25
452.648	392.25
452.869	391.25
453.089	386.25
453.31	403.25
453.53	387.25
453.751	396.25
453.971	378.25
454.192	402.25
454.412	386.25
454.633	385.25
454.853	379.25
455.073	378.25
455.294	402.25
455.514	444.25
455.734	456.25
455.955	402.25
456.175	382.25
456.395	358.25
456.616	363.25
456.836	377.25
457.056	364.25
457.276	353.25
457.497	381.25
457.717	386.25
457.937	381.25
458.157	382.25
458.377	394.25
458.598	390.25
458.818	431.25
459.038	463.25
459.258	488.25
459.478	463.25
459.698	453.25
459.918	418.25
460.138	432.25
460.358	421.25
460.578	446.25
460.798	448.25
461.018	444.25
461.238	438.25
461.458	438.25
461.678	441.25
461.898	434.25
462.118	446.25
462.338	451.25
462.558	451.25
462.777	464.25
462.997	478.25
463.217	481.25
463.437	501.25
463.657	486.25
463.876	487.25
464.096	455.25
464.316	465.25
464.536	465.25
464.755	473.25
464.975	469.25
465.195	463.25
465.414	487.25
465.634	450.25
465.854	434.25
466.073	441.25
466.293	419.25
466.512	402.25
466.732	416.25
466.951	406.25
467.171	410.25
467.391	406.25
467.61	403.25
467.829	402.25
468.049	420.25
468.268	409.25
468.488	395.25
468.707	378.25
468.927	377.25
469.146	397.25
469.365	391.25
469.585	389.25
469.804	390.25
470.023	404.25
470.243	405.25
470.462	399.25
470.681	420.25
470.901	409.25
471.12	416.25
471.339	407.25
471.558	422.25
471.777	414.25
471.997	389.25
472.216	406.25
472.435	414.25
472.654	392.25
472.873	408.25
473.092	409.25
473.311	404.25
473.53	415.25
473.749	407.25
473.968	426.25
474.187	507.25
474.406	515.25
474.625	446.25
474.844	400.25
475.063	389.25
475.282	397.25
475.501	403.25
475.72	385.25
475.939	413.25
476.158	424.25
476.377	411.25
476.596	382.25
476.814	424.25
477.033	430.25
477.252	447.25
477.471	425.25
477.69	435.25
477.908	440.25
478.127	448.25
478.346	455.25
478.564	468.25
478.783	453.25
479.002	467.25
479.22	474.25
479.439	488.25
479.658	470.25
479.876	485.25
480.095	467.25
480.313	504.25
480.532	480.25
480.751	497.25
480.969	498.25
481.188	511.25
481.406	537.25
481.624	490.25
481.843	489.25
482.061	481.25
482.28	454.25
482.498	451.25
482.717	477.25
482.935	479.25
483.153	470.25
483.372	453.25
483.59	480.25
483.808	481.25
484.027	475.25
484.245	472.25
484.463	475.25
484.681	478.25
484.9	471.25
485.118	462.25
485.336	476.25
485.554	487.25
485.772	498.25
485.99	477.25
486.209	488.25
486.427	481.25
486.645	477.25
486.863	477.25
487.081	485.25
487.299	493.25
487.517	477.25
487.735	487.25
487.953	487.25
488.171	497.25
488.389	486.25
488.607	500.25
488.825	490.25
489.043	491.25
489.261	494.25
489.479	505.25
489.696	505.25
489.914	500.25
490.132	509.25
490.35	500.25
490.568	529.25
490.786	523.25
491.003	532.25
491.221	534.25
491.439	534.25
491.657	521.25
491.874	529.25
492.092	552.25
492.31	544.25
492.527	544.25
492.745	545.25
492.963	562.25
493.18	550.25
493.398	558.25
493.615	552.25
493.833	578.25
494.05	580.25
494.268	557.25
494.485	573.25
494.703	553.25
494.92	530.25
495.138	557.25
495.355	554.25
495.573	575.25
495.79	580.25
496.008	564.25
496.225	592.25
496.442	569.25
496.66	599.25
496.877	565.25
497.094	578.25
497.312	586.25
497.529	623.25
497.746	585.25
497.963	615.25
498.181	633.25
498.398	657.25
498.615	672.25
498.832	678.25
499.049	711.25
499.267	720.25
499.484	742.25
499.701	779.25
499.918	816.25
500.135	855.25
500.352	917.25
500.569	915.25
500.786	919.25
501.003	904.25
501.22	869.25
501.437	808.25
501.654	798.25
501.871	762.25
502.088	736.25
