Data from 1977.PennyLincolnUp.Lamp.En5.5.200Scan.071719.P1_HRD10591_16-07-44-864.txt Node
Date: Thu Jul 18 16:07:44 EDT 2019
User: cochatt
Spectrometer: HR+D1059
Trigger mode: 1
Integration Time (sec): 1.000000E-1
Scans to average: 1
Electric dark correction enabled: true
Nonlinearity correction enabled: false
Boxcar width: 0
XAxis mode: Wavelengths
Number of Pixels in Spectrum: 2048
>>>>>Begin Spectral Data<<<<<
223.165	-15.19
223.4	-15.19
223.635	-15.19
223.869	-24.19
224.104	-19.19
224.338	-16.19
224.573	-13.19
224.808	-5.19
225.042	4.81
225.277	-6.19
225.511	4.81
225.746	8.81
225.98	6.81
226.215	7.81
226.449	3.81
226.683	18.81
226.918	17.81
227.152	25.81
227.387	32.81
227.621	38.81
227.856	60.81
228.09	56.81
228.324	55.81
228.559	55.81
228.793	57.81
229.027	88.81
229.262	96.81
229.496	98.81
229.73	126.81
229.964	139.81
230.199	121.81
230.433	104.81
230.667	110.81
230.901	94.81
231.136	123.81
231.37	110.81
231.604	110.81
231.838	105.81
232.072	96.81
232.306	97.81
232.541	118.81
232.775	124.81
233.009	121.81
233.243	112.81
233.477	121.81
233.711	122.81
233.945	121.81
234.179	116.81
234.413	114.81
234.647	136.81
234.881	124.81
235.115	118.81
235.349	123.81
235.583	127.81
235.817	123.81
236.051	126.81
236.285	121.81
236.519	114.81
236.753	126.81
236.987	144.81
237.221	179.81
237.455	204.81
237.689	162.81
237.922	135.81
238.156	128.81
238.39	124.81
238.624	125.81
238.858	132.81
239.091	135.81
239.325	119.81
239.559	124.81
239.793	150.81
240.027	128.81
240.26	140.81
240.494	153.81
240.728	145.81
240.961	157.81
241.195	142.81
241.429	129.81
241.662	142.81
241.896	124.81
242.13	136.81
242.363	145.81
242.597	156.81
242.83	144.81
243.064	134.81
243.298	134.81
243.531	136.81
243.765	126.81
243.998	142.81
244.232	140.81
244.465	133.81
244.699	125.81
244.932	141.81
245.166	129.81
245.399	155.81
245.633	158.81
245.866	135.81
246.099	150.81
246.333	158.81
246.566	158.81
246.8	156.81
247.033	161.81
247.266	162.81
247.5	165.81
247.733	168.81
247.966	172.81
248.2	175.81
248.433	165.81
248.666	171.81
248.899	185.81
249.133	183.81
249.366	202.81
249.599	207.81
249.832	173.81
250.066	165.81
250.299	184.81
250.532	188.81
250.765	201.81
250.998	198.81
251.231	223.81
251.465	209.81
251.698	205.81
251.931	210.81
252.164	206.81
252.397	191.81
252.63	196.81
252.863	206.81
253.096	215.81
253.329	214.81
253.562	223.81
253.795	218.81
254.028	209.81
254.261	211.81
254.494	207.81
254.727	239.81
254.96	245.81
255.193	272.81
255.426	257.81
255.659	228.81
255.892	244.81
256.124	229.81
256.357	210.81
256.59	222.81
256.823	200.81
257.056	215.81
257.289	215.81
257.521	215.81
257.754	208.81
257.987	209.81
258.22	220.81
258.452	220.81
258.685	209.81
258.918	207.81
259.151	222.81
259.383	201.81
259.616	219.81
259.849	235.81
260.081	231.81
260.314	252.81
260.547	242.81
260.779	236.81
261.012	244.81
261.244	228.81
261.477	234.81
261.71	207.81
261.942	218.81
262.175	222.81
262.407	231.81
262.64	222.81
262.872	220.81
263.105	213.81
263.337	225.81
263.57	202.81
263.802	226.81
264.035	223.81
264.267	207.81
264.499	214.81
264.732	220.81
264.964	214.81
265.197	214.81
265.429	219.81
265.661	225.81
265.894	217.81
266.126	227.81
266.358	233.81
266.591	222.81
266.823	226.81
267.055	217.81
267.287	224.81
267.52	217.81
267.752	227.81
267.984	235.81
268.216	243.81
268.448	237.81
268.681	245.81
268.913	248.81
269.145	264.81
269.377	273.81
269.609	284.81
269.841	283.81
270.073	281.81
270.306	302.81
270.538	312.81
270.77	316.81
271.002	321.81
271.234	312.81
271.466	311.81
271.698	311.81
271.93	305.81
272.162	318.81
272.394	328.81
272.626	301.81
272.858	287.81
273.09	287.81
273.322	271.81
273.553	261.81
273.785	274.81
274.017	264.81
274.249	276.81
274.481	274.81
274.713	272.81
274.945	281.81
275.176	286.81
275.408	271.81
275.64	268.81
275.872	289.81
276.104	280.81
276.335	268.81
276.567	274.81
276.799	292.81
277.031	298.81
277.262	324.81
277.494	330.81
277.726	304.81
277.957	296.81
278.189	258.81
278.421	293.81
278.652	294.81
278.884	284.81
279.115	279.81
279.347	298.81
279.579	283.81
279.81	282.81
280.042	285.81
280.273	301.81
280.505	281.81
280.736	280.81
280.968	269.81
281.199	279.81
281.431	296.81
281.662	282.81
281.894	289.81
282.125	292.81
282.356	302.81
282.588	304.81
282.819	311.81
283.051	312.81
283.282	270.81
283.513	297.81
283.745	295.81
283.976	294.81
284.207	299.81
284.439	288.81
284.67	300.81
284.901	299.81
285.132	300.81
285.364	287.81
285.595	309.81
285.826	303.81
286.057	320.81
286.288	311.81
286.52	295.81
286.751	300.81
286.982	302.81
287.213	323.81
287.444	304.81
287.675	308.81
287.906	318.81
288.138	325.81
288.369	318.81
288.6	330.81
288.831	330.81
289.062	302.81
289.293	296.81
289.524	319.81
289.755	310.81
289.986	302.81
290.217	308.81
290.448	322.81
290.679	322.81
290.91	317.81
291.141	316.81
291.371	310.81
291.602	309.81
291.833	315.81
292.064	323.81
292.295	305.81
292.526	326.81
292.757	314.81
292.987	304.81
293.218	296.81
293.449	333.81
293.68	319.81
293.91	327.81
294.141	315.81
294.372	330.81
294.603	320.81
294.833	346.81
295.064	332.81
295.295	322.81
295.525	312.81
295.756	310.81
295.987	342.81
296.217	337.81
296.448	351.81
296.679	332.81
296.909	292.81
297.14	312.81
297.37	318.81
297.601	322.81
297.831	333.81
298.062	320.81
298.292	318.81
298.523	352.81
298.753	322.81
298.984	335.81
299.214	323.81
299.445	329.81
299.675	341.81
299.905	321.81
300.136	332.81
300.366	332.81
300.597	326.81
300.827	356.81
301.057	340.81
301.288	360.81
301.518	341.81
301.748	348.81
301.979	343.81
302.209	345.81
302.439	359.81
302.669	334.81
302.9	353.81
303.13	343.81
303.36	368.81
303.59	350.81
303.82	347.81
304.051	354.81
304.281	349.81
304.511	361.81
304.741	352.81
304.971	330.81
305.201	342.81
305.431	353.81
305.661	361.81
305.891	332.81
306.121	334.81
306.352	341.81
306.582	351.81
306.812	345.81
307.042	350.81
307.272	329.81
307.502	351.81
307.731	360.81
307.961	349.81
308.191	367.81
308.421	353.81
308.651	351.81
308.881	339.81
309.111	360.81
309.341	341.81
309.571	376.81
309.8	360.81
310.03	374.81
310.26	356.81
310.49	376.81
310.72	390.81
310.949	394.81
311.179	410.81
311.409	391.81
311.639	372.81
311.868	391.81
312.098	401.81
312.328	391.81
312.557	399.81
312.787	403.81
313.017	401.81
313.246	386.81
313.476	385.81
313.706	396.81
313.935	398.81
314.165	406.81
314.394	392.81
314.624	400.81
314.853	413.81
315.083	377.81
315.312	391.81
315.542	378.81
315.771	412.81
316.001	403.81
316.23	402.81
316.46	392.81
316.689	405.81
316.919	384.81
317.148	398.81
317.377	413.81
317.607	402.81
317.836	396.81
318.065	381.81
318.295	399.81
318.524	391.81
318.753	403.81
318.983	384.81
319.212	411.81
319.441	396.81
319.67	408.81
319.9	400.81
320.129	389.81
320.358	384.81
320.587	401.81
320.816	392.81
321.046	382.81
321.275	409.81
321.504	406.81
321.733	398.81
321.962	388.81
322.191	395.81
322.42	426.81
322.649	433.81
322.878	444.81
323.108	444.81
323.337	462.81
323.566	478.81
323.795	506.81
324.024	547.81
324.253	616.81
324.482	874.81
324.71	1255.81
324.939	1773.81
325.168	1503.81
325.397	811.81
325.626	607.81
325.855	512.81
326.084	479.81
326.313	482.81
326.542	490.81
326.77	514.81
326.999	612.81
327.228	809.81
327.457	1165.81
327.686	1290.81
327.914	897.81
328.143	624.81
328.372	544.81
328.6	525.81
328.829	508.81
329.058	529.81
329.287	544.81
329.515	527.81
329.744	500.81
329.972	491.81
330.201	512.81
330.43	529.81
330.658	537.81
330.887	567.81
331.115	556.81
331.344	508.81
331.572	490.81
331.801	478.81
332.03	481.81
332.258	463.81
332.486	472.81
332.715	448.81
332.943	458.81
333.172	485.81
333.4	495.81
333.629	476.81
333.857	505.81
334.085	497.81
334.314	486.81
334.542	524.81
334.771	512.81
334.999	508.81
335.227	486.81
335.455	469.81
335.684	473.81
335.912	479.81
336.14	456.81
336.369	462.81
336.597	470.81
336.825	470.81
337.053	483.81
337.281	464.81
337.51	449.81
337.738	462.81
337.966	443.81
338.194	466.81
338.422	440.81
338.65	440.81
338.878	451.81
339.106	458.81
339.334	445.81
339.562	425.81
339.79	441.81
340.018	437.81
340.246	428.81
340.474	417.81
340.702	450.81
340.93	447.81
341.158	445.81
341.386	461.81
341.614	430.81
341.842	432.81
342.07	429.81
342.298	433.81
342.526	429.81
342.754	414.81
342.981	412.81
343.209	432.81
343.437	449.81
343.665	449.81
343.893	454.81
344.12	462.81
344.348	477.81
344.576	462.81
344.804	453.81
345.031	451.81
345.259	434.81
345.487	449.81
345.714	433.81
345.942	414.81
346.17	397.81
346.397	422.81
346.625	429.81
346.853	421.81
347.08	419.81
347.308	410.81
347.535	402.81
347.763	416.81
347.99	439.81
348.218	400.81
348.445	432.81
348.673	412.81
348.9	437.81
349.128	398.81
349.355	391.81
349.583	400.81
349.81	402.81
350.037	390.81
350.265	410.81
350.492	405.81
350.72	397.81
350.947	400.81
351.174	415.81
351.402	432.81
351.629	403.81
351.856	431.81
352.083	426.81
352.311	411.81
352.538	402.81
352.765	408.81
352.992	401.81
353.22	408.81
353.447	418.81
353.674	398.81
353.901	405.81
354.128	392.81
354.355	398.81
354.583	399.81
354.81	404.81
355.037	403.81
355.264	404.81
355.491	388.81
355.718	380.81
355.945	369.81
356.172	387.81
356.399	400.81
356.626	392.81
356.853	403.81
357.08	392.81
357.307	394.81
357.534	390.81
357.761	398.81
357.988	387.81
358.215	388.81
358.441	382.81
358.668	380.81
358.895	402.81
359.122	373.81
359.349	415.81
359.576	417.81
359.802	422.81
360.029	417.81
360.256	452.81
360.483	446.81
360.709	407.81
360.936	418.81
361.163	412.81
361.39	421.81
361.616	416.81
361.843	402.81
362.07	409.81
362.296	375.81
362.523	397.81
362.749	392.81
362.976	402.81
363.203	402.81
363.429	396.81
363.656	378.81
363.882	387.81
364.109	398.81
364.335	411.81
364.562	399.81
364.788	380.81
365.015	396.81
365.241	407.81
365.468	375.81
365.694	401.81
365.92	397.81
366.147	385.81
366.373	397.81
366.599	393.81
366.826	392.81
367.052	400.81
367.278	395.81
367.505	388.81
367.731	370.81
367.957	380.81
368.184	400.81
368.41	406.81
368.636	397.81
368.862	393.81
369.089	395.81
369.315	370.81
369.541	378.81
369.767	380.81
369.993	353.81
370.219	404.81
370.445	394.81
370.672	382.81
370.898	392.81
371.124	374.81
371.35	384.81
371.576	392.81
371.802	393.81
372.028	394.81
372.254	384.81
372.48	390.81
372.706	405.81
372.932	390.81
373.158	395.81
373.384	389.81
373.61	385.81
373.835	384.81
374.061	372.81
374.287	392.81
374.513	396.81
374.739	386.81
374.965	390.81
375.191	410.81
375.416	400.81
375.642	405.81
375.868	389.81
376.094	388.81
376.319	379.81
376.545	370.81
376.771	378.81
376.997	386.81
377.222	385.81
377.448	362.81
377.674	387.81
377.899	375.81
378.125	402.81
378.35	377.81
378.576	374.81
378.802	373.81
379.027	358.81
379.253	396.81
379.478	376.81
379.704	372.81
379.929	396.81
380.155	385.81
380.38	366.81
380.606	406.81
380.831	382.81
381.057	381.81
381.282	397.81
381.507	390.81
381.733	395.81
381.958	400.81
382.184	395.81
382.409	379.81
382.634	400.81
382.86	396.81
383.085	392.81
383.31	405.81
383.535	410.81
383.761	396.81
383.986	403.81
384.211	398.81
384.436	404.81
384.662	424.81
384.887	398.81
385.112	411.81
385.337	423.81
385.562	398.81
385.787	420.81
386.013	429.81
386.238	422.81
386.463	441.81
386.688	434.81
386.913	406.81
387.138	441.81
387.363	408.81
387.588	393.81
387.813	400.81
388.038	407.81
388.263	422.81
388.488	417.81
388.713	409.81
388.938	414.81
389.163	412.81
389.387	427.81
389.612	437.81
389.837	426.81
390.062	425.81
390.287	419.81
390.512	432.81
390.736	427.81
390.961	400.81
391.186	425.81
391.411	441.81
391.636	460.81
391.86	437.81
392.085	415.81
392.31	432.81
392.534	439.81
392.759	451.81
392.984	431.81
393.208	444.81
393.433	432.81
393.658	416.81
393.882	418.81
394.107	439.81
394.331	440.81
394.556	408.81
394.78	444.81
395.005	436.81
395.229	436.81
395.454	428.81
395.678	446.81
395.903	444.81
396.127	468.81
396.352	459.81
396.576	444.81
396.801	455.81
397.025	447.81
397.249	437.81
397.474	454.81
397.698	447.81
397.922	452.81
398.147	466.81
398.371	501.81
398.595	473.81
398.82	484.81
399.044	496.81
399.268	529.81
399.492	564.81
399.717	576.81
399.941	612.81
400.165	612.81
400.389	590.81
400.613	548.81
400.837	529.81
401.062	496.81
401.286	498.81
401.51	464.81
401.734	475.81
401.958	477.81
402.182	487.81
402.406	503.81
402.63	491.81
402.854	485.81
403.078	494.81
403.302	504.81
403.526	505.81
403.75	496.81
403.974	508.81
404.198	489.81
404.422	518.81
404.645	500.81
404.869	505.81
405.093	528.81
405.317	561.81
405.541	584.81
405.765	538.81
405.988	493.81
406.212	518.81
406.436	515.81
406.66	548.81
406.883	504.81
407.107	560.81
407.331	580.81
407.555	633.81
407.778	638.81
408.002	605.81
408.226	558.81
408.449	537.81
408.673	520.81
408.896	546.81
409.12	591.81
409.344	562.81
409.567	531.81
409.791	514.81
410.014	494.81
410.238	508.81
410.461	461.81
410.685	504.81
410.908	528.81
411.132	549.81
411.355	568.81
411.578	562.81
411.802	508.81
412.025	469.81
412.249	488.81
412.472	524.81
412.695	540.81
412.919	535.81
413.142	506.81
413.365	484.81
413.589	466.81
413.812	488.81
414.035	462.81
414.258	476.81
414.482	474.81
414.705	458.81
414.928	469.81
415.151	469.81
415.374	468.81
415.597	448.81
415.821	450.81
416.044	454.81
416.267	471.81
416.49	456.81
416.713	450.81
416.936	472.81
417.159	458.81
417.382	474.81
417.605	479.81
417.828	492.81
418.051	481.81
418.274	481.81
418.497	476.81
418.72	446.81
418.943	452.81
419.166	480.81
419.389	502.81
419.611	508.81
419.834	487.81
420.057	476.81
420.28	489.81
420.503	472.81
420.726	448.81
420.948	480.81
421.171	525.81
421.394	557.81
421.617	489.81
421.839	480.81
422.062	480.81
422.285	506.81
422.507	547.81
422.73	591.81
422.953	554.81
423.175	495.81
423.398	481.81
423.621	501.81
423.843	523.81
424.066	508.81
424.288	510.81
424.511	548.81
424.733	573.81
424.956	654.81
425.178	593.81
425.401	594.81
425.623	631.81
425.846	540.81
426.068	509.81
426.291	483.81
426.513	492.81
426.735	504.81
426.958	534.81
427.18	621.81
427.402	708.81
427.625	778.81
427.847	672.81
428.069	586.81
428.292	526.81
428.514	490.81
428.736	491.81
428.958	473.81
429.181	474.81
429.403	476.81
429.625	462.81
429.847	490.81
430.069	541.81
430.292	550.81
430.514	479.81
430.736	446.81
430.958	470.81
431.18	442.81
431.402	452.81
431.624	439.81
431.846	413.81
432.068	433.81
432.29	442.81
432.512	428.81
432.734	452.81
432.956	436.81
433.178	427.81
433.4	466.81
433.622	470.81
433.844	448.81
434.066	436.81
434.287	442.81
434.509	447.81
434.731	448.81
434.953	461.81
435.175	457.81
435.397	519.81
435.618	506.81
435.84	537.81
436.062	616.81
436.284	652.81
436.505	543.81
436.727	488.81
436.949	452.81
437.17	488.81
437.392	465.81
437.614	469.81
437.835	492.81
438.057	534.81
438.278	680.81
438.5	665.81
438.721	694.81
438.943	689.81
439.165	551.81
439.386	502.81
439.608	501.81
439.829	503.81
440.05	540.81
440.272	560.81
440.493	528.81
440.715	489.81
440.936	477.81
441.158	460.81
441.379	448.81
441.6	472.81
441.822	474.81
442.043	534.81
442.264	605.81
442.486	641.81
442.707	551.81
442.928	516.81
443.149	502.81
443.371	536.81
443.592	568.81
443.813	644.81
444.034	702.81
444.255	600.81
444.476	538.81
444.698	512.81
444.919	519.81
445.14	624.81
445.361	578.81
445.582	531.81
445.803	571.81
446.024	672.81
446.245	656.81
446.466	611.81
446.687	548.81
446.908	497.81
447.129	461.81
447.35	463.81
447.571	457.81
447.792	458.81
448.013	462.81
448.234	477.81
448.455	518.81
448.675	602.81
448.896	713.81
449.117	602.81
449.338	540.81
449.559	666.81
449.779	722.81
450	603.81
450.221	513.81
450.442	463.81
450.662	446.81
450.883	448.81
451.104	463.81
451.324	449.81
451.545	425.81
451.766	425.81
451.986	394.81
452.207	413.81
452.428	400.81
452.648	386.81
452.869	414.81
453.089	406.81
453.31	408.81
453.53	423.81
453.751	393.81
453.971	415.81
454.192	422.81
454.412	425.81
454.633	402.81
454.853	412.81
455.073	400.81
455.294	457.81
455.514	481.81
455.734	469.81
455.955	405.81
456.175	382.81
456.395	386.81
456.616	386.81
456.836	381.81
457.056	379.81
457.276	386.81
457.497	380.81
457.717	381.81
457.937	382.81
458.157	392.81
458.377	414.81
458.598	428.81
458.818	459.81
459.038	514.81
459.258	537.81
459.478	495.81
459.698	440.81
459.918	449.81
460.138	455.81
460.358	453.81
460.578	453.81
460.798	453.81
461.018	462.81
461.238	457.81
461.458	441.81
461.678	452.81
461.898	467.81
462.118	470.81
462.338	480.81
462.558	470.81
462.777	491.81
462.997	493.81
463.217	511.81
463.437	526.81
463.657	483.81
463.876	474.81
464.096	474.81
464.316	478.81
464.536	491.81
464.755	487.81
464.975	493.81
465.195	502.81
465.414	526.81
465.634	498.81
465.854	456.81
466.073	441.81
466.293	424.81
466.512	420.81
466.732	416.81
466.951	425.81
467.171	406.81
467.391	414.81
467.61	413.81
467.829	416.81
468.049	425.81
468.268	435.81
468.488	399.81
468.707	398.81
468.927	420.81
469.146	404.81
469.365	410.81
469.585	425.81
469.804	420.81
470.023	413.81
470.243	428.81
470.462	447.81
470.681	446.81
470.901	457.81
471.12	411.81
471.339	433.81
471.558	418.81
471.777	440.81
471.997	399.81
472.216	429.81
472.435	448.81
472.654	449.81
472.873	432.81
473.092	413.81
473.311	400.81
473.53	423.81
473.749	412.81
473.968	446.81
474.187	560.81
474.406	563.81
474.625	478.81
474.844	425.81
475.063	429.81
475.282	427.81
475.501	420.81
475.72	443.81
475.939	431.81
476.158	413.81
476.377	454.81
476.596	448.81
476.814	440.81
477.033	456.81
477.252	432.81
477.471	450.81
477.69	441.81
477.908	447.81
478.127	446.81
478.346	444.81
478.564	476.81
478.783	448.81
479.002	490.81
479.22	476.81
479.439	491.81
479.658	495.81
479.876	497.81
480.095	512.81
480.313	542.81
480.532	515.81
480.751	514.81
480.969	535.81
481.188	575.81
481.406	542.81
481.624	514.81
481.843	498.81
482.061	496.81
482.28	462.81
482.498	479.81
482.717	475.81
482.935	484.81
483.153	494.81
483.372	513.81
483.59	497.81
483.808	470.81
484.027	479.81
484.245	506.81
484.463	482.81
484.681	492.81
484.9	464.81
485.118	510.81
485.336	515.81
485.554	510.81
485.772	489.81
485.99	520.81
486.209	517.81
486.427	505.81
486.645	501.81
486.863	528.81
487.081	505.81
487.299	509.81
487.517	509.81
487.735	524.81
487.953	542.81
488.171	501.81
488.389	526.81
488.607	548.81
488.825	505.81
489.043	526.81
489.261	534.81
489.479	530.81
489.696	516.81
489.914	517.81
490.132	512.81
490.35	541.81
490.568	542.81
490.786	542.81
491.003	544.81
491.221	560.81
491.439	555.81
491.657	573.81
491.874	561.81
492.092	579.81
492.31	568.81
492.527	605.81
492.745	580.81
492.963	600.81
493.18	589.81
493.398	615.81
493.615	592.81
493.833	603.81
494.05	614.81
494.268	576.81
494.485	600.81
494.703	601.81
494.92	597.81
495.138	606.81
495.355	604.81
495.573	606.81
495.79	605.81
496.008	617.81
496.225	590.81
496.442	606.81
496.66	624.81
496.877	601.81
497.094	599.81
497.312	609.81
497.529	610.81
497.746	629.81
497.963	648.81
498.181	677.81
498.398	678.81
498.615	698.81
498.832	729.81
499.049	729.81
499.267	745.81
499.484	776.81
499.701	812.81
499.918	844.81
500.135	902.81
500.352	932.81
500.569	923.81
500.786	957.81
501.003	932.81
501.22	905.81
501.437	844.81
501.654	831.81
501.871	813.81
502.088	783.81
