Data from 1977.PennyLincolnUp.Lamp.En5.5.200Scan.071719.P1_HRD10591_16-06-58-864.txt Node
Date: Thu Jul 18 16:06:58 EDT 2019
User: cochatt
Spectrometer: HR+D1059
Trigger mode: 1
Integration Time (sec): 1.000000E-1
Scans to average: 1
Electric dark correction enabled: true
Nonlinearity correction enabled: false
Boxcar width: 0
XAxis mode: Wavelengths
Number of Pixels in Spectrum: 2048
>>>>>Begin Spectral Data<<<<<
223.165	-14.44
223.4	-14.44
223.635	-14.44
223.869	-24.44
224.104	-17.44
224.338	-15.44
224.573	-6.44
224.808	-17.44
225.042	0.56
225.277	-0.44
225.511	-3.44
225.746	7.56
225.98	7.56
226.215	11.56
226.449	11.56
226.683	15.56
226.918	19.56
227.152	25.56
227.387	32.56
227.621	40.56
227.856	45.56
228.09	37.56
228.324	51.56
228.559	36.56
228.793	73.56
229.027	91.56
229.262	116.56
229.496	114.56
229.73	117.56
229.964	135.56
230.199	108.56
230.433	108.56
230.667	107.56
230.901	111.56
231.136	125.56
231.37	98.56
231.604	106.56
231.838	122.56
232.072	116.56
232.306	99.56
232.541	102.56
232.775	118.56
233.009	105.56
233.243	112.56
233.477	112.56
233.711	103.56
233.945	136.56
234.179	120.56
234.413	119.56
234.647	115.56
234.881	96.56
235.115	101.56
235.349	105.56
235.583	137.56
235.817	136.56
236.051	119.56
236.285	145.56
236.519	122.56
236.753	130.56
236.987	142.56
237.221	178.56
237.455	201.56
237.689	181.56
237.922	138.56
238.156	133.56
238.39	132.56
238.624	120.56
238.858	131.56
239.091	124.56
239.325	119.56
239.559	121.56
239.793	134.56
240.027	144.56
240.26	133.56
240.494	148.56
240.728	148.56
240.961	133.56
241.195	133.56
241.429	126.56
241.662	128.56
241.896	135.56
242.13	135.56
242.363	138.56
242.597	144.56
242.83	136.56
243.064	129.56
243.298	130.56
243.531	136.56
243.765	149.56
243.998	144.56
244.232	164.56
244.465	136.56
244.699	128.56
244.932	148.56
245.166	142.56
245.399	165.56
245.633	162.56
245.866	158.56
246.099	144.56
246.333	154.56
246.566	148.56
246.8	163.56
247.033	157.56
247.266	144.56
247.5	170.56
247.733	173.56
247.966	171.56
248.2	158.56
248.433	151.56
248.666	184.56
248.899	179.56
249.133	197.56
249.366	209.56
249.599	204.56
249.832	187.56
250.066	177.56
250.299	189.56
250.532	187.56
250.765	189.56
250.998	207.56
251.231	212.56
251.465	199.56
251.698	195.56
251.931	206.56
252.164	181.56
252.397	201.56
252.63	189.56
252.863	201.56
253.096	215.56
253.329	218.56
253.562	216.56
253.795	219.56
254.028	222.56
254.261	206.56
254.494	243.56
254.727	251.56
254.96	271.56
255.193	247.56
255.426	240.56
255.659	226.56
255.892	228.56
256.124	237.56
256.357	217.56
256.59	224.56
256.823	216.56
257.056	241.56
257.289	221.56
257.521	192.56
257.754	199.56
257.987	206.56
258.22	237.56
258.452	203.56
258.685	208.56
258.918	216.56
259.151	211.56
259.383	226.56
259.616	219.56
259.849	211.56
260.081	237.56
260.314	235.56
260.547	263.56
260.779	250.56
261.012	245.56
261.244	231.56
261.477	219.56
261.71	223.56
261.942	218.56
262.175	243.56
262.407	229.56
262.64	215.56
262.872	222.56
263.105	212.56
263.337	226.56
263.57	232.56
263.802	206.56
264.035	229.56
264.267	243.56
264.499	210.56
264.732	236.56
264.964	222.56
265.197	219.56
265.429	214.56
265.661	239.56
265.894	218.56
266.126	230.56
266.358	223.56
266.591	237.56
266.823	228.56
267.055	224.56
267.287	238.56
267.52	239.56
267.752	260.56
267.984	228.56
268.216	242.56
268.448	259.56
268.681	249.56
268.913	261.56
269.145	273.56
269.377	272.56
269.609	298.56
269.841	274.56
270.073	276.56
270.306	283.56
270.538	307.56
270.77	302.56
271.002	308.56
271.234	279.56
271.466	286.56
271.698	296.56
271.93	312.56
272.162	324.56
272.394	316.56
272.626	320.56
272.858	280.56
273.09	278.56
273.322	278.56
273.553	267.56
273.785	268.56
274.017	269.56
274.249	284.56
274.481	274.56
274.713	267.56
274.945	276.56
275.176	261.56
275.408	270.56
275.64	290.56
275.872	264.56
276.104	277.56
276.335	289.56
276.567	299.56
276.799	293.56
277.031	299.56
277.262	341.56
277.494	328.56
277.726	308.56
277.957	301.56
278.189	294.56
278.421	265.56
278.652	300.56
278.884	274.56
279.115	268.56
279.347	278.56
279.579	290.56
279.81	282.56
280.042	285.56
280.273	293.56
280.505	293.56
280.736	293.56
280.968	310.56
281.199	277.56
281.431	300.56
281.662	277.56
281.894	287.56
282.125	302.56
282.356	294.56
282.588	295.56
282.819	315.56
283.051	282.56
283.282	298.56
283.513	308.56
283.745	302.56
283.976	323.56
284.207	311.56
284.439	302.56
284.67	295.56
284.901	302.56
285.132	291.56
285.364	284.56
285.595	295.56
285.826	296.56
286.057	318.56
286.288	308.56
286.52	315.56
286.751	306.56
286.982	291.56
287.213	314.56
287.444	309.56
287.675	326.56
287.906	307.56
288.138	308.56
288.369	327.56
288.6	314.56
288.831	312.56
289.062	322.56
289.293	326.56
289.524	301.56
289.755	292.56
289.986	321.56
290.217	295.56
290.448	319.56
290.679	294.56
290.91	300.56
291.141	297.56
291.371	327.56
291.602	322.56
291.833	303.56
292.064	317.56
292.295	342.56
292.526	318.56
292.757	323.56
292.987	313.56
293.218	322.56
293.449	329.56
293.68	316.56
293.91	324.56
294.141	295.56
294.372	321.56
294.603	319.56
294.833	331.56
295.064	299.56
295.295	329.56
295.525	325.56
295.756	336.56
295.987	335.56
296.217	343.56
296.448	338.56
296.679	311.56
296.909	334.56
297.14	322.56
297.37	345.56
297.601	324.56
297.831	320.56
298.062	328.56
298.292	325.56
298.523	351.56
298.753	342.56
298.984	349.56
299.214	354.56
299.445	350.56
299.675	359.56
299.905	346.56
300.136	349.56
300.366	331.56
300.597	337.56
300.827	335.56
301.057	358.56
301.288	346.56
301.518	355.56
301.748	352.56
301.979	370.56
302.209	351.56
302.439	352.56
302.669	359.56
302.9	360.56
303.13	346.56
303.36	338.56
303.59	379.56
303.82	362.56
304.051	356.56
304.281	365.56
304.511	348.56
304.741	367.56
304.971	370.56
305.201	352.56
305.431	352.56
305.661	363.56
305.891	360.56
306.121	376.56
306.352	359.56
306.582	367.56
306.812	365.56
307.042	362.56
307.272	354.56
307.502	348.56
307.731	362.56
307.961	358.56
308.191	355.56
308.421	353.56
308.651	350.56
308.881	378.56
309.111	393.56
309.341	351.56
309.571	365.56
309.8	370.56
310.03	394.56
310.26	373.56
310.49	395.56
310.72	407.56
310.949	409.56
311.179	412.56
311.409	393.56
311.639	376.56
311.868	391.56
312.098	398.56
312.328	397.56
312.557	393.56
312.787	422.56
313.017	424.56
313.246	406.56
313.476	380.56
313.706	391.56
313.935	386.56
314.165	407.56
314.394	410.56
314.624	389.56
314.853	392.56
315.083	388.56
315.312	410.56
315.542	423.56
315.771	396.56
316.001	402.56
316.23	395.56
316.46	394.56
316.689	418.56
316.919	384.56
317.148	414.56
317.377	414.56
317.607	397.56
317.836	399.56
318.065	411.56
318.295	394.56
318.524	395.56
318.753	407.56
318.983	393.56
319.212	386.56
319.441	396.56
319.67	400.56
319.9	392.56
320.129	381.56
320.358	388.56
320.587	416.56
320.816	422.56
321.046	414.56
321.275	418.56
321.504	405.56
321.733	411.56
321.962	400.56
322.191	416.56
322.42	440.56
322.649	426.56
322.878	462.56
323.108	467.56
323.337	466.56
323.566	480.56
323.795	502.56
324.024	546.56
324.253	632.56
324.482	859.56
324.71	1268.56
324.939	1755.56
325.168	1527.56
325.397	806.56
325.626	584.56
325.855	520.56
326.084	507.56
326.313	503.56
326.542	501.56
326.77	538.56
326.999	633.56
327.228	800.56
327.457	1127.56
327.686	1308.56
327.914	908.56
328.143	640.56
328.372	564.56
328.6	541.56
328.829	537.56
329.058	544.56
329.287	533.56
329.515	519.56
329.744	515.56
329.972	493.56
330.201	505.56
330.43	544.56
330.658	525.56
330.887	564.56
331.115	535.56
331.344	503.56
331.572	493.56
331.801	511.56
332.03	457.56
332.258	474.56
332.486	487.56
332.715	482.56
332.943	475.56
333.172	475.56
333.4	488.56
333.629	515.56
333.857	516.56
334.085	520.56
334.314	527.56
334.542	532.56
334.771	529.56
334.999	520.56
335.227	482.56
335.455	493.56
335.684	475.56
335.912	496.56
336.14	464.56
336.369	477.56
336.597	453.56
336.825	463.56
337.053	479.56
337.281	471.56
337.51	473.56
337.738	451.56
337.966	453.56
338.194	461.56
338.422	435.56
338.65	430.56
338.878	452.56
339.106	447.56
339.334	470.56
339.562	449.56
339.79	429.56
340.018	457.56
340.246	450.56
340.474	438.56
340.702	458.56
340.93	443.56
341.158	440.56
341.386	427.56
341.614	445.56
341.842	453.56
342.07	458.56
342.298	440.56
342.526	442.56
342.754	433.56
342.981	445.56
343.209	430.56
343.437	454.56
343.665	452.56
343.893	455.56
344.12	447.56
344.348	470.56
344.576	462.56
344.804	464.56
345.031	475.56
345.259	445.56
345.487	438.56
345.714	459.56
345.942	425.56
346.17	430.56
346.397	419.56
346.625	428.56
346.853	427.56
347.08	413.56
347.308	436.56
347.535	434.56
347.763	424.56
347.99	438.56
348.218	447.56
348.445	432.56
348.673	421.56
348.9	408.56
349.128	401.56
349.355	428.56
349.583	406.56
349.81	412.56
350.037	414.56
350.265	382.56
350.492	390.56
350.72	406.56
350.947	406.56
351.174	426.56
351.402	445.56
351.629	414.56
351.856	433.56
352.083	438.56
352.311	451.56
352.538	412.56
352.765	409.56
352.992	416.56
353.22	426.56
353.447	398.56
353.674	418.56
353.901	416.56
354.128	414.56
354.355	407.56
354.583	400.56
354.81	400.56
355.037	395.56
355.264	400.56
355.491	396.56
355.718	390.56
355.945	379.56
356.172	399.56
356.399	382.56
356.626	400.56
356.853	392.56
357.08	380.56
357.307	388.56
357.534	401.56
357.761	404.56
357.988	412.56
358.215	406.56
358.441	392.56
358.668	392.56
358.895	392.56
359.122	401.56
359.349	411.56
359.576	401.56
359.802	419.56
360.029	424.56
360.256	439.56
360.483	434.56
360.709	413.56
360.936	415.56
361.163	420.56
361.39	408.56
361.616	404.56
361.843	406.56
362.07	406.56
362.296	399.56
362.523	395.56
362.749	417.56
362.976	413.56
363.203	394.56
363.429	397.56
363.656	394.56
363.882	396.56
364.109	397.56
364.335	391.56
364.562	395.56
364.788	393.56
365.015	398.56
365.241	400.56
365.468	394.56
365.694	399.56
365.92	394.56
366.147	395.56
366.373	384.56
366.599	395.56
366.826	396.56
367.052	400.56
367.278	379.56
367.505	400.56
367.731	396.56
367.957	386.56
368.184	392.56
368.41	417.56
368.636	401.56
368.862	410.56
369.089	397.56
369.315	382.56
369.541	396.56
369.767	414.56
369.993	404.56
370.219	408.56
370.445	400.56
370.672	392.56
370.898	376.56
371.124	376.56
371.35	407.56
371.576	405.56
371.802	396.56
372.028	412.56
372.254	397.56
372.48	384.56
372.706	418.56
372.932	394.56
373.158	380.56
373.384	405.56
373.61	390.56
373.835	408.56
374.061	387.56
374.287	418.56
374.513	407.56
374.739	418.56
374.965	400.56
375.191	414.56
375.416	425.56
375.642	414.56
375.868	393.56
376.094	395.56
376.319	378.56
376.545	384.56
376.771	373.56
376.997	386.56
377.222	398.56
377.448	395.56
377.674	384.56
377.899	384.56
378.125	387.56
378.35	366.56
378.576	396.56
378.802	400.56
379.027	403.56
379.253	393.56
379.478	386.56
379.704	387.56
379.929	402.56
380.155	376.56
380.38	374.56
380.606	385.56
380.831	386.56
381.057	376.56
381.282	394.56
381.507	398.56
381.733	411.56
381.958	382.56
382.184	400.56
382.409	404.56
382.634	389.56
382.86	390.56
383.085	387.56
383.31	411.56
383.535	401.56
383.761	401.56
383.986	428.56
384.211	406.56
384.436	400.56
384.662	400.56
384.887	420.56
385.112	401.56
385.337	424.56
385.562	416.56
385.787	416.56
386.013	421.56
386.238	416.56
386.463	432.56
386.688	428.56
386.913	413.56
387.138	415.56
387.363	428.56
387.588	422.56
387.813	420.56
388.038	432.56
388.263	423.56
388.488	449.56
388.713	425.56
388.938	455.56
389.163	441.56
389.387	422.56
389.612	418.56
389.837	444.56
390.062	431.56
390.287	428.56
390.512	411.56
390.736	423.56
390.961	419.56
391.186	443.56
391.411	414.56
391.636	457.56
391.86	447.56
392.085	467.56
392.31	447.56
392.534	434.56
392.759	437.56
392.984	439.56
393.208	444.56
393.433	417.56
393.658	423.56
393.882	443.56
394.107	450.56
394.331	443.56
394.556	447.56
394.78	438.56
395.005	440.56
395.229	436.56
395.454	472.56
395.678	438.56
395.903	468.56
396.127	460.56
396.352	475.56
396.576	436.56
396.801	426.56
397.025	440.56
397.249	442.56
397.474	444.56
397.698	449.56
397.922	478.56
398.147	479.56
398.371	468.56
398.595	511.56
398.82	498.56
399.044	492.56
399.268	545.56
399.492	581.56
399.717	591.56
399.941	623.56
400.165	624.56
400.389	613.56
400.613	586.56
400.837	519.56
401.062	491.56
401.286	489.56
401.51	461.56
401.734	492.56
401.958	482.56
402.182	491.56
402.406	509.56
402.63	496.56
402.854	512.56
403.078	522.56
403.302	513.56
403.526	511.56
403.75	514.56
403.974	537.56
404.198	508.56
404.422	518.56
404.645	523.56
404.869	523.56
405.093	547.56
405.317	568.56
405.541	574.56
405.765	545.56
405.988	527.56
406.212	560.56
406.436	557.56
406.66	563.56
406.883	546.56
407.107	588.56
407.331	612.56
407.555	638.56
407.778	672.56
408.002	608.56
408.226	594.56
408.449	562.56
408.673	542.56
408.896	578.56
409.12	598.56
409.344	594.56
409.567	540.56
409.791	498.56
410.014	511.56
410.238	510.56
410.461	522.56
410.685	515.56
410.908	514.56
411.132	555.56
411.355	572.56
411.578	552.56
411.802	519.56
412.025	503.56
412.249	505.56
412.472	526.56
412.695	541.56
412.919	552.56
413.142	491.56
413.365	484.56
413.589	496.56
413.812	499.56
414.035	478.56
414.258	455.56
414.482	450.56
414.705	479.56
414.928	470.56
415.151	467.56
415.374	485.56
415.597	461.56
415.821	480.56
416.044	464.56
416.267	473.56
416.49	481.56
416.713	480.56
416.936	483.56
417.159	469.56
417.382	474.56
417.605	469.56
417.828	491.56
418.051	478.56
418.274	470.56
418.497	491.56
418.72	478.56
418.943	478.56
419.166	483.56
419.389	508.56
419.611	508.56
419.834	483.56
420.057	484.56
420.28	486.56
420.503	481.56
420.726	494.56
420.948	495.56
421.171	567.56
421.394	554.56
421.617	513.56
421.839	500.56
422.062	480.56
422.285	496.56
422.507	563.56
422.73	603.56
422.953	572.56
423.175	504.56
423.398	525.56
423.621	527.56
423.843	506.56
424.066	528.56
424.288	542.56
424.511	544.56
424.733	575.56
424.956	640.56
425.178	644.56
425.401	609.56
425.623	631.56
425.846	538.56
426.068	513.56
426.291	499.56
426.513	506.56
426.735	507.56
426.958	544.56
427.18	636.56
427.402	718.56
427.625	812.56
427.847	667.56
428.069	582.56
428.292	538.56
428.514	475.56
428.736	466.56
428.958	456.56
429.181	460.56
429.403	470.56
429.625	474.56
429.847	524.56
430.069	587.56
430.292	546.56
430.514	488.56
430.736	477.56
430.958	452.56
431.18	478.56
431.402	452.56
431.624	454.56
431.846	448.56
432.068	445.56
432.29	465.56
432.512	462.56
432.734	458.56
432.956	465.56
433.178	469.56
433.4	456.56
433.622	457.56
433.844	453.56
434.066	460.56
434.287	454.56
434.509	449.56
434.731	451.56
434.953	480.56
435.175	493.56
435.397	476.56
435.618	484.56
435.84	573.56
436.062	627.56
436.284	673.56
436.505	581.56
436.727	510.56
436.949	499.56
437.17	463.56
437.392	487.56
437.614	464.56
437.835	522.56
438.057	598.56
438.278	631.56
438.5	648.56
438.721	725.56
438.943	699.56
439.165	547.56
439.386	519.56
439.608	520.56
439.829	500.56
440.05	536.56
440.272	532.56
440.493	494.56
440.715	499.56
440.936	482.56
441.158	486.56
441.379	469.56
441.6	488.56
441.822	506.56
442.043	540.56
442.264	608.56
442.486	634.56
442.707	560.56
442.928	530.56
443.149	533.56
443.371	534.56
443.592	566.56
443.813	645.56
444.034	709.56
444.255	585.56
444.476	534.56
444.698	516.56
444.919	520.56
445.14	613.56
445.361	570.56
445.582	548.56
445.803	611.56
446.024	660.56
446.245	672.56
446.466	624.56
446.687	537.56
446.908	514.56
447.129	475.56
447.35	461.56
447.571	457.56
447.792	465.56
448.013	453.56
448.234	469.56
448.455	543.56
448.675	602.56
448.896	698.56
449.117	592.56
449.338	578.56
449.559	634.56
449.779	730.56
450	593.56
450.221	512.56
450.442	484.56
450.662	431.56
450.883	461.56
451.104	466.56
451.324	452.56
451.545	440.56
451.766	415.56
451.986	423.56
452.207	400.56
452.428	413.56
452.648	420.56
452.869	415.56
453.089	406.56
453.31	432.56
453.53	396.56
453.751	426.56
453.971	424.56
454.192	422.56
454.412	392.56
454.633	399.56
454.853	420.56
455.073	414.56
455.294	429.56
455.514	487.56
455.734	471.56
455.955	427.56
456.175	414.56
456.395	383.56
456.616	386.56
456.836	420.56
457.056	388.56
457.276	395.56
457.497	417.56
457.717	404.56
457.937	392.56
458.157	385.56
458.377	416.56
458.598	425.56
458.818	465.56
459.038	523.56
459.258	531.56
459.478	452.56
459.698	454.56
459.918	427.56
460.138	438.56
460.358	443.56
460.578	442.56
460.798	468.56
461.018	493.56
461.238	464.56
461.458	473.56
461.678	461.56
461.898	472.56
462.118	471.56
462.338	470.56
462.558	464.56
462.777	481.56
462.997	498.56
463.217	514.56
463.437	553.56
463.657	499.56
463.876	511.56
464.096	506.56
464.316	478.56
464.536	488.56
464.755	495.56
464.975	496.56
465.195	534.56
465.414	554.56
465.634	496.56
465.854	459.56
466.073	442.56
466.293	443.56
466.512	435.56
466.732	412.56
466.951	445.56
467.171	418.56
467.391	427.56
467.61	421.56
467.829	396.56
468.049	431.56
468.268	424.56
468.488	415.56
468.707	422.56
468.927	420.56
469.146	413.56
469.365	429.56
469.585	414.56
469.804	422.56
470.023	420.56
470.243	427.56
470.462	438.56
470.681	427.56
470.901	423.56
471.12	420.56
471.339	403.56
471.558	417.56
471.777	444.56
471.997	419.56
472.216	438.56
472.435	442.56
472.654	442.56
472.873	424.56
473.092	422.56
473.311	431.56
473.53	436.56
473.749	426.56
473.968	451.56
474.187	552.56
474.406	570.56
474.625	470.56
474.844	424.56
475.063	423.56
475.282	440.56
475.501	434.56
475.72	446.56
475.939	420.56
476.158	426.56
476.377	476.56
476.596	428.56
476.814	457.56
477.033	446.56
477.252	468.56
477.471	443.56
477.69	458.56
477.908	474.56
478.127	461.56
478.346	463.56
478.564	490.56
478.783	493.56
479.002	491.56
479.22	488.56
479.439	506.56
479.658	515.56
479.876	513.56
480.095	524.56
480.313	548.56
480.532	534.56
480.751	529.56
480.969	550.56
481.188	572.56
481.406	580.56
481.624	543.56
481.843	516.56
482.061	503.56
482.28	493.56
482.498	472.56
482.717	501.56
482.935	500.56
483.153	483.56
483.372	492.56
483.59	504.56
483.808	486.56
484.027	472.56
484.245	513.56
484.463	503.56
484.681	506.56
484.9	488.56
485.118	512.56
485.336	488.56
485.554	529.56
485.772	501.56
485.99	502.56
486.209	521.56
486.427	535.56
486.645	521.56
486.863	527.56
487.081	538.56
487.299	499.56
487.517	506.56
487.735	519.56
487.953	509.56
488.171	504.56
488.389	529.56
488.607	504.56
488.825	534.56
489.043	554.56
489.261	556.56
489.479	526.56
489.696	536.56
489.914	542.56
490.132	540.56
490.35	539.56
490.568	549.56
490.786	562.56
491.003	556.56
491.221	556.56
491.439	570.56
491.657	591.56
491.874	598.56
492.092	581.56
492.31	612.56
492.527	601.56
492.745	571.56
492.963	558.56
493.18	593.56
493.398	579.56
493.615	597.56
493.833	598.56
494.05	610.56
494.268	596.56
494.485	598.56
494.703	586.56
494.92	600.56
495.138	604.56
495.355	613.56
495.573	612.56
495.79	593.56
496.008	618.56
496.225	616.56
496.442	630.56
496.66	621.56
496.877	590.56
497.094	601.56
497.312	618.56
497.529	635.56
497.746	636.56
497.963	657.56
498.181	684.56
498.398	690.56
498.615	690.56
498.832	730.56
499.049	746.56
499.267	779.56
499.484	770.56
499.701	809.56
499.918	863.56
500.135	908.56
500.352	937.56
500.569	971.56
500.786	959.56
501.003	940.56
501.22	904.56
501.437	882.56
501.654	844.56
501.871	808.56
502.088	780.56
