Data from 1977.PennyLincolnUp.Lamp.En5.5.200Scan.071719.P1_HRD10591_16-05-22-863.txt Node
Date: Thu Jul 18 16:05:22 EDT 2019
User: cochatt
Spectrometer: HR+D1059
Trigger mode: 1
Integration Time (sec): 1.000000E-1
Scans to average: 1
Electric dark correction enabled: true
Nonlinearity correction enabled: false
Boxcar width: 0
XAxis mode: Wavelengths
Number of Pixels in Spectrum: 2048
>>>>>Begin Spectral Data<<<<<
223.165	0.44
223.4	0.44
223.635	0.44
223.869	-20.56
224.104	-10.56
224.338	-25.56
224.573	-17.56
224.808	-20.56
225.042	4.44
225.277	-17.56
225.511	-11.56
225.746	7.44
225.98	4.44
226.215	21.44
226.449	16.44
226.683	13.44
226.918	28.44
227.152	27.44
227.387	22.44
227.621	43.44
227.856	46.44
228.09	42.44
228.324	33.44
228.559	60.44
228.793	49.44
229.027	87.44
229.262	94.44
229.496	106.44
229.73	111.44
229.964	124.44
230.199	113.44
230.433	119.44
230.667	102.44
230.901	99.44
231.136	108.44
231.37	122.44
231.604	115.44
231.838	119.44
232.072	112.44
232.306	109.44
232.541	103.44
232.775	115.44
233.009	128.44
233.243	105.44
233.477	91.44
233.711	111.44
233.945	116.44
234.179	117.44
234.413	114.44
234.647	120.44
234.881	106.44
235.115	97.44
235.349	122.44
235.583	119.44
235.817	121.44
236.051	121.44
236.285	117.44
236.519	120.44
236.753	127.44
236.987	128.44
237.221	151.44
237.455	188.44
237.689	162.44
237.922	137.44
238.156	121.44
238.39	126.44
238.624	117.44
238.858	127.44
239.091	127.44
239.325	109.44
239.559	115.44
239.793	131.44
240.027	127.44
240.26	136.44
240.494	132.44
240.728	146.44
240.961	132.44
241.195	133.44
241.429	140.44
241.662	135.44
241.896	111.44
242.13	127.44
242.363	141.44
242.597	130.44
242.83	129.44
243.064	124.44
243.298	127.44
243.531	134.44
243.765	143.44
243.998	139.44
244.232	125.44
244.465	152.44
244.699	139.44
244.932	141.44
245.166	144.44
245.399	164.44
245.633	126.44
245.866	144.44
246.099	149.44
246.333	146.44
246.566	137.44
246.8	139.44
247.033	144.44
247.266	160.44
247.5	141.44
247.733	145.44
247.966	149.44
248.2	166.44
248.433	151.44
248.666	173.44
248.899	170.44
249.133	172.44
249.366	193.44
249.599	173.44
249.832	175.44
250.066	192.44
250.299	167.44
250.532	184.44
250.765	174.44
250.998	210.44
251.231	191.44
251.465	214.44
251.698	183.44
251.931	178.44
252.164	192.44
252.397	161.44
252.63	172.44
252.863	192.44
253.096	208.44
253.329	199.44
253.562	197.44
253.795	191.44
254.028	227.44
254.261	195.44
254.494	195.44
254.727	217.44
254.96	225.44
255.193	237.44
255.426	216.44
255.659	217.44
255.892	218.44
256.124	197.44
256.357	205.44
256.59	217.44
256.823	209.44
257.056	198.44
257.289	197.44
257.521	199.44
257.754	187.44
257.987	185.44
258.22	190.44
258.452	196.44
258.685	193.44
258.918	183.44
259.151	209.44
259.383	220.44
259.616	204.44
259.849	219.44
260.081	217.44
260.314	236.44
260.547	247.44
260.779	229.44
261.012	205.44
261.244	221.44
261.477	228.44
261.71	197.44
261.942	217.44
262.175	206.44
262.407	199.44
262.64	223.44
262.872	217.44
263.105	216.44
263.337	223.44
263.57	201.44
263.802	223.44
264.035	199.44
264.267	206.44
264.499	208.44
264.732	195.44
264.964	206.44
265.197	212.44
265.429	218.44
265.661	238.44
265.894	209.44
266.126	221.44
266.358	206.44
266.591	233.44
266.823	231.44
267.055	218.44
267.287	240.44
267.52	213.44
267.752	237.44
267.984	216.44
268.216	225.44
268.448	228.44
268.681	225.44
268.913	225.44
269.145	247.44
269.377	261.44
269.609	247.44
269.841	246.44
270.073	256.44
270.306	280.44
270.538	295.44
270.77	277.44
271.002	254.44
271.234	270.44
271.466	277.44
271.698	273.44
271.93	283.44
272.162	280.44
272.394	285.44
272.626	271.44
272.858	279.44
273.09	261.44
273.322	273.44
273.553	249.44
273.785	263.44
274.017	266.44
274.249	244.44
274.481	263.44
274.713	249.44
274.945	256.44
275.176	277.44
275.408	268.44
275.64	259.44
275.872	263.44
276.104	251.44
276.335	278.44
276.567	285.44
276.799	281.44
277.031	269.44
277.262	301.44
277.494	291.44
277.726	294.44
277.957	273.44
278.189	289.44
278.421	261.44
278.652	276.44
278.884	290.44
279.115	277.44
279.347	269.44
279.579	283.44
279.81	258.44
280.042	279.44
280.273	264.44
280.505	260.44
280.736	251.44
280.968	283.44
281.199	249.44
281.431	288.44
281.662	286.44
281.894	283.44
282.125	271.44
282.356	283.44
282.588	293.44
282.819	279.44
283.051	279.44
283.282	265.44
283.513	283.44
283.745	266.44
283.976	274.44
284.207	287.44
284.439	285.44
284.67	291.44
284.901	270.44
285.132	289.44
285.364	293.44
285.595	263.44
285.826	278.44
286.057	293.44
286.288	284.44
286.52	296.44
286.751	287.44
286.982	290.44
287.213	284.44
287.444	285.44
287.675	292.44
287.906	284.44
288.138	299.44
288.369	283.44
288.6	303.44
288.831	305.44
289.062	318.44
289.293	289.44
289.524	296.44
289.755	298.44
289.986	307.44
290.217	305.44
290.448	283.44
290.679	312.44
290.91	287.44
291.141	304.44
291.371	297.44
291.602	301.44
291.833	304.44
292.064	303.44
292.295	291.44
292.526	300.44
292.757	310.44
292.987	308.44
293.218	294.44
293.449	303.44
293.68	308.44
293.91	312.44
294.141	297.44
294.372	294.44
294.603	312.44
294.833	299.44
295.064	307.44
295.295	318.44
295.525	313.44
295.756	317.44
295.987	315.44
296.217	319.44
296.448	314.44
296.679	320.44
296.909	309.44
297.14	297.44
297.37	317.44
297.601	297.44
297.831	317.44
298.062	307.44
298.292	303.44
298.523	324.44
298.753	321.44
298.984	325.44
299.214	310.44
299.445	323.44
299.675	323.44
299.905	327.44
300.136	308.44
300.366	328.44
300.597	315.44
300.827	337.44
301.057	327.44
301.288	337.44
301.518	328.44
301.748	329.44
301.979	333.44
302.209	355.44
302.439	345.44
302.669	340.44
302.9	346.44
303.13	350.44
303.36	333.44
303.59	332.44
303.82	348.44
304.051	322.44
304.281	338.44
304.511	326.44
304.741	337.44
304.971	329.44
305.201	335.44
305.431	318.44
305.661	339.44
305.891	327.44
306.121	347.44
306.352	318.44
306.582	323.44
306.812	337.44
307.042	350.44
307.272	347.44
307.502	334.44
307.731	335.44
307.961	327.44
308.191	347.44
308.421	351.44
308.651	340.44
308.881	340.44
309.111	346.44
309.341	336.44
309.571	357.44
309.8	371.44
310.03	371.44
310.26	359.44
310.49	362.44
310.72	342.44
310.949	387.44
311.179	383.44
311.409	367.44
311.639	361.44
311.868	361.44
312.098	372.44
312.328	375.44
312.557	377.44
312.787	364.44
313.017	387.44
313.246	389.44
313.476	367.44
313.706	380.44
313.935	381.44
314.165	385.44
314.394	378.44
314.624	367.44
314.853	367.44
315.083	362.44
315.312	366.44
315.542	363.44
315.771	388.44
316.001	346.44
316.23	389.44
316.46	367.44
316.689	385.44
316.919	381.44
317.148	362.44
317.377	393.44
317.607	389.44
317.836	380.44
318.065	376.44
318.295	382.44
318.524	380.44
318.753	368.44
318.983	367.44
319.212	381.44
319.441	396.44
319.67	380.44
319.9	382.44
320.129	382.44
320.358	390.44
320.587	376.44
320.816	384.44
321.046	389.44
321.275	411.44
321.504	402.44
321.733	357.44
321.962	390.44
322.191	409.44
322.42	405.44
322.649	419.44
322.878	433.44
323.108	428.44
323.337	423.44
323.566	460.44
323.795	455.44
324.024	500.44
324.253	575.44
324.482	734.44
324.71	1055.44
324.939	1444.44
325.168	1207.44
325.397	699.44
325.626	521.44
325.855	446.44
326.084	431.44
326.313	425.44
326.542	439.44
326.77	477.44
326.999	525.44
327.228	691.44
327.457	931.44
327.686	1071.44
327.914	751.44
328.143	545.44
328.372	497.44
328.6	494.44
328.829	480.44
329.058	470.44
329.287	461.44
329.515	465.44
329.744	448.44
329.972	435.44
330.201	449.44
330.43	468.44
330.658	480.44
330.887	509.44
331.115	486.44
331.344	470.44
331.572	449.44
331.801	451.44
332.03	439.44
332.258	419.44
332.486	451.44
332.715	433.44
332.943	438.44
333.172	441.44
333.4	452.44
333.629	461.44
333.857	468.44
334.085	469.44
334.314	457.44
334.542	465.44
334.771	481.44
334.999	465.44
335.227	463.44
335.455	461.44
335.684	439.44
335.912	447.44
336.14	446.44
336.369	440.44
336.597	445.44
336.825	458.44
337.053	439.44
337.281	429.44
337.51	428.44
337.738	452.44
337.966	443.44
338.194	435.44
338.422	424.44
338.65	409.44
338.878	410.44
339.106	405.44
339.334	429.44
339.562	429.44
339.79	436.44
340.018	425.44
340.246	405.44
340.474	404.44
340.702	428.44
340.93	409.44
341.158	422.44
341.386	424.44
341.614	421.44
341.842	407.44
342.07	412.44
342.298	415.44
342.526	414.44
342.754	424.44
342.981	425.44
343.209	421.44
343.437	425.44
343.665	420.44
343.893	445.44
344.12	449.44
344.348	437.44
344.576	437.44
344.804	435.44
345.031	438.44
345.259	436.44
345.487	441.44
345.714	436.44
345.942	411.44
346.17	408.44
346.397	394.44
346.625	413.44
346.853	404.44
347.08	395.44
347.308	386.44
347.535	410.44
347.763	406.44
347.99	410.44
348.218	387.44
348.445	391.44
348.673	386.44
348.9	401.44
349.128	403.44
349.355	396.44
349.583	409.44
349.81	391.44
350.037	382.44
350.265	393.44
350.492	389.44
350.72	363.44
350.947	399.44
351.174	384.44
351.402	390.44
351.629	382.44
351.856	384.44
352.083	392.44
352.311	409.44
352.538	391.44
352.765	388.44
352.992	391.44
353.22	380.44
353.447	387.44
353.674	387.44
353.901	379.44
354.128	373.44
354.355	375.44
354.583	378.44
354.81	385.44
355.037	382.44
355.264	376.44
355.491	385.44
355.718	372.44
355.945	374.44
356.172	360.44
356.399	367.44
356.626	375.44
356.853	376.44
357.08	371.44
357.307	371.44
357.534	376.44
357.761	379.44
357.988	372.44
358.215	358.44
358.441	362.44
358.668	394.44
358.895	381.44
359.122	373.44
359.349	385.44
359.576	395.44
359.802	387.44
360.029	400.44
360.256	419.44
360.483	396.44
360.709	392.44
360.936	389.44
361.163	386.44
361.39	391.44
361.616	407.44
361.843	387.44
362.07	394.44
362.296	396.44
362.523	381.44
362.749	393.44
362.976	398.44
363.203	379.44
363.429	368.44
363.656	371.44
363.882	366.44
364.109	377.44
364.335	359.44
364.562	371.44
364.788	359.44
365.015	364.44
365.241	375.44
365.468	393.44
365.694	369.44
365.92	373.44
366.147	373.44
366.373	373.44
366.599	384.44
366.826	375.44
367.052	360.44
367.278	395.44
367.505	372.44
367.731	371.44
367.957	394.44
368.184	368.44
368.41	365.44
368.636	372.44
368.862	401.44
369.089	391.44
369.315	360.44
369.541	367.44
369.767	366.44
369.993	378.44
370.219	371.44
370.445	391.44
370.672	361.44
370.898	382.44
371.124	374.44
371.35	361.44
371.576	383.44
371.802	387.44
372.028	379.44
372.254	353.44
372.48	398.44
372.706	383.44
372.932	381.44
373.158	396.44
373.384	367.44
373.61	377.44
373.835	376.44
374.061	365.44
374.287	378.44
374.513	375.44
374.739	385.44
374.965	397.44
375.191	412.44
375.416	377.44
375.642	426.44
375.868	405.44
376.094	387.44
376.319	373.44
376.545	372.44
376.771	372.44
376.997	363.44
377.222	385.44
377.448	385.44
377.674	392.44
377.899	383.44
378.125	364.44
378.35	379.44
378.576	368.44
378.802	380.44
379.027	377.44
379.253	377.44
379.478	379.44
379.704	357.44
379.929	357.44
380.155	356.44
380.38	380.44
380.606	387.44
380.831	380.44
381.057	373.44
381.282	367.44
381.507	376.44
381.733	379.44
381.958	367.44
382.184	356.44
382.409	374.44
382.634	371.44
382.86	393.44
383.085	393.44
383.31	392.44
383.535	394.44
383.761	389.44
383.986	407.44
384.211	410.44
384.436	391.44
384.662	399.44
384.887	427.44
385.112	422.44
385.337	411.44
385.562	409.44
385.787	407.44
386.013	407.44
386.238	412.44
386.463	426.44
386.688	415.44
386.913	406.44
387.138	417.44
387.363	423.44
387.588	382.44
387.813	399.44
388.038	407.44
388.263	421.44
388.488	441.44
388.713	404.44
388.938	403.44
389.163	412.44
389.387	403.44
389.612	413.44
389.837	413.44
390.062	416.44
390.287	397.44
390.512	433.44
390.736	420.44
390.961	412.44
391.186	422.44
391.411	424.44
391.636	401.44
391.86	428.44
392.085	401.44
392.31	409.44
392.534	430.44
392.759	416.44
392.984	420.44
393.208	427.44
393.433	408.44
393.658	440.44
393.882	421.44
394.107	431.44
394.331	404.44
394.556	421.44
394.78	420.44
395.005	416.44
395.229	420.44
395.454	441.44
395.678	421.44
395.903	437.44
396.127	447.44
396.352	448.44
396.576	439.44
396.801	428.44
397.025	420.44
397.249	446.44
397.474	435.44
397.698	441.44
397.922	445.44
398.147	435.44
398.371	462.44
398.595	437.44
398.82	465.44
399.044	482.44
399.268	497.44
399.492	504.44
399.717	555.44
399.941	577.44
400.165	584.44
400.389	576.44
400.613	516.44
400.837	499.44
401.062	471.44
401.286	465.44
401.51	462.44
401.734	445.44
401.958	468.44
402.182	482.44
402.406	500.44
402.63	499.44
402.854	473.44
403.078	485.44
403.302	511.44
403.526	492.44
403.75	507.44
403.974	502.44
404.198	503.44
404.422	480.44
404.645	477.44
404.869	528.44
405.093	515.44
405.317	551.44
405.541	559.44
405.765	510.44
405.988	533.44
406.212	526.44
406.436	513.44
406.66	517.44
406.883	522.44
407.107	529.44
407.331	567.44
407.555	624.44
407.778	615.44
408.002	557.44
408.226	541.44
408.449	524.44
408.673	534.44
408.896	530.44
409.12	570.44
409.344	543.44
409.567	515.44
409.791	505.44
410.014	489.44
410.238	480.44
410.461	471.44
410.685	499.44
410.908	477.44
411.132	499.44
411.355	537.44
411.578	505.44
411.802	477.44
412.025	474.44
412.249	487.44
412.472	483.44
412.695	516.44
412.919	513.44
413.142	479.44
413.365	465.44
413.589	470.44
413.812	474.44
414.035	463.44
414.258	464.44
414.482	495.44
414.705	473.44
414.928	457.44
415.151	460.44
415.374	447.44
415.597	464.44
415.821	436.44
416.044	439.44
416.267	462.44
416.49	454.44
416.713	461.44
416.936	443.44
417.159	454.44
417.382	434.44
417.605	457.44
417.828	447.44
418.051	474.44
418.274	470.44
418.497	451.44
418.72	454.44
418.943	447.44
419.166	480.44
419.389	481.44
419.611	473.44
419.834	473.44
420.057	472.44
420.28	448.44
420.503	466.44
420.726	465.44
420.948	491.44
421.171	517.44
421.394	536.44
421.617	475.44
421.839	464.44
422.062	448.44
422.285	491.44
422.507	499.44
422.73	572.44
422.953	539.44
423.175	471.44
423.398	465.44
423.621	495.44
423.843	488.44
424.066	508.44
424.288	476.44
424.511	505.44
424.733	561.44
424.956	595.44
425.178	568.44
425.401	569.44
425.623	560.44
425.846	516.44
426.068	493.44
426.291	453.44
426.513	479.44
426.735	481.44
426.958	510.44
427.18	560.44
427.402	684.44
427.625	715.44
427.847	616.44
428.069	534.44
428.292	498.44
428.514	495.44
428.736	469.44
428.958	430.44
429.181	463.44
429.403	432.44
429.625	435.44
429.847	499.44
430.069	520.44
430.292	502.44
430.514	436.44
430.736	435.44
430.958	408.44
431.18	416.44
431.402	421.44
431.624	407.44
431.846	429.44
432.068	418.44
432.29	431.44
432.512	431.44
432.734	421.44
432.956	421.44
433.178	444.44
433.4	444.44
433.622	419.44
433.844	424.44
434.066	432.44
434.287	430.44
434.509	425.44
434.731	428.44
434.953	443.44
435.175	437.44
435.397	468.44
435.618	469.44
435.84	516.44
436.062	575.44
436.284	616.44
436.505	558.44
436.727	482.44
436.949	459.44
437.17	454.44
437.392	428.44
437.614	431.44
437.835	451.44
438.057	556.44
438.278	577.44
438.5	599.44
438.721	652.44
438.943	630.44
439.165	532.44
439.386	489.44
439.608	467.44
439.829	468.44
440.05	507.44
440.272	501.44
440.493	463.44
440.715	474.44
440.936	446.44
441.158	468.44
441.379	457.44
441.6	467.44
441.822	479.44
442.043	500.44
442.264	535.44
442.486	583.44
442.707	525.44
442.928	489.44
443.149	490.44
443.371	501.44
443.592	553.44
443.813	603.44
444.034	627.44
444.255	540.44
444.476	515.44
444.698	494.44
444.919	486.44
445.14	574.44
445.361	527.44
445.582	540.44
445.803	569.44
446.024	604.44
446.245	598.44
446.466	582.44
446.687	499.44
446.908	464.44
447.129	445.44
447.35	438.44
447.571	441.44
447.792	423.44
448.013	424.44
448.234	424.44
448.455	486.44
448.675	574.44
448.896	673.44
449.117	537.44
449.338	527.44
449.559	593.44
449.779	687.44
450	539.44
450.221	468.44
450.442	438.44
450.662	411.44
450.883	409.44
451.104	408.44
451.324	426.44
451.545	404.44
451.766	391.44
451.986	375.44
452.207	391.44
452.428	387.44
452.648	400.44
452.869	356.44
453.089	395.44
453.31	395.44
453.53	392.44
453.751	384.44
453.971	399.44
454.192	412.44
454.412	375.44
454.633	399.44
454.853	380.44
455.073	379.44
455.294	397.44
455.514	462.44
455.734	421.44
455.955	373.44
456.175	380.44
456.395	364.44
456.616	369.44
456.836	383.44
457.056	351.44
457.276	371.44
457.497	381.44
457.717	388.44
457.937	373.44
458.157	384.44
458.377	393.44
458.598	410.44
458.818	425.44
459.038	484.44
459.258	493.44
459.478	432.44
459.698	421.44
459.918	428.44
460.138	423.44
460.358	420.44
460.578	456.44
460.798	451.44
461.018	462.44
461.238	443.44
461.458	433.44
461.678	444.44
461.898	443.44
462.118	430.44
462.338	462.44
462.558	464.44
462.777	494.44
462.997	492.44
463.217	494.44
463.437	512.44
463.657	480.44
463.876	499.44
464.096	473.44
464.316	491.44
464.536	475.44
464.755	481.44
464.975	476.44
465.195	475.44
465.414	505.44
465.634	449.44
465.854	447.44
466.073	432.44
466.293	400.44
466.512	398.44
466.732	382.44
466.951	404.44
467.171	404.44
467.391	421.44
467.61	408.44
467.829	404.44
468.049	419.44
468.268	401.44
468.488	409.44
468.707	417.44
468.927	418.44
469.146	396.44
469.365	383.44
469.585	430.44
469.804	405.44
470.023	407.44
470.243	404.44
470.462	407.44
470.681	397.44
470.901	417.44
471.12	429.44
471.339	421.44
471.558	399.44
471.777	411.44
471.997	407.44
472.216	391.44
472.435	399.44
472.654	411.44
472.873	409.44
473.092	395.44
473.311	395.44
473.53	406.44
473.749	389.44
473.968	417.44
474.187	509.44
474.406	490.44
474.625	437.44
474.844	415.44
475.063	416.44
475.282	407.44
475.501	406.44
475.72	411.44
475.939	413.44
476.158	411.44
476.377	439.44
476.596	428.44
476.814	401.44
477.033	410.44
477.252	423.44
477.471	432.44
477.69	435.44
477.908	424.44
478.127	460.44
478.346	447.44
478.564	449.44
478.783	448.44
479.002	453.44
479.22	476.44
479.439	474.44
479.658	476.44
479.876	494.44
480.095	507.44
480.313	502.44
480.532	485.44
480.751	510.44
480.969	513.44
481.188	523.44
481.406	505.44
481.624	481.44
481.843	485.44
482.061	477.44
482.28	464.44
482.498	473.44
482.717	457.44
482.935	482.44
483.153	460.44
483.372	480.44
483.59	481.44
483.808	475.44
484.027	461.44
484.245	458.44
484.463	457.44
484.681	481.44
484.9	461.44
485.118	492.44
485.336	475.44
485.554	463.44
485.772	480.44
485.99	478.44
486.209	487.44
486.427	490.44
486.645	485.44
486.863	508.44
487.081	486.44
487.299	501.44
487.517	483.44
487.735	505.44
487.953	500.44
488.171	504.44
488.389	504.44
488.607	509.44
488.825	489.44
489.043	501.44
489.261	503.44
489.479	498.44
489.696	496.44
489.914	498.44
490.132	513.44
490.35	517.44
490.568	492.44
490.786	507.44
491.003	541.44
491.221	536.44
491.439	547.44
491.657	519.44
491.874	527.44
492.092	526.44
492.31	532.44
492.527	529.44
492.745	556.44
492.963	586.44
493.18	567.44
493.398	545.44
493.615	563.44
493.833	545.44
494.05	549.44
494.268	572.44
494.485	563.44
494.703	578.44
494.92	573.44
495.138	576.44
495.355	574.44
495.573	572.44
495.79	565.44
496.008	570.44
496.225	549.44
496.442	567.44
496.66	580.44
496.877	585.44
497.094	609.44
497.312	594.44
497.529	600.44
497.746	624.44
497.963	613.44
498.181	624.44
498.398	655.44
498.615	661.44
498.832	664.44
499.049	717.44
499.267	713.44
499.484	746.44
499.701	785.44
499.918	833.44
500.135	872.44
500.352	899.44
500.569	921.44
500.786	920.44
501.003	907.44
501.22	873.44
501.437	821.44
501.654	778.44
501.871	756.44
502.088	711.44
