Data from 1977.PennyLincolnUp.Lamp.En5.5.200Scan.071719.P1_HRD10591_16-05-36-863.txt Node
Date: Thu Jul 18 16:05:36 EDT 2019
User: cochatt
Spectrometer: HR+D1059
Trigger mode: 1
Integration Time (sec): 1.000000E-1
Scans to average: 1
Electric dark correction enabled: true
Nonlinearity correction enabled: false
Boxcar width: 0
XAxis mode: Wavelengths
Number of Pixels in Spectrum: 2048
>>>>>Begin Spectral Data<<<<<
223.165	-3.31
223.4	-3.31
223.635	-3.31
223.869	-21.31
224.104	-31.31
224.338	-13.31
224.573	-8.31
224.808	-4.31
225.042	-7.31
225.277	-12.31
225.511	-14.31
225.746	13.69
225.98	10.69
226.215	10.69
226.449	10.69
226.683	28.69
226.918	17.69
227.152	23.69
227.387	46.69
227.621	43.69
227.856	54.69
228.09	43.69
228.324	38.69
228.559	43.69
228.793	76.69
229.027	89.69
229.262	110.69
229.496	105.69
229.73	118.69
229.964	125.69
230.199	121.69
230.433	107.69
230.667	114.69
230.901	103.69
231.136	97.69
231.37	89.69
231.604	109.69
231.838	106.69
232.072	106.69
232.306	113.69
232.541	97.69
232.775	120.69
233.009	102.69
233.243	102.69
233.477	106.69
233.711	121.69
233.945	106.69
234.179	124.69
234.413	118.69
234.647	94.69
234.881	109.69
235.115	110.69
235.349	107.69
235.583	116.69
235.817	110.69
236.051	129.69
236.285	116.69
236.519	117.69
236.753	115.69
236.987	135.69
237.221	162.69
237.455	170.69
237.689	148.69
237.922	121.69
238.156	111.69
238.39	141.69
238.624	121.69
238.858	108.69
239.091	121.69
239.325	113.69
239.559	126.69
239.793	122.69
240.027	133.69
240.26	147.69
240.494	154.69
240.728	140.69
240.961	136.69
241.195	133.69
241.429	126.69
241.662	134.69
241.896	122.69
242.13	127.69
242.363	133.69
242.597	145.69
242.83	145.69
243.064	140.69
243.298	132.69
243.531	122.69
243.765	136.69
243.998	149.69
244.232	131.69
244.465	129.69
244.699	143.69
244.932	149.69
245.166	132.69
245.399	134.69
245.633	149.69
245.866	122.69
246.099	145.69
246.333	142.69
246.566	133.69
246.8	151.69
247.033	149.69
247.266	141.69
247.5	149.69
247.733	151.69
247.966	149.69
248.2	168.69
248.433	162.69
248.666	159.69
248.899	159.69
249.133	178.69
249.366	199.69
249.599	186.69
249.832	162.69
250.066	155.69
250.299	181.69
250.532	174.69
250.765	183.69
250.998	207.69
251.231	198.69
251.465	212.69
251.698	196.69
251.931	185.69
252.164	200.69
252.397	181.69
252.63	167.69
252.863	198.69
253.096	219.69
253.329	212.69
253.562	207.69
253.795	211.69
254.028	191.69
254.261	219.69
254.494	221.69
254.727	225.69
254.96	257.69
255.193	234.69
255.426	227.69
255.659	202.69
255.892	200.69
256.124	212.69
256.357	206.69
256.59	213.69
256.823	203.69
257.056	205.69
257.289	200.69
257.521	203.69
257.754	218.69
257.987	195.69
258.22	208.69
258.452	195.69
258.685	208.69
258.918	213.69
259.151	206.69
259.383	189.69
259.616	221.69
259.849	219.69
260.081	214.69
260.314	229.69
260.547	236.69
260.779	244.69
261.012	222.69
261.244	234.69
261.477	217.69
261.71	220.69
261.942	226.69
262.175	213.69
262.407	222.69
262.64	212.69
262.872	227.69
263.105	209.69
263.337	211.69
263.57	211.69
263.802	205.69
264.035	198.69
264.267	221.69
264.499	207.69
264.732	223.69
264.964	215.69
265.197	213.69
265.429	222.69
265.661	220.69
265.894	222.69
266.126	217.69
266.358	215.69
266.591	225.69
266.823	218.69
267.055	230.69
267.287	221.69
267.52	210.69
267.752	224.69
267.984	220.69
268.216	224.69
268.448	232.69
268.681	247.69
268.913	219.69
269.145	248.69
269.377	280.69
269.609	254.69
269.841	254.69
270.073	260.69
270.306	284.69
270.538	297.69
270.77	291.69
271.002	277.69
271.234	286.69
271.466	289.69
271.698	289.69
271.93	298.69
272.162	295.69
272.394	293.69
272.626	291.69
272.858	268.69
273.09	263.69
273.322	270.69
273.553	258.69
273.785	265.69
274.017	238.69
274.249	273.69
274.481	259.69
274.713	265.69
274.945	263.69
275.176	274.69
275.408	259.69
275.64	260.69
275.872	274.69
276.104	270.69
276.335	261.69
276.567	263.69
276.799	281.69
277.031	293.69
277.262	300.69
277.494	289.69
277.726	302.69
277.957	271.69
278.189	259.69
278.421	269.69
278.652	268.69
278.884	268.69
279.115	276.69
279.347	280.69
279.579	268.69
279.81	275.69
280.042	289.69
280.273	288.69
280.505	280.69
280.736	283.69
280.968	264.69
281.199	271.69
281.431	278.69
281.662	281.69
281.894	275.69
282.125	284.69
282.356	293.69
282.588	280.69
282.819	311.69
283.051	300.69
283.282	291.69
283.513	277.69
283.745	277.69
283.976	294.69
284.207	287.69
284.439	283.69
284.67	287.69
284.901	295.69
285.132	289.69
285.364	277.69
285.595	293.69
285.826	299.69
286.057	297.69
286.288	301.69
286.52	294.69
286.751	286.69
286.982	269.69
287.213	285.69
287.444	281.69
287.675	291.69
287.906	300.69
288.138	322.69
288.369	314.69
288.6	295.69
288.831	313.69
289.062	294.69
289.293	297.69
289.524	319.69
289.755	317.69
289.986	322.69
290.217	281.69
290.448	303.69
290.679	319.69
290.91	305.69
291.141	300.69
291.371	301.69
291.602	290.69
291.833	317.69
292.064	315.69
292.295	295.69
292.526	305.69
292.757	301.69
292.987	292.69
293.218	298.69
293.449	303.69
293.68	305.69
293.91	304.69
294.141	303.69
294.372	321.69
294.603	313.69
294.833	299.69
295.064	322.69
295.295	289.69
295.525	309.69
295.756	317.69
295.987	308.69
296.217	311.69
296.448	312.69
296.679	319.69
296.909	310.69
297.14	311.69
297.37	307.69
297.601	305.69
297.831	305.69
298.062	296.69
298.292	305.69
298.523	324.69
298.753	317.69
298.984	335.69
299.214	330.69
299.445	339.69
299.675	307.69
299.905	335.69
300.136	341.69
300.366	329.69
300.597	340.69
300.827	338.69
301.057	343.69
301.288	338.69
301.518	325.69
301.748	321.69
301.979	337.69
302.209	336.69
302.439	342.69
302.669	345.69
302.9	349.69
303.13	358.69
303.36	331.69
303.59	348.69
303.82	343.69
304.051	360.69
304.281	353.69
304.511	357.69
304.741	342.69
304.971	341.69
305.201	342.69
305.431	345.69
305.661	343.69
305.891	339.69
306.121	348.69
306.352	354.69
306.582	355.69
306.812	349.69
307.042	334.69
307.272	364.69
307.502	361.69
307.731	328.69
307.961	327.69
308.191	354.69
308.421	363.69
308.651	345.69
308.881	343.69
309.111	347.69
309.341	362.69
309.571	363.69
309.8	372.69
310.03	381.69
310.26	378.69
310.49	368.69
310.72	366.69
310.949	377.69
311.179	367.69
311.409	369.69
311.639	370.69
311.868	377.69
312.098	379.69
312.328	388.69
312.557	405.69
312.787	388.69
313.017	386.69
313.246	371.69
313.476	382.69
313.706	374.69
313.935	398.69
314.165	378.69
314.394	389.69
314.624	402.69
314.853	375.69
315.083	393.69
315.312	388.69
315.542	378.69
315.771	377.69
316.001	375.69
316.23	372.69
316.46	380.69
316.689	373.69
316.919	375.69
317.148	388.69
317.377	385.69
317.607	369.69
317.836	378.69
318.065	379.69
318.295	385.69
318.524	375.69
318.753	366.69
318.983	376.69
319.212	387.69
319.441	387.69
319.67	383.69
319.9	381.69
320.129	385.69
320.358	398.69
320.587	403.69
320.816	400.69
321.046	393.69
321.275	409.69
321.504	390.69
321.733	411.69
321.962	401.69
322.191	417.69
322.42	415.69
322.649	422.69
322.878	406.69
323.108	423.69
323.337	471.69
323.566	441.69
323.795	481.69
324.024	501.69
324.253	588.69
324.482	777.69
324.71	1081.69
324.939	1475.69
325.168	1275.69
325.397	707.69
325.626	533.69
325.855	487.69
326.084	476.69
326.313	457.69
326.542	442.69
326.77	480.69
326.999	551.69
327.228	699.69
327.457	996.69
327.686	1115.69
327.914	760.69
328.143	569.69
328.372	510.69
328.6	502.69
328.829	492.69
329.058	514.69
329.287	501.69
329.515	458.69
329.744	463.69
329.972	459.69
330.201	492.69
330.43	492.69
330.658	510.69
330.887	510.69
331.115	508.69
331.344	491.69
331.572	483.69
331.801	449.69
332.03	457.69
332.258	455.69
332.486	462.69
332.715	449.69
332.943	460.69
333.172	474.69
333.4	471.69
333.629	474.69
333.857	478.69
334.085	497.69
334.314	487.69
334.542	503.69
334.771	498.69
334.999	495.69
335.227	457.69
335.455	458.69
335.684	477.69
335.912	462.69
336.14	450.69
336.369	459.69
336.597	460.69
336.825	457.69
337.053	451.69
337.281	474.69
337.51	422.69
337.738	454.69
337.966	452.69
338.194	453.69
338.422	442.69
338.65	451.69
338.878	443.69
339.106	428.69
339.334	428.69
339.562	445.69
339.79	430.69
340.018	417.69
340.246	432.69
340.474	436.69
340.702	432.69
340.93	420.69
341.158	411.69
341.386	412.69
341.614	423.69
341.842	429.69
342.07	424.69
342.298	433.69
342.526	413.69
342.754	424.69
342.981	415.69
343.209	428.69
343.437	426.69
343.665	446.69
343.893	446.69
344.12	443.69
344.348	453.69
344.576	445.69
344.804	423.69
345.031	429.69
345.259	457.69
345.487	448.69
345.714	423.69
345.942	417.69
346.17	423.69
346.397	411.69
346.625	408.69
346.853	420.69
347.08	393.69
347.308	397.69
347.535	415.69
347.763	408.69
347.99	415.69
348.218	415.69
348.445	424.69
348.673	384.69
348.9	399.69
349.128	405.69
349.355	404.69
349.583	390.69
349.81	423.69
350.037	376.69
350.265	402.69
350.492	383.69
350.72	410.69
350.947	397.69
351.174	396.69
351.402	407.69
351.629	412.69
351.856	411.69
352.083	406.69
352.311	403.69
352.538	420.69
352.765	407.69
352.992	390.69
353.22	382.69
353.447	390.69
353.674	417.69
353.901	398.69
354.128	380.69
354.355	379.69
354.583	385.69
354.81	400.69
355.037	390.69
355.264	379.69
355.491	381.69
355.718	393.69
355.945	380.69
356.172	393.69
356.399	382.69
356.626	377.69
356.853	374.69
357.08	373.69
357.307	390.69
357.534	361.69
357.761	395.69
357.988	364.69
358.215	373.69
358.441	376.69
358.668	390.69
358.895	378.69
359.122	401.69
359.349	394.69
359.576	390.69
359.802	405.69
360.029	401.69
360.256	433.69
360.483	411.69
360.709	389.69
360.936	387.69
361.163	399.69
361.39	403.69
361.616	397.69
361.843	404.69
362.07	403.69
362.296	393.69
362.523	374.69
362.749	393.69
362.976	386.69
363.203	396.69
363.429	382.69
363.656	392.69
363.882	377.69
364.109	371.69
364.335	384.69
364.562	374.69
364.788	373.69
365.015	361.69
365.241	387.69
365.468	387.69
365.694	376.69
365.92	374.69
366.147	366.69
366.373	381.69
366.599	385.69
366.826	377.69
367.052	374.69
367.278	381.69
367.505	353.69
367.731	379.69
367.957	373.69
368.184	385.69
368.41	384.69
368.636	386.69
368.862	382.69
369.089	399.69
369.315	386.69
369.541	397.69
369.767	374.69
369.993	379.69
370.219	382.69
370.445	398.69
370.672	378.69
370.898	390.69
371.124	394.69
371.35	384.69
371.576	393.69
371.802	376.69
372.028	390.69
372.254	387.69
372.48	403.69
372.706	397.69
372.932	406.69
373.158	387.69
373.384	387.69
373.61	381.69
373.835	380.69
374.061	390.69
374.287	392.69
374.513	419.69
374.739	392.69
374.965	396.69
375.191	396.69
375.416	391.69
375.642	388.69
375.868	382.69
376.094	394.69
376.319	377.69
376.545	399.69
376.771	382.69
376.997	375.69
377.222	387.69
377.448	382.69
377.674	367.69
377.899	369.69
378.125	377.69
378.35	390.69
378.576	373.69
378.802	361.69
379.027	355.69
379.253	369.69
379.478	366.69
379.704	379.69
379.929	373.69
380.155	373.69
380.38	379.69
380.606	369.69
380.831	367.69
381.057	393.69
381.282	393.69
381.507	371.69
381.733	374.69
381.958	372.69
382.184	387.69
382.409	388.69
382.634	397.69
382.86	399.69
383.085	392.69
383.31	394.69
383.535	407.69
383.761	407.69
383.986	399.69
384.211	417.69
384.436	399.69
384.662	422.69
384.887	419.69
385.112	419.69
385.337	412.69
385.562	406.69
385.787	434.69
386.013	407.69
386.238	427.69
386.463	430.69
386.688	449.69
386.913	430.69
387.138	417.69
387.363	418.69
387.588	428.69
387.813	426.69
388.038	429.69
388.263	406.69
388.488	430.69
388.713	433.69
388.938	425.69
389.163	407.69
389.387	445.69
389.612	423.69
389.837	422.69
390.062	415.69
390.287	422.69
390.512	415.69
390.736	425.69
390.961	421.69
391.186	409.69
391.411	423.69
391.636	433.69
391.86	429.69
392.085	435.69
392.31	440.69
392.534	447.69
392.759	435.69
392.984	416.69
393.208	417.69
393.433	422.69
393.658	447.69
393.882	436.69
394.107	436.69
394.331	422.69
394.556	414.69
394.78	418.69
395.005	437.69
395.229	426.69
395.454	429.69
395.678	426.69
395.903	446.69
396.127	448.69
396.352	462.69
396.576	460.69
396.801	454.69
397.025	469.69
397.249	433.69
397.474	448.69
397.698	438.69
397.922	449.69
398.147	461.69
398.371	460.69
398.595	471.69
398.82	480.69
399.044	492.69
399.268	507.69
399.492	545.69
399.717	568.69
399.941	575.69
400.165	574.69
400.389	604.69
400.613	541.69
400.837	505.69
401.062	493.69
401.286	494.69
401.51	483.69
401.734	468.69
401.958	478.69
402.182	479.69
402.406	491.69
402.63	494.69
402.854	493.69
403.078	502.69
403.302	491.69
403.526	490.69
403.75	514.69
403.974	512.69
404.198	515.69
404.422	506.69
404.645	513.69
404.869	505.69
405.093	555.69
405.317	557.69
405.541	577.69
405.765	537.69
405.988	513.69
406.212	525.69
406.436	521.69
406.66	549.69
406.883	540.69
407.107	558.69
407.331	583.69
407.555	631.69
407.778	645.69
408.002	579.69
408.226	560.69
408.449	534.69
408.673	568.69
408.896	569.69
409.12	578.69
409.344	577.69
409.567	517.69
409.791	506.69
410.014	491.69
410.238	485.69
410.461	501.69
410.685	489.69
410.908	517.69
411.132	514.69
411.355	541.69
411.578	541.69
411.802	493.69
412.025	469.69
412.249	522.69
412.472	507.69
412.695	513.69
412.919	493.69
413.142	475.69
413.365	483.69
413.589	487.69
413.812	469.69
414.035	456.69
414.258	487.69
414.482	456.69
414.705	460.69
414.928	481.69
415.151	441.69
415.374	470.69
415.597	443.69
415.821	435.69
416.044	461.69
416.267	461.69
416.49	472.69
416.713	444.69
416.936	476.69
417.159	454.69
417.382	462.69
417.605	442.69
417.828	454.69
418.051	454.69
418.274	463.69
418.497	463.69
418.72	455.69
418.943	463.69
419.166	462.69
419.389	493.69
419.611	484.69
419.834	480.69
420.057	490.69
420.28	475.69
420.503	456.69
420.726	459.69
420.948	494.69
421.171	503.69
421.394	547.69
421.617	482.69
421.839	464.69
422.062	479.69
422.285	476.69
422.507	538.69
422.73	572.69
422.953	552.69
423.175	525.69
423.398	471.69
423.621	472.69
423.843	504.69
424.066	486.69
424.288	483.69
424.511	501.69
424.733	554.69
424.956	601.69
425.178	581.69
425.401	579.69
425.623	596.69
425.846	518.69
426.068	481.69
426.291	513.69
426.513	489.69
426.735	497.69
426.958	517.69
427.18	582.69
427.402	682.69
427.625	734.69
427.847	620.69
428.069	562.69
428.292	491.69
428.514	469.69
428.736	452.69
428.958	455.69
429.181	448.69
429.403	459.69
429.625	479.69
429.847	492.69
430.069	525.69
430.292	533.69
430.514	468.69
430.736	453.69
430.958	429.69
431.18	434.69
431.402	427.69
431.624	423.69
431.846	444.69
432.068	435.69
432.29	432.69
432.512	423.69
432.734	446.69
432.956	423.69
433.178	437.69
433.4	436.69
433.622	443.69
433.844	427.69
434.066	433.69
434.287	441.69
434.509	466.69
434.731	452.69
434.953	470.69
435.175	480.69
435.397	493.69
435.618	500.69
435.84	517.69
436.062	574.69
436.284	631.69
436.505	529.69
436.727	503.69
436.949	477.69
437.17	449.69
437.392	442.69
437.614	457.69
437.835	473.69
438.057	553.69
438.278	607.69
438.5	599.69
438.721	697.69
438.943	665.69
439.165	519.69
439.386	503.69
439.608	486.69
439.829	469.69
440.05	497.69
440.272	529.69
440.493	494.69
440.715	470.69
440.936	483.69
441.158	458.69
441.379	441.69
441.6	489.69
441.822	463.69
442.043	511.69
442.264	571.69
442.486	596.69
442.707	533.69
442.928	501.69
443.149	505.69
443.371	512.69
443.592	539.69
443.813	585.69
444.034	671.69
444.255	563.69
444.476	519.69
444.698	523.69
444.919	523.69
445.14	612.69
445.361	570.69
445.582	512.69
445.803	528.69
446.024	630.69
446.245	637.69
446.466	585.69
446.687	517.69
446.908	485.69
447.129	450.69
447.35	446.69
447.571	443.69
447.792	433.69
448.013	447.69
448.234	442.69
448.455	489.69
448.675	573.69
448.896	649.69
449.117	568.69
449.338	544.69
449.559	603.69
449.779	707.69
450	557.69
450.221	468.69
450.442	462.69
450.662	433.69
450.883	425.69
451.104	430.69
451.324	447.69
451.545	407.69
451.766	413.69
451.986	401.69
452.207	417.69
452.428	398.69
452.648	399.69
452.869	401.69
453.089	405.69
453.31	416.69
453.53	412.69
453.751	399.69
453.971	401.69
454.192	398.69
454.412	387.69
454.633	399.69
454.853	401.69
455.073	369.69
455.294	436.69
455.514	455.69
455.734	435.69
455.955	397.69
456.175	394.69
456.395	386.69
456.616	383.69
456.836	372.69
457.056	361.69
457.276	362.69
457.497	392.69
457.717	400.69
457.937	386.69
458.157	384.69
458.377	396.69
458.598	401.69
458.818	448.69
459.038	491.69
459.258	492.69
459.478	448.69
459.698	429.69
459.918	425.69
460.138	434.69
460.358	439.69
460.578	455.69
460.798	453.69
461.018	447.69
461.238	438.69
461.458	461.69
461.678	462.69
461.898	467.69
462.118	453.69
462.338	463.69
462.558	473.69
462.777	478.69
462.997	486.69
463.217	489.69
463.437	525.69
463.657	497.69
463.876	485.69
464.096	492.69
464.316	486.69
464.536	472.69
464.755	472.69
464.975	463.69
465.195	527.69
465.414	510.69
465.634	483.69
465.854	454.69
466.073	429.69
466.293	443.69
466.512	400.69
466.732	414.69
466.951	413.69
467.171	400.69
467.391	431.69
467.61	407.69
467.829	414.69
468.049	441.69
468.268	424.69
468.488	411.69
468.707	397.69
468.927	391.69
469.146	407.69
469.365	410.69
469.585	403.69
469.804	407.69
470.023	418.69
470.243	418.69
470.462	431.69
470.681	427.69
470.901	411.69
471.12	428.69
471.339	406.69
471.558	409.69
471.777	415.69
471.997	402.69
472.216	391.69
472.435	419.69
472.654	401.69
472.873	402.69
473.092	403.69
473.311	406.69
473.53	405.69
473.749	425.69
473.968	448.69
474.187	511.69
474.406	515.69
474.625	437.69
474.844	417.69
475.063	422.69
475.282	398.69
475.501	419.69
475.72	421.69
475.939	446.69
476.158	416.69
476.377	430.69
476.596	414.69
476.814	434.69
477.033	423.69
477.252	435.69
477.471	450.69
477.69	460.69
477.908	457.69
478.127	446.69
478.346	453.69
478.564	466.69
478.783	468.69
479.002	481.69
479.22	476.69
479.439	478.69
479.658	471.69
479.876	503.69
480.095	492.69
480.313	523.69
480.532	517.69
480.751	513.69
480.969	527.69
481.188	546.69
481.406	549.69
481.624	517.69
481.843	474.69
482.061	475.69
482.28	455.69
482.498	482.69
482.717	478.69
482.935	461.69
483.153	491.69
483.372	466.69
483.59	465.69
483.808	467.69
484.027	457.69
484.245	477.69
484.463	488.69
484.681	483.69
484.9	483.69
485.118	484.69
485.336	473.69
485.554	494.69
485.772	496.69
485.99	488.69
486.209	483.69
486.427	463.69
486.645	493.69
486.863	483.69
487.081	516.69
487.299	490.69
487.517	518.69
487.735	501.69
487.953	504.69
488.171	509.69
488.389	497.69
488.607	490.69
488.825	513.69
489.043	513.69
489.261	523.69
489.479	502.69
489.696	503.69
489.914	520.69
490.132	543.69
490.35	503.69
490.568	511.69
490.786	523.69
491.003	559.69
491.221	532.69
491.439	535.69
491.657	542.69
491.874	554.69
492.092	569.69
492.31	557.69
492.527	529.69
492.745	553.69
492.963	585.69
493.18	579.69
493.398	574.69
493.615	574.69
493.833	563.69
494.05	585.69
494.268	602.69
494.485	571.69
494.703	583.69
494.92	597.69
495.138	583.69
495.355	572.69
495.573	598.69
495.79	595.69
496.008	592.69
496.225	570.69
496.442	577.69
496.66	579.69
496.877	597.69
497.094	609.69
497.312	607.69
497.529	622.69
497.746	628.69
497.963	622.69
498.181	649.69
498.398	663.69
498.615	674.69
498.832	716.69
499.049	705.69
499.267	741.69
499.484	804.69
499.701	799.69
499.918	827.69
500.135	877.69
500.352	921.69
500.569	931.69
500.786	945.69
501.003	901.69
501.22	906.69
501.437	869.69
501.654	806.69
501.871	803.69
502.088	765.69
