Data from 1977.PennyLincolnUp.Lamp.En5.5.200Scan.071719.P1_HRD10591_16-05-16-863.txt Node
Date: Thu Jul 18 16:05:16 EDT 2019
User: cochatt
Spectrometer: HR+D1059
Trigger mode: 1
Integration Time (sec): 1.000000E-1
Scans to average: 1
Electric dark correction enabled: true
Nonlinearity correction enabled: false
Boxcar width: 0
XAxis mode: Wavelengths
Number of Pixels in Spectrum: 2048
>>>>>Begin Spectral Data<<<<<
223.165	-14.56
223.4	-14.56
223.635	-14.56
223.869	-9.56
224.104	-14.56
224.338	-11.56
224.573	-38.56
224.808	-10.56
225.042	-5.56
225.277	-22.56
225.511	5.44
225.746	5.44
225.98	5.44
226.215	26.44
226.449	15.44
226.683	21.44
226.918	24.44
227.152	23.44
227.387	26.44
227.621	25.44
227.856	44.44
228.09	36.44
228.324	41.44
228.559	63.44
228.793	49.44
229.027	80.44
229.262	95.44
229.496	104.44
229.73	117.44
229.964	111.44
230.199	113.44
230.433	91.44
230.667	103.44
230.901	102.44
231.136	109.44
231.37	114.44
231.604	122.44
231.838	113.44
232.072	105.44
232.306	108.44
232.541	112.44
232.775	103.44
233.009	105.44
233.243	103.44
233.477	100.44
233.711	97.44
233.945	90.44
234.179	116.44
234.413	113.44
234.647	117.44
234.881	117.44
235.115	99.44
235.349	125.44
235.583	127.44
235.817	120.44
236.051	123.44
236.285	131.44
236.519	107.44
236.753	105.44
236.987	142.44
237.221	156.44
237.455	189.44
237.689	156.44
237.922	137.44
238.156	116.44
238.39	131.44
238.624	129.44
238.858	127.44
239.091	137.44
239.325	125.44
239.559	116.44
239.793	123.44
240.027	112.44
240.26	124.44
240.494	137.44
240.728	137.44
240.961	133.44
241.195	129.44
241.429	138.44
241.662	133.44
241.896	126.44
242.13	138.44
242.363	126.44
242.597	125.44
242.83	123.44
243.064	129.44
243.298	139.44
243.531	127.44
243.765	137.44
243.998	127.44
244.232	140.44
244.465	135.44
244.699	145.44
244.932	142.44
245.166	133.44
245.399	137.44
245.633	137.44
245.866	134.44
246.099	139.44
246.333	150.44
246.566	152.44
246.8	142.44
247.033	140.44
247.266	151.44
247.5	147.44
247.733	153.44
247.966	150.44
248.2	155.44
248.433	173.44
248.666	157.44
248.899	165.44
249.133	170.44
249.366	176.44
249.599	175.44
249.832	171.44
250.066	173.44
250.299	170.44
250.532	172.44
250.765	188.44
250.998	206.44
251.231	204.44
251.465	195.44
251.698	181.44
251.931	165.44
252.164	175.44
252.397	182.44
252.63	183.44
252.863	193.44
253.096	195.44
253.329	205.44
253.562	190.44
253.795	188.44
254.028	197.44
254.261	212.44
254.494	204.44
254.727	209.44
254.96	230.44
255.193	209.44
255.426	217.44
255.659	209.44
255.892	193.44
256.124	196.44
256.357	217.44
256.59	216.44
256.823	187.44
257.056	201.44
257.289	197.44
257.521	191.44
257.754	201.44
257.987	200.44
258.22	206.44
258.452	190.44
258.685	191.44
258.918	184.44
259.151	191.44
259.383	196.44
259.616	195.44
259.849	211.44
260.081	237.44
260.314	226.44
260.547	214.44
260.779	232.44
261.012	221.44
261.244	214.44
261.477	220.44
261.71	225.44
261.942	225.44
262.175	207.44
262.407	210.44
262.64	204.44
262.872	200.44
263.105	204.44
263.337	218.44
263.57	207.44
263.802	210.44
264.035	211.44
264.267	205.44
264.499	194.44
264.732	202.44
264.964	220.44
265.197	198.44
265.429	218.44
265.661	202.44
265.894	198.44
266.126	213.44
266.358	186.44
266.591	218.44
266.823	217.44
267.055	220.44
267.287	237.44
267.52	231.44
267.752	230.44
267.984	226.44
268.216	223.44
268.448	225.44
268.681	236.44
268.913	218.44
269.145	234.44
269.377	256.44
269.609	252.44
269.841	248.44
270.073	242.44
270.306	257.44
270.538	263.44
270.77	255.44
271.002	265.44
271.234	262.44
271.466	264.44
271.698	299.44
271.93	284.44
272.162	284.44
272.394	281.44
272.626	277.44
272.858	280.44
273.09	262.44
273.322	271.44
273.553	266.44
273.785	258.44
274.017	256.44
274.249	246.44
274.481	259.44
274.713	250.44
274.945	262.44
275.176	257.44
275.408	264.44
275.64	262.44
275.872	246.44
276.104	271.44
276.335	253.44
276.567	252.44
276.799	262.44
277.031	275.44
277.262	294.44
277.494	295.44
277.726	278.44
277.957	275.44
278.189	274.44
278.421	280.44
278.652	271.44
278.884	255.44
279.115	273.44
279.347	279.44
279.579	263.44
279.81	266.44
280.042	257.44
280.273	269.44
280.505	259.44
280.736	258.44
280.968	283.44
281.199	255.44
281.431	261.44
281.662	282.44
281.894	290.44
282.125	265.44
282.356	301.44
282.588	286.44
282.819	289.44
283.051	255.44
283.282	275.44
283.513	286.44
283.745	277.44
283.976	279.44
284.207	275.44
284.439	256.44
284.67	286.44
284.901	291.44
285.132	291.44
285.364	286.44
285.595	289.44
285.826	271.44
286.057	283.44
286.288	279.44
286.52	285.44
286.751	279.44
286.982	297.44
287.213	270.44
287.444	286.44
287.675	286.44
287.906	287.44
288.138	293.44
288.369	312.44
288.6	316.44
288.831	297.44
289.062	297.44
289.293	297.44
289.524	286.44
289.755	300.44
289.986	305.44
290.217	306.44
290.448	294.44
290.679	291.44
290.91	296.44
291.141	285.44
291.371	274.44
291.602	279.44
291.833	289.44
292.064	279.44
292.295	296.44
292.526	285.44
292.757	280.44
292.987	301.44
293.218	296.44
293.449	289.44
293.68	299.44
293.91	287.44
294.141	292.44
294.372	298.44
294.603	277.44
294.833	309.44
295.064	306.44
295.295	325.44
295.525	297.44
295.756	302.44
295.987	291.44
296.217	313.44
296.448	312.44
296.679	291.44
296.909	294.44
297.14	307.44
297.37	318.44
297.601	333.44
297.831	285.44
298.062	311.44
298.292	305.44
298.523	310.44
298.753	313.44
298.984	319.44
299.214	331.44
299.445	313.44
299.675	316.44
299.905	309.44
300.136	300.44
300.366	305.44
300.597	309.44
300.827	332.44
301.057	306.44
301.288	318.44
301.518	326.44
301.748	323.44
301.979	326.44
302.209	332.44
302.439	305.44
302.669	329.44
302.9	328.44
303.13	321.44
303.36	346.44
303.59	348.44
303.82	336.44
304.051	347.44
304.281	351.44
304.511	341.44
304.741	325.44
304.971	329.44
305.201	331.44
305.431	325.44
305.661	329.44
305.891	345.44
306.121	326.44
306.352	340.44
306.582	330.44
306.812	331.44
307.042	330.44
307.272	349.44
307.502	347.44
307.731	348.44
307.961	331.44
308.191	328.44
308.421	358.44
308.651	349.44
308.881	338.44
309.111	356.44
309.341	333.44
309.571	336.44
309.8	353.44
310.03	360.44
310.26	371.44
310.49	349.44
310.72	366.44
310.949	370.44
311.179	363.44
311.409	353.44
311.639	356.44
311.868	354.44
312.098	347.44
312.328	378.44
312.557	367.44
312.787	389.44
313.017	368.44
313.246	349.44
313.476	351.44
313.706	356.44
313.935	371.44
314.165	351.44
314.394	381.44
314.624	381.44
314.853	357.44
315.083	379.44
315.312	371.44
315.542	364.44
315.771	361.44
316.001	372.44
316.23	384.44
316.46	367.44
316.689	369.44
316.919	355.44
317.148	387.44
317.377	383.44
317.607	390.44
317.836	373.44
318.065	363.44
318.295	356.44
318.524	374.44
318.753	350.44
318.983	382.44
319.212	381.44
319.441	374.44
319.67	362.44
319.9	397.44
320.129	386.44
320.358	362.44
320.587	373.44
320.816	375.44
321.046	391.44
321.275	395.44
321.504	391.44
321.733	386.44
321.962	384.44
322.191	401.44
322.42	408.44
322.649	409.44
322.878	394.44
323.108	409.44
323.337	419.44
323.566	412.44
323.795	456.44
324.024	473.44
324.253	539.44
324.482	712.44
324.71	1021.44
324.939	1340.44
325.168	1157.44
325.397	676.44
325.626	508.44
325.855	425.44
326.084	437.44
326.313	446.44
326.542	447.44
326.77	466.44
326.999	519.44
327.228	682.44
327.457	909.44
327.686	1045.44
327.914	742.44
328.143	526.44
328.372	499.44
328.6	468.44
328.829	473.44
329.058	468.44
329.287	476.44
329.515	453.44
329.744	443.44
329.972	448.44
330.201	450.44
330.43	467.44
330.658	471.44
330.887	485.44
331.115	474.44
331.344	438.44
331.572	434.44
331.801	404.44
332.03	433.44
332.258	437.44
332.486	445.44
332.715	451.44
332.943	439.44
333.172	430.44
333.4	447.44
333.629	452.44
333.857	462.44
334.085	475.44
334.314	469.44
334.542	471.44
334.771	494.44
334.999	445.44
335.227	445.44
335.455	451.44
335.684	436.44
335.912	436.44
336.14	452.44
336.369	427.44
336.597	446.44
336.825	430.44
337.053	439.44
337.281	418.44
337.51	447.44
337.738	411.44
337.966	433.44
338.194	413.44
338.422	425.44
338.65	413.44
338.878	428.44
339.106	421.44
339.334	423.44
339.562	414.44
339.79	424.44
340.018	382.44
340.246	404.44
340.474	416.44
340.702	406.44
340.93	400.44
341.158	401.44
341.386	401.44
341.614	406.44
341.842	409.44
342.07	411.44
342.298	423.44
342.526	394.44
342.754	407.44
342.981	409.44
343.209	409.44
343.437	425.44
343.665	416.44
343.893	425.44
344.12	439.44
344.348	439.44
344.576	437.44
344.804	419.44
345.031	414.44
345.259	428.44
345.487	410.44
345.714	393.44
345.942	384.44
346.17	391.44
346.397	377.44
346.625	397.44
346.853	408.44
347.08	395.44
347.308	396.44
347.535	408.44
347.763	376.44
347.99	405.44
348.218	390.44
348.445	387.44
348.673	389.44
348.9	398.44
349.128	379.44
349.355	374.44
349.583	377.44
349.81	371.44
350.037	387.44
350.265	357.44
350.492	384.44
350.72	369.44
350.947	400.44
351.174	378.44
351.402	377.44
351.629	404.44
351.856	381.44
352.083	391.44
352.311	387.44
352.538	391.44
352.765	379.44
352.992	398.44
353.22	385.44
353.447	378.44
353.674	387.44
353.901	343.44
354.128	376.44
354.355	375.44
354.583	373.44
354.81	363.44
355.037	355.44
355.264	359.44
355.491	371.44
355.718	373.44
355.945	394.44
356.172	376.44
356.399	371.44
356.626	382.44
356.853	358.44
357.08	379.44
357.307	352.44
357.534	374.44
357.761	362.44
357.988	373.44
358.215	377.44
358.441	378.44
358.668	359.44
358.895	345.44
359.122	358.44
359.349	395.44
359.576	385.44
359.802	385.44
360.029	405.44
360.256	407.44
360.483	402.44
360.709	386.44
360.936	366.44
361.163	370.44
361.39	388.44
361.616	399.44
361.843	384.44
362.07	377.44
362.296	380.44
362.523	402.44
362.749	375.44
362.976	354.44
363.203	373.44
363.429	375.44
363.656	369.44
363.882	370.44
364.109	361.44
364.335	346.44
364.562	365.44
364.788	370.44
365.015	377.44
365.241	353.44
365.468	359.44
365.694	350.44
365.92	352.44
366.147	355.44
366.373	375.44
366.599	381.44
366.826	365.44
367.052	366.44
367.278	372.44
367.505	353.44
367.731	368.44
367.957	350.44
368.184	353.44
368.41	360.44
368.636	381.44
368.862	388.44
369.089	378.44
369.315	377.44
369.541	379.44
369.767	370.44
369.993	372.44
370.219	364.44
370.445	366.44
370.672	379.44
370.898	363.44
371.124	369.44
371.35	362.44
371.576	389.44
371.802	389.44
372.028	375.44
372.254	376.44
372.48	373.44
372.706	373.44
372.932	398.44
373.158	375.44
373.384	381.44
373.61	382.44
373.835	373.44
374.061	377.44
374.287	378.44
374.513	382.44
374.739	385.44
374.965	392.44
375.191	374.44
375.416	403.44
375.642	387.44
375.868	382.44
376.094	379.44
376.319	378.44
376.545	381.44
376.771	382.44
376.997	381.44
377.222	360.44
377.448	362.44
377.674	375.44
377.899	371.44
378.125	356.44
378.35	359.44
378.576	354.44
378.802	348.44
379.027	381.44
379.253	375.44
379.478	361.44
379.704	357.44
379.929	395.44
380.155	375.44
380.38	380.44
380.606	349.44
380.831	380.44
381.057	371.44
381.282	375.44
381.507	350.44
381.733	374.44
381.958	374.44
382.184	369.44
382.409	353.44
382.634	364.44
382.86	365.44
383.085	383.44
383.31	391.44
383.535	385.44
383.761	402.44
383.986	378.44
384.211	389.44
384.436	400.44
384.662	392.44
384.887	391.44
385.112	412.44
385.337	429.44
385.562	401.44
385.787	403.44
386.013	417.44
386.238	415.44
386.463	419.44
386.688	415.44
386.913	401.44
387.138	405.44
387.363	392.44
387.588	405.44
387.813	417.44
388.038	406.44
388.263	395.44
388.488	405.44
388.713	409.44
388.938	395.44
389.163	391.44
389.387	387.44
389.612	402.44
389.837	405.44
390.062	397.44
390.287	401.44
390.512	408.44
390.736	397.44
390.961	400.44
391.186	402.44
391.411	415.44
391.636	414.44
391.86	418.44
392.085	435.44
392.31	443.44
392.534	413.44
392.759	423.44
392.984	431.44
393.208	415.44
393.433	402.44
393.658	429.44
393.882	403.44
394.107	398.44
394.331	415.44
394.556	428.44
394.78	436.44
395.005	397.44
395.229	419.44
395.454	423.44
395.678	421.44
395.903	421.44
396.127	436.44
396.352	433.44
396.576	434.44
396.801	425.44
397.025	442.44
397.249	419.44
397.474	436.44
397.698	423.44
397.922	446.44
398.147	454.44
398.371	459.44
398.595	461.44
398.82	453.44
399.044	454.44
399.268	496.44
399.492	514.44
399.717	543.44
399.941	584.44
400.165	565.44
400.389	561.44
400.613	528.44
400.837	492.44
401.062	495.44
401.286	464.44
401.51	466.44
401.734	466.44
401.958	447.44
402.182	486.44
402.406	469.44
402.63	483.44
402.854	479.44
403.078	490.44
403.302	483.44
403.526	487.44
403.75	475.44
403.974	457.44
404.198	470.44
404.422	492.44
404.645	487.44
404.869	506.44
405.093	511.44
405.317	532.44
405.541	536.44
405.765	502.44
405.988	494.44
406.212	492.44
406.436	492.44
406.66	487.44
406.883	506.44
407.107	535.44
407.331	580.44
407.555	582.44
407.778	599.44
408.002	548.44
408.226	527.44
408.449	518.44
408.673	517.44
408.896	536.44
409.12	554.44
409.344	543.44
409.567	467.44
409.791	501.44
410.014	470.44
410.238	478.44
410.461	475.44
410.685	477.44
410.908	475.44
411.132	505.44
411.355	499.44
411.578	525.44
411.802	472.44
412.025	446.44
412.249	454.44
412.472	499.44
412.695	501.44
412.919	513.44
413.142	469.44
413.365	462.44
413.589	464.44
413.812	454.44
414.035	445.44
414.258	474.44
414.482	460.44
414.705	456.44
414.928	452.44
415.151	468.44
415.374	426.44
415.597	440.44
415.821	426.44
416.044	433.44
416.267	443.44
416.49	431.44
416.713	445.44
416.936	445.44
417.159	450.44
417.382	444.44
417.605	437.44
417.828	441.44
418.051	447.44
418.274	442.44
418.497	452.44
418.72	446.44
418.943	450.44
419.166	478.44
419.389	485.44
419.611	477.44
419.834	479.44
420.057	476.44
420.28	445.44
420.503	451.44
420.726	424.44
420.948	461.44
421.171	491.44
421.394	515.44
421.617	467.44
421.839	457.44
422.062	443.44
422.285	455.44
422.507	508.44
422.73	558.44
422.953	546.44
423.175	473.44
423.398	462.44
423.621	466.44
423.843	502.44
424.066	488.44
424.288	474.44
424.511	487.44
424.733	532.44
424.956	583.44
425.178	558.44
425.401	577.44
425.623	555.44
425.846	513.44
426.068	466.44
426.291	452.44
426.513	475.44
426.735	495.44
426.958	504.44
427.18	542.44
427.402	651.44
427.625	693.44
427.847	589.44
428.069	545.44
428.292	478.44
428.514	455.44
428.736	440.44
428.958	427.44
429.181	430.44
429.403	411.44
429.625	466.44
429.847	483.44
430.069	478.44
430.292	509.44
430.514	446.44
430.736	441.44
430.958	413.44
431.18	451.44
431.402	446.44
431.624	402.44
431.846	431.44
432.068	429.44
432.29	430.44
432.512	435.44
432.734	417.44
432.956	418.44
433.178	405.44
433.4	430.44
433.622	419.44
433.844	415.44
434.066	423.44
434.287	430.44
434.509	429.44
434.731	441.44
434.953	422.44
435.175	459.44
435.397	475.44
435.618	453.44
435.84	513.44
436.062	561.44
436.284	593.44
436.505	508.44
436.727	467.44
436.949	448.44
437.17	449.44
437.392	426.44
437.614	450.44
437.835	470.44
438.057	525.44
438.278	593.44
438.5	581.44
438.721	653.44
438.943	640.44
439.165	516.44
439.386	461.44
439.608	467.44
439.829	475.44
440.05	470.44
440.272	487.44
440.493	485.44
440.715	447.44
440.936	445.44
441.158	442.44
441.379	428.44
441.6	456.44
441.822	462.44
442.043	488.44
442.264	556.44
442.486	572.44
442.707	493.44
442.928	477.44
443.149	476.44
443.371	477.44
443.592	538.44
443.813	561.44
444.034	640.44
444.255	553.44
444.476	487.44
444.698	485.44
444.919	509.44
445.14	584.44
445.361	531.44
445.582	493.44
445.803	531.44
446.024	577.44
446.245	605.44
446.466	563.44
446.687	476.44
446.908	465.44
447.129	438.44
447.35	451.44
447.571	431.44
447.792	420.44
448.013	424.44
448.234	430.44
448.455	449.44
448.675	545.44
448.896	617.44
449.117	549.44
449.338	534.44
449.559	590.44
449.779	663.44
450	550.44
450.221	472.44
450.442	418.44
450.662	407.44
450.883	409.44
451.104	417.44
451.324	414.44
451.545	410.44
451.766	379.44
451.986	395.44
452.207	398.44
452.428	377.44
452.648	395.44
452.869	375.44
453.089	382.44
453.31	389.44
453.53	389.44
453.751	386.44
453.971	343.44
454.192	367.44
454.412	389.44
454.633	377.44
454.853	357.44
455.073	379.44
455.294	410.44
455.514	441.44
455.734	422.44
455.955	393.44
456.175	367.44
456.395	372.44
456.616	374.44
456.836	385.44
457.056	374.44
457.276	370.44
457.497	375.44
457.717	359.44
457.937	383.44
458.157	359.44
458.377	387.44
458.598	399.44
458.818	414.44
459.038	479.44
459.258	473.44
459.478	409.44
459.698	409.44
459.918	422.44
460.138	412.44
460.358	424.44
460.578	421.44
460.798	425.44
461.018	462.44
461.238	443.44
461.458	428.44
461.678	433.44
461.898	446.44
462.118	431.44
462.338	445.44
462.558	445.44
462.777	476.44
462.997	500.44
463.217	484.44
463.437	482.44
463.657	481.44
463.876	455.44
464.096	477.44
464.316	441.44
464.536	473.44
464.755	463.44
464.975	458.44
465.195	488.44
465.414	487.44
465.634	473.44
465.854	442.44
466.073	420.44
466.293	413.44
466.512	405.44
466.732	397.44
466.951	397.44
467.171	421.44
467.391	395.44
467.61	411.44
467.829	406.44
468.049	406.44
468.268	381.44
468.488	398.44
468.707	394.44
468.927	369.44
469.146	376.44
469.365	393.44
469.585	383.44
469.804	405.44
470.023	403.44
470.243	395.44
470.462	402.44
470.681	408.44
470.901	412.44
471.12	398.44
471.339	391.44
471.558	405.44
471.777	422.44
471.997	391.44
472.216	391.44
472.435	412.44
472.654	413.44
472.873	396.44
473.092	403.44
473.311	401.44
473.53	395.44
473.749	414.44
473.968	423.44
474.187	505.44
474.406	501.44
474.625	443.44
474.844	433.44
475.063	395.44
475.282	387.44
475.501	418.44
475.72	424.44
475.939	406.44
476.158	398.44
476.377	414.44
476.596	404.44
476.814	410.44
477.033	420.44
477.252	411.44
477.471	439.44
477.69	434.44
477.908	441.44
478.127	430.44
478.346	449.44
478.564	462.44
478.783	427.44
479.002	447.44
479.22	469.44
479.439	453.44
479.658	463.44
479.876	469.44
480.095	478.44
480.313	494.44
480.532	482.44
480.751	507.44
480.969	485.44
481.188	479.44
481.406	497.44
481.624	480.44
481.843	503.44
482.061	469.44
482.28	462.44
482.498	449.44
482.717	437.44
482.935	462.44
483.153	457.44
483.372	458.44
483.59	469.44
483.808	439.44
484.027	434.44
484.245	449.44
484.463	480.44
484.681	481.44
484.9	483.44
485.118	471.44
485.336	464.44
485.554	483.44
485.772	493.44
485.99	466.44
486.209	479.44
486.427	466.44
486.645	473.44
486.863	489.44
487.081	474.44
487.299	476.44
487.517	479.44
487.735	473.44
487.953	482.44
488.171	493.44
488.389	493.44
488.607	492.44
488.825	483.44
489.043	497.44
489.261	494.44
489.479	490.44
489.696	499.44
489.914	510.44
490.132	484.44
490.35	485.44
490.568	489.44
490.786	501.44
491.003	505.44
491.221	522.44
491.439	515.44
491.657	549.44
491.874	519.44
492.092	523.44
492.31	552.44
492.527	535.44
492.745	538.44
492.963	543.44
493.18	531.44
493.398	556.44
493.615	567.44
493.833	556.44
494.05	551.44
494.268	553.44
494.485	554.44
494.703	554.44
494.92	563.44
495.138	541.44
495.355	562.44
495.573	547.44
495.79	559.44
496.008	553.44
496.225	575.44
496.442	551.44
496.66	571.44
496.877	583.44
497.094	564.44
497.312	583.44
497.529	572.44
497.746	577.44
497.963	587.44
498.181	641.44
498.398	657.44
498.615	645.44
498.832	661.44
499.049	679.44
499.267	724.44
499.484	732.44
499.701	771.44
499.918	805.44
500.135	856.44
500.352	887.44
500.569	915.44
500.786	909.44
501.003	884.44
501.22	863.44
501.437	817.44
501.654	789.44
501.871	758.44
502.088	723.44
