Data from 1977.PennyLincolnUp.Lamp.En5.5.200Scan.071719.P1_HRD10591_16-07-03-864.txt Node
Date: Thu Jul 18 16:07:03 EDT 2019
User: cochatt
Spectrometer: HR+D1059
Trigger mode: 1
Integration Time (sec): 1.000000E-1
Scans to average: 1
Electric dark correction enabled: true
Nonlinearity correction enabled: false
Boxcar width: 0
XAxis mode: Wavelengths
Number of Pixels in Spectrum: 2048
>>>>>Begin Spectral Data<<<<<
223.165	-15.75
223.4	-15.75
223.635	-15.75
223.869	-10.75
224.104	-3.75
224.338	-16.75
224.573	-22.75
224.808	-18.75
225.042	-4.75
225.277	-5.75
225.511	-4.75
225.746	-5.75
225.98	0.25
226.215	18.25
226.449	12.25
226.683	21.25
226.918	24.25
227.152	33.25
227.387	40.25
227.621	35.25
227.856	35.25
228.09	67.25
228.324	57.25
228.559	55.25
228.793	49.25
229.027	87.25
229.262	97.25
229.496	114.25
229.73	127.25
229.964	148.25
230.199	126.25
230.433	116.25
230.667	108.25
230.901	114.25
231.136	106.25
231.37	112.25
231.604	127.25
231.838	110.25
232.072	114.25
232.306	109.25
232.541	127.25
232.775	101.25
233.009	106.25
233.243	131.25
233.477	106.25
233.711	112.25
233.945	117.25
234.179	116.25
234.413	117.25
234.647	117.25
234.881	126.25
235.115	115.25
235.349	125.25
235.583	110.25
235.817	107.25
236.051	121.25
236.285	114.25
236.519	111.25
236.753	138.25
236.987	134.25
237.221	186.25
237.455	212.25
237.689	166.25
237.922	150.25
238.156	124.25
238.39	129.25
238.624	130.25
238.858	124.25
239.091	130.25
239.325	126.25
239.559	133.25
239.793	132.25
240.027	123.25
240.26	137.25
240.494	162.25
240.728	154.25
240.961	143.25
241.195	140.25
241.429	142.25
241.662	133.25
241.896	149.25
242.13	149.25
242.363	126.25
242.597	152.25
242.83	151.25
243.064	144.25
243.298	137.25
243.531	123.25
243.765	136.25
243.998	141.25
244.232	140.25
244.465	139.25
244.699	149.25
244.932	148.25
245.166	144.25
245.399	152.25
245.633	154.25
245.866	132.25
246.099	154.25
246.333	155.25
246.566	142.25
246.8	148.25
247.033	156.25
247.266	152.25
247.5	160.25
247.733	160.25
247.966	165.25
248.2	173.25
248.433	167.25
248.666	186.25
248.899	182.25
249.133	183.25
249.366	189.25
249.599	198.25
249.832	191.25
250.066	201.25
250.299	179.25
250.532	182.25
250.765	206.25
250.998	198.25
251.231	220.25
251.465	212.25
251.698	201.25
251.931	182.25
252.164	182.25
252.397	169.25
252.63	206.25
252.863	186.25
253.096	205.25
253.329	218.25
253.562	235.25
253.795	214.25
254.028	216.25
254.261	215.25
254.494	214.25
254.727	238.25
254.96	265.25
255.193	260.25
255.426	236.25
255.659	243.25
255.892	219.25
256.124	219.25
256.357	225.25
256.59	227.25
256.823	205.25
257.056	207.25
257.289	222.25
257.521	199.25
257.754	197.25
257.987	199.25
258.22	205.25
258.452	201.25
258.685	212.25
258.918	211.25
259.151	212.25
259.383	229.25
259.616	226.25
259.849	214.25
260.081	242.25
260.314	262.25
260.547	257.25
260.779	256.25
261.012	243.25
261.244	218.25
261.477	222.25
261.71	220.25
261.942	213.25
262.175	220.25
262.407	223.25
262.64	206.25
262.872	214.25
263.105	215.25
263.337	238.25
263.57	224.25
263.802	203.25
264.035	224.25
264.267	219.25
264.499	229.25
264.732	233.25
264.964	229.25
265.197	218.25
265.429	224.25
265.661	214.25
265.894	218.25
266.126	243.25
266.358	217.25
266.591	220.25
266.823	222.25
267.055	254.25
267.287	223.25
267.52	234.25
267.752	237.25
267.984	235.25
268.216	236.25
268.448	236.25
268.681	244.25
268.913	250.25
269.145	244.25
269.377	277.25
269.609	282.25
269.841	281.25
270.073	277.25
270.306	301.25
270.538	324.25
270.77	312.25
271.002	303.25
271.234	299.25
271.466	312.25
271.698	313.25
271.93	319.25
272.162	303.25
272.394	315.25
272.626	301.25
272.858	290.25
273.09	271.25
273.322	270.25
273.553	268.25
273.785	276.25
274.017	275.25
274.249	281.25
274.481	264.25
274.713	274.25
274.945	278.25
275.176	268.25
275.408	282.25
275.64	298.25
275.872	265.25
276.104	291.25
276.335	277.25
276.567	271.25
276.799	303.25
277.031	308.25
277.262	322.25
277.494	322.25
277.726	318.25
277.957	298.25
278.189	290.25
278.421	276.25
278.652	285.25
278.884	292.25
279.115	309.25
279.347	282.25
279.579	287.25
279.81	275.25
280.042	277.25
280.273	280.25
280.505	275.25
280.736	275.25
280.968	288.25
281.199	268.25
281.431	268.25
281.662	298.25
281.894	272.25
282.125	294.25
282.356	290.25
282.588	313.25
282.819	323.25
283.051	297.25
283.282	284.25
283.513	299.25
283.745	281.25
283.976	299.25
284.207	283.25
284.439	295.25
284.67	302.25
284.901	310.25
285.132	308.25
285.364	311.25
285.595	292.25
285.826	280.25
286.057	313.25
286.288	291.25
286.52	292.25
286.751	302.25
286.982	301.25
287.213	282.25
287.444	304.25
287.675	296.25
287.906	326.25
288.138	309.25
288.369	302.25
288.6	328.25
288.831	333.25
289.062	308.25
289.293	302.25
289.524	322.25
289.755	316.25
289.986	304.25
290.217	311.25
290.448	307.25
290.679	307.25
290.91	320.25
291.141	306.25
291.371	303.25
291.602	313.25
291.833	312.25
292.064	296.25
292.295	316.25
292.526	316.25
292.757	296.25
292.987	299.25
293.218	318.25
293.449	308.25
293.68	315.25
293.91	327.25
294.141	321.25
294.372	318.25
294.603	297.25
294.833	336.25
295.064	309.25
295.295	309.25
295.525	323.25
295.756	315.25
295.987	322.25
296.217	351.25
296.448	331.25
296.679	327.25
296.909	331.25
297.14	320.25
297.37	328.25
297.601	338.25
297.831	330.25
298.062	331.25
298.292	320.25
298.523	325.25
298.753	338.25
298.984	338.25
299.214	320.25
299.445	332.25
299.675	348.25
299.905	340.25
300.136	325.25
300.366	330.25
300.597	337.25
300.827	355.25
301.057	319.25
301.288	354.25
301.518	364.25
301.748	336.25
301.979	329.25
302.209	344.25
302.439	339.25
302.669	343.25
302.9	340.25
303.13	353.25
303.36	354.25
303.59	350.25
303.82	342.25
304.051	361.25
304.281	338.25
304.511	341.25
304.741	337.25
304.971	332.25
305.201	342.25
305.431	355.25
305.661	357.25
305.891	358.25
306.121	356.25
306.352	356.25
306.582	345.25
306.812	318.25
307.042	367.25
307.272	325.25
307.502	354.25
307.731	360.25
307.961	363.25
308.191	343.25
308.421	368.25
308.651	364.25
308.881	347.25
309.111	357.25
309.341	336.25
309.571	362.25
309.8	368.25
310.03	374.25
310.26	376.25
310.49	398.25
310.72	400.25
310.949	378.25
311.179	404.25
311.409	398.25
311.639	390.25
311.868	377.25
312.098	380.25
312.328	394.25
312.557	397.25
312.787	424.25
313.017	413.25
313.246	382.25
313.476	392.25
313.706	390.25
313.935	395.25
314.165	394.25
314.394	393.25
314.624	391.25
314.853	392.25
315.083	383.25
315.312	394.25
315.542	396.25
315.771	379.25
316.001	382.25
316.23	387.25
316.46	383.25
316.689	404.25
316.919	404.25
317.148	415.25
317.377	404.25
317.607	398.25
317.836	390.25
318.065	398.25
318.295	388.25
318.524	401.25
318.753	375.25
318.983	381.25
319.212	392.25
319.441	389.25
319.67	389.25
319.9	407.25
320.129	407.25
320.358	391.25
320.587	398.25
320.816	412.25
321.046	396.25
321.275	432.25
321.504	414.25
321.733	422.25
321.962	418.25
322.191	443.25
322.42	428.25
322.649	436.25
322.878	438.25
323.108	439.25
323.337	458.25
323.566	503.25
323.795	500.25
324.024	539.25
324.253	628.25
324.482	858.25
324.71	1276.25
324.939	1773.25
325.168	1496.25
325.397	833.25
325.626	585.25
325.855	523.25
326.084	491.25
326.313	468.25
326.542	470.25
326.77	526.25
326.999	615.25
327.228	796.25
327.457	1116.25
327.686	1358.25
327.914	937.25
328.143	618.25
328.372	558.25
328.6	523.25
328.829	541.25
329.058	543.25
329.287	526.25
329.515	523.25
329.744	505.25
329.972	490.25
330.201	495.25
330.43	520.25
330.658	531.25
330.887	564.25
331.115	566.25
331.344	494.25
331.572	482.25
331.801	474.25
332.03	476.25
332.258	455.25
332.486	463.25
332.715	458.25
332.943	462.25
333.172	492.25
333.4	486.25
333.629	491.25
333.857	499.25
334.085	497.25
334.314	527.25
334.542	524.25
334.771	523.25
334.999	482.25
335.227	470.25
335.455	483.25
335.684	449.25
335.912	450.25
336.14	467.25
336.369	458.25
336.597	450.25
336.825	471.25
337.053	458.25
337.281	460.25
337.51	447.25
337.738	454.25
337.966	435.25
338.194	455.25
338.422	437.25
338.65	438.25
338.878	474.25
339.106	442.25
339.334	444.25
339.562	457.25
339.79	432.25
340.018	446.25
340.246	442.25
340.474	440.25
340.702	423.25
340.93	441.25
341.158	442.25
341.386	459.25
341.614	449.25
341.842	425.25
342.07	439.25
342.298	429.25
342.526	431.25
342.754	415.25
342.981	414.25
343.209	442.25
343.437	426.25
343.665	434.25
343.893	460.25
344.12	461.25
344.348	455.25
344.576	466.25
344.804	445.25
345.031	450.25
345.259	471.25
345.487	420.25
345.714	438.25
345.942	428.25
346.17	407.25
346.397	431.25
346.625	428.25
346.853	413.25
347.08	419.25
347.308	429.25
347.535	417.25
347.763	423.25
347.99	408.25
348.218	415.25
348.445	425.25
348.673	417.25
348.9	421.25
349.128	424.25
349.355	394.25
349.583	409.25
349.81	415.25
350.037	422.25
350.265	414.25
350.492	422.25
350.72	407.25
350.947	396.25
351.174	421.25
351.402	421.25
351.629	412.25
351.856	412.25
352.083	427.25
352.311	431.25
352.538	403.25
352.765	407.25
352.992	416.25
353.22	410.25
353.447	406.25
353.674	413.25
353.901	405.25
354.128	411.25
354.355	410.25
354.583	401.25
354.81	381.25
355.037	394.25
355.264	394.25
355.491	390.25
355.718	377.25
355.945	386.25
356.172	386.25
356.399	408.25
356.626	380.25
356.853	375.25
357.08	407.25
357.307	391.25
357.534	396.25
357.761	390.25
357.988	376.25
358.215	386.25
358.441	386.25
358.668	387.25
358.895	392.25
359.122	389.25
359.349	409.25
359.576	422.25
359.802	423.25
360.029	426.25
360.256	460.25
360.483	427.25
360.709	405.25
360.936	420.25
361.163	403.25
361.39	405.25
361.616	404.25
361.843	392.25
362.07	432.25
362.296	407.25
362.523	395.25
362.749	400.25
362.976	399.25
363.203	420.25
363.429	397.25
363.656	408.25
363.882	398.25
364.109	399.25
364.335	392.25
364.562	383.25
364.788	380.25
365.015	389.25
365.241	400.25
365.468	389.25
365.694	409.25
365.92	398.25
366.147	388.25
366.373	394.25
366.599	372.25
366.826	398.25
367.052	379.25
367.278	395.25
367.505	392.25
367.731	384.25
367.957	384.25
368.184	386.25
368.41	393.25
368.636	401.25
368.862	405.25
369.089	391.25
369.315	411.25
369.541	384.25
369.767	401.25
369.993	394.25
370.219	400.25
370.445	403.25
370.672	406.25
370.898	394.25
371.124	410.25
371.35	410.25
371.576	390.25
371.802	389.25
372.028	391.25
372.254	393.25
372.48	376.25
372.706	391.25
372.932	382.25
373.158	396.25
373.384	394.25
373.61	394.25
373.835	394.25
374.061	400.25
374.287	403.25
374.513	407.25
374.739	391.25
374.965	401.25
375.191	412.25
375.416	415.25
375.642	381.25
375.868	399.25
376.094	391.25
376.319	394.25
376.545	376.25
376.771	372.25
376.997	382.25
377.222	373.25
377.448	382.25
377.674	385.25
377.899	382.25
378.125	400.25
378.35	390.25
378.576	381.25
378.802	380.25
379.027	393.25
379.253	376.25
379.478	380.25
379.704	388.25
379.929	383.25
380.155	393.25
380.38	381.25
380.606	404.25
380.831	364.25
381.057	420.25
381.282	387.25
381.507	405.25
381.733	396.25
381.958	388.25
382.184	379.25
382.409	390.25
382.634	392.25
382.86	398.25
383.085	410.25
383.31	414.25
383.535	391.25
383.761	390.25
383.986	396.25
384.211	399.25
384.436	419.25
384.662	404.25
384.887	418.25
385.112	421.25
385.337	417.25
385.562	410.25
385.787	419.25
386.013	434.25
386.238	416.25
386.463	413.25
386.688	429.25
386.913	430.25
387.138	438.25
387.363	403.25
387.588	415.25
387.813	425.25
388.038	422.25
388.263	430.25
388.488	426.25
388.713	436.25
388.938	424.25
389.163	419.25
389.387	423.25
389.612	420.25
389.837	420.25
390.062	414.25
390.287	432.25
390.512	427.25
390.736	432.25
390.961	425.25
391.186	421.25
391.411	429.25
391.636	419.25
391.86	430.25
392.085	442.25
392.31	435.25
392.534	428.25
392.759	441.25
392.984	434.25
393.208	433.25
393.433	416.25
393.658	428.25
393.882	435.25
394.107	415.25
394.331	428.25
394.556	443.25
394.78	436.25
395.005	428.25
395.229	443.25
395.454	437.25
395.678	441.25
395.903	451.25
396.127	444.25
396.352	469.25
396.576	453.25
396.801	450.25
397.025	430.25
397.249	456.25
397.474	467.25
397.698	436.25
397.922	452.25
398.147	472.25
398.371	500.25
398.595	477.25
398.82	492.25
399.044	508.25
399.268	526.25
399.492	569.25
399.717	573.25
399.941	583.25
400.165	579.25
400.389	595.25
400.613	574.25
400.837	522.25
401.062	499.25
401.286	483.25
401.51	507.25
401.734	480.25
401.958	522.25
402.182	483.25
402.406	504.25
402.63	480.25
402.854	495.25
403.078	486.25
403.302	494.25
403.526	512.25
403.75	489.25
403.974	496.25
404.198	500.25
404.422	497.25
404.645	519.25
404.869	526.25
405.093	538.25
405.317	572.25
405.541	573.25
405.765	534.25
405.988	518.25
406.212	542.25
406.436	548.25
406.66	542.25
406.883	544.25
407.107	546.25
407.331	592.25
407.555	638.25
407.778	652.25
408.002	606.25
408.226	554.25
408.449	537.25
408.673	533.25
408.896	571.25
409.12	603.25
409.344	564.25
409.567	538.25
409.791	503.25
410.014	492.25
410.238	484.25
410.461	492.25
410.685	502.25
410.908	509.25
411.132	562.25
411.355	562.25
411.578	547.25
411.802	503.25
412.025	504.25
412.249	515.25
412.472	517.25
412.695	560.25
412.919	533.25
413.142	496.25
413.365	474.25
413.589	486.25
413.812	483.25
414.035	478.25
414.258	452.25
414.482	477.25
414.705	464.25
414.928	476.25
415.151	467.25
415.374	471.25
415.597	450.25
415.821	461.25
416.044	460.25
416.267	459.25
416.49	480.25
416.713	456.25
416.936	474.25
417.159	461.25
417.382	456.25
417.605	458.25
417.828	481.25
418.051	491.25
418.274	475.25
418.497	474.25
418.72	476.25
418.943	440.25
419.166	507.25
419.389	513.25
419.611	510.25
419.834	470.25
420.057	502.25
420.28	500.25
420.503	471.25
420.726	470.25
420.948	486.25
421.171	531.25
421.394	537.25
421.617	491.25
421.839	482.25
422.062	490.25
422.285	485.25
422.507	526.25
422.73	608.25
422.953	559.25
423.175	532.25
423.398	504.25
423.621	516.25
423.843	524.25
424.066	534.25
424.288	529.25
424.511	535.25
424.733	596.25
424.956	650.25
425.178	615.25
425.401	617.25
425.623	618.25
425.846	560.25
426.068	527.25
426.291	494.25
426.513	528.25
426.735	502.25
426.958	547.25
427.18	615.25
427.402	724.25
427.625	764.25
427.847	661.25
428.069	591.25
428.292	535.25
428.514	519.25
428.736	468.25
428.958	473.25
429.181	470.25
429.403	468.25
429.625	466.25
429.847	486.25
430.069	565.25
430.292	537.25
430.514	490.25
430.736	447.25
430.958	459.25
431.18	440.25
431.402	446.25
431.624	439.25
431.846	444.25
432.068	456.25
432.29	463.25
432.512	437.25
432.734	451.25
432.956	456.25
433.178	445.25
433.4	447.25
433.622	440.25
433.844	458.25
434.066	447.25
434.287	467.25
434.509	455.25
434.731	456.25
434.953	491.25
435.175	477.25
435.397	484.25
435.618	490.25
435.84	531.25
436.062	603.25
436.284	644.25
436.505	575.25
436.727	505.25
436.949	454.25
437.17	462.25
437.392	474.25
437.614	480.25
437.835	504.25
438.057	585.25
438.278	663.25
438.5	674.25
438.721	723.25
438.943	698.25
439.165	545.25
439.386	516.25
439.608	491.25
439.829	511.25
440.05	525.25
440.272	541.25
440.493	514.25
440.715	477.25
440.936	474.25
441.158	477.25
441.379	504.25
441.6	475.25
441.822	501.25
442.043	522.25
442.264	608.25
442.486	649.25
442.707	552.25
442.928	526.25
443.149	527.25
443.371	537.25
443.592	563.25
443.813	652.25
444.034	706.25
444.255	572.25
444.476	544.25
444.698	527.25
444.919	518.25
445.14	605.25
445.361	558.25
445.582	539.25
445.803	593.25
446.024	658.25
446.245	674.25
446.466	605.25
446.687	512.25
446.908	500.25
447.129	461.25
447.35	493.25
447.571	457.25
447.792	440.25
448.013	458.25
448.234	479.25
448.455	518.25
448.675	596.25
448.896	714.25
449.117	588.25
449.338	541.25
449.559	657.25
449.779	730.25
450	582.25
450.221	510.25
450.442	477.25
450.662	445.25
450.883	448.25
451.104	449.25
451.324	455.25
451.545	434.25
451.766	424.25
451.986	402.25
452.207	386.25
452.428	412.25
452.648	400.25
452.869	396.25
453.089	408.25
453.31	429.25
453.53	411.25
453.751	431.25
453.971	407.25
454.192	421.25
454.412	406.25
454.633	390.25
454.853	388.25
455.073	402.25
455.294	432.25
455.514	479.25
455.734	465.25
455.955	409.25
456.175	397.25
456.395	400.25
456.616	377.25
456.836	376.25
457.056	403.25
457.276	367.25
457.497	400.25
457.717	390.25
457.937	409.25
458.157	396.25
458.377	403.25
458.598	436.25
458.818	451.25
459.038	518.25
459.258	535.25
459.478	462.25
459.698	455.25
459.918	436.25
460.138	454.25
460.358	455.25
460.578	475.25
460.798	450.25
461.018	479.25
461.238	445.25
461.458	460.25
461.678	453.25
461.898	456.25
462.118	471.25
462.338	461.25
462.558	481.25
462.777	463.25
462.997	486.25
463.217	517.25
463.437	524.25
463.657	505.25
463.876	476.25
464.096	474.25
464.316	480.25
464.536	494.25
464.755	492.25
464.975	504.25
465.195	495.25
465.414	545.25
465.634	496.25
465.854	459.25
466.073	459.25
466.293	431.25
466.512	422.25
466.732	434.25
466.951	414.25
467.171	417.25
467.391	424.25
467.61	428.25
467.829	412.25
468.049	422.25
468.268	434.25
468.488	408.25
468.707	404.25
468.927	405.25
469.146	420.25
469.365	430.25
469.585	397.25
469.804	422.25
470.023	418.25
470.243	414.25
470.462	437.25
470.681	441.25
470.901	430.25
471.12	404.25
471.339	423.25
471.558	408.25
471.777	428.25
471.997	415.25
472.216	419.25
472.435	436.25
472.654	415.25
472.873	424.25
473.092	415.25
473.311	415.25
473.53	446.25
473.749	439.25
473.968	447.25
474.187	541.25
474.406	559.25
474.625	467.25
474.844	427.25
475.063	411.25
475.282	426.25
475.501	452.25
475.72	450.25
475.939	452.25
476.158	438.25
476.377	432.25
476.596	447.25
476.814	425.25
477.033	462.25
477.252	455.25
477.471	455.25
477.69	443.25
477.908	460.25
478.127	468.25
478.346	471.25
478.564	491.25
478.783	483.25
479.002	489.25
479.22	471.25
479.439	500.25
479.658	505.25
479.876	502.25
480.095	523.25
480.313	534.25
480.532	526.25
480.751	515.25
480.969	512.25
481.188	572.25
481.406	571.25
481.624	528.25
481.843	491.25
482.061	491.25
482.28	503.25
482.498	489.25
482.717	485.25
482.935	500.25
483.153	472.25
483.372	481.25
483.59	470.25
483.808	482.25
484.027	510.25
484.245	490.25
484.463	471.25
484.681	501.25
484.9	496.25
485.118	483.25
485.336	484.25
485.554	523.25
485.772	500.25
485.99	522.25
486.209	515.25
486.427	486.25
486.645	515.25
486.863	522.25
487.081	535.25
487.299	536.25
487.517	518.25
487.735	521.25
487.953	516.25
488.171	523.25
488.389	516.25
488.607	507.25
488.825	537.25
489.043	516.25
489.261	538.25
489.479	511.25
489.696	514.25
489.914	510.25
490.132	515.25
490.35	527.25
490.568	540.25
490.786	568.25
491.003	558.25
491.221	557.25
491.439	543.25
491.657	580.25
491.874	562.25
492.092	588.25
492.31	580.25
492.527	568.25
492.745	579.25
492.963	602.25
493.18	599.25
493.398	608.25
493.615	578.25
493.833	614.25
494.05	600.25
494.268	604.25
494.485	622.25
494.703	592.25
494.92	611.25
495.138	606.25
495.355	588.25
495.573	607.25
495.79	590.25
496.008	601.25
496.225	614.25
496.442	603.25
496.66	596.25
496.877	626.25
497.094	626.25
497.312	628.25
497.529	632.25
497.746	642.25
497.963	634.25
498.181	660.25
498.398	687.25
498.615	687.25
498.832	711.25
499.049	720.25
499.267	747.25
499.484	792.25
499.701	829.25
499.918	866.25
500.135	898.25
500.352	926.25
500.569	960.25
500.786	934.25
501.003	939.25
501.22	887.25
501.437	878.25
501.654	842.25
501.871	818.25
