Data from 1977.PennyLincolnUp.Lamp.En5.5.200Scan.071719.P1_HRD10591_16-04-50-864.txt Node
Date: Thu Jul 18 16:04:50 EDT 2019
User: cochatt
Spectrometer: HR+D1059
Trigger mode: 1
Integration Time (sec): 1.000000E-1
Scans to average: 1
Electric dark correction enabled: true
Nonlinearity correction enabled: false
Boxcar width: 0
XAxis mode: Wavelengths
Number of Pixels in Spectrum: 2048
>>>>>Begin Spectral Data<<<<<
223.165	-15.31
223.4	-15.31
223.635	-15.31
223.869	-5.31
224.104	-24.31
224.338	-20.31
224.573	-9.31
224.808	-9.31
225.042	-1.31
225.277	-3.31
225.511	10.69
225.746	6.69
225.98	2.69
226.215	-2.31
226.449	5.69
226.683	12.69
226.918	24.69
227.152	27.69
227.387	38.69
227.621	39.69
227.856	55.69
228.09	51.69
228.324	65.69
228.559	62.69
228.793	75.69
229.027	93.69
229.262	98.69
229.496	103.69
229.73	107.69
229.964	118.69
230.199	125.69
230.433	117.69
230.667	109.69
230.901	114.69
231.136	125.69
231.37	108.69
231.604	114.69
231.838	107.69
232.072	119.69
232.306	94.69
232.541	108.69
232.775	135.69
233.009	119.69
233.243	119.69
233.477	108.69
233.711	109.69
233.945	114.69
234.179	116.69
234.413	121.69
234.647	105.69
234.881	109.69
235.115	128.69
235.349	125.69
235.583	119.69
235.817	106.69
236.051	130.69
236.285	124.69
236.519	117.69
236.753	116.69
236.987	106.69
237.221	142.69
237.455	186.69
237.689	144.69
237.922	136.69
238.156	119.69
238.39	122.69
238.624	126.69
238.858	108.69
239.091	113.69
239.325	123.69
239.559	128.69
239.793	111.69
240.027	122.69
240.26	137.69
240.494	135.69
240.728	137.69
240.961	130.69
241.195	142.69
241.429	123.69
241.662	126.69
241.896	137.69
242.13	121.69
242.363	129.69
242.597	142.69
242.83	114.69
243.064	134.69
243.298	129.69
243.531	138.69
243.765	132.69
243.998	138.69
244.232	122.69
244.465	142.69
244.699	144.69
244.932	141.69
245.166	144.69
245.399	152.69
245.633	128.69
245.866	134.69
246.099	124.69
246.333	121.69
246.566	138.69
246.8	147.69
247.033	134.69
247.266	132.69
247.5	164.69
247.733	144.69
247.966	166.69
248.2	154.69
248.433	154.69
248.666	167.69
248.899	178.69
249.133	164.69
249.366	171.69
249.599	180.69
249.832	160.69
250.066	178.69
250.299	154.69
250.532	171.69
250.765	162.69
250.998	174.69
251.231	175.69
251.465	186.69
251.698	185.69
251.931	178.69
252.164	184.69
252.397	173.69
252.63	181.69
252.863	174.69
253.096	182.69
253.329	196.69
253.562	172.69
253.795	193.69
254.028	200.69
254.261	188.69
254.494	181.69
254.727	219.69
254.96	222.69
255.193	213.69
255.426	219.69
255.659	190.69
255.892	185.69
256.124	185.69
256.357	198.69
256.59	193.69
256.823	195.69
257.056	201.69
257.289	194.69
257.521	190.69
257.754	182.69
257.987	184.69
258.22	188.69
258.452	171.69
258.685	205.69
258.918	195.69
259.151	182.69
259.383	197.69
259.616	196.69
259.849	185.69
260.081	223.69
260.314	211.69
260.547	232.69
260.779	228.69
261.012	218.69
261.244	199.69
261.477	197.69
261.71	212.69
261.942	205.69
262.175	214.69
262.407	189.69
262.64	189.69
262.872	197.69
263.105	203.69
263.337	206.69
263.57	197.69
263.802	185.69
264.035	201.69
264.267	212.69
264.499	191.69
264.732	206.69
264.964	207.69
265.197	207.69
265.429	208.69
265.661	202.69
265.894	214.69
266.126	207.69
266.358	207.69
266.591	197.69
266.823	207.69
267.055	213.69
267.287	208.69
267.52	197.69
267.752	220.69
267.984	215.69
268.216	227.69
268.448	206.69
268.681	218.69
268.913	237.69
269.145	215.69
269.377	241.69
269.609	252.69
269.841	255.69
270.073	244.69
270.306	238.69
270.538	269.69
270.77	273.69
271.002	260.69
271.234	254.69
271.466	263.69
271.698	273.69
271.93	275.69
272.162	271.69
272.394	281.69
272.626	254.69
272.858	270.69
273.09	253.69
273.322	238.69
273.553	244.69
273.785	237.69
274.017	222.69
274.249	246.69
274.481	255.69
274.713	243.69
274.945	251.69
275.176	256.69
275.408	252.69
275.64	258.69
275.872	262.69
276.104	263.69
276.335	244.69
276.567	260.69
276.799	272.69
277.031	280.69
277.262	283.69
277.494	284.69
277.726	267.69
277.957	275.69
278.189	269.69
278.421	266.69
278.652	263.69
278.884	270.69
279.115	272.69
279.347	261.69
279.579	280.69
279.81	264.69
280.042	275.69
280.273	292.69
280.505	265.69
280.736	264.69
280.968	231.69
281.199	259.69
281.431	273.69
281.662	254.69
281.894	292.69
282.125	269.69
282.356	284.69
282.588	268.69
282.819	294.69
283.051	271.69
283.282	274.69
283.513	279.69
283.745	278.69
283.976	262.69
284.207	277.69
284.439	272.69
284.67	284.69
284.901	268.69
285.132	266.69
285.364	267.69
285.595	285.69
285.826	279.69
286.057	266.69
286.288	266.69
286.52	270.69
286.751	284.69
286.982	287.69
287.213	288.69
287.444	285.69
287.675	299.69
287.906	306.69
288.138	284.69
288.369	303.69
288.6	280.69
288.831	284.69
289.062	266.69
289.293	290.69
289.524	279.69
289.755	296.69
289.986	286.69
290.217	282.69
290.448	292.69
290.679	301.69
290.91	285.69
291.141	287.69
291.371	286.69
291.602	273.69
291.833	299.69
292.064	275.69
292.295	280.69
292.526	263.69
292.757	287.69
292.987	294.69
293.218	307.69
293.449	302.69
293.68	295.69
293.91	308.69
294.141	280.69
294.372	287.69
294.603	290.69
294.833	299.69
295.064	294.69
295.295	286.69
295.525	292.69
295.756	298.69
295.987	312.69
296.217	308.69
296.448	329.69
296.679	312.69
296.909	304.69
297.14	290.69
297.37	295.69
297.601	302.69
297.831	310.69
298.062	312.69
298.292	280.69
298.523	313.69
298.753	304.69
298.984	302.69
299.214	300.69
299.445	306.69
299.675	286.69
299.905	326.69
300.136	300.69
300.366	308.69
300.597	330.69
300.827	318.69
301.057	306.69
301.288	328.69
301.518	326.69
301.748	320.69
301.979	334.69
302.209	334.69
302.439	326.69
302.669	334.69
302.9	327.69
303.13	354.69
303.36	325.69
303.59	318.69
303.82	334.69
304.051	336.69
304.281	315.69
304.511	324.69
304.741	315.69
304.971	322.69
305.201	334.69
305.431	322.69
305.661	313.69
305.891	318.69
306.121	316.69
306.352	315.69
306.582	332.69
306.812	316.69
307.042	343.69
307.272	344.69
307.502	332.69
307.731	322.69
307.961	325.69
308.191	326.69
308.421	330.69
308.651	334.69
308.881	306.69
309.111	322.69
309.341	326.69
309.571	350.69
309.8	342.69
310.03	330.69
310.26	347.69
310.49	337.69
310.72	344.69
310.949	361.69
311.179	366.69
311.409	374.69
311.639	346.69
311.868	342.69
312.098	365.69
312.328	360.69
312.557	384.69
312.787	367.69
313.017	365.69
313.246	374.69
313.476	357.69
313.706	378.69
313.935	339.69
314.165	364.69
314.394	365.69
314.624	355.69
314.853	346.69
315.083	352.69
315.312	355.69
315.542	367.69
315.771	364.69
316.001	365.69
316.23	368.69
316.46	367.69
316.689	356.69
316.919	357.69
317.148	358.69
317.377	356.69
317.607	366.69
317.836	359.69
318.065	361.69
318.295	362.69
318.524	362.69
318.753	360.69
318.983	359.69
319.212	365.69
319.441	361.69
319.67	359.69
319.9	372.69
320.129	363.69
320.358	376.69
320.587	374.69
320.816	374.69
321.046	359.69
321.275	368.69
321.504	359.69
321.733	351.69
321.962	375.69
322.191	398.69
322.42	376.69
322.649	379.69
322.878	403.69
323.108	399.69
323.337	386.69
323.566	411.69
323.795	443.69
324.024	459.69
324.253	502.69
324.482	699.69
324.71	1034.69
324.939	1368.69
325.168	1221.69
325.397	680.69
325.626	495.69
325.855	432.69
326.084	434.69
326.313	413.69
326.542	418.69
326.77	450.69
326.999	518.69
327.228	646.69
327.457	929.69
327.686	1111.69
327.914	748.69
328.143	530.69
328.372	473.69
328.6	465.69
328.829	448.69
329.058	459.69
329.287	446.69
329.515	426.69
329.744	446.69
329.972	431.69
330.201	440.69
330.43	445.69
330.658	460.69
330.887	478.69
331.115	436.69
331.344	442.69
331.572	436.69
331.801	417.69
332.03	431.69
332.258	415.69
332.486	422.69
332.715	446.69
332.943	428.69
333.172	423.69
333.4	430.69
333.629	439.69
333.857	444.69
334.085	453.69
334.314	470.69
334.542	469.69
334.771	467.69
334.999	452.69
335.227	426.69
335.455	403.69
335.684	426.69
335.912	436.69
336.14	408.69
336.369	414.69
336.597	426.69
336.825	419.69
337.053	411.69
337.281	422.69
337.51	413.69
337.738	392.69
337.966	407.69
338.194	406.69
338.422	433.69
338.65	407.69
338.878	381.69
339.106	418.69
339.334	392.69
339.562	423.69
339.79	393.69
340.018	397.69
340.246	398.69
340.474	392.69
340.702	407.69
340.93	390.69
341.158	402.69
341.386	414.69
341.614	398.69
341.842	390.69
342.07	398.69
342.298	394.69
342.526	407.69
342.754	402.69
342.981	387.69
343.209	404.69
343.437	399.69
343.665	406.69
343.893	418.69
344.12	417.69
344.348	423.69
344.576	411.69
344.804	410.69
345.031	415.69
345.259	397.69
345.487	414.69
345.714	406.69
345.942	405.69
346.17	386.69
346.397	386.69
346.625	379.69
346.853	378.69
347.08	381.69
347.308	378.69
347.535	382.69
347.763	386.69
347.99	395.69
348.218	388.69
348.445	384.69
348.673	367.69
348.9	379.69
349.128	366.69
349.355	375.69
349.583	376.69
349.81	370.69
350.037	377.69
350.265	374.69
350.492	370.69
350.72	373.69
350.947	374.69
351.174	388.69
351.402	379.69
351.629	372.69
351.856	383.69
352.083	383.69
352.311	389.69
352.538	382.69
352.765	387.69
352.992	380.69
353.22	375.69
353.447	366.69
353.674	382.69
353.901	375.69
354.128	366.69
354.355	374.69
354.583	340.69
354.81	368.69
355.037	370.69
355.264	350.69
355.491	370.69
355.718	365.69
355.945	368.69
356.172	375.69
356.399	367.69
356.626	366.69
356.853	350.69
357.08	365.69
357.307	365.69
357.534	378.69
357.761	354.69
357.988	372.69
358.215	372.69
358.441	360.69
358.668	370.69
358.895	356.69
359.122	389.69
359.349	370.69
359.576	391.69
359.802	390.69
360.029	406.69
360.256	398.69
360.483	384.69
360.709	367.69
360.936	369.69
361.163	378.69
361.39	363.69
361.616	358.69
361.843	382.69
362.07	364.69
362.296	374.69
362.523	384.69
362.749	347.69
362.976	354.69
363.203	369.69
363.429	370.69
363.656	361.69
363.882	352.69
364.109	365.69
364.335	367.69
364.562	350.69
364.788	355.69
365.015	365.69
365.241	343.69
365.468	353.69
365.694	342.69
365.92	359.69
366.147	348.69
366.373	358.69
366.599	352.69
366.826	342.69
367.052	379.69
367.278	367.69
367.505	357.69
367.731	347.69
367.957	358.69
368.184	344.69
368.41	382.69
368.636	390.69
368.862	381.69
369.089	376.69
369.315	348.69
369.541	365.69
369.767	360.69
369.993	367.69
370.219	362.69
370.445	367.69
370.672	365.69
370.898	340.69
371.124	367.69
371.35	377.69
371.576	376.69
371.802	362.69
372.028	363.69
372.254	381.69
372.48	370.69
372.706	376.69
372.932	374.69
373.158	385.69
373.384	359.69
373.61	388.69
373.835	383.69
374.061	379.69
374.287	367.69
374.513	372.69
374.739	392.69
374.965	391.69
375.191	387.69
375.416	370.69
375.642	382.69
375.868	372.69
376.094	381.69
376.319	374.69
376.545	359.69
376.771	378.69
376.997	376.69
377.222	386.69
377.448	358.69
377.674	372.69
377.899	375.69
378.125	359.69
378.35	378.69
378.576	362.69
378.802	358.69
379.027	346.69
379.253	367.69
379.478	378.69
379.704	365.69
379.929	362.69
380.155	364.69
380.38	360.69
380.606	364.69
380.831	360.69
381.057	382.69
381.282	361.69
381.507	371.69
381.733	380.69
381.958	372.69
382.184	373.69
382.409	368.69
382.634	360.69
382.86	391.69
383.085	383.69
383.31	382.69
383.535	422.69
383.761	378.69
383.986	406.69
384.211	389.69
384.436	406.69
384.662	391.69
384.887	391.69
385.112	402.69
385.337	418.69
385.562	429.69
385.787	432.69
386.013	445.69
386.238	426.69
386.463	420.69
386.688	441.69
386.913	409.69
387.138	416.69
387.363	412.69
387.588	404.69
387.813	412.69
388.038	428.69
388.263	418.69
388.488	429.69
388.713	414.69
388.938	404.69
389.163	394.69
389.387	394.69
389.612	412.69
389.837	408.69
390.062	393.69
390.287	402.69
390.512	376.69
390.736	387.69
390.961	391.69
391.186	396.69
391.411	402.69
391.636	416.69
391.86	419.69
392.085	410.69
392.31	423.69
392.534	406.69
392.759	410.69
392.984	431.69
393.208	433.69
393.433	468.69
393.658	502.69
393.882	431.69
394.107	416.69
394.331	425.69
394.556	404.69
394.78	400.69
395.005	425.69
395.229	420.69
395.454	443.69
395.678	429.69
395.903	429.69
396.127	438.69
396.352	446.69
396.576	426.69
396.801	457.69
397.025	474.69
397.249	440.69
397.474	459.69
397.698	442.69
397.922	452.69
398.147	452.69
398.371	453.69
398.595	416.69
398.82	458.69
399.044	458.69
399.268	484.69
399.492	553.69
399.717	540.69
399.941	557.69
400.165	580.69
400.389	540.69
400.613	516.69
400.837	490.69
401.062	456.69
401.286	458.69
401.51	456.69
401.734	463.69
401.958	469.69
402.182	464.69
402.406	473.69
402.63	476.69
402.854	443.69
403.078	459.69
403.302	468.69
403.526	475.69
403.75	459.69
403.974	491.69
404.198	484.69
404.422	471.69
404.645	465.69
404.869	470.69
405.093	493.69
405.317	509.69
405.541	554.69
405.765	480.69
405.988	468.69
406.212	472.69
406.436	498.69
406.66	480.69
406.883	514.69
407.107	498.69
407.331	529.69
407.555	599.69
407.778	596.69
408.002	522.69
408.226	529.69
408.449	514.69
408.673	516.69
408.896	511.69
409.12	562.69
409.344	552.69
409.567	481.69
409.791	463.69
410.014	475.69
410.238	459.69
410.461	460.69
410.685	468.69
410.908	490.69
411.132	496.69
411.355	509.69
411.578	527.69
411.802	476.69
412.025	458.69
412.249	470.69
412.472	468.69
412.695	470.69
412.919	482.69
413.142	484.69
413.365	449.69
413.589	459.69
413.812	431.69
414.035	435.69
414.258	440.69
414.482	413.69
414.705	443.69
414.928	456.69
415.151	444.69
415.374	441.69
415.597	434.69
415.821	434.69
416.044	428.69
416.267	415.69
416.49	428.69
416.713	436.69
416.936	437.69
417.159	449.69
417.382	427.69
417.605	438.69
417.828	436.69
418.051	450.69
418.274	441.69
418.497	422.69
418.72	432.69
418.943	426.69
419.166	460.69
419.389	467.69
419.611	468.69
419.834	455.69
420.057	452.69
420.28	456.69
420.503	432.69
420.726	443.69
420.948	457.69
421.171	470.69
421.394	485.69
421.617	470.69
421.839	439.69
422.062	467.69
422.285	479.69
422.507	496.69
422.73	548.69
422.953	543.69
423.175	463.69
423.398	475.69
423.621	462.69
423.843	474.69
424.066	477.69
424.288	480.69
424.511	480.69
424.733	531.69
424.956	550.69
425.178	532.69
425.401	537.69
425.623	557.69
425.846	488.69
426.068	456.69
426.291	468.69
426.513	453.69
426.735	484.69
426.958	488.69
427.18	528.69
427.402	615.69
427.625	679.69
427.847	588.69
428.069	502.69
428.292	480.69
428.514	452.69
428.736	452.69
428.958	447.69
429.181	438.69
429.403	406.69
429.625	443.69
429.847	433.69
430.069	504.69
430.292	490.69
430.514	447.69
430.736	417.69
430.958	451.69
431.18	428.69
431.402	415.69
431.624	398.69
431.846	409.69
432.068	416.69
432.29	401.69
432.512	406.69
432.734	410.69
432.956	428.69
433.178	407.69
433.4	428.69
433.622	422.69
433.844	402.69
434.066	413.69
434.287	411.69
434.509	421.69
434.731	410.69
434.953	443.69
435.175	437.69
435.397	449.69
435.618	462.69
435.84	456.69
436.062	532.69
436.284	575.69
436.505	526.69
436.727	491.69
436.949	443.69
437.17	407.69
437.392	427.69
437.614	431.69
437.835	448.69
438.057	497.69
438.278	551.69
438.5	568.69
438.721	638.69
438.943	580.69
439.165	504.69
439.386	452.69
439.608	428.69
439.829	451.69
440.05	476.69
440.272	494.69
440.493	489.69
440.715	440.69
440.936	440.69
441.158	431.69
441.379	444.69
441.6	447.69
441.822	448.69
442.043	493.69
442.264	552.69
442.486	573.69
442.707	487.69
442.928	440.69
443.149	461.69
443.371	486.69
443.592	546.69
443.813	576.69
444.034	590.69
444.255	515.69
444.476	493.69
444.698	493.69
444.919	477.69
445.14	559.69
445.361	510.69
445.582	477.69
445.803	518.69
446.024	600.69
446.245	595.69
446.466	552.69
446.687	475.69
446.908	450.69
447.129	399.69
447.35	418.69
447.571	422.69
447.792	426.69
448.013	422.69
448.234	416.69
448.455	438.69
448.675	526.69
448.896	613.69
449.117	489.69
449.338	500.69
449.559	592.69
449.779	645.69
450	544.69
450.221	455.69
450.442	437.69
450.662	404.69
450.883	402.69
451.104	405.69
451.324	399.69
451.545	388.69
451.766	374.69
451.986	370.69
452.207	373.69
452.428	380.69
452.648	388.69
452.869	392.69
453.089	375.69
453.31	380.69
453.53	392.69
453.751	374.69
453.971	399.69
454.192	379.69
454.412	371.69
454.633	366.69
454.853	368.69
455.073	383.69
455.294	383.69
455.514	427.69
455.734	427.69
455.955	381.69
456.175	355.69
456.395	356.69
456.616	346.69
456.836	350.69
457.056	378.69
457.276	356.69
457.497	374.69
457.717	363.69
457.937	363.69
458.157	380.69
458.377	384.69
458.598	386.69
458.818	422.69
459.038	463.69
459.258	476.69
459.478	426.69
459.698	420.69
459.918	416.69
460.138	418.69
460.358	431.69
460.578	427.69
460.798	442.69
461.018	436.69
461.238	439.69
461.458	421.69
461.678	440.69
461.898	458.69
462.118	429.69
462.338	436.69
462.558	450.69
462.777	470.69
462.997	474.69
463.217	483.69
463.437	491.69
463.657	464.69
463.876	463.69
464.096	472.69
464.316	456.69
464.536	482.69
464.755	439.69
464.975	442.69
465.195	450.69
465.414	516.69
465.634	458.69
465.854	424.69
466.073	420.69
466.293	423.69
466.512	411.69
466.732	397.69
466.951	408.69
467.171	376.69
467.391	404.69
467.61	410.69
467.829	381.69
468.049	394.69
468.268	391.69
468.488	384.69
468.707	382.69
468.927	372.69
469.146	375.69
469.365	394.69
469.585	387.69
469.804	385.69
470.023	383.69
470.243	394.69
470.462	378.69
470.681	414.69
470.901	406.69
471.12	382.69
471.339	396.69
471.558	399.69
471.777	386.69
471.997	390.69
472.216	413.69
472.435	399.69
472.654	410.69
472.873	380.69
473.092	379.69
473.311	389.69
473.53	408.69
473.749	403.69
473.968	422.69
474.187	463.69
474.406	483.69
474.625	426.69
474.844	408.69
475.063	384.69
475.282	400.69
475.501	395.69
475.72	413.69
475.939	406.69
476.158	416.69
476.377	415.69
476.596	414.69
476.814	427.69
477.033	398.69
477.252	414.69
477.471	426.69
477.69	423.69
477.908	420.69
478.127	439.69
478.346	434.69
478.564	447.69
478.783	452.69
479.002	450.69
479.22	475.69
479.439	483.69
479.658	457.69
479.876	477.69
480.095	482.69
480.313	500.69
480.532	505.69
480.751	471.69
480.969	472.69
481.188	472.69
481.406	508.69
481.624	484.69
481.843	463.69
482.061	473.69
482.28	480.69
482.498	459.69
482.717	461.69
482.935	459.69
483.153	470.69
483.372	456.69
483.59	467.69
483.808	459.69
484.027	456.69
484.245	453.69
484.463	458.69
484.681	464.69
484.9	467.69
485.118	463.69
485.336	475.69
485.554	472.69
485.772	458.69
485.99	483.69
486.209	470.69
486.427	470.69
486.645	483.69
486.863	478.69
487.081	490.69
487.299	466.69
487.517	481.69
487.735	473.69
487.953	471.69
488.171	487.69
488.389	506.69
488.607	495.69
488.825	505.69
489.043	491.69
489.261	501.69
489.479	491.69
489.696	496.69
489.914	503.69
490.132	501.69
490.35	479.69
490.568	488.69
490.786	523.69
491.003	530.69
491.221	500.69
491.439	506.69
491.657	504.69
491.874	525.69
492.092	525.69
492.31	520.69
492.527	522.69
492.745	538.69
492.963	536.69
493.18	512.69
493.398	518.69
493.615	520.69
493.833	535.69
494.05	527.69
494.268	534.69
494.485	528.69
494.703	525.69
494.92	547.69
495.138	539.69
495.355	556.69
495.573	545.69
495.79	532.69
496.008	592.69
496.225	584.69
496.442	555.69
496.66	553.69
496.877	544.69
497.094	570.69
497.312	596.69
497.529	566.69
497.746	592.69
497.963	605.69
498.181	627.69
498.398	650.69
498.615	637.69
498.832	657.69
499.049	681.69
499.267	685.69
499.484	736.69
499.701	770.69
499.918	812.69
500.135	817.69
500.352	882.69
500.569	898.69
500.786	907.69
501.003	876.69
501.22	833.69
501.437	790.69
501.654	768.69
501.871	740.69
502.088	706.69
