Data from 1977.PennyLincolnUp.Lamp.En5.5.200Scan.071719.P1_HRD10591_16-06-36-865.txt Node
Date: Thu Jul 18 16:06:36 EDT 2019
User: cochatt
Spectrometer: HR+D1059
Trigger mode: 1
Integration Time (sec): 1.000000E-1
Scans to average: 1
Electric dark correction enabled: true
Nonlinearity correction enabled: false
Boxcar width: 0
XAxis mode: Wavelengths
Number of Pixels in Spectrum: 2048
>>>>>Begin Spectral Data<<<<<
223.165	-20.56
223.4	-20.56
223.635	-20.56
223.869	-12.56
224.104	-12.56
224.338	-7.56
224.573	-16.56
224.808	0.44
225.042	-11.56
225.277	-5.56
225.511	-8.56
225.746	-3.56
225.98	-8.56
226.215	1.44
226.449	24.44
226.683	25.44
226.918	36.44
227.152	19.44
227.387	35.44
227.621	28.44
227.856	28.44
228.09	38.44
228.324	60.44
228.559	57.44
228.793	64.44
229.027	90.44
229.262	101.44
229.496	107.44
229.73	115.44
229.964	130.44
230.199	129.44
230.433	102.44
230.667	97.44
230.901	96.44
231.136	111.44
231.37	104.44
231.604	113.44
231.838	111.44
232.072	112.44
232.306	123.44
232.541	102.44
232.775	101.44
233.009	106.44
233.243	123.44
233.477	116.44
233.711	111.44
233.945	106.44
234.179	114.44
234.413	122.44
234.647	106.44
234.881	100.44
235.115	108.44
235.349	117.44
235.583	126.44
235.817	113.44
236.051	123.44
236.285	123.44
236.519	124.44
236.753	133.44
236.987	150.44
237.221	166.44
237.455	193.44
237.689	174.44
237.922	131.44
238.156	110.44
238.39	116.44
238.624	124.44
238.858	128.44
239.091	127.44
239.325	133.44
239.559	130.44
239.793	131.44
240.027	133.44
240.26	141.44
240.494	145.44
240.728	128.44
240.961	145.44
241.195	156.44
241.429	134.44
241.662	132.44
241.896	117.44
242.13	129.44
242.363	128.44
242.597	124.44
242.83	139.44
243.064	149.44
243.298	136.44
243.531	133.44
243.765	151.44
243.998	151.44
244.232	136.44
244.465	151.44
244.699	142.44
244.932	150.44
245.166	155.44
245.399	151.44
245.633	137.44
245.866	140.44
246.099	147.44
246.333	151.44
246.566	149.44
246.8	156.44
247.033	155.44
247.266	156.44
247.5	168.44
247.733	179.44
247.966	183.44
248.2	174.44
248.433	170.44
248.666	164.44
248.899	187.44
249.133	179.44
249.366	192.44
249.599	176.44
249.832	181.44
250.066	164.44
250.299	194.44
250.532	187.44
250.765	188.44
250.998	211.44
251.231	188.44
251.465	196.44
251.698	176.44
251.931	185.44
252.164	185.44
252.397	201.44
252.63	187.44
252.863	209.44
253.096	213.44
253.329	207.44
253.562	223.44
253.795	211.44
254.028	209.44
254.261	218.44
254.494	223.44
254.727	241.44
254.96	283.44
255.193	243.44
255.426	247.44
255.659	205.44
255.892	236.44
256.124	216.44
256.357	227.44
256.59	216.44
256.823	210.44
257.056	199.44
257.289	227.44
257.521	211.44
257.754	188.44
257.987	197.44
258.22	212.44
258.452	210.44
258.685	211.44
258.918	197.44
259.151	227.44
259.383	217.44
259.616	206.44
259.849	208.44
260.081	232.44
260.314	252.44
260.547	254.44
260.779	236.44
261.012	239.44
261.244	236.44
261.477	241.44
261.71	239.44
261.942	215.44
262.175	222.44
262.407	223.44
262.64	208.44
262.872	238.44
263.105	217.44
263.337	227.44
263.57	207.44
263.802	225.44
264.035	217.44
264.267	218.44
264.499	223.44
264.732	208.44
264.964	214.44
265.197	203.44
265.429	246.44
265.661	211.44
265.894	234.44
266.126	224.44
266.358	223.44
266.591	220.44
266.823	233.44
267.055	231.44
267.287	231.44
267.52	224.44
267.752	239.44
267.984	227.44
268.216	231.44
268.448	234.44
268.681	248.44
268.913	252.44
269.145	291.44
269.377	270.44
269.609	273.44
269.841	270.44
270.073	288.44
270.306	298.44
270.538	314.44
270.77	316.44
271.002	304.44
271.234	307.44
271.466	310.44
271.698	294.44
271.93	313.44
272.162	313.44
272.394	314.44
272.626	289.44
272.858	286.44
273.09	269.44
273.322	275.44
273.553	267.44
273.785	269.44
274.017	253.44
274.249	273.44
274.481	262.44
274.713	278.44
274.945	291.44
275.176	277.44
275.408	284.44
275.64	269.44
275.872	259.44
276.104	272.44
276.335	279.44
276.567	264.44
276.799	276.44
277.031	307.44
277.262	301.44
277.494	325.44
277.726	315.44
277.957	285.44
278.189	287.44
278.421	285.44
278.652	275.44
278.884	282.44
279.115	278.44
279.347	282.44
279.579	275.44
279.81	289.44
280.042	291.44
280.273	288.44
280.505	295.44
280.736	278.44
280.968	285.44
281.199	289.44
281.431	295.44
281.662	279.44
281.894	274.44
282.125	273.44
282.356	297.44
282.588	314.44
282.819	307.44
283.051	299.44
283.282	274.44
283.513	299.44
283.745	270.44
283.976	296.44
284.207	311.44
284.439	292.44
284.67	285.44
284.901	309.44
285.132	300.44
285.364	290.44
285.595	312.44
285.826	291.44
286.057	307.44
286.288	311.44
286.52	297.44
286.751	310.44
286.982	321.44
287.213	308.44
287.444	292.44
287.675	316.44
287.906	311.44
288.138	333.44
288.369	329.44
288.6	329.44
288.831	323.44
289.062	311.44
289.293	321.44
289.524	300.44
289.755	315.44
289.986	317.44
290.217	309.44
290.448	308.44
290.679	297.44
290.91	323.44
291.141	293.44
291.371	316.44
291.602	303.44
291.833	312.44
292.064	323.44
292.295	305.44
292.526	318.44
292.757	309.44
292.987	309.44
293.218	328.44
293.449	328.44
293.68	319.44
293.91	299.44
294.141	292.44
294.372	304.44
294.603	323.44
294.833	317.44
295.064	328.44
295.295	319.44
295.525	322.44
295.756	327.44
295.987	323.44
296.217	328.44
296.448	342.44
296.679	322.44
296.909	324.44
297.14	319.44
297.37	321.44
297.601	312.44
297.831	322.44
298.062	328.44
298.292	333.44
298.523	323.44
298.753	332.44
298.984	337.44
299.214	328.44
299.445	322.44
299.675	312.44
299.905	349.44
300.136	319.44
300.366	337.44
300.597	357.44
300.827	340.44
301.057	327.44
301.288	364.44
301.518	342.44
301.748	342.44
301.979	333.44
302.209	343.44
302.439	341.44
302.669	359.44
302.9	357.44
303.13	355.44
303.36	363.44
303.59	347.44
303.82	352.44
304.051	365.44
304.281	369.44
304.511	352.44
304.741	342.44
304.971	358.44
305.201	352.44
305.431	358.44
305.661	361.44
305.891	351.44
306.121	355.44
306.352	363.44
306.582	345.44
306.812	340.44
307.042	359.44
307.272	346.44
307.502	347.44
307.731	374.44
307.961	354.44
308.191	362.44
308.421	356.44
308.651	340.44
308.881	356.44
309.111	363.44
309.341	372.44
309.571	379.44
309.8	375.44
310.03	387.44
310.26	386.44
310.49	381.44
310.72	376.44
310.949	389.44
311.179	394.44
311.409	391.44
311.639	395.44
311.868	383.44
312.098	393.44
312.328	392.44
312.557	395.44
312.787	407.44
313.017	391.44
313.246	423.44
313.476	414.44
313.706	413.44
313.935	394.44
314.165	426.44
314.394	398.44
314.624	415.44
314.853	400.44
315.083	385.44
315.312	394.44
315.542	389.44
315.771	396.44
316.001	389.44
316.23	382.44
316.46	392.44
316.689	395.44
316.919	378.44
317.148	403.44
317.377	405.44
317.607	397.44
317.836	387.44
318.065	404.44
318.295	384.44
318.524	390.44
318.753	395.44
318.983	387.44
319.212	382.44
319.441	383.44
319.67	389.44
319.9	386.44
320.129	387.44
320.358	402.44
320.587	409.44
320.816	391.44
321.046	398.44
321.275	424.44
321.504	402.44
321.733	419.44
321.962	448.44
322.191	409.44
322.42	435.44
322.649	449.44
322.878	456.44
323.108	443.44
323.337	477.44
323.566	495.44
323.795	491.44
324.024	535.44
324.253	659.44
324.482	874.44
324.71	1249.44
324.939	1757.44
325.168	1514.44
325.397	795.44
325.626	570.44
325.855	513.44
326.084	495.44
326.313	489.44
326.542	513.44
326.77	522.44
326.999	616.44
327.228	794.44
327.457	1136.44
327.686	1335.44
327.914	883.44
328.143	633.44
328.372	587.44
328.6	560.44
328.829	515.44
329.058	533.44
329.287	539.44
329.515	534.44
329.744	504.44
329.972	480.44
330.201	513.44
330.43	537.44
330.658	551.44
330.887	540.44
331.115	530.44
331.344	494.44
331.572	489.44
331.801	484.44
332.03	473.44
332.258	461.44
332.486	479.44
332.715	475.44
332.943	469.44
333.172	482.44
333.4	481.44
333.629	497.44
333.857	508.44
334.085	525.44
334.314	513.44
334.542	488.44
334.771	525.44
334.999	501.44
335.227	490.44
335.455	487.44
335.684	479.44
335.912	476.44
336.14	459.44
336.369	487.44
336.597	454.44
336.825	470.44
337.053	453.44
337.281	460.44
337.51	459.44
337.738	470.44
337.966	470.44
338.194	450.44
338.422	452.44
338.65	441.44
338.878	444.44
339.106	457.44
339.334	469.44
339.562	447.44
339.79	430.44
340.018	451.44
340.246	437.44
340.474	450.44
340.702	432.44
340.93	437.44
341.158	439.44
341.386	432.44
341.614	449.44
341.842	410.44
342.07	417.44
342.298	425.44
342.526	458.44
342.754	431.44
342.981	410.44
343.209	417.44
343.437	432.44
343.665	433.44
343.893	474.44
344.12	488.44
344.348	475.44
344.576	465.44
344.804	476.44
345.031	439.44
345.259	466.44
345.487	459.44
345.714	440.44
345.942	428.44
346.17	443.44
346.397	423.44
346.625	412.44
346.853	416.44
347.08	405.44
347.308	434.44
347.535	427.44
347.763	439.44
347.99	433.44
348.218	422.44
348.445	418.44
348.673	410.44
348.9	401.44
349.128	419.44
349.355	410.44
349.583	392.44
349.81	398.44
350.037	435.44
350.265	424.44
350.492	412.44
350.72	403.44
350.947	420.44
351.174	410.44
351.402	420.44
351.629	416.44
351.856	413.44
352.083	417.44
352.311	427.44
352.538	443.44
352.765	427.44
352.992	408.44
353.22	420.44
353.447	401.44
353.674	398.44
353.901	404.44
354.128	409.44
354.355	392.44
354.583	382.44
354.81	396.44
355.037	421.44
355.264	403.44
355.491	393.44
355.718	389.44
355.945	381.44
356.172	369.44
356.399	397.44
356.626	389.44
356.853	399.44
357.08	387.44
357.307	394.44
357.534	405.44
357.761	394.44
357.988	388.44
358.215	373.44
358.441	406.44
358.668	381.44
358.895	399.44
359.122	403.44
359.349	380.44
359.576	407.44
359.802	434.44
360.029	420.44
360.256	433.44
360.483	451.44
360.709	407.44
360.936	411.44
361.163	414.44
361.39	405.44
361.616	425.44
361.843	424.44
362.07	407.44
362.296	393.44
362.523	429.44
362.749	406.44
362.976	388.44
363.203	408.44
363.429	399.44
363.656	400.44
363.882	402.44
364.109	391.44
364.335	407.44
364.562	387.44
364.788	389.44
365.015	369.44
365.241	383.44
365.468	404.44
365.694	409.44
365.92	407.44
366.147	417.44
366.373	401.44
366.599	406.44
366.826	383.44
367.052	393.44
367.278	385.44
367.505	389.44
367.731	412.44
367.957	387.44
368.184	387.44
368.41	404.44
368.636	400.44
368.862	404.44
369.089	424.44
369.315	387.44
369.541	403.44
369.767	393.44
369.993	397.44
370.219	398.44
370.445	395.44
370.672	398.44
370.898	388.44
371.124	402.44
371.35	404.44
371.576	397.44
371.802	393.44
372.028	396.44
372.254	396.44
372.48	398.44
372.706	417.44
372.932	416.44
373.158	412.44
373.384	386.44
373.61	391.44
373.835	393.44
374.061	412.44
374.287	381.44
374.513	385.44
374.739	387.44
374.965	395.44
375.191	409.44
375.416	413.44
375.642	367.44
375.868	387.44
376.094	406.44
376.319	385.44
376.545	402.44
376.771	387.44
376.997	389.44
377.222	396.44
377.448	406.44
377.674	381.44
377.899	387.44
378.125	383.44
378.35	372.44
378.576	369.44
378.802	367.44
379.027	375.44
379.253	393.44
379.478	379.44
379.704	394.44
379.929	403.44
380.155	377.44
380.38	391.44
380.606	402.44
380.831	379.44
381.057	393.44
381.282	371.44
381.507	359.44
381.733	385.44
381.958	381.44
382.184	386.44
382.409	392.44
382.634	402.44
382.86	379.44
383.085	400.44
383.31	379.44
383.535	391.44
383.761	394.44
383.986	401.44
384.211	401.44
384.436	422.44
384.662	421.44
384.887	413.44
385.112	428.44
385.337	440.44
385.562	414.44
385.787	429.44
386.013	431.44
386.238	439.44
386.463	432.44
386.688	416.44
386.913	424.44
387.138	420.44
387.363	429.44
387.588	420.44
387.813	415.44
388.038	408.44
388.263	419.44
388.488	439.44
388.713	431.44
388.938	404.44
389.163	440.44
389.387	412.44
389.612	410.44
389.837	412.44
390.062	432.44
390.287	427.44
390.512	422.44
390.736	435.44
390.961	425.44
391.186	451.44
391.411	443.44
391.636	422.44
391.86	451.44
392.085	458.44
392.31	440.44
392.534	460.44
392.759	453.44
392.984	441.44
393.208	409.44
393.433	440.44
393.658	420.44
393.882	439.44
394.107	431.44
394.331	431.44
394.556	443.44
394.78	445.44
395.005	432.44
395.229	429.44
395.454	453.44
395.678	441.44
395.903	455.44
396.127	474.44
396.352	489.44
396.576	441.44
396.801	420.44
397.025	457.44
397.249	451.44
397.474	453.44
397.698	446.44
397.922	465.44
398.147	471.44
398.371	460.44
398.595	452.44
398.82	470.44
399.044	537.44
399.268	527.44
399.492	576.44
399.717	583.44
399.941	614.44
400.165	610.44
400.389	607.44
400.613	582.44
400.837	528.44
401.062	527.44
401.286	490.44
401.51	495.44
401.734	493.44
401.958	476.44
402.182	493.44
402.406	515.44
402.63	498.44
402.854	496.44
403.078	500.44
403.302	525.44
403.526	516.44
403.75	511.44
403.974	528.44
404.198	515.44
404.422	509.44
404.645	529.44
404.869	522.44
405.093	527.44
405.317	570.44
405.541	612.44
405.765	565.44
405.988	523.44
406.212	538.44
406.436	544.44
406.66	572.44
406.883	551.44
407.107	576.44
407.331	583.44
407.555	651.44
407.778	665.44
408.002	609.44
408.226	581.44
408.449	570.44
408.673	541.44
408.896	576.44
409.12	592.44
409.344	558.44
409.567	536.44
409.791	513.44
410.014	524.44
410.238	488.44
410.461	524.44
410.685	539.44
410.908	520.44
411.132	546.44
411.355	565.44
411.578	531.44
411.802	531.44
412.025	516.44
412.249	531.44
412.472	527.44
412.695	543.44
412.919	543.44
413.142	521.44
413.365	500.44
413.589	486.44
413.812	449.44
414.035	465.44
414.258	475.44
414.482	475.44
414.705	471.44
414.928	461.44
415.151	471.44
415.374	471.44
415.597	469.44
415.821	465.44
416.044	462.44
416.267	484.44
416.49	475.44
416.713	473.44
416.936	466.44
417.159	474.44
417.382	463.44
417.605	473.44
417.828	484.44
418.051	485.44
418.274	480.44
418.497	466.44
418.72	471.44
418.943	473.44
419.166	481.44
419.389	537.44
419.611	529.44
419.834	517.44
420.057	507.44
420.28	493.44
420.503	474.44
420.726	493.44
420.948	499.44
421.171	536.44
421.394	559.44
421.617	513.44
421.839	487.44
422.062	466.44
422.285	497.44
422.507	558.44
422.73	603.44
422.953	585.44
423.175	520.44
423.398	509.44
423.621	511.44
423.843	525.44
424.066	515.44
424.288	537.44
424.511	537.44
424.733	578.44
424.956	629.44
425.178	618.44
425.401	603.44
425.623	621.44
425.846	537.44
426.068	532.44
426.291	511.44
426.513	509.44
426.735	518.44
426.958	536.44
427.18	630.44
427.402	739.44
427.625	777.44
427.847	645.44
428.069	589.44
428.292	522.44
428.514	486.44
428.736	482.44
428.958	477.44
429.181	468.44
429.403	479.44
429.625	477.44
429.847	475.44
430.069	541.44
430.292	557.44
430.514	491.44
430.736	454.44
430.958	464.44
431.18	478.44
431.402	459.44
431.624	423.44
431.846	442.44
432.068	426.44
432.29	448.44
432.512	445.44
432.734	441.44
432.956	448.44
433.178	431.44
433.4	447.44
433.622	467.44
433.844	460.44
434.066	451.44
434.287	431.44
434.509	474.44
434.731	474.44
434.953	505.44
435.175	479.44
435.397	495.44
435.618	511.44
435.84	538.44
436.062	620.44
436.284	682.44
436.505	542.44
436.727	501.44
436.949	499.44
437.17	474.44
437.392	460.44
437.614	485.44
437.835	505.44
438.057	544.44
438.278	650.44
438.5	675.44
438.721	738.44
438.943	705.44
439.165	560.44
439.386	519.44
439.608	486.44
439.829	499.44
440.05	520.44
440.272	571.44
440.493	537.44
440.715	487.44
440.936	480.44
441.158	471.44
441.379	459.44
441.6	477.44
441.822	480.44
442.043	553.44
442.264	626.44
442.486	633.44
442.707	547.44
442.928	533.44
443.149	514.44
443.371	573.44
443.592	595.44
443.813	653.44
444.034	703.44
444.255	593.44
444.476	550.44
444.698	520.44
444.919	536.44
445.14	603.44
445.361	552.44
445.582	527.44
445.803	585.44
446.024	672.44
446.245	679.44
446.466	607.44
446.687	552.44
446.908	480.44
447.129	457.44
447.35	468.44
447.571	469.44
447.792	476.44
448.013	486.44
448.234	462.44
448.455	519.44
448.675	617.44
448.896	713.44
449.117	602.44
449.338	584.44
449.559	645.44
449.779	739.44
450	600.44
450.221	521.44
450.442	475.44
450.662	443.44
450.883	445.44
451.104	472.44
451.324	454.44
451.545	447.44
451.766	425.44
451.986	411.44
452.207	404.44
452.428	429.44
452.648	420.44
452.869	412.44
453.089	435.44
453.31	441.44
453.53	424.44
453.751	392.44
453.971	425.44
454.192	415.44
454.412	400.44
454.633	407.44
454.853	424.44
455.073	403.44
455.294	427.44
455.514	484.44
455.734	461.44
455.955	428.44
456.175	396.44
456.395	390.44
456.616	398.44
456.836	413.44
457.056	399.44
457.276	396.44
457.497	392.44
457.717	389.44
457.937	376.44
458.157	403.44
458.377	421.44
458.598	451.44
458.818	462.44
459.038	518.44
459.258	540.44
459.478	485.44
459.698	444.44
459.918	459.44
460.138	455.44
460.358	449.44
460.578	473.44
460.798	460.44
461.018	483.44
461.238	459.44
461.458	453.44
461.678	449.44
461.898	455.44
462.118	450.44
462.338	473.44
462.558	488.44
462.777	483.44
462.997	513.44
463.217	506.44
463.437	507.44
463.657	510.44
463.876	492.44
464.096	479.44
464.316	492.44
464.536	492.44
464.755	490.44
464.975	501.44
465.195	495.44
465.414	542.44
465.634	505.44
465.854	481.44
466.073	461.44
466.293	453.44
466.512	435.44
466.732	436.44
466.951	424.44
467.171	434.44
467.391	405.44
467.61	438.44
467.829	444.44
468.049	425.44
468.268	423.44
468.488	396.44
468.707	404.44
468.927	418.44
469.146	423.44
469.365	429.44
469.585	416.44
469.804	425.44
470.023	419.44
470.243	439.44
470.462	422.44
470.681	428.44
470.901	446.44
471.12	441.44
471.339	417.44
471.558	435.44
471.777	425.44
471.997	408.44
472.216	426.44
472.435	440.44
472.654	441.44
472.873	400.44
473.092	397.44
473.311	431.44
473.53	425.44
473.749	432.44
473.968	454.44
474.187	541.44
474.406	577.44
474.625	487.44
474.844	442.44
475.063	433.44
475.282	412.44
475.501	445.44
475.72	452.44
475.939	425.44
476.158	429.44
476.377	443.44
476.596	462.44
476.814	446.44
477.033	461.44
477.252	452.44
477.471	435.44
477.69	441.44
477.908	461.44
478.127	473.44
478.346	455.44
478.564	475.44
478.783	468.44
479.002	500.44
479.22	489.44
479.439	526.44
479.658	502.44
479.876	522.44
480.095	528.44
480.313	535.44
480.532	521.44
480.751	524.44
480.969	541.44
481.188	572.44
481.406	566.44
481.624	548.44
481.843	519.44
482.061	502.44
482.28	507.44
482.498	493.44
482.717	501.44
482.935	505.44
483.153	469.44
483.372	480.44
483.59	473.44
483.808	475.44
484.027	493.44
484.245	493.44
484.463	514.44
484.681	506.44
484.9	500.44
485.118	511.44
485.336	489.44
485.554	497.44
485.772	503.44
485.99	516.44
486.209	509.44
486.427	521.44
486.645	498.44
486.863	527.44
487.081	532.44
487.299	514.44
487.517	521.44
487.735	526.44
487.953	502.44
488.171	526.44
488.389	532.44
488.607	525.44
488.825	505.44
489.043	528.44
489.261	540.44
489.479	557.44
489.696	542.44
489.914	551.44
490.132	540.44
490.35	539.44
490.568	573.44
490.786	560.44
491.003	571.44
491.221	557.44
491.439	584.44
491.657	591.44
491.874	569.44
492.092	593.44
492.31	596.44
492.527	575.44
492.745	585.44
492.963	591.44
493.18	593.44
493.398	592.44
493.615	587.44
493.833	596.44
494.05	599.44
494.268	601.44
494.485	619.44
494.703	599.44
494.92	617.44
495.138	593.44
495.355	594.44
495.573	609.44
495.79	611.44
496.008	638.44
496.225	624.44
496.442	617.44
496.66	609.44
496.877	600.44
497.094	611.44
497.312	624.44
497.529	632.44
497.746	664.44
497.963	681.44
498.181	676.44
498.398	695.44
498.615	701.44
498.832	699.44
499.049	745.44
499.267	759.44
499.484	794.44
499.701	832.44
499.918	862.44
500.135	891.44
500.352	951.44
500.569	998.44
500.786	978.44
501.003	929.44
501.22	886.44
501.437	887.44
501.654	821.44
501.871	809.44
502.088	803.44
