Data from 1977.PennyLincolnUp.Lamp.En5.5.200Scan.071719.P1_HRD10591_16-05-30-863.txt Node
Date: Thu Jul 18 16:05:30 EDT 2019
User: cochatt
Spectrometer: HR+D1059
Trigger mode: 1
Integration Time (sec): 1.000000E-1
Scans to average: 1
Electric dark correction enabled: true
Nonlinearity correction enabled: false
Boxcar width: 0
XAxis mode: Wavelengths
Number of Pixels in Spectrum: 2048
>>>>>Begin Spectral Data<<<<<
223.165	-20.5
223.4	-20.5
223.635	-20.5
223.869	-13.5
224.104	-26.5
224.338	-16.5
224.573	-20.5
224.808	-20.5
225.042	2.5
225.277	-2.5
225.511	-0.5
225.746	9.5
225.98	12.5
226.215	17.5
226.449	11.5
226.683	27.5
226.918	18.5
227.152	21.5
227.387	25.5
227.621	34.5
227.856	52.5
228.09	41.5
228.324	54.5
228.559	39.5
228.793	56.5
229.027	91.5
229.262	106.5
229.496	104.5
229.73	107.5
229.964	104.5
230.199	92.5
230.433	113.5
230.667	119.5
230.901	99.5
231.136	105.5
231.37	102.5
231.604	106.5
231.838	108.5
232.072	105.5
232.306	120.5
232.541	104.5
232.775	94.5
233.009	105.5
233.243	101.5
233.477	119.5
233.711	100.5
233.945	118.5
234.179	112.5
234.413	91.5
234.647	101.5
234.881	117.5
235.115	112.5
235.349	100.5
235.583	120.5
235.817	119.5
236.051	109.5
236.285	129.5
236.519	118.5
236.753	126.5
236.987	130.5
237.221	141.5
237.455	173.5
237.689	147.5
237.922	121.5
238.156	122.5
238.39	119.5
238.624	123.5
238.858	112.5
239.091	118.5
239.325	128.5
239.559	122.5
239.793	117.5
240.027	126.5
240.26	127.5
240.494	132.5
240.728	125.5
240.961	139.5
241.195	128.5
241.429	131.5
241.662	103.5
241.896	116.5
242.13	129.5
242.363	137.5
242.597	123.5
242.83	141.5
243.064	139.5
243.298	129.5
243.531	140.5
243.765	140.5
243.998	131.5
244.232	143.5
244.465	138.5
244.699	145.5
244.932	153.5
245.166	137.5
245.399	137.5
245.633	141.5
245.866	145.5
246.099	145.5
246.333	138.5
246.566	137.5
246.8	150.5
247.033	160.5
247.266	157.5
247.5	148.5
247.733	157.5
247.966	149.5
248.2	162.5
248.433	160.5
248.666	149.5
248.899	178.5
249.133	179.5
249.366	208.5
249.599	179.5
249.832	165.5
250.066	177.5
250.299	178.5
250.532	169.5
250.765	163.5
250.998	191.5
251.231	191.5
251.465	178.5
251.698	188.5
251.931	185.5
252.164	189.5
252.397	193.5
252.63	187.5
252.863	187.5
253.096	207.5
253.329	217.5
253.562	202.5
253.795	198.5
254.028	205.5
254.261	214.5
254.494	201.5
254.727	218.5
254.96	236.5
255.193	231.5
255.426	217.5
255.659	218.5
255.892	206.5
256.124	203.5
256.357	220.5
256.59	185.5
256.823	189.5
257.056	184.5
257.289	194.5
257.521	200.5
257.754	212.5
257.987	203.5
258.22	201.5
258.452	193.5
258.685	193.5
258.918	195.5
259.151	199.5
259.383	202.5
259.616	203.5
259.849	204.5
260.081	206.5
260.314	229.5
260.547	227.5
260.779	236.5
261.012	206.5
261.244	195.5
261.477	200.5
261.71	200.5
261.942	217.5
262.175	212.5
262.407	213.5
262.64	208.5
262.872	204.5
263.105	221.5
263.337	210.5
263.57	195.5
263.802	220.5
264.035	201.5
264.267	199.5
264.499	212.5
264.732	209.5
264.964	220.5
265.197	211.5
265.429	204.5
265.661	223.5
265.894	208.5
266.126	214.5
266.358	210.5
266.591	208.5
266.823	216.5
267.055	215.5
267.287	214.5
267.52	209.5
267.752	235.5
267.984	241.5
268.216	225.5
268.448	235.5
268.681	227.5
268.913	254.5
269.145	249.5
269.377	243.5
269.609	250.5
269.841	258.5
270.073	245.5
270.306	252.5
270.538	274.5
270.77	283.5
271.002	280.5
271.234	264.5
271.466	270.5
271.698	284.5
271.93	261.5
272.162	283.5
272.394	275.5
272.626	277.5
272.858	283.5
273.09	277.5
273.322	260.5
273.553	256.5
273.785	249.5
274.017	258.5
274.249	251.5
274.481	252.5
274.713	244.5
274.945	262.5
275.176	269.5
275.408	269.5
275.64	263.5
275.872	267.5
276.104	259.5
276.335	246.5
276.567	269.5
276.799	269.5
277.031	273.5
277.262	282.5
277.494	279.5
277.726	289.5
277.957	277.5
278.189	269.5
278.421	267.5
278.652	261.5
278.884	262.5
279.115	248.5
279.347	270.5
279.579	259.5
279.81	257.5
280.042	279.5
280.273	269.5
280.505	270.5
280.736	261.5
280.968	275.5
281.199	279.5
281.431	263.5
281.662	277.5
281.894	261.5
282.125	266.5
282.356	285.5
282.588	294.5
282.819	284.5
283.051	306.5
283.282	269.5
283.513	263.5
283.745	282.5
283.976	285.5
284.207	294.5
284.439	284.5
284.67	288.5
284.901	284.5
285.132	265.5
285.364	287.5
285.595	295.5
285.826	281.5
286.057	287.5
286.288	305.5
286.52	279.5
286.751	309.5
286.982	271.5
287.213	277.5
287.444	300.5
287.675	297.5
287.906	288.5
288.138	294.5
288.369	319.5
288.6	327.5
288.831	292.5
289.062	299.5
289.293	288.5
289.524	287.5
289.755	293.5
289.986	284.5
290.217	297.5
290.448	296.5
290.679	303.5
290.91	297.5
291.141	309.5
291.371	301.5
291.602	320.5
291.833	292.5
292.064	273.5
292.295	303.5
292.526	297.5
292.757	309.5
292.987	314.5
293.218	288.5
293.449	275.5
293.68	313.5
293.91	275.5
294.141	284.5
294.372	300.5
294.603	305.5
294.833	303.5
295.064	311.5
295.295	307.5
295.525	297.5
295.756	319.5
295.987	307.5
296.217	314.5
296.448	322.5
296.679	285.5
296.909	309.5
297.14	311.5
297.37	308.5
297.601	321.5
297.831	298.5
298.062	299.5
298.292	325.5
298.523	321.5
298.753	312.5
298.984	319.5
299.214	327.5
299.445	312.5
299.675	307.5
299.905	313.5
300.136	313.5
300.366	332.5
300.597	298.5
300.827	312.5
301.057	321.5
301.288	338.5
301.518	325.5
301.748	332.5
301.979	344.5
302.209	337.5
302.439	352.5
302.669	327.5
302.9	315.5
303.13	325.5
303.36	335.5
303.59	315.5
303.82	328.5
304.051	342.5
304.281	337.5
304.511	330.5
304.741	342.5
304.971	337.5
305.201	326.5
305.431	320.5
305.661	317.5
305.891	320.5
306.121	328.5
306.352	337.5
306.582	337.5
306.812	344.5
307.042	337.5
307.272	326.5
307.502	343.5
307.731	334.5
307.961	341.5
308.191	332.5
308.421	324.5
308.651	335.5
308.881	325.5
309.111	336.5
309.341	368.5
309.571	360.5
309.8	359.5
310.03	370.5
310.26	362.5
310.49	353.5
310.72	360.5
310.949	369.5
311.179	373.5
311.409	354.5
311.639	379.5
311.868	380.5
312.098	357.5
312.328	371.5
312.557	387.5
312.787	393.5
313.017	374.5
313.246	365.5
313.476	367.5
313.706	341.5
313.935	360.5
314.165	359.5
314.394	388.5
314.624	382.5
314.853	364.5
315.083	367.5
315.312	379.5
315.542	363.5
315.771	357.5
316.001	386.5
316.23	371.5
316.46	358.5
316.689	375.5
316.919	391.5
317.148	363.5
317.377	385.5
317.607	374.5
317.836	356.5
318.065	373.5
318.295	375.5
318.524	356.5
318.753	371.5
318.983	349.5
319.212	374.5
319.441	377.5
319.67	385.5
319.9	365.5
320.129	373.5
320.358	385.5
320.587	401.5
320.816	374.5
321.046	362.5
321.275	381.5
321.504	380.5
321.733	378.5
321.962	381.5
322.191	409.5
322.42	416.5
322.649	420.5
322.878	416.5
323.108	408.5
323.337	425.5
323.566	443.5
323.795	464.5
324.024	473.5
324.253	568.5
324.482	749.5
324.71	1094.5
324.939	1440.5
325.168	1243.5
325.397	712.5
325.626	520.5
325.855	468.5
326.084	439.5
326.313	433.5
326.542	450.5
326.77	466.5
326.999	522.5
327.228	667.5
327.457	971.5
327.686	1137.5
327.914	777.5
328.143	590.5
328.372	516.5
328.6	472.5
328.829	453.5
329.058	497.5
329.287	496.5
329.515	479.5
329.744	465.5
329.972	449.5
330.201	463.5
330.43	492.5
330.658	497.5
330.887	468.5
331.115	484.5
331.344	465.5
331.572	440.5
331.801	450.5
332.03	447.5
332.258	439.5
332.486	446.5
332.715	433.5
332.943	439.5
333.172	467.5
333.4	468.5
333.629	455.5
333.857	462.5
334.085	469.5
334.314	464.5
334.542	483.5
334.771	489.5
334.999	465.5
335.227	460.5
335.455	461.5
335.684	453.5
335.912	435.5
336.14	459.5
336.369	429.5
336.597	434.5
336.825	450.5
337.053	434.5
337.281	444.5
337.51	416.5
337.738	411.5
337.966	421.5
338.194	424.5
338.422	433.5
338.65	426.5
338.878	452.5
339.106	427.5
339.334	413.5
339.562	424.5
339.79	434.5
340.018	416.5
340.246	413.5
340.474	421.5
340.702	427.5
340.93	413.5
341.158	395.5
341.386	418.5
341.614	415.5
341.842	410.5
342.07	396.5
342.298	416.5
342.526	388.5
342.754	389.5
342.981	401.5
343.209	409.5
343.437	438.5
343.665	417.5
343.893	415.5
344.12	440.5
344.348	437.5
344.576	432.5
344.804	424.5
345.031	428.5
345.259	414.5
345.487	400.5
345.714	403.5
345.942	411.5
346.17	398.5
346.397	396.5
346.625	404.5
346.853	380.5
347.08	411.5
347.308	401.5
347.535	404.5
347.763	406.5
347.99	380.5
348.218	396.5
348.445	413.5
348.673	404.5
348.9	410.5
349.128	390.5
349.355	386.5
349.583	395.5
349.81	405.5
350.037	367.5
350.265	377.5
350.492	378.5
350.72	393.5
350.947	372.5
351.174	393.5
351.402	383.5
351.629	397.5
351.856	392.5
352.083	380.5
352.311	385.5
352.538	392.5
352.765	395.5
352.992	381.5
353.22	390.5
353.447	385.5
353.674	387.5
353.901	389.5
354.128	362.5
354.355	372.5
354.583	377.5
354.81	381.5
355.037	356.5
355.264	348.5
355.491	370.5
355.718	369.5
355.945	390.5
356.172	367.5
356.399	377.5
356.626	379.5
356.853	368.5
357.08	358.5
357.307	362.5
357.534	372.5
357.761	356.5
357.988	364.5
358.215	361.5
358.441	381.5
358.668	368.5
358.895	369.5
359.122	364.5
359.349	363.5
359.576	380.5
359.802	415.5
360.029	391.5
360.256	406.5
360.483	400.5
360.709	377.5
360.936	393.5
361.163	378.5
361.39	384.5
361.616	392.5
361.843	388.5
362.07	381.5
362.296	379.5
362.523	376.5
362.749	376.5
362.976	391.5
363.203	358.5
363.429	372.5
363.656	376.5
363.882	372.5
364.109	373.5
364.335	368.5
364.562	387.5
364.788	370.5
365.015	396.5
365.241	359.5
365.468	368.5
365.694	395.5
365.92	375.5
366.147	368.5
366.373	379.5
366.599	378.5
366.826	374.5
367.052	362.5
367.278	351.5
367.505	381.5
367.731	383.5
367.957	375.5
368.184	382.5
368.41	364.5
368.636	369.5
368.862	379.5
369.089	383.5
369.315	354.5
369.541	371.5
369.767	369.5
369.993	381.5
370.219	361.5
370.445	385.5
370.672	387.5
370.898	366.5
371.124	385.5
371.35	376.5
371.576	378.5
371.802	388.5
372.028	389.5
372.254	373.5
372.48	376.5
372.706	380.5
372.932	376.5
373.158	366.5
373.384	378.5
373.61	360.5
373.835	362.5
374.061	387.5
374.287	378.5
374.513	385.5
374.739	381.5
374.965	394.5
375.191	399.5
375.416	379.5
375.642	368.5
375.868	368.5
376.094	370.5
376.319	376.5
376.545	357.5
376.771	376.5
376.997	362.5
377.222	362.5
377.448	392.5
377.674	374.5
377.899	344.5
378.125	371.5
378.35	377.5
378.576	363.5
378.802	357.5
379.027	367.5
379.253	371.5
379.478	370.5
379.704	360.5
379.929	373.5
380.155	353.5
380.38	371.5
380.606	362.5
380.831	375.5
381.057	355.5
381.282	355.5
381.507	366.5
381.733	373.5
381.958	375.5
382.184	392.5
382.409	379.5
382.634	393.5
382.86	383.5
383.085	380.5
383.31	393.5
383.535	391.5
383.761	361.5
383.986	380.5
384.211	399.5
384.436	400.5
384.662	385.5
384.887	394.5
385.112	403.5
385.337	405.5
385.562	397.5
385.787	408.5
386.013	429.5
386.238	425.5
386.463	440.5
386.688	397.5
386.913	416.5
387.138	408.5
387.363	417.5
387.588	408.5
387.813	405.5
388.038	423.5
388.263	382.5
388.488	403.5
388.713	406.5
388.938	405.5
389.163	415.5
389.387	398.5
389.612	420.5
389.837	400.5
390.062	425.5
390.287	396.5
390.512	412.5
390.736	410.5
390.961	406.5
391.186	398.5
391.411	412.5
391.636	428.5
391.86	409.5
392.085	446.5
392.31	433.5
392.534	413.5
392.759	417.5
392.984	424.5
393.208	413.5
393.433	419.5
393.658	423.5
393.882	412.5
394.107	431.5
394.331	433.5
394.556	395.5
394.78	414.5
395.005	415.5
395.229	408.5
395.454	454.5
395.678	420.5
395.903	433.5
396.127	438.5
396.352	440.5
396.576	446.5
396.801	409.5
397.025	429.5
397.249	424.5
397.474	427.5
397.698	425.5
397.922	442.5
398.147	450.5
398.371	439.5
398.595	448.5
398.82	446.5
399.044	479.5
399.268	491.5
399.492	533.5
399.717	557.5
399.941	559.5
400.165	593.5
400.389	573.5
400.613	542.5
400.837	502.5
401.062	492.5
401.286	513.5
401.51	484.5
401.734	456.5
401.958	473.5
402.182	452.5
402.406	486.5
402.63	487.5
402.854	460.5
403.078	478.5
403.302	481.5
403.526	487.5
403.75	468.5
403.974	485.5
404.198	476.5
404.422	491.5
404.645	474.5
404.869	478.5
405.093	495.5
405.317	525.5
405.541	581.5
405.765	492.5
405.988	503.5
406.212	505.5
406.436	528.5
406.66	501.5
406.883	509.5
407.107	558.5
407.331	538.5
407.555	600.5
407.778	625.5
408.002	577.5
408.226	545.5
408.449	543.5
408.673	517.5
408.896	525.5
409.12	571.5
409.344	539.5
409.567	498.5
409.791	485.5
410.014	483.5
410.238	477.5
410.461	466.5
410.685	479.5
410.908	511.5
411.132	515.5
411.355	536.5
411.578	528.5
411.802	458.5
412.025	483.5
412.249	467.5
412.472	488.5
412.695	520.5
412.919	498.5
413.142	507.5
413.365	454.5
413.589	465.5
413.812	454.5
414.035	445.5
414.258	440.5
414.482	468.5
414.705	456.5
414.928	441.5
415.151	450.5
415.374	431.5
415.597	431.5
415.821	448.5
416.044	446.5
416.267	447.5
416.49	431.5
416.713	435.5
416.936	459.5
417.159	458.5
417.382	447.5
417.605	440.5
417.828	421.5
418.051	456.5
418.274	453.5
418.497	453.5
418.72	440.5
418.943	443.5
419.166	444.5
419.389	491.5
419.611	479.5
419.834	453.5
420.057	471.5
420.28	471.5
420.503	450.5
420.726	459.5
420.948	464.5
421.171	495.5
421.394	515.5
421.617	472.5
421.839	453.5
422.062	458.5
422.285	461.5
422.507	509.5
422.73	562.5
422.953	548.5
423.175	487.5
423.398	474.5
423.621	497.5
423.843	507.5
424.066	465.5
424.288	484.5
424.511	483.5
424.733	519.5
424.956	567.5
425.178	585.5
425.401	561.5
425.623	579.5
425.846	501.5
426.068	479.5
426.291	472.5
426.513	486.5
426.735	479.5
426.958	513.5
427.18	572.5
427.402	663.5
427.625	724.5
427.847	614.5
428.069	525.5
428.292	489.5
428.514	470.5
428.736	452.5
428.958	445.5
429.181	431.5
429.403	454.5
429.625	461.5
429.847	473.5
430.069	500.5
430.292	490.5
430.514	459.5
430.736	439.5
430.958	437.5
431.18	409.5
431.402	423.5
431.624	427.5
431.846	426.5
432.068	410.5
432.29	436.5
432.512	437.5
432.734	412.5
432.956	412.5
433.178	437.5
433.4	445.5
433.622	430.5
433.844	435.5
434.066	422.5
434.287	433.5
434.509	426.5
434.731	441.5
434.953	464.5
435.175	456.5
435.397	476.5
435.618	484.5
435.84	500.5
436.062	586.5
436.284	587.5
436.505	496.5
436.727	468.5
436.949	467.5
437.17	434.5
437.392	443.5
437.614	446.5
437.835	459.5
438.057	507.5
438.278	595.5
438.5	585.5
438.721	653.5
438.943	624.5
439.165	530.5
439.386	469.5
439.608	463.5
439.829	458.5
440.05	464.5
440.272	512.5
440.493	466.5
440.715	463.5
440.936	450.5
441.158	453.5
441.379	451.5
441.6	459.5
441.822	466.5
442.043	491.5
442.264	567.5
442.486	580.5
442.707	528.5
442.928	481.5
443.149	483.5
443.371	497.5
443.592	557.5
443.813	576.5
444.034	628.5
444.255	524.5
444.476	488.5
444.698	503.5
444.919	490.5
445.14	586.5
445.361	530.5
445.582	517.5
445.803	561.5
446.024	598.5
446.245	589.5
446.466	551.5
446.687	501.5
446.908	469.5
447.129	429.5
447.35	426.5
447.571	426.5
447.792	432.5
448.013	427.5
448.234	435.5
448.455	476.5
448.675	583.5
448.896	656.5
449.117	545.5
449.338	509.5
449.559	605.5
449.779	673.5
450	561.5
450.221	474.5
450.442	454.5
450.662	408.5
450.883	418.5
451.104	403.5
451.324	403.5
451.545	413.5
451.766	403.5
451.986	392.5
452.207	369.5
452.428	383.5
452.648	397.5
452.869	389.5
453.089	385.5
453.31	388.5
453.53	389.5
453.751	397.5
453.971	393.5
454.192	382.5
454.412	371.5
454.633	390.5
454.853	380.5
455.073	376.5
455.294	411.5
455.514	438.5
455.734	424.5
455.955	378.5
456.175	368.5
456.395	375.5
456.616	373.5
456.836	383.5
457.056	369.5
457.276	360.5
457.497	370.5
457.717	345.5
457.937	387.5
458.157	387.5
458.377	372.5
458.598	401.5
458.818	433.5
459.038	493.5
459.258	487.5
459.478	452.5
459.698	428.5
459.918	430.5
460.138	432.5
460.358	437.5
460.578	424.5
460.798	440.5
461.018	444.5
461.238	432.5
461.458	434.5
461.678	427.5
461.898	419.5
462.118	438.5
462.338	439.5
462.558	444.5
462.777	474.5
462.997	484.5
463.217	482.5
463.437	490.5
463.657	492.5
463.876	473.5
464.096	479.5
464.316	459.5
464.536	479.5
464.755	463.5
464.975	485.5
465.195	454.5
465.414	538.5
465.634	445.5
465.854	442.5
466.073	415.5
466.293	419.5
466.512	402.5
466.732	405.5
466.951	391.5
467.171	410.5
467.391	399.5
467.61	381.5
467.829	410.5
468.049	396.5
468.268	382.5
468.488	397.5
468.707	369.5
468.927	384.5
469.146	385.5
469.365	413.5
469.585	408.5
469.804	421.5
470.023	406.5
470.243	395.5
470.462	402.5
470.681	425.5
470.901	412.5
471.12	407.5
471.339	427.5
471.558	395.5
471.777	404.5
471.997	401.5
472.216	401.5
472.435	409.5
472.654	398.5
472.873	395.5
473.092	413.5
473.311	410.5
473.53	399.5
473.749	400.5
473.968	446.5
474.187	507.5
474.406	519.5
474.625	446.5
474.844	404.5
475.063	398.5
475.282	403.5
475.501	398.5
475.72	404.5
475.939	423.5
476.158	406.5
476.377	416.5
476.596	420.5
476.814	439.5
477.033	406.5
477.252	421.5
477.471	428.5
477.69	426.5
477.908	440.5
478.127	458.5
478.346	424.5
478.564	448.5
478.783	451.5
479.002	465.5
479.22	465.5
479.439	456.5
479.658	468.5
479.876	482.5
480.095	490.5
480.313	497.5
480.532	518.5
480.751	503.5
480.969	485.5
481.188	521.5
481.406	515.5
481.624	481.5
481.843	480.5
482.061	475.5
482.28	453.5
482.498	462.5
482.717	469.5
482.935	464.5
483.153	466.5
483.372	453.5
483.59	450.5
483.808	465.5
484.027	467.5
484.245	452.5
484.463	474.5
484.681	482.5
484.9	454.5
485.118	471.5
485.336	490.5
485.554	474.5
485.772	473.5
485.99	464.5
486.209	492.5
486.427	471.5
486.645	484.5
486.863	489.5
487.081	489.5
487.299	490.5
487.517	497.5
487.735	473.5
487.953	514.5
488.171	495.5
488.389	500.5
488.607	489.5
488.825	485.5
489.043	504.5
489.261	481.5
489.479	497.5
489.696	492.5
489.914	522.5
490.132	495.5
490.35	503.5
490.568	505.5
490.786	528.5
491.003	535.5
491.221	512.5
491.439	508.5
491.657	524.5
491.874	554.5
492.092	537.5
492.31	546.5
492.527	534.5
492.745	516.5
492.963	543.5
493.18	553.5
493.398	556.5
493.615	539.5
493.833	559.5
494.05	583.5
494.268	540.5
494.485	564.5
494.703	579.5
494.92	562.5
495.138	576.5
495.355	552.5
495.573	579.5
495.79	580.5
496.008	552.5
496.225	549.5
496.442	570.5
496.66	575.5
496.877	576.5
497.094	572.5
497.312	594.5
497.529	589.5
497.746	596.5
497.963	629.5
498.181	620.5
498.398	629.5
498.615	653.5
498.832	661.5
499.049	663.5
499.267	693.5
499.484	735.5
499.701	777.5
499.918	819.5
500.135	853.5
500.352	909.5
500.569	918.5
500.786	902.5
501.003	909.5
501.22	855.5
501.437	802.5
501.654	773.5
501.871	749.5
502.088	724.5
502.305	700.5
502.522	668.5
502.739	660.5
502.956	635.5
503.172	636.5
503.389	615.5
503.606	613.5
503.823	575.5
504.04	586.5
504.256	597.5
504.473	585.5
504.69	583.5
504.907	593.5
505.123	588.5
505.34	581.5
505.557	562.5
505.773	577.5
505.99	556.5
506.207	535.5
506.423	547.5
506.64	533.5
506.856	524.5
507.073	521.5
507.289	579.5
507.506	525.5
507.722	527.5
507.939	535.5
508.155	497.5
508.372	488.5
508.588	521.5
508.805	507.5
509.021	492.5
509.238	525.5
509.454	494.5
509.67	498.5
509.887	505.5
510.103	507.5
510.319	492.5
510.536	544.5
510.752	797.5
510.968	639.5
511.184	501.5
511.401	499.5
511.617	457.5
511.833	478.5
512.049	484.5
512.265	473.5
512.481	468.5
512.698	466.5
512.914	488.5
513.13	456.5
513.346	486.5
513.562	477.5
513.778	473.5
513.994	486.5
514.21	475.5
514.426	496.5
514.642	481.5
514.858	507.5
515.074	533.5
515.29	617.5
515.506	784.5
515.721	683.5
515.937	529.5
516.153	511.5
516.369	499.5
516.585	500.5
516.801	511.5
517.016	517.5
517.232	515.5
517.448	517.5
517.664	530.5
517.879	531.5
518.095	533.5
518.311	490.5
518.527	519.5
518.742	505.5
518.958	491.5
519.173	490.5
519.389	498.5
519.605	489.5
519.82	478.5
520.036	499.5
