Data from 1977.PennyLincolnUp.Lamp.En5.5.200Scan.071719.P1_HRD10591_16-07-39-865.txt Node
Date: Thu Jul 18 16:07:39 EDT 2019
User: cochatt
Spectrometer: HR+D1059
Trigger mode: 1
Integration Time (sec): 1.000000E-1
Scans to average: 1
Electric dark correction enabled: true
Nonlinearity correction enabled: false
Boxcar width: 0
XAxis mode: Wavelengths
Number of Pixels in Spectrum: 2048
>>>>>Begin Spectral Data<<<<<
223.165	-10.69
223.4	-10.69
223.635	-10.69
223.869	-21.69
224.104	5.31
224.338	-21.69
224.573	-11.69
224.808	-7.69
225.042	-7.69
225.277	-1.69
225.511	-7.69
225.746	-8.69
225.98	8.31
226.215	13.31
226.449	21.31
226.683	13.31
226.918	21.31
227.152	16.31
227.387	25.31
227.621	36.31
227.856	47.31
228.09	59.31
228.324	40.31
228.559	58.31
228.793	62.31
229.027	93.31
229.262	102.31
229.496	97.31
229.73	111.31
229.964	139.31
230.199	123.31
230.433	99.31
230.667	111.31
230.901	115.31
231.136	108.31
231.37	115.31
231.604	114.31
231.838	107.31
232.072	98.31
232.306	110.31
232.541	101.31
232.775	106.31
233.009	98.31
233.243	100.31
233.477	117.31
233.711	116.31
233.945	124.31
234.179	114.31
234.413	110.31
234.647	114.31
234.881	122.31
235.115	102.31
235.349	122.31
235.583	122.31
235.817	114.31
236.051	115.31
236.285	131.31
236.519	127.31
236.753	125.31
236.987	124.31
237.221	165.31
237.455	214.31
237.689	178.31
237.922	127.31
238.156	133.31
238.39	134.31
238.624	117.31
238.858	122.31
239.091	123.31
239.325	134.31
239.559	122.31
239.793	136.31
240.027	131.31
240.26	129.31
240.494	138.31
240.728	146.31
240.961	158.31
241.195	142.31
241.429	121.31
241.662	147.31
241.896	126.31
242.13	127.31
242.363	124.31
242.597	142.31
242.83	130.31
243.064	132.31
243.298	136.31
243.531	128.31
243.765	125.31
243.998	137.31
244.232	139.31
244.465	142.31
244.699	130.31
244.932	147.31
245.166	145.31
245.399	146.31
245.633	157.31
245.866	138.31
246.099	141.31
246.333	134.31
246.566	169.31
246.8	143.31
247.033	155.31
247.266	145.31
247.5	148.31
247.733	153.31
247.966	166.31
248.2	170.31
248.433	178.31
248.666	155.31
248.899	174.31
249.133	180.31
249.366	202.31
249.599	181.31
249.832	172.31
250.066	160.31
250.299	161.31
250.532	184.31
250.765	186.31
250.998	206.31
251.231	213.31
251.465	206.31
251.698	203.31
251.931	189.31
252.164	194.31
252.397	184.31
252.63	194.31
252.863	216.31
253.096	203.31
253.329	225.31
253.562	203.31
253.795	202.31
254.028	203.31
254.261	212.31
254.494	221.31
254.727	228.31
254.96	258.31
255.193	285.31
255.426	235.31
255.659	209.31
255.892	225.31
256.124	220.31
256.357	219.31
256.59	221.31
256.823	205.31
257.056	228.31
257.289	205.31
257.521	216.31
257.754	197.31
257.987	199.31
258.22	197.31
258.452	221.31
258.685	192.31
258.918	202.31
259.151	194.31
259.383	219.31
259.616	214.31
259.849	233.31
260.081	228.31
260.314	231.31
260.547	256.31
260.779	226.31
261.012	242.31
261.244	240.31
261.477	232.31
261.71	217.31
261.942	220.31
262.175	219.31
262.407	227.31
262.64	215.31
262.872	217.31
263.105	206.31
263.337	210.31
263.57	218.31
263.802	219.31
264.035	197.31
264.267	205.31
264.499	200.31
264.732	224.31
264.964	206.31
265.197	213.31
265.429	220.31
265.661	227.31
265.894	226.31
266.126	226.31
266.358	224.31
266.591	241.31
266.823	240.31
267.055	218.31
267.287	233.31
267.52	224.31
267.752	220.31
267.984	235.31
268.216	233.31
268.448	248.31
268.681	244.31
268.913	255.31
269.145	275.31
269.377	279.31
269.609	287.31
269.841	256.31
270.073	255.31
270.306	293.31
270.538	294.31
270.77	300.31
271.002	314.31
271.234	284.31
271.466	290.31
271.698	310.31
271.93	309.31
272.162	317.31
272.394	305.31
272.626	318.31
272.858	281.31
273.09	305.31
273.322	262.31
273.553	270.31
273.785	258.31
274.017	274.31
274.249	270.31
274.481	263.31
274.713	276.31
274.945	250.31
275.176	253.31
275.408	264.31
275.64	281.31
275.872	270.31
276.104	279.31
276.335	270.31
276.567	301.31
276.799	288.31
277.031	303.31
277.262	320.31
277.494	321.31
277.726	298.31
277.957	290.31
278.189	276.31
278.421	281.31
278.652	284.31
278.884	276.31
279.115	274.31
279.347	264.31
279.579	282.31
279.81	277.31
280.042	300.31
280.273	285.31
280.505	278.31
280.736	280.31
280.968	284.31
281.199	278.31
281.431	288.31
281.662	276.31
281.894	289.31
282.125	295.31
282.356	295.31
282.588	301.31
282.819	308.31
283.051	281.31
283.282	281.31
283.513	282.31
283.745	301.31
283.976	297.31
284.207	296.31
284.439	296.31
284.67	292.31
284.901	294.31
285.132	288.31
285.364	281.31
285.595	308.31
285.826	299.31
286.057	306.31
286.288	292.31
286.52	284.31
286.751	298.31
286.982	291.31
287.213	293.31
287.444	300.31
287.675	295.31
287.906	323.31
288.138	323.31
288.369	338.31
288.6	310.31
288.831	302.31
289.062	302.31
289.293	309.31
289.524	309.31
289.755	313.31
289.986	309.31
290.217	310.31
290.448	308.31
290.679	305.31
290.91	291.31
291.141	305.31
291.371	311.31
291.602	327.31
291.833	295.31
292.064	299.31
292.295	316.31
292.526	299.31
292.757	321.31
292.987	300.31
293.218	288.31
293.449	310.31
293.68	320.31
293.91	314.31
294.141	296.31
294.372	302.31
294.603	323.31
294.833	340.31
295.064	291.31
295.295	323.31
295.525	313.31
295.756	333.31
295.987	318.31
296.217	336.31
296.448	350.31
296.679	316.31
296.909	292.31
297.14	314.31
297.37	320.31
297.601	329.31
297.831	299.31
298.062	319.31
298.292	330.31
298.523	338.31
298.753	338.31
298.984	305.31
299.214	331.31
299.445	305.31
299.675	316.31
299.905	309.31
300.136	329.31
300.366	327.31
300.597	312.31
300.827	352.31
301.057	351.31
301.288	350.31
301.518	356.31
301.748	347.31
301.979	344.31
302.209	352.31
302.439	331.31
302.669	341.31
302.9	348.31
303.13	339.31
303.36	351.31
303.59	319.31
303.82	353.31
304.051	358.31
304.281	335.31
304.511	317.31
304.741	351.31
304.971	336.31
305.201	349.31
305.431	372.31
305.661	354.31
305.891	346.31
306.121	318.31
306.352	352.31
306.582	334.31
306.812	338.31
307.042	330.31
307.272	347.31
307.502	345.31
307.731	349.31
307.961	341.31
308.191	372.31
308.421	368.31
308.651	356.31
308.881	362.31
309.111	355.31
309.341	361.31
309.571	368.31
309.8	389.31
310.03	359.31
310.26	370.31
310.49	378.31
310.72	372.31
310.949	390.31
311.179	413.31
311.409	384.31
311.639	394.31
311.868	387.31
312.098	381.31
312.328	401.31
312.557	419.31
312.787	407.31
313.017	413.31
313.246	395.31
313.476	392.31
313.706	365.31
313.935	395.31
314.165	402.31
314.394	404.31
314.624	428.31
314.853	382.31
315.083	395.31
315.312	394.31
315.542	397.31
315.771	385.31
316.001	374.31
316.23	376.31
316.46	386.31
316.689	383.31
316.919	409.31
317.148	408.31
317.377	387.31
317.607	377.31
317.836	379.31
318.065	385.31
318.295	395.31
318.524	384.31
318.753	385.31
318.983	379.31
319.212	389.31
319.441	419.31
319.67	394.31
319.9	388.31
320.129	408.31
320.358	391.31
320.587	396.31
320.816	384.31
321.046	424.31
321.275	409.31
321.504	404.31
321.733	401.31
321.962	396.31
322.191	428.31
322.42	404.31
322.649	419.31
322.878	425.31
323.108	444.31
323.337	448.31
323.566	478.31
323.795	504.31
324.024	534.31
324.253	625.31
324.482	829.31
324.71	1269.31
324.939	1745.31
325.168	1520.31
325.397	802.31
325.626	580.31
325.855	548.31
326.084	470.31
326.313	470.31
326.542	493.31
326.77	535.31
326.999	595.31
327.228	762.31
327.457	1109.31
327.686	1294.31
327.914	882.31
328.143	634.31
328.372	568.31
328.6	542.31
328.829	544.31
329.058	534.31
329.287	541.31
329.515	503.31
329.744	473.31
329.972	475.31
330.201	506.31
330.43	549.31
330.658	532.31
330.887	548.31
331.115	535.31
331.344	483.31
331.572	483.31
331.801	460.31
332.03	494.31
332.258	468.31
332.486	473.31
332.715	459.31
332.943	465.31
333.172	459.31
333.4	472.31
333.629	472.31
333.857	490.31
334.085	488.31
334.314	518.31
334.542	522.31
334.771	532.31
334.999	500.31
335.227	502.31
335.455	483.31
335.684	458.31
335.912	460.31
336.14	446.31
336.369	448.31
336.597	478.31
336.825	457.31
337.053	461.31
337.281	438.31
337.51	436.31
337.738	454.31
337.966	442.31
338.194	453.31
338.422	461.31
338.65	444.31
338.878	458.31
339.106	437.31
339.334	437.31
339.562	430.31
339.79	454.31
340.018	437.31
340.246	445.31
340.474	413.31
340.702	438.31
340.93	414.31
341.158	424.31
341.386	448.31
341.614	466.31
341.842	421.31
342.07	414.31
342.298	420.31
342.526	418.31
342.754	405.31
342.981	435.31
343.209	425.31
343.437	424.31
343.665	436.31
343.893	454.31
344.12	472.31
344.348	453.31
344.576	460.31
344.804	447.31
345.031	436.31
345.259	445.31
345.487	454.31
345.714	429.31
345.942	434.31
346.17	424.31
346.397	414.31
346.625	400.31
346.853	407.31
347.08	405.31
347.308	410.31
347.535	401.31
347.763	414.31
347.99	432.31
348.218	408.31
348.445	421.31
348.673	421.31
348.9	404.31
349.128	378.31
349.355	391.31
349.583	394.31
349.81	399.31
350.037	389.31
350.265	402.31
350.492	402.31
350.72	409.31
350.947	412.31
351.174	412.31
351.402	399.31
351.629	427.31
351.856	398.31
352.083	399.31
352.311	427.31
352.538	415.31
352.765	416.31
352.992	404.31
353.22	412.31
353.447	411.31
353.674	409.31
353.901	388.31
354.128	376.31
354.355	374.31
354.583	389.31
354.81	381.31
355.037	385.31
355.264	372.31
355.491	391.31
355.718	369.31
355.945	380.31
356.172	379.31
356.399	393.31
356.626	373.31
356.853	385.31
357.08	387.31
357.307	393.31
357.534	365.31
357.761	378.31
357.988	390.31
358.215	376.31
358.441	380.31
358.668	380.31
358.895	375.31
359.122	394.31
359.349	404.31
359.576	406.31
359.802	416.31
360.029	418.31
360.256	425.31
360.483	428.31
360.709	385.31
360.936	414.31
361.163	407.31
361.39	406.31
361.616	403.31
361.843	388.31
362.07	406.31
362.296	390.31
362.523	400.31
362.749	391.31
362.976	381.31
363.203	414.31
363.429	405.31
363.656	388.31
363.882	385.31
364.109	378.31
364.335	388.31
364.562	379.31
364.788	392.31
365.015	384.31
365.241	378.31
365.468	381.31
365.694	392.31
365.92	389.31
366.147	361.31
366.373	361.31
366.599	378.31
366.826	379.31
367.052	388.31
367.278	396.31
367.505	373.31
367.731	381.31
367.957	363.31
368.184	397.31
368.41	398.31
368.636	392.31
368.862	399.31
369.089	422.31
369.315	388.31
369.541	389.31
369.767	388.31
369.993	381.31
370.219	391.31
370.445	392.31
370.672	393.31
370.898	375.31
371.124	394.31
371.35	393.31
371.576	374.31
371.802	378.31
372.028	358.31
372.254	384.31
372.48	396.31
372.706	376.31
372.932	394.31
373.158	404.31
373.384	401.31
373.61	393.31
373.835	386.31
374.061	378.31
374.287	400.31
374.513	406.31
374.739	394.31
374.965	400.31
375.191	386.31
375.416	412.31
375.642	382.31
375.868	378.31
376.094	370.31
376.319	378.31
376.545	381.31
376.771	391.31
376.997	396.31
377.222	365.31
377.448	384.31
377.674	356.31
377.899	388.31
378.125	397.31
378.35	381.31
378.576	366.31
378.802	364.31
379.027	359.31
379.253	396.31
379.478	368.31
379.704	389.31
379.929	393.31
380.155	403.31
380.38	401.31
380.606	384.31
380.831	400.31
381.057	388.31
381.282	386.31
381.507	400.31
381.733	369.31
381.958	400.31
382.184	409.31
382.409	363.31
382.634	386.31
382.86	395.31
383.085	395.31
383.31	393.31
383.535	397.31
383.761	395.31
383.986	407.31
384.211	412.31
384.436	398.31
384.662	421.31
384.887	414.31
385.112	406.31
385.337	417.31
385.562	425.31
385.787	429.31
386.013	424.31
386.238	429.31
386.463	427.31
386.688	433.31
386.913	410.31
387.138	426.31
387.363	429.31
387.588	421.31
387.813	422.31
388.038	407.31
388.263	424.31
388.488	423.31
388.713	423.31
388.938	444.31
389.163	432.31
389.387	417.31
389.612	410.31
389.837	422.31
390.062	434.31
390.287	425.31
390.512	416.31
390.736	415.31
390.961	424.31
391.186	420.31
391.411	425.31
391.636	438.31
391.86	423.31
392.085	418.31
392.31	433.31
392.534	428.31
392.759	422.31
392.984	412.31
393.208	403.31
393.433	396.31
393.658	421.31
393.882	404.31
394.107	433.31
394.331	429.31
394.556	417.31
394.78	429.31
395.005	433.31
395.229	422.31
395.454	452.31
395.678	446.31
395.903	441.31
396.127	467.31
396.352	446.31
396.576	441.31
396.801	436.31
397.025	424.31
397.249	448.31
397.474	453.31
397.698	469.31
397.922	468.31
398.147	458.31
398.371	469.31
398.595	493.31
398.82	481.31
399.044	489.31
399.268	502.31
399.492	544.31
399.717	587.31
399.941	594.31
400.165	579.31
400.389	601.31
400.613	548.31
400.837	491.31
401.062	502.31
401.286	498.31
401.51	458.31
401.734	473.31
401.958	469.31
402.182	473.31
402.406	475.31
402.63	501.31
402.854	500.31
403.078	493.31
403.302	496.31
403.526	495.31
403.75	487.31
403.974	491.31
404.198	476.31
404.422	496.31
404.645	518.31
404.869	503.31
405.093	516.31
405.317	557.31
405.541	565.31
405.765	520.31
405.988	518.31
406.212	525.31
406.436	528.31
406.66	542.31
406.883	512.31
407.107	564.31
407.331	594.31
407.555	645.31
407.778	637.31
408.002	569.31
408.226	546.31
408.449	536.31
408.673	545.31
408.896	547.31
409.12	598.31
409.344	549.31
409.567	518.31
409.791	485.31
410.014	482.31
410.238	479.31
410.461	485.31
410.685	488.31
410.908	513.31
411.132	533.31
411.355	571.31
411.578	553.31
411.802	512.31
412.025	475.31
412.249	508.31
412.472	505.31
412.695	545.31
412.919	526.31
413.142	488.31
413.365	485.31
413.589	470.31
413.812	483.31
414.035	464.31
414.258	457.31
414.482	452.31
414.705	468.31
414.928	443.31
415.151	472.31
415.374	478.31
415.597	460.31
415.821	455.31
416.044	443.31
416.267	456.31
416.49	452.31
416.713	463.31
416.936	478.31
417.159	444.31
417.382	473.31
417.605	475.31
417.828	482.31
418.051	480.31
418.274	487.31
418.497	462.31
418.72	472.31
418.943	454.31
419.166	494.31
419.389	487.31
419.611	493.31
419.834	494.31
420.057	481.31
420.28	472.31
420.503	467.31
420.726	479.31
420.948	489.31
421.171	496.31
421.394	522.31
421.617	478.31
421.839	494.31
422.062	499.31
422.285	496.31
422.507	538.31
422.73	627.31
422.953	590.31
423.175	519.31
423.398	484.31
423.621	497.31
423.843	520.31
424.066	515.31
424.288	499.31
424.511	512.31
424.733	566.31
424.956	637.31
425.178	609.31
425.401	587.31
425.623	627.31
425.846	549.31
426.068	521.31
426.291	497.31
426.513	486.31
426.735	480.31
426.958	544.31
427.18	602.31
427.402	710.31
427.625	771.31
427.847	670.31
428.069	610.31
428.292	530.31
428.514	502.31
428.736	490.31
428.958	462.31
429.181	441.31
429.403	443.31
429.625	448.31
429.847	482.31
430.069	533.31
430.292	545.31
430.514	473.31
430.736	453.31
430.958	430.31
431.18	458.31
431.402	446.31
431.624	433.31
431.846	451.31
432.068	434.31
432.29	462.31
432.512	426.31
432.734	449.31
432.956	437.31
433.178	466.31
433.4	476.31
433.622	439.31
433.844	445.31
434.066	422.31
434.287	444.31
434.509	436.31
434.731	460.31
434.953	476.31
435.175	485.31
435.397	486.31
435.618	486.31
435.84	534.31
436.062	604.31
436.284	669.31
436.505	534.31
436.727	512.31
436.949	476.31
437.17	462.31
437.392	457.31
437.614	493.31
437.835	482.31
438.057	547.31
438.278	650.31
438.5	647.31
438.721	725.31
438.943	694.31
439.165	557.31
439.386	503.31
439.608	511.31
439.829	492.31
440.05	518.31
440.272	533.31
440.493	524.31
440.715	477.31
440.936	467.31
441.158	467.31
441.379	470.31
441.6	480.31
441.822	491.31
442.043	524.31
442.264	604.31
442.486	642.31
442.707	548.31
442.928	534.31
443.149	488.31
443.371	537.31
443.592	544.31
443.813	644.31
444.034	700.31
444.255	591.31
444.476	534.31
444.698	517.31
444.919	514.31
445.14	644.31
445.361	559.31
445.582	546.31
445.803	577.31
446.024	657.31
446.245	670.31
446.466	598.31
446.687	531.31
446.908	496.31
447.129	466.31
447.35	470.31
447.571	462.31
447.792	445.31
448.013	461.31
448.234	473.31
448.455	519.31
448.675	610.31
448.896	714.31
449.117	583.31
449.338	572.31
449.559	654.31
449.779	725.31
450	584.31
450.221	483.31
450.442	457.31
450.662	456.31
450.883	426.31
451.104	467.31
451.324	462.31
451.545	423.31
451.766	428.31
451.986	381.31
452.207	415.31
452.428	423.31
452.648	422.31
452.869	415.31
453.089	427.31
453.31	430.31
453.53	425.31
453.751	396.31
453.971	398.31
454.192	416.31
454.412	413.31
454.633	412.31
454.853	397.31
455.073	388.31
455.294	429.31
455.514	463.31
455.734	470.31
455.955	410.31
456.175	405.31
456.395	381.31
456.616	395.31
456.836	368.31
457.056	393.31
457.276	377.31
457.497	391.31
457.717	375.31
457.937	409.31
458.157	408.31
458.377	399.31
458.598	426.31
458.818	449.31
459.038	509.31
459.258	535.31
459.478	462.31
459.698	463.31
459.918	438.31
460.138	448.31
460.358	464.31
460.578	438.31
460.798	440.31
461.018	450.31
461.238	462.31
461.458	442.31
461.678	450.31
461.898	477.31
462.118	457.31
462.338	481.31
462.558	456.31
462.777	488.31
462.997	510.31
463.217	489.31
463.437	518.31
463.657	493.31
463.876	494.31
464.096	497.31
464.316	476.31
464.536	480.31
464.755	496.31
464.975	483.31
465.195	493.31
465.414	499.31
465.634	479.31
465.854	455.31
466.073	440.31
466.293	428.31
466.512	411.31
466.732	411.31
466.951	420.31
467.171	409.31
467.391	404.31
467.61	404.31
467.829	424.31
468.049	437.31
468.268	410.31
468.488	421.31
468.707	410.31
468.927	398.31
469.146	394.31
469.365	401.31
469.585	398.31
469.804	415.31
470.023	399.31
470.243	435.31
470.462	446.31
470.681	441.31
470.901	421.31
471.12	422.31
471.339	445.31
471.558	399.31
471.777	422.31
471.997	423.31
472.216	414.31
472.435	453.31
472.654	451.31
472.873	423.31
473.092	425.31
473.311	417.31
473.53	442.31
473.749	424.31
473.968	474.31
474.187	524.31
474.406	531.31
474.625	476.31
474.844	441.31
475.063	426.31
475.282	426.31
475.501	436.31
475.72	422.31
475.939	438.31
476.158	430.31
476.377	430.31
476.596	449.31
476.814	446.31
477.033	419.31
477.252	458.31
477.471	456.31
477.69	450.31
477.908	446.31
478.127	460.31
478.346	481.31
478.564	467.31
478.783	462.31
479.002	499.31
479.22	500.31
479.439	482.31
479.658	508.31
479.876	485.31
480.095	508.31
480.313	528.31
480.532	533.31
480.751	504.31
480.969	511.31
481.188	553.31
481.406	565.31
481.624	534.31
481.843	514.31
482.061	489.31
482.28	466.31
482.498	472.31
482.717	498.31
482.935	493.31
483.153	488.31
483.372	452.31
483.59	498.31
483.808	461.31
484.027	497.31
484.245	502.31
484.463	477.31
484.681	475.31
484.9	481.31
485.118	486.31
485.336	490.31
485.554	492.31
485.772	493.31
485.99	512.31
486.209	498.31
486.427	498.31
486.645	502.31
486.863	527.31
487.081	500.31
487.299	507.31
487.517	508.31
487.735	520.31
487.953	501.31
488.171	490.31
488.389	516.31
488.607	512.31
488.825	524.31
489.043	527.31
489.261	533.31
489.479	527.31
489.696	534.31
489.914	507.31
490.132	550.31
490.35	525.31
490.568	534.31
490.786	540.31
491.003	563.31
491.221	568.31
491.439	573.31
491.657	568.31
491.874	563.31
492.092	578.31
492.31	551.31
492.527	588.31
492.745	570.31
492.963	595.31
493.18	584.31
493.398	547.31
493.615	613.31
493.833	608.31
494.05	585.31
494.268	607.31
494.485	587.31
494.703	592.31
494.92	602.31
495.138	595.31
495.355	600.31
495.573	586.31
495.79	616.31
496.008	603.31
496.225	604.31
496.442	634.31
496.66	604.31
496.877	619.31
497.094	627.31
497.312	600.31
497.529	621.31
497.746	634.31
497.963	653.31
498.181	650.31
498.398	670.31
498.615	674.31
498.832	684.31
499.049	707.31
499.267	713.31
499.484	760.31
499.701	786.31
499.918	820.31
500.135	857.31
500.352	931.31
500.569	954.31
500.786	924.31
501.003	931.31
501.22	881.31
501.437	843.31
501.654	824.31
501.871	790.31
502.088	751.31
