Data from 1977.PennyLincolnUp.Lamp.En5.5.200Scan.071719.P1_HRD10591_16-04-54-885.txt Node
Date: Thu Jul 18 16:04:54 EDT 2019
User: cochatt
Spectrometer: HR+D1059
Trigger mode: 1
Integration Time (sec): 1.000000E-1
Scans to average: 1
Electric dark correction enabled: true
Nonlinearity correction enabled: false
Boxcar width: 0
XAxis mode: Wavelengths
Number of Pixels in Spectrum: 2048
>>>>>Begin Spectral Data<<<<<
223.165	-7.88
223.4	-7.88
223.635	-7.88
223.869	-16.88
224.104	-10.88
224.338	0.12
224.573	-11.88
224.808	-5.88
225.042	-21.88
225.277	-8.88
225.511	-6.88
225.746	-12.88
225.98	9.12
226.215	10.12
226.449	22.12
226.683	11.12
226.918	21.12
227.152	30.12
227.387	29.12
227.621	34.12
227.856	41.12
228.09	34.12
228.324	44.12
228.559	63.12
228.793	57.12
229.027	95.12
229.262	81.12
229.496	96.12
229.73	103.12
229.964	109.12
230.199	109.12
230.433	101.12
230.667	91.12
230.901	109.12
231.136	105.12
231.37	109.12
231.604	110.12
231.838	103.12
232.072	109.12
232.306	91.12
232.541	98.12
232.775	104.12
233.009	112.12
233.243	98.12
233.477	112.12
233.711	109.12
233.945	103.12
234.179	108.12
234.413	108.12
234.647	91.12
234.881	108.12
235.115	112.12
235.349	110.12
235.583	116.12
235.817	115.12
236.051	109.12
236.285	110.12
236.519	111.12
236.753	115.12
236.987	119.12
237.221	142.12
237.455	163.12
237.689	150.12
237.922	118.12
238.156	114.12
238.39	125.12
238.624	112.12
238.858	123.12
239.091	120.12
239.325	107.12
239.559	112.12
239.793	118.12
240.027	102.12
240.26	115.12
240.494	124.12
240.728	123.12
240.961	125.12
241.195	131.12
241.429	102.12
241.662	132.12
241.896	135.12
242.13	142.12
242.363	124.12
242.597	118.12
242.83	127.12
243.064	110.12
243.298	120.12
243.531	108.12
243.765	128.12
243.998	134.12
244.232	129.12
244.465	142.12
244.699	139.12
244.932	123.12
245.166	130.12
245.399	134.12
245.633	136.12
245.866	145.12
246.099	123.12
246.333	142.12
246.566	143.12
246.8	140.12
247.033	135.12
247.266	147.12
247.5	162.12
247.733	154.12
247.966	146.12
248.2	177.12
248.433	157.12
248.666	146.12
248.899	153.12
249.133	174.12
249.366	189.12
249.599	158.12
249.832	157.12
250.066	165.12
250.299	156.12
250.532	175.12
250.765	157.12
250.998	180.12
251.231	179.12
251.465	180.12
251.698	166.12
251.931	173.12
252.164	177.12
252.397	166.12
252.63	179.12
252.863	173.12
253.096	210.12
253.329	200.12
253.562	188.12
253.795	181.12
254.028	176.12
254.261	186.12
254.494	180.12
254.727	208.12
254.96	218.12
255.193	216.12
255.426	202.12
255.659	192.12
255.892	193.12
256.124	182.12
256.357	183.12
256.59	192.12
256.823	186.12
257.056	182.12
257.289	177.12
257.521	187.12
257.754	188.12
257.987	187.12
258.22	192.12
258.452	187.12
258.685	190.12
258.918	187.12
259.151	188.12
259.383	196.12
259.616	187.12
259.849	213.12
260.081	210.12
260.314	207.12
260.547	204.12
260.779	205.12
261.012	184.12
261.244	203.12
261.477	204.12
261.71	197.12
261.942	193.12
262.175	189.12
262.407	191.12
262.64	196.12
262.872	204.12
263.105	196.12
263.337	183.12
263.57	208.12
263.802	201.12
264.035	193.12
264.267	202.12
264.499	205.12
264.732	196.12
264.964	195.12
265.197	222.12
265.429	194.12
265.661	182.12
265.894	197.12
266.126	193.12
266.358	194.12
266.591	203.12
266.823	213.12
267.055	220.12
267.287	218.12
267.52	213.12
267.752	213.12
267.984	212.12
268.216	202.12
268.448	213.12
268.681	210.12
268.913	224.12
269.145	223.12
269.377	240.12
269.609	234.12
269.841	243.12
270.073	234.12
270.306	235.12
270.538	265.12
270.77	254.12
271.002	249.12
271.234	235.12
271.466	256.12
271.698	252.12
271.93	261.12
272.162	243.12
272.394	265.12
272.626	257.12
272.858	253.12
273.09	250.12
273.322	246.12
273.553	224.12
273.785	233.12
274.017	242.12
274.249	221.12
274.481	237.12
274.713	244.12
274.945	242.12
275.176	247.12
275.408	243.12
275.64	247.12
275.872	238.12
276.104	250.12
276.335	237.12
276.567	230.12
276.799	254.12
277.031	256.12
277.262	262.12
277.494	261.12
277.726	263.12
277.957	257.12
278.189	256.12
278.421	235.12
278.652	264.12
278.884	250.12
279.115	251.12
279.347	241.12
279.579	266.12
279.81	248.12
280.042	243.12
280.273	262.12
280.505	254.12
280.736	248.12
280.968	252.12
281.199	245.12
281.431	238.12
281.662	264.12
281.894	254.12
282.125	265.12
282.356	249.12
282.588	280.12
282.819	276.12
283.051	262.12
283.282	258.12
283.513	269.12
283.745	260.12
283.976	265.12
284.207	275.12
284.439	282.12
284.67	270.12
284.901	252.12
285.132	278.12
285.364	274.12
285.595	265.12
285.826	247.12
286.057	264.12
286.288	257.12
286.52	256.12
286.751	273.12
286.982	279.12
287.213	259.12
287.444	262.12
287.675	285.12
287.906	288.12
288.138	284.12
288.369	310.12
288.6	295.12
288.831	273.12
289.062	279.12
289.293	263.12
289.524	287.12
289.755	258.12
289.986	265.12
290.217	264.12
290.448	276.12
290.679	288.12
290.91	274.12
291.141	276.12
291.371	292.12
291.602	288.12
291.833	277.12
292.064	287.12
292.295	283.12
292.526	301.12
292.757	289.12
292.987	286.12
293.218	294.12
293.449	292.12
293.68	276.12
293.91	278.12
294.141	272.12
294.372	282.12
294.603	292.12
294.833	290.12
295.064	294.12
295.295	287.12
295.525	297.12
295.756	279.12
295.987	301.12
296.217	302.12
296.448	309.12
296.679	272.12
296.909	301.12
297.14	296.12
297.37	285.12
297.601	293.12
297.831	280.12
298.062	293.12
298.292	314.12
298.523	297.12
298.753	306.12
298.984	309.12
299.214	285.12
299.445	306.12
299.675	318.12
299.905	299.12
300.136	284.12
300.366	283.12
300.597	300.12
300.827	308.12
301.057	295.12
301.288	307.12
301.518	310.12
301.748	294.12
301.979	310.12
302.209	316.12
302.439	318.12
302.669	302.12
302.9	312.12
303.13	304.12
303.36	314.12
303.59	329.12
303.82	331.12
304.051	317.12
304.281	309.12
304.511	311.12
304.741	308.12
304.971	315.12
305.201	328.12
305.431	315.12
305.661	310.12
305.891	315.12
306.121	319.12
306.352	310.12
306.582	323.12
306.812	316.12
307.042	323.12
307.272	307.12
307.502	309.12
307.731	321.12
307.961	305.12
308.191	316.12
308.421	313.12
308.651	320.12
308.881	324.12
309.111	316.12
309.341	326.12
309.571	330.12
309.8	314.12
310.03	332.12
310.26	334.12
310.49	327.12
310.72	325.12
310.949	339.12
311.179	340.12
311.409	329.12
311.639	341.12
311.868	346.12
312.098	334.12
312.328	341.12
312.557	349.12
312.787	346.12
313.017	350.12
313.246	330.12
313.476	353.12
313.706	331.12
313.935	335.12
314.165	346.12
314.394	332.12
314.624	346.12
314.853	360.12
315.083	340.12
315.312	347.12
315.542	357.12
315.771	340.12
316.001	342.12
316.23	352.12
316.46	343.12
316.689	341.12
316.919	375.12
317.148	351.12
317.377	355.12
317.607	351.12
317.836	348.12
318.065	335.12
318.295	353.12
318.524	357.12
318.753	360.12
318.983	365.12
319.212	344.12
319.441	348.12
319.67	362.12
319.9	373.12
320.129	358.12
320.358	350.12
320.587	346.12
320.816	361.12
321.046	359.12
321.275	373.12
321.504	340.12
321.733	354.12
321.962	380.12
322.191	347.12
322.42	378.12
322.649	368.12
322.878	377.12
323.108	376.12
323.337	368.12
323.566	376.12
323.795	386.12
324.024	418.12
324.253	454.12
324.482	609.12
324.71	805.12
324.939	1154.12
325.168	976.12
325.397	566.12
325.626	445.12
325.855	405.12
326.084	390.12
326.313	397.12
326.542	399.12
326.77	426.12
326.999	465.12
327.228	583.12
327.457	772.12
327.686	869.12
327.914	596.12
328.143	442.12
328.372	434.12
328.6	417.12
328.829	415.12
329.058	407.12
329.287	421.12
329.515	400.12
329.744	394.12
329.972	388.12
330.201	397.12
330.43	415.12
330.658	427.12
330.887	450.12
331.115	443.12
331.344	394.12
331.572	413.12
331.801	386.12
332.03	397.12
332.258	427.12
332.486	413.12
332.715	404.12
332.943	415.12
333.172	422.12
333.4	424.12
333.629	429.12
333.857	443.12
334.085	425.12
334.314	438.12
334.542	427.12
334.771	435.12
334.999	422.12
335.227	405.12
335.455	418.12
335.684	428.12
335.912	406.12
336.14	406.12
336.369	425.12
336.597	409.12
336.825	404.12
337.053	394.12
337.281	420.12
337.51	406.12
337.738	425.12
337.966	409.12
338.194	417.12
338.422	405.12
338.65	402.12
338.878	403.12
339.106	389.12
339.334	388.12
339.562	367.12
339.79	388.12
340.018	395.12
340.246	392.12
340.474	380.12
340.702	384.12
340.93	390.12
341.158	404.12
341.386	401.12
341.614	397.12
341.842	382.12
342.07	365.12
342.298	401.12
342.526	378.12
342.754	380.12
342.981	380.12
343.209	374.12
343.437	391.12
343.665	412.12
343.893	405.12
344.12	422.12
344.348	413.12
344.576	396.12
344.804	391.12
345.031	400.12
345.259	406.12
345.487	397.12
345.714	388.12
345.942	372.12
346.17	396.12
346.397	372.12
346.625	369.12
346.853	382.12
347.08	380.12
347.308	369.12
347.535	361.12
347.763	388.12
347.99	374.12
348.218	366.12
348.445	364.12
348.673	370.12
348.9	370.12
349.128	349.12
349.355	353.12
349.583	363.12
349.81	348.12
350.037	360.12
350.265	374.12
350.492	356.12
350.72	357.12
350.947	369.12
351.174	362.12
351.402	365.12
351.629	366.12
351.856	370.12
352.083	378.12
352.311	365.12
352.538	375.12
352.765	378.12
352.992	362.12
353.22	361.12
353.447	355.12
353.674	351.12
353.901	338.12
354.128	358.12
354.355	346.12
354.583	350.12
354.81	357.12
355.037	344.12
355.264	350.12
355.491	356.12
355.718	330.12
355.945	349.12
356.172	346.12
356.399	345.12
356.626	340.12
356.853	338.12
357.08	343.12
357.307	333.12
357.534	348.12
357.761	353.12
357.988	345.12
358.215	342.12
358.441	356.12
358.668	353.12
358.895	363.12
359.122	357.12
359.349	356.12
359.576	369.12
359.802	347.12
360.029	363.12
360.256	380.12
360.483	374.12
360.709	342.12
360.936	348.12
361.163	360.12
361.39	360.12
361.616	361.12
361.843	343.12
362.07	346.12
362.296	346.12
362.523	336.12
362.749	352.12
362.976	356.12
363.203	360.12
363.429	361.12
363.656	341.12
363.882	347.12
364.109	342.12
364.335	343.12
364.562	351.12
364.788	356.12
365.015	369.12
365.241	360.12
365.468	378.12
365.694	365.12
365.92	333.12
366.147	349.12
366.373	346.12
366.599	334.12
366.826	346.12
367.052	339.12
367.278	353.12
367.505	343.12
367.731	358.12
367.957	357.12
368.184	354.12
368.41	359.12
368.636	348.12
368.862	355.12
369.089	333.12
369.315	354.12
369.541	349.12
369.767	368.12
369.993	342.12
370.219	350.12
370.445	370.12
370.672	357.12
370.898	368.12
371.124	346.12
371.35	372.12
371.576	349.12
371.802	372.12
372.028	345.12
372.254	336.12
372.48	356.12
372.706	365.12
372.932	373.12
373.158	365.12
373.384	352.12
373.61	352.12
373.835	354.12
374.061	349.12
374.287	365.12
374.513	365.12
374.739	360.12
374.965	392.12
375.191	374.12
375.416	369.12
375.642	358.12
375.868	376.12
376.094	360.12
376.319	378.12
376.545	353.12
376.771	346.12
376.997	348.12
377.222	358.12
377.448	348.12
377.674	348.12
377.899	336.12
378.125	345.12
378.35	368.12
378.576	360.12
378.802	349.12
379.027	358.12
379.253	345.12
379.478	343.12
379.704	346.12
379.929	360.12
380.155	351.12
380.38	356.12
380.606	366.12
380.831	344.12
381.057	358.12
381.282	376.12
381.507	378.12
381.733	356.12
381.958	342.12
382.184	342.12
382.409	339.12
382.634	377.12
382.86	380.12
383.085	386.12
383.31	368.12
383.535	368.12
383.761	378.12
383.986	381.12
384.211	388.12
384.436	376.12
384.662	388.12
384.887	379.12
385.112	384.12
385.337	402.12
385.562	401.12
385.787	395.12
386.013	402.12
386.238	409.12
386.463	402.12
386.688	401.12
386.913	405.12
387.138	411.12
387.363	408.12
387.588	392.12
387.813	404.12
388.038	403.12
388.263	388.12
388.488	412.12
388.713	397.12
388.938	399.12
389.163	413.12
389.387	388.12
389.612	393.12
389.837	402.12
390.062	382.12
390.287	386.12
390.512	372.12
390.736	388.12
390.961	406.12
391.186	397.12
391.411	384.12
391.636	404.12
391.86	422.12
392.085	411.12
392.31	399.12
392.534	404.12
392.759	398.12
392.984	412.12
393.208	398.12
393.433	411.12
393.658	393.12
393.882	393.12
394.107	408.12
394.331	394.12
394.556	416.12
394.78	396.12
395.005	413.12
395.229	384.12
395.454	402.12
395.678	430.12
395.903	405.12
396.127	434.12
396.352	429.12
396.576	412.12
396.801	416.12
397.025	421.12
397.249	417.12
397.474	399.12
397.698	419.12
397.922	441.12
398.147	424.12
398.371	436.12
398.595	438.12
398.82	445.12
399.044	454.12
399.268	468.12
399.492	505.12
399.717	540.12
399.941	566.12
400.165	553.12
400.389	550.12
400.613	509.12
400.837	480.12
401.062	469.12
401.286	446.12
401.51	451.12
401.734	434.12
401.958	444.12
402.182	457.12
402.406	448.12
402.63	434.12
402.854	468.12
403.078	464.12
403.302	451.12
403.526	457.12
403.75	470.12
403.974	485.12
404.198	453.12
404.422	509.12
404.645	467.12
404.869	465.12
405.093	475.12
405.317	491.12
405.541	509.12
405.765	482.12
405.988	481.12
406.212	501.12
406.436	490.12
406.66	475.12
406.883	475.12
407.107	530.12
407.331	520.12
407.555	572.12
407.778	581.12
408.002	530.12
408.226	520.12
408.449	507.12
408.673	498.12
408.896	538.12
409.12	546.12
409.344	506.12
409.567	464.12
409.791	446.12
410.014	461.12
410.238	443.12
410.461	453.12
410.685	469.12
410.908	456.12
411.132	498.12
411.355	508.12
411.578	487.12
411.802	452.12
412.025	447.12
412.249	458.12
412.472	452.12
412.695	476.12
412.919	474.12
413.142	455.12
413.365	448.12
413.589	432.12
413.812	410.12
414.035	448.12
414.258	445.12
414.482	410.12
414.705	432.12
414.928	424.12
415.151	451.12
415.374	428.12
415.597	435.12
415.821	408.12
416.044	449.12
416.267	418.12
416.49	414.12
416.713	424.12
416.936	441.12
417.159	426.12
417.382	423.12
417.605	404.12
417.828	425.12
418.051	442.12
418.274	445.12
418.497	425.12
418.72	440.12
418.943	423.12
419.166	441.12
419.389	453.12
419.611	462.12
419.834	437.12
420.057	442.12
420.28	429.12
420.503	444.12
420.726	420.12
420.948	434.12
421.171	453.12
421.394	487.12
421.617	432.12
421.839	414.12
422.062	434.12
422.285	424.12
422.507	480.12
422.73	534.12
422.953	532.12
423.175	480.12
423.398	442.12
423.621	465.12
423.843	436.12
424.066	460.12
424.288	460.12
424.511	471.12
424.733	490.12
424.956	530.12
425.178	525.12
425.401	517.12
425.623	528.12
425.846	469.12
426.068	454.12
426.291	450.12
426.513	455.12
426.735	437.12
426.958	482.12
427.18	527.12
427.402	618.12
427.625	636.12
427.847	572.12
428.069	490.12
428.292	438.12
428.514	426.12
428.736	418.12
428.958	441.12
429.181	420.12
429.403	390.12
429.625	403.12
429.847	438.12
430.069	475.12
430.292	490.12
430.514	436.12
430.736	422.12
430.958	410.12
431.18	383.12
431.402	404.12
431.624	374.12
431.846	387.12
432.068	398.12
432.29	405.12
432.512	396.12
432.734	404.12
432.956	416.12
433.178	400.12
433.4	399.12
433.622	415.12
433.844	400.12
434.066	410.12
434.287	402.12
434.509	398.12
434.731	410.12
434.953	428.12
435.175	431.12
435.397	433.12
435.618	442.12
435.84	441.12
436.062	509.12
436.284	561.12
436.505	484.12
436.727	454.12
436.949	416.12
437.17	428.12
437.392	404.12
437.614	419.12
437.835	427.12
438.057	470.12
438.278	532.12
438.5	543.12
438.721	600.12
438.943	562.12
439.165	458.12
439.386	444.12
439.608	439.12
439.829	418.12
440.05	446.12
440.272	456.12
440.493	442.12
440.715	422.12
440.936	425.12
441.158	413.12
441.379	418.12
441.6	420.12
441.822	422.12
442.043	460.12
442.264	522.12
442.486	546.12
442.707	482.12
442.928	464.12
443.149	441.12
443.371	463.12
443.592	475.12
443.813	535.12
444.034	589.12
444.255	494.12
444.476	468.12
444.698	463.12
444.919	482.12
445.14	568.12
445.361	510.12
445.582	445.12
445.803	496.12
446.024	546.12
446.245	550.12
446.466	500.12
446.687	441.12
446.908	432.12
447.129	409.12
447.35	399.12
447.571	401.12
447.792	403.12
448.013	408.12
448.234	431.12
448.455	432.12
448.675	523.12
448.896	586.12
449.117	515.12
449.338	492.12
449.559	548.12
449.779	612.12
450	505.12
450.221	433.12
450.442	407.12
450.662	375.12
450.883	388.12
451.104	388.12
451.324	389.12
451.545	373.12
451.766	378.12
451.986	376.12
452.207	365.12
452.428	376.12
452.648	356.12
452.869	363.12
453.089	369.12
453.31	377.12
453.53	365.12
453.751	365.12
453.971	379.12
454.192	386.12
454.412	372.12
454.633	365.12
454.853	367.12
455.073	348.12
455.294	359.12
455.514	408.12
455.734	397.12
455.955	350.12
456.175	354.12
456.395	337.12
456.616	331.12
456.836	356.12
457.056	362.12
457.276	349.12
457.497	358.12
457.717	349.12
457.937	349.12
458.157	370.12
458.377	362.12
458.598	372.12
458.818	412.12
459.038	452.12
459.258	437.12
459.478	422.12
459.698	406.12
459.918	387.12
460.138	399.12
460.358	419.12
460.578	419.12
460.798	421.12
461.018	436.12
461.238	424.12
461.458	432.12
461.678	411.12
461.898	433.12
462.118	424.12
462.338	429.12
462.558	431.12
462.777	467.12
462.997	451.12
463.217	491.12
463.437	489.12
463.657	471.12
463.876	456.12
464.096	439.12
464.316	446.12
464.536	465.12
464.755	452.12
464.975	448.12
465.195	437.12
465.414	452.12
465.634	408.12
465.854	414.12
466.073	386.12
466.293	384.12
466.512	386.12
466.732	381.12
466.951	388.12
467.171	390.12
467.391	380.12
467.61	372.12
467.829	378.12
468.049	396.12
468.268	396.12
468.488	361.12
468.707	366.12
468.927	377.12
469.146	388.12
469.365	372.12
469.585	377.12
469.804	383.12
470.023	377.12
470.243	389.12
470.462	374.12
470.681	399.12
470.901	372.12
471.12	379.12
471.339	391.12
471.558	377.12
471.777	385.12
471.997	376.12
472.216	346.12
472.435	379.12
472.654	367.12
472.873	384.12
473.092	380.12
473.311	373.12
473.53	372.12
473.749	392.12
473.968	416.12
474.187	477.12
474.406	457.12
474.625	392.12
474.844	397.12
475.063	385.12
475.282	381.12
475.501	391.12
475.72	398.12
475.939	396.12
476.158	398.12
476.377	392.12
476.596	394.12
476.814	397.12
477.033	422.12
477.252	408.12
477.471	399.12
477.69	421.12
477.908	409.12
478.127	428.12
478.346	430.12
478.564	438.12
478.783	430.12
479.002	451.12
479.22	438.12
479.439	441.12
479.658	435.12
479.876	461.12
480.095	459.12
480.313	476.12
480.532	469.12
480.751	477.12
480.969	469.12
481.188	512.12
481.406	486.12
481.624	453.12
481.843	444.12
482.061	443.12
482.28	433.12
482.498	428.12
482.717	443.12
482.935	430.12
483.153	452.12
483.372	446.12
483.59	417.12
483.808	448.12
484.027	457.12
484.245	445.12
484.463	430.12
484.681	470.12
484.9	449.12
485.118	456.12
485.336	456.12
485.554	454.12
485.772	476.12
485.99	463.12
486.209	439.12
486.427	469.12
486.645	458.12
486.863	466.12
487.081	460.12
487.299	477.12
487.517	459.12
487.735	464.12
487.953	445.12
488.171	467.12
488.389	462.12
488.607	467.12
488.825	472.12
489.043	470.12
489.261	482.12
489.479	456.12
489.696	479.12
489.914	470.12
490.132	471.12
490.35	468.12
490.568	490.12
490.786	485.12
491.003	504.12
491.221	487.12
491.439	490.12
491.657	497.12
491.874	500.12
492.092	502.12
492.31	527.12
492.527	508.12
492.745	523.12
492.963	523.12
493.18	532.12
493.398	521.12
493.615	526.12
493.833	519.12
494.05	536.12
494.268	522.12
494.485	516.12
494.703	498.12
494.92	530.12
495.138	531.12
495.355	528.12
495.573	522.12
495.79	540.12
496.008	524.12
496.225	538.12
496.442	532.12
496.66	532.12
496.877	549.12
497.094	560.12
497.312	570.12
497.529	564.12
497.746	556.12
497.963	579.12
498.181	588.12
498.398	617.12
498.615	640.12
498.832	635.12
499.049	651.12
499.267	692.12
499.484	702.12
499.701	750.12
499.918	781.12
500.135	803.12
500.352	873.12
500.569	885.12
500.786	903.12
501.003	839.12
501.22	830.12
501.437	812.12
501.654	755.12
501.871	720.12
502.088	726.12
