Data from 1977.PennyLincolnUp.Lamp.En5.5.200Scan.071719.P1_HRD10591_16-05-27-865.txt Node
Date: Thu Jul 18 16:05:27 EDT 2019
User: cochatt
Spectrometer: HR+D1059
Trigger mode: 1
Integration Time (sec): 1.000000E-1
Scans to average: 1
Electric dark correction enabled: true
Nonlinearity correction enabled: false
Boxcar width: 0
XAxis mode: Wavelengths
Number of Pixels in Spectrum: 2048
>>>>>Begin Spectral Data<<<<<
223.165	-18.81
223.4	-18.81
223.635	-18.81
223.869	-22.81
224.104	-14.81
224.338	-6.81
224.573	-12.81
224.808	-11.81
225.042	-11.81
225.277	-12.81
225.511	5.19
225.746	-3.81
225.98	15.19
226.215	-10.81
226.449	29.19
226.683	17.19
226.918	30.19
227.152	30.19
227.387	33.19
227.621	30.19
227.856	37.19
228.09	50.19
228.324	45.19
228.559	54.19
228.793	56.19
229.027	88.19
229.262	83.19
229.496	92.19
229.73	101.19
229.964	132.19
230.199	105.19
230.433	102.19
230.667	112.19
230.901	105.19
231.136	110.19
231.37	110.19
231.604	113.19
231.838	103.19
232.072	106.19
232.306	117.19
232.541	101.19
232.775	101.19
233.009	107.19
233.243	101.19
233.477	123.19
233.711	126.19
233.945	106.19
234.179	117.19
234.413	125.19
234.647	113.19
234.881	114.19
235.115	113.19
235.349	103.19
235.583	116.19
235.817	100.19
236.051	120.19
236.285	106.19
236.519	109.19
236.753	124.19
236.987	125.19
237.221	156.19
237.455	203.19
237.689	151.19
237.922	136.19
238.156	126.19
238.39	125.19
238.624	124.19
238.858	121.19
239.091	122.19
239.325	136.19
239.559	123.19
239.793	127.19
240.027	134.19
240.26	128.19
240.494	121.19
240.728	123.19
240.961	119.19
241.195	134.19
241.429	142.19
241.662	132.19
241.896	124.19
242.13	123.19
242.363	122.19
242.597	116.19
242.83	117.19
243.064	132.19
243.298	148.19
243.531	148.19
243.765	118.19
243.998	141.19
244.232	147.19
244.465	130.19
244.699	137.19
244.932	141.19
245.166	146.19
245.399	140.19
245.633	150.19
245.866	138.19
246.099	127.19
246.333	146.19
246.566	138.19
246.8	153.19
247.033	153.19
247.266	143.19
247.5	156.19
247.733	156.19
247.966	164.19
248.2	151.19
248.433	162.19
248.666	146.19
248.899	162.19
249.133	163.19
249.366	192.19
249.599	165.19
249.832	176.19
250.066	172.19
250.299	161.19
250.532	181.19
250.765	178.19
250.998	196.19
251.231	194.19
251.465	202.19
251.698	180.19
251.931	184.19
252.164	175.19
252.397	185.19
252.63	193.19
252.863	200.19
253.096	177.19
253.329	201.19
253.562	195.19
253.795	181.19
254.028	202.19
254.261	204.19
254.494	209.19
254.727	213.19
254.96	243.19
255.193	230.19
255.426	213.19
255.659	198.19
255.892	201.19
256.124	210.19
256.357	213.19
256.59	196.19
256.823	192.19
257.056	210.19
257.289	204.19
257.521	193.19
257.754	181.19
257.987	198.19
258.22	216.19
258.452	194.19
258.685	192.19
258.918	195.19
259.151	189.19
259.383	206.19
259.616	197.19
259.849	204.19
260.081	217.19
260.314	238.19
260.547	228.19
260.779	215.19
261.012	219.19
261.244	205.19
261.477	218.19
261.71	213.19
261.942	208.19
262.175	197.19
262.407	210.19
262.64	197.19
262.872	202.19
263.105	202.19
263.337	197.19
263.57	220.19
263.802	210.19
264.035	208.19
264.267	205.19
264.499	193.19
264.732	213.19
264.964	197.19
265.197	205.19
265.429	206.19
265.661	204.19
265.894	210.19
266.126	225.19
266.358	204.19
266.591	225.19
266.823	211.19
267.055	216.19
267.287	202.19
267.52	221.19
267.752	219.19
267.984	212.19
268.216	212.19
268.448	249.19
268.681	218.19
268.913	238.19
269.145	252.19
269.377	246.19
269.609	232.19
269.841	234.19
270.073	251.19
270.306	269.19
270.538	275.19
270.77	266.19
271.002	292.19
271.234	274.19
271.466	274.19
271.698	271.19
271.93	281.19
272.162	296.19
272.394	294.19
272.626	281.19
272.858	261.19
273.09	268.19
273.322	251.19
273.553	246.19
273.785	246.19
274.017	249.19
274.249	258.19
274.481	244.19
274.713	231.19
274.945	242.19
275.176	236.19
275.408	248.19
275.64	252.19
275.872	258.19
276.104	260.19
276.335	248.19
276.567	246.19
276.799	274.19
277.031	284.19
277.262	283.19
277.494	290.19
277.726	274.19
277.957	281.19
278.189	282.19
278.421	275.19
278.652	268.19
278.884	269.19
279.115	265.19
279.347	277.19
279.579	273.19
279.81	259.19
280.042	263.19
280.273	272.19
280.505	266.19
280.736	276.19
280.968	283.19
281.199	267.19
281.431	278.19
281.662	266.19
281.894	268.19
282.125	240.19
282.356	276.19
282.588	291.19
282.819	267.19
283.051	276.19
283.282	286.19
283.513	274.19
283.745	285.19
283.976	273.19
284.207	300.19
284.439	296.19
284.67	269.19
284.901	284.19
285.132	274.19
285.364	268.19
285.595	294.19
285.826	270.19
286.057	274.19
286.288	250.19
286.52	281.19
286.751	307.19
286.982	287.19
287.213	293.19
287.444	289.19
287.675	292.19
287.906	289.19
288.138	292.19
288.369	289.19
288.6	296.19
288.831	288.19
289.062	281.19
289.293	310.19
289.524	290.19
289.755	291.19
289.986	283.19
290.217	272.19
290.448	289.19
290.679	297.19
290.91	294.19
291.141	295.19
291.371	316.19
291.602	308.19
291.833	302.19
292.064	274.19
292.295	306.19
292.526	295.19
292.757	286.19
292.987	294.19
293.218	300.19
293.449	305.19
293.68	310.19
293.91	277.19
294.141	268.19
294.372	286.19
294.603	272.19
294.833	309.19
295.064	316.19
295.295	317.19
295.525	300.19
295.756	294.19
295.987	301.19
296.217	304.19
296.448	326.19
296.679	293.19
296.909	306.19
297.14	287.19
297.37	295.19
297.601	301.19
297.831	298.19
298.062	305.19
298.292	307.19
298.523	314.19
298.753	316.19
298.984	304.19
299.214	305.19
299.445	314.19
299.675	327.19
299.905	333.19
300.136	333.19
300.366	320.19
300.597	310.19
300.827	318.19
301.057	325.19
301.288	338.19
301.518	307.19
301.748	329.19
301.979	345.19
302.209	332.19
302.439	338.19
302.669	332.19
302.9	328.19
303.13	335.19
303.36	325.19
303.59	333.19
303.82	329.19
304.051	343.19
304.281	343.19
304.511	326.19
304.741	314.19
304.971	308.19
305.201	332.19
305.431	314.19
305.661	333.19
305.891	324.19
306.121	338.19
306.352	335.19
306.582	344.19
306.812	339.19
307.042	334.19
307.272	346.19
307.502	342.19
307.731	329.19
307.961	323.19
308.191	346.19
308.421	347.19
308.651	326.19
308.881	331.19
309.111	346.19
309.341	341.19
309.571	340.19
309.8	345.19
310.03	347.19
310.26	355.19
310.49	342.19
310.72	372.19
310.949	349.19
311.179	358.19
311.409	367.19
311.639	354.19
311.868	370.19
312.098	370.19
312.328	361.19
312.557	368.19
312.787	362.19
313.017	361.19
313.246	376.19
313.476	356.19
313.706	371.19
313.935	367.19
314.165	381.19
314.394	369.19
314.624	389.19
314.853	373.19
315.083	352.19
315.312	341.19
315.542	350.19
315.771	378.19
316.001	374.19
316.23	354.19
316.46	354.19
316.689	384.19
316.919	353.19
317.148	362.19
317.377	369.19
317.607	360.19
317.836	360.19
318.065	358.19
318.295	375.19
318.524	363.19
318.753	372.19
318.983	387.19
319.212	364.19
319.441	384.19
319.67	388.19
319.9	392.19
320.129	357.19
320.358	362.19
320.587	377.19
320.816	372.19
321.046	385.19
321.275	377.19
321.504	403.19
321.733	379.19
321.962	408.19
322.191	378.19
322.42	389.19
322.649	403.19
322.878	392.19
323.108	406.19
323.337	421.19
323.566	429.19
323.795	469.19
324.024	489.19
324.253	548.19
324.482	712.19
324.71	1058.19
324.939	1440.19
325.168	1191.19
325.397	669.19
325.626	520.19
325.855	464.19
326.084	437.19
326.313	420.19
326.542	437.19
326.77	458.19
326.999	534.19
327.228	689.19
327.457	941.19
327.686	1108.19
327.914	755.19
328.143	536.19
328.372	492.19
328.6	478.19
328.829	461.19
329.058	500.19
329.287	479.19
329.515	460.19
329.744	434.19
329.972	461.19
330.201	454.19
330.43	475.19
330.658	481.19
330.887	502.19
331.115	480.19
331.344	460.19
331.572	447.19
331.801	429.19
332.03	454.19
332.258	430.19
332.486	418.19
332.715	444.19
332.943	437.19
333.172	461.19
333.4	443.19
333.629	437.19
333.857	453.19
334.085	458.19
334.314	500.19
334.542	484.19
334.771	487.19
334.999	467.19
335.227	451.19
335.455	444.19
335.684	453.19
335.912	452.19
336.14	432.19
336.369	437.19
336.597	453.19
336.825	441.19
337.053	439.19
337.281	426.19
337.51	437.19
337.738	424.19
337.966	420.19
338.194	429.19
338.422	417.19
338.65	419.19
338.878	406.19
339.106	422.19
339.334	437.19
339.562	422.19
339.79	412.19
340.018	418.19
340.246	422.19
340.474	402.19
340.702	407.19
340.93	423.19
341.158	424.19
341.386	414.19
341.614	411.19
341.842	410.19
342.07	429.19
342.298	410.19
342.526	409.19
342.754	395.19
342.981	402.19
343.209	391.19
343.437	409.19
343.665	409.19
343.893	421.19
344.12	427.19
344.348	410.19
344.576	423.19
344.804	416.19
345.031	391.19
345.259	424.19
345.487	422.19
345.714	383.19
345.942	394.19
346.17	416.19
346.397	385.19
346.625	410.19
346.853	373.19
347.08	376.19
347.308	369.19
347.535	403.19
347.763	388.19
347.99	401.19
348.218	385.19
348.445	398.19
348.673	392.19
348.9	384.19
349.128	384.19
349.355	390.19
349.583	384.19
349.81	393.19
350.037	374.19
350.265	394.19
350.492	388.19
350.72	372.19
350.947	388.19
351.174	393.19
351.402	394.19
351.629	385.19
351.856	383.19
352.083	382.19
352.311	377.19
352.538	401.19
352.765	384.19
352.992	382.19
353.22	381.19
353.447	375.19
353.674	394.19
353.901	370.19
354.128	364.19
354.355	390.19
354.583	354.19
354.81	372.19
355.037	365.19
355.264	374.19
355.491	366.19
355.718	362.19
355.945	380.19
356.172	371.19
356.399	345.19
356.626	362.19
356.853	364.19
357.08	362.19
357.307	356.19
357.534	378.19
357.761	362.19
357.988	368.19
358.215	364.19
358.441	380.19
358.668	362.19
358.895	365.19
359.122	346.19
359.349	378.19
359.576	378.19
359.802	379.19
360.029	402.19
360.256	398.19
360.483	381.19
360.709	343.19
360.936	392.19
361.163	388.19
361.39	373.19
361.616	378.19
361.843	379.19
362.07	383.19
362.296	369.19
362.523	359.19
362.749	384.19
362.976	369.19
363.203	375.19
363.429	376.19
363.656	375.19
363.882	368.19
364.109	381.19
364.335	353.19
364.562	365.19
364.788	376.19
365.015	346.19
365.241	349.19
365.468	354.19
365.694	376.19
365.92	382.19
366.147	365.19
366.373	392.19
366.599	370.19
366.826	347.19
367.052	356.19
367.278	356.19
367.505	375.19
367.731	365.19
367.957	344.19
368.184	359.19
368.41	380.19
368.636	368.19
368.862	377.19
369.089	369.19
369.315	376.19
369.541	372.19
369.767	346.19
369.993	388.19
370.219	356.19
370.445	356.19
370.672	385.19
370.898	365.19
371.124	380.19
371.35	369.19
371.576	376.19
371.802	372.19
372.028	398.19
372.254	353.19
372.48	368.19
372.706	376.19
372.932	393.19
373.158	372.19
373.384	375.19
373.61	371.19
373.835	385.19
374.061	395.19
374.287	378.19
374.513	393.19
374.739	375.19
374.965	379.19
375.191	377.19
375.416	385.19
375.642	381.19
375.868	374.19
376.094	396.19
376.319	376.19
376.545	374.19
376.771	361.19
376.997	359.19
377.222	367.19
377.448	373.19
377.674	373.19
377.899	354.19
378.125	364.19
378.35	376.19
378.576	358.19
378.802	362.19
379.027	371.19
379.253	355.19
379.478	346.19
379.704	361.19
379.929	362.19
380.155	366.19
380.38	358.19
380.606	360.19
380.831	360.19
381.057	380.19
381.282	371.19
381.507	368.19
381.733	378.19
381.958	372.19
382.184	379.19
382.409	376.19
382.634	393.19
382.86	371.19
383.085	376.19
383.31	378.19
383.535	378.19
383.761	394.19
383.986	384.19
384.211	383.19
384.436	380.19
384.662	396.19
384.887	379.19
385.112	385.19
385.337	400.19
385.562	410.19
385.787	405.19
386.013	396.19
386.238	413.19
386.463	393.19
386.688	394.19
386.913	397.19
387.138	389.19
387.363	398.19
387.588	402.19
387.813	392.19
388.038	373.19
388.263	419.19
388.488	419.19
388.713	407.19
388.938	407.19
389.163	409.19
389.387	396.19
389.612	406.19
389.837	406.19
390.062	401.19
390.287	403.19
390.512	398.19
390.736	399.19
390.961	422.19
391.186	417.19
391.411	408.19
391.636	428.19
391.86	424.19
392.085	440.19
392.31	425.19
392.534	408.19
392.759	409.19
392.984	422.19
393.208	432.19
393.433	421.19
393.658	409.19
393.882	411.19
394.107	409.19
394.331	407.19
394.556	418.19
394.78	407.19
395.005	411.19
395.229	398.19
395.454	420.19
395.678	425.19
395.903	427.19
396.127	441.19
396.352	438.19
396.576	424.19
396.801	390.19
397.025	410.19
397.249	439.19
397.474	419.19
397.698	428.19
397.922	434.19
398.147	448.19
398.371	459.19
398.595	452.19
398.82	437.19
399.044	462.19
399.268	494.19
399.492	492.19
399.717	567.19
399.941	552.19
400.165	577.19
400.389	565.19
400.613	528.19
400.837	463.19
401.062	502.19
401.286	464.19
401.51	467.19
401.734	472.19
401.958	464.19
402.182	471.19
402.406	464.19
402.63	475.19
402.854	450.19
403.078	462.19
403.302	480.19
403.526	476.19
403.75	468.19
403.974	470.19
404.198	476.19
404.422	467.19
404.645	484.19
404.869	478.19
405.093	497.19
405.317	538.19
405.541	554.19
405.765	512.19
405.988	492.19
406.212	484.19
406.436	480.19
406.66	515.19
406.883	516.19
407.107	547.19
407.331	558.19
407.555	598.19
407.778	618.19
408.002	602.19
408.226	553.19
408.449	529.19
408.673	504.19
408.896	533.19
409.12	565.19
409.344	525.19
409.567	489.19
409.791	482.19
410.014	450.19
410.238	473.19
410.461	481.19
410.685	481.19
410.908	503.19
411.132	530.19
411.355	526.19
411.578	504.19
411.802	459.19
412.025	457.19
412.249	468.19
412.472	460.19
412.695	501.19
412.919	501.19
413.142	474.19
413.365	447.19
413.589	448.19
413.812	454.19
414.035	459.19
414.258	434.19
414.482	438.19
414.705	438.19
414.928	438.19
415.151	454.19
415.374	445.19
415.597	440.19
415.821	446.19
416.044	453.19
416.267	440.19
416.49	439.19
416.713	437.19
416.936	453.19
417.159	440.19
417.382	447.19
417.605	443.19
417.828	439.19
418.051	447.19
418.274	445.19
418.497	433.19
418.72	434.19
418.943	421.19
419.166	452.19
419.389	474.19
419.611	473.19
419.834	471.19
420.057	447.19
420.28	452.19
420.503	443.19
420.726	445.19
420.948	445.19
421.171	480.19
421.394	492.19
421.617	489.19
421.839	450.19
422.062	455.19
422.285	456.19
422.507	484.19
422.73	552.19
422.953	544.19
423.175	464.19
423.398	463.19
423.621	456.19
423.843	483.19
424.066	477.19
424.288	460.19
424.511	476.19
424.733	554.19
424.956	569.19
425.178	557.19
425.401	553.19
425.623	564.19
425.846	506.19
426.068	473.19
426.291	461.19
426.513	458.19
426.735	485.19
426.958	502.19
427.18	576.19
427.402	640.19
427.625	682.19
427.847	617.19
428.069	546.19
428.292	492.19
428.514	467.19
428.736	463.19
428.958	443.19
429.181	421.19
429.403	436.19
429.625	429.19
429.847	447.19
430.069	510.19
430.292	504.19
430.514	441.19
430.736	432.19
430.958	428.19
431.18	420.19
431.402	418.19
431.624	391.19
431.846	423.19
432.068	419.19
432.29	432.19
432.512	422.19
432.734	412.19
432.956	406.19
433.178	424.19
433.4	420.19
433.622	403.19
433.844	400.19
434.066	419.19
434.287	428.19
434.509	418.19
434.731	448.19
434.953	438.19
435.175	440.19
435.397	465.19
435.618	458.19
435.84	467.19
436.062	549.19
436.284	594.19
436.505	519.19
436.727	476.19
436.949	449.19
437.17	428.19
437.392	420.19
437.614	431.19
437.835	433.19
438.057	524.19
438.278	575.19
438.5	597.19
438.721	655.19
438.943	632.19
439.165	503.19
439.386	458.19
439.608	475.19
439.829	462.19
440.05	482.19
440.272	493.19
440.493	473.19
440.715	460.19
440.936	460.19
441.158	437.19
441.379	444.19
441.6	467.19
441.822	441.19
442.043	497.19
442.264	554.19
442.486	591.19
442.707	493.19
442.928	456.19
443.149	485.19
443.371	481.19
443.592	537.19
443.813	584.19
444.034	617.19
444.255	524.19
444.476	486.19
444.698	484.19
444.919	486.19
445.14	571.19
445.361	532.19
445.582	500.19
445.803	540.19
446.024	612.19
446.245	574.19
446.466	544.19
446.687	487.19
446.908	449.19
447.129	440.19
447.35	426.19
447.571	427.19
447.792	403.19
448.013	419.19
448.234	425.19
448.455	473.19
448.675	553.19
448.896	653.19
449.117	566.19
449.338	514.19
449.559	580.19
449.779	664.19
450	546.19
450.221	450.19
450.442	418.19
450.662	424.19
450.883	396.19
451.104	425.19
451.324	398.19
451.545	403.19
451.766	403.19
451.986	384.19
452.207	368.19
452.428	355.19
452.648	375.19
452.869	379.19
453.089	393.19
453.31	397.19
453.53	379.19
453.751	362.19
453.971	372.19
454.192	380.19
454.412	363.19
454.633	381.19
454.853	371.19
455.073	378.19
455.294	394.19
455.514	431.19
455.734	444.19
455.955	384.19
456.175	368.19
456.395	380.19
456.616	355.19
456.836	378.19
457.056	353.19
457.276	348.19
457.497	373.19
457.717	375.19
457.937	362.19
458.157	363.19
458.377	377.19
458.598	400.19
458.818	423.19
459.038	449.19
459.258	496.19
459.478	425.19
459.698	413.19
459.918	402.19
460.138	429.19
460.358	434.19
460.578	426.19
460.798	449.19
461.018	432.19
461.238	439.19
461.458	422.19
461.678	436.19
461.898	455.19
462.118	437.19
462.338	467.19
462.558	459.19
462.777	448.19
462.997	462.19
463.217	471.19
463.437	483.19
463.657	460.19
463.876	478.19
464.096	455.19
464.316	456.19
464.536	470.19
464.755	450.19
464.975	446.19
465.195	465.19
465.414	504.19
465.634	466.19
465.854	434.19
466.073	412.19
466.293	412.19
466.512	405.19
466.732	397.19
466.951	404.19
467.171	380.19
467.391	393.19
467.61	404.19
467.829	378.19
468.049	396.19
468.268	397.19
468.488	383.19
468.707	396.19
468.927	380.19
469.146	371.19
469.365	379.19
469.585	377.19
469.804	392.19
470.023	390.19
470.243	407.19
470.462	423.19
470.681	428.19
470.901	415.19
471.12	406.19
471.339	387.19
471.558	404.19
471.777	388.19
471.997	393.19
472.216	398.19
472.435	409.19
472.654	397.19
472.873	403.19
473.092	392.19
473.311	390.19
473.53	387.19
473.749	399.19
473.968	435.19
474.187	499.19
474.406	503.19
474.625	433.19
474.844	399.19
475.063	392.19
475.282	393.19
475.501	410.19
475.72	424.19
475.939	388.19
476.158	411.19
476.377	422.19
476.596	405.19
476.814	418.19
477.033	411.19
477.252	408.19
477.471	442.19
477.69	413.19
477.908	439.19
478.127	457.19
478.346	436.19
478.564	444.19
478.783	446.19
479.002	468.19
479.22	454.19
479.439	462.19
479.658	477.19
479.876	465.19
480.095	482.19
480.313	492.19
480.532	476.19
480.751	478.19
480.969	452.19
481.188	494.19
481.406	530.19
481.624	492.19
481.843	450.19
482.061	460.19
482.28	457.19
482.498	445.19
482.717	446.19
482.935	457.19
483.153	435.19
483.372	453.19
483.59	457.19
483.808	463.19
484.027	445.19
484.245	457.19
484.463	470.19
484.681	478.19
484.9	469.19
485.118	466.19
485.336	475.19
485.554	473.19
485.772	478.19
485.99	477.19
486.209	465.19
486.427	476.19
486.645	485.19
486.863	486.19
487.081	472.19
487.299	475.19
487.517	485.19
487.735	476.19
487.953	493.19
488.171	465.19
488.389	459.19
488.607	488.19
488.825	512.19
489.043	485.19
489.261	501.19
489.479	491.19
489.696	478.19
489.914	483.19
490.132	516.19
490.35	494.19
490.568	489.19
490.786	501.19
491.003	493.19
491.221	521.19
491.439	519.19
491.657	515.19
491.874	526.19
492.092	524.19
492.31	533.19
492.527	541.19
492.745	537.19
492.963	534.19
493.18	554.19
493.398	553.19
493.615	560.19
493.833	549.19
494.05	544.19
494.268	552.19
494.485	552.19
494.703	554.19
494.92	544.19
495.138	526.19
495.355	559.19
495.573	562.19
495.79	555.19
496.008	549.19
496.225	550.19
496.442	552.19
496.66	568.19
496.877	571.19
497.094	557.19
497.312	556.19
497.529	590.19
497.746	587.19
497.963	587.19
498.181	619.19
498.398	625.19
498.615	638.19
498.832	643.19
499.049	669.19
499.267	706.19
499.484	734.19
499.701	745.19
499.918	788.19
500.135	836.19
500.352	888.19
500.569	880.19
500.786	899.19
501.003	889.19
501.22	834.19
501.437	793.19
501.654	756.19
501.871	745.19
