Data from 1977.PennyLincolnUp.Lamp.En5.5.200Scan.071719.P1_HRD10591_16-05-32-863.txt Node
Date: Thu Jul 18 16:05:32 EDT 2019
User: cochatt
Spectrometer: HR+D1059
Trigger mode: 1
Integration Time (sec): 1.000000E-1
Scans to average: 1
Electric dark correction enabled: true
Nonlinearity correction enabled: false
Boxcar width: 0
XAxis mode: Wavelengths
Number of Pixels in Spectrum: 2048
>>>>>Begin Spectral Data<<<<<
223.165	-7.81
223.4	-7.81
223.635	-7.81
223.869	0.19
224.104	-28.81
224.338	-1.81
224.573	-17.81
224.808	-4.81
225.042	-6.81
225.277	-6.81
225.511	-7.81
225.746	2.19
225.98	4.19
226.215	3.19
226.449	12.19
226.683	15.19
226.918	22.19
227.152	23.19
227.387	34.19
227.621	37.19
227.856	36.19
228.09	49.19
228.324	49.19
228.559	54.19
228.793	75.19
229.027	87.19
229.262	98.19
229.496	105.19
229.73	110.19
229.964	128.19
230.199	117.19
230.433	112.19
230.667	95.19
230.901	120.19
231.136	119.19
231.37	118.19
231.604	118.19
231.838	103.19
232.072	100.19
232.306	123.19
232.541	105.19
232.775	124.19
233.009	119.19
233.243	110.19
233.477	110.19
233.711	102.19
233.945	104.19
234.179	120.19
234.413	107.19
234.647	108.19
234.881	114.19
235.115	127.19
235.349	113.19
235.583	126.19
235.817	127.19
236.051	120.19
236.285	119.19
236.519	128.19
236.753	127.19
236.987	143.19
237.221	144.19
237.455	176.19
237.689	147.19
237.922	143.19
238.156	125.19
238.39	136.19
238.624	121.19
238.858	119.19
239.091	128.19
239.325	134.19
239.559	124.19
239.793	130.19
240.027	135.19
240.26	116.19
240.494	138.19
240.728	138.19
240.961	144.19
241.195	140.19
241.429	129.19
241.662	122.19
241.896	131.19
242.13	138.19
242.363	128.19
242.597	130.19
242.83	128.19
243.064	145.19
243.298	124.19
243.531	142.19
243.765	145.19
243.998	131.19
244.232	141.19
244.465	146.19
244.699	156.19
244.932	144.19
245.166	118.19
245.399	124.19
245.633	158.19
245.866	145.19
246.099	134.19
246.333	149.19
246.566	161.19
246.8	141.19
247.033	153.19
247.266	147.19
247.5	169.19
247.733	146.19
247.966	157.19
248.2	155.19
248.433	166.19
248.666	169.19
248.899	171.19
249.133	178.19
249.366	176.19
249.599	169.19
249.832	175.19
250.066	183.19
250.299	176.19
250.532	179.19
250.765	191.19
250.998	207.19
251.231	215.19
251.465	200.19
251.698	194.19
251.931	193.19
252.164	180.19
252.397	176.19
252.63	188.19
252.863	205.19
253.096	201.19
253.329	208.19
253.562	197.19
253.795	214.19
254.028	214.19
254.261	202.19
254.494	212.19
254.727	236.19
254.96	226.19
255.193	233.19
255.426	225.19
255.659	214.19
255.892	223.19
256.124	210.19
256.357	218.19
256.59	198.19
256.823	209.19
257.056	201.19
257.289	206.19
257.521	214.19
257.754	210.19
257.987	188.19
258.22	196.19
258.452	208.19
258.685	207.19
258.918	197.19
259.151	191.19
259.383	206.19
259.616	214.19
259.849	228.19
260.081	221.19
260.314	218.19
260.547	236.19
260.779	238.19
261.012	225.19
261.244	221.19
261.477	204.19
261.71	209.19
261.942	198.19
262.175	204.19
262.407	225.19
262.64	222.19
262.872	192.19
263.105	219.19
263.337	227.19
263.57	193.19
263.802	208.19
264.035	185.19
264.267	219.19
264.499	216.19
264.732	211.19
264.964	214.19
265.197	209.19
265.429	209.19
265.661	212.19
265.894	209.19
266.126	206.19
266.358	219.19
266.591	227.19
266.823	224.19
267.055	215.19
267.287	220.19
267.52	232.19
267.752	216.19
267.984	234.19
268.216	247.19
268.448	227.19
268.681	220.19
268.913	230.19
269.145	271.19
269.377	260.19
269.609	252.19
269.841	256.19
270.073	261.19
270.306	289.19
270.538	288.19
270.77	281.19
271.002	275.19
271.234	280.19
271.466	269.19
271.698	291.19
271.93	314.19
272.162	284.19
272.394	275.19
272.626	282.19
272.858	279.19
273.09	271.19
273.322	262.19
273.553	257.19
273.785	239.19
274.017	267.19
274.249	263.19
274.481	266.19
274.713	264.19
274.945	270.19
275.176	257.19
275.408	253.19
275.64	260.19
275.872	265.19
276.104	280.19
276.335	266.19
276.567	258.19
276.799	267.19
277.031	306.19
277.262	298.19
277.494	305.19
277.726	293.19
277.957	268.19
278.189	272.19
278.421	277.19
278.652	282.19
278.884	276.19
279.115	279.19
279.347	287.19
279.579	268.19
279.81	264.19
280.042	280.19
280.273	278.19
280.505	261.19
280.736	284.19
280.968	269.19
281.199	267.19
281.431	270.19
281.662	265.19
281.894	295.19
282.125	288.19
282.356	284.19
282.588	310.19
282.819	284.19
283.051	300.19
283.282	256.19
283.513	272.19
283.745	284.19
283.976	266.19
284.207	298.19
284.439	302.19
284.67	285.19
284.901	265.19
285.132	285.19
285.364	288.19
285.595	280.19
285.826	282.19
286.057	305.19
286.288	277.19
286.52	288.19
286.751	289.19
286.982	300.19
287.213	294.19
287.444	283.19
287.675	308.19
287.906	297.19
288.138	302.19
288.369	315.19
288.6	303.19
288.831	290.19
289.062	315.19
289.293	300.19
289.524	293.19
289.755	312.19
289.986	313.19
290.217	304.19
290.448	296.19
290.679	293.19
290.91	304.19
291.141	306.19
291.371	304.19
291.602	323.19
291.833	305.19
292.064	304.19
292.295	308.19
292.526	313.19
292.757	308.19
292.987	315.19
293.218	300.19
293.449	292.19
293.68	318.19
293.91	300.19
294.141	296.19
294.372	308.19
294.603	313.19
294.833	321.19
295.064	322.19
295.295	313.19
295.525	299.19
295.756	309.19
295.987	296.19
296.217	316.19
296.448	324.19
296.679	321.19
296.909	316.19
297.14	314.19
297.37	304.19
297.601	324.19
297.831	316.19
298.062	312.19
298.292	297.19
298.523	324.19
298.753	334.19
298.984	321.19
299.214	337.19
299.445	310.19
299.675	335.19
299.905	312.19
300.136	312.19
300.366	308.19
300.597	324.19
300.827	324.19
301.057	330.19
301.288	343.19
301.518	343.19
301.748	342.19
301.979	340.19
302.209	336.19
302.439	330.19
302.669	324.19
302.9	336.19
303.13	326.19
303.36	354.19
303.59	349.19
303.82	357.19
304.051	347.19
304.281	351.19
304.511	332.19
304.741	333.19
304.971	336.19
305.201	345.19
305.431	338.19
305.661	323.19
305.891	344.19
306.121	342.19
306.352	328.19
306.582	336.19
306.812	349.19
307.042	338.19
307.272	340.19
307.502	334.19
307.731	343.19
307.961	354.19
308.191	356.19
308.421	339.19
308.651	332.19
308.881	340.19
309.111	338.19
309.341	338.19
309.571	361.19
309.8	374.19
310.03	358.19
310.26	377.19
310.49	376.19
310.72	378.19
310.949	368.19
311.179	373.19
311.409	365.19
311.639	346.19
311.868	357.19
312.098	375.19
312.328	382.19
312.557	398.19
312.787	392.19
313.017	388.19
313.246	365.19
313.476	382.19
313.706	384.19
313.935	384.19
314.165	382.19
314.394	384.19
314.624	398.19
314.853	372.19
315.083	379.19
315.312	370.19
315.542	366.19
315.771	385.19
316.001	363.19
316.23	380.19
316.46	386.19
316.689	393.19
316.919	389.19
317.148	386.19
317.377	396.19
317.607	370.19
317.836	392.19
318.065	372.19
318.295	351.19
318.524	368.19
318.753	373.19
318.983	376.19
319.212	377.19
319.441	380.19
319.67	385.19
319.9	381.19
320.129	374.19
320.358	388.19
320.587	372.19
320.816	386.19
321.046	389.19
321.275	385.19
321.504	395.19
321.733	390.19
321.962	416.19
322.191	398.19
322.42	377.19
322.649	413.19
322.878	424.19
323.108	406.19
323.337	451.19
323.566	447.19
323.795	466.19
324.024	494.19
324.253	552.19
324.482	769.19
324.71	1089.19
324.939	1481.19
325.168	1286.19
325.397	716.19
325.626	546.19
325.855	482.19
326.084	472.19
326.313	449.19
326.542	465.19
326.77	497.19
326.999	536.19
327.228	682.19
327.457	956.19
327.686	1126.19
327.914	765.19
328.143	567.19
328.372	530.19
328.6	502.19
328.829	476.19
329.058	485.19
329.287	492.19
329.515	465.19
329.744	450.19
329.972	456.19
330.201	452.19
330.43	506.19
330.658	493.19
330.887	501.19
331.115	505.19
331.344	485.19
331.572	424.19
331.801	449.19
332.03	471.19
332.258	449.19
332.486	446.19
332.715	459.19
332.943	443.19
333.172	469.19
333.4	464.19
333.629	466.19
333.857	474.19
334.085	462.19
334.314	448.19
334.542	487.19
334.771	506.19
334.999	464.19
335.227	458.19
335.455	476.19
335.684	452.19
335.912	430.19
336.14	455.19
336.369	439.19
336.597	460.19
336.825	449.19
337.053	437.19
337.281	426.19
337.51	440.19
337.738	449.19
337.966	450.19
338.194	423.19
338.422	433.19
338.65	450.19
338.878	428.19
339.106	436.19
339.334	428.19
339.562	432.19
339.79	438.19
340.018	407.19
340.246	414.19
340.474	427.19
340.702	400.19
340.93	438.19
341.158	421.19
341.386	408.19
341.614	428.19
341.842	429.19
342.07	416.19
342.298	419.19
342.526	408.19
342.754	409.19
342.981	413.19
343.209	404.19
343.437	417.19
343.665	417.19
343.893	436.19
344.12	464.19
344.348	447.19
344.576	434.19
344.804	440.19
345.031	428.19
345.259	458.19
345.487	432.19
345.714	408.19
345.942	403.19
346.17	403.19
346.397	402.19
346.625	384.19
346.853	396.19
347.08	401.19
347.308	407.19
347.535	404.19
347.763	398.19
347.99	421.19
348.218	410.19
348.445	405.19
348.673	382.19
348.9	412.19
349.128	401.19
349.355	396.19
349.583	394.19
349.81	385.19
350.037	389.19
350.265	398.19
350.492	390.19
350.72	392.19
350.947	394.19
351.174	415.19
351.402	399.19
351.629	402.19
351.856	378.19
352.083	402.19
352.311	404.19
352.538	414.19
352.765	387.19
352.992	407.19
353.22	380.19
353.447	383.19
353.674	376.19
353.901	385.19
354.128	373.19
354.355	365.19
354.583	377.19
354.81	388.19
355.037	389.19
355.264	380.19
355.491	382.19
355.718	359.19
355.945	382.19
356.172	390.19
356.399	382.19
356.626	401.19
356.853	394.19
357.08	378.19
357.307	377.19
357.534	366.19
357.761	369.19
357.988	388.19
358.215	404.19
358.441	375.19
358.668	394.19
358.895	384.19
359.122	372.19
359.349	385.19
359.576	384.19
359.802	406.19
360.029	417.19
360.256	403.19
360.483	401.19
360.709	398.19
360.936	414.19
361.163	400.19
361.39	393.19
361.616	393.19
361.843	386.19
362.07	394.19
362.296	384.19
362.523	421.19
362.749	386.19
362.976	384.19
363.203	370.19
363.429	376.19
363.656	380.19
363.882	368.19
364.109	382.19
364.335	360.19
364.562	384.19
364.788	357.19
365.015	372.19
365.241	384.19
365.468	364.19
365.694	387.19
365.92	383.19
366.147	382.19
366.373	384.19
366.599	375.19
366.826	370.19
367.052	378.19
367.278	386.19
367.505	391.19
367.731	381.19
367.957	381.19
368.184	367.19
368.41	378.19
368.636	375.19
368.862	391.19
369.089	402.19
369.315	382.19
369.541	364.19
369.767	386.19
369.993	387.19
370.219	380.19
370.445	379.19
370.672	379.19
370.898	388.19
371.124	388.19
371.35	382.19
371.576	382.19
371.802	379.19
372.028	367.19
372.254	377.19
372.48	382.19
372.706	383.19
372.932	394.19
373.158	384.19
373.384	375.19
373.61	398.19
373.835	394.19
374.061	386.19
374.287	391.19
374.513	389.19
374.739	385.19
374.965	388.19
375.191	400.19
375.416	380.19
375.642	366.19
375.868	374.19
376.094	376.19
376.319	382.19
376.545	380.19
376.771	372.19
376.997	366.19
377.222	382.19
377.448	372.19
377.674	364.19
377.899	384.19
378.125	386.19
378.35	363.19
378.576	373.19
378.802	383.19
379.027	380.19
379.253	373.19
379.478	373.19
379.704	392.19
379.929	386.19
380.155	375.19
380.38	383.19
380.606	382.19
380.831	390.19
381.057	386.19
381.282	367.19
381.507	371.19
381.733	368.19
381.958	382.19
382.184	377.19
382.409	368.19
382.634	390.19
382.86	388.19
383.085	379.19
383.31	416.19
383.535	390.19
383.761	391.19
383.986	398.19
384.211	378.19
384.436	394.19
384.662	390.19
384.887	388.19
385.112	408.19
385.337	422.19
385.562	406.19
385.787	424.19
386.013	412.19
386.238	401.19
386.463	394.19
386.688	416.19
386.913	393.19
387.138	408.19
387.363	403.19
387.588	384.19
387.813	425.19
388.038	401.19
388.263	406.19
388.488	402.19
388.713	414.19
388.938	410.19
389.163	422.19
389.387	409.19
389.612	390.19
389.837	402.19
390.062	414.19
390.287	420.19
390.512	405.19
390.736	427.19
390.961	423.19
391.186	408.19
391.411	397.19
391.636	412.19
391.86	426.19
392.085	455.19
392.31	421.19
392.534	439.19
392.759	431.19
392.984	431.19
393.208	416.19
393.433	419.19
393.658	425.19
393.882	410.19
394.107	413.19
394.331	432.19
394.556	414.19
394.78	437.19
395.005	414.19
395.229	411.19
395.454	432.19
395.678	418.19
395.903	463.19
396.127	454.19
396.352	441.19
396.576	444.19
396.801	437.19
397.025	433.19
397.249	456.19
397.474	420.19
397.698	445.19
397.922	463.19
398.147	455.19
398.371	469.19
398.595	452.19
398.82	481.19
399.044	485.19
399.268	516.19
399.492	524.19
399.717	567.19
399.941	570.19
400.165	605.19
400.389	589.19
400.613	559.19
400.837	498.19
401.062	505.19
401.286	487.19
401.51	480.19
401.734	489.19
401.958	473.19
402.182	473.19
402.406	478.19
402.63	484.19
402.854	493.19
403.078	488.19
403.302	503.19
403.526	470.19
403.75	497.19
403.974	484.19
404.198	484.19
404.422	489.19
404.645	517.19
404.869	518.19
405.093	511.19
405.317	542.19
405.541	575.19
405.765	548.19
405.988	512.19
406.212	528.19
406.436	530.19
406.66	528.19
406.883	513.19
407.107	559.19
407.331	562.19
407.555	646.19
407.778	611.19
408.002	566.19
408.226	538.19
408.449	515.19
408.673	557.19
408.896	538.19
409.12	572.19
409.344	536.19
409.567	508.19
409.791	495.19
410.014	510.19
410.238	476.19
410.461	459.19
410.685	495.19
410.908	520.19
411.132	495.19
411.355	536.19
411.578	522.19
411.802	478.19
412.025	473.19
412.249	460.19
412.472	495.19
412.695	512.19
412.919	516.19
413.142	469.19
413.365	465.19
413.589	472.19
413.812	458.19
414.035	459.19
414.258	464.19
414.482	459.19
414.705	464.19
414.928	450.19
415.151	444.19
415.374	458.19
415.597	454.19
415.821	444.19
416.044	464.19
416.267	488.19
416.49	477.19
416.713	472.19
416.936	460.19
417.159	459.19
417.382	453.19
417.605	453.19
417.828	463.19
418.051	470.19
418.274	461.19
418.497	428.19
418.72	448.19
418.943	443.19
419.166	480.19
419.389	486.19
419.611	471.19
419.834	492.19
420.057	468.19
420.28	463.19
420.503	461.19
420.726	452.19
420.948	469.19
421.171	520.19
421.394	515.19
421.617	475.19
421.839	488.19
422.062	469.19
422.285	476.19
422.507	538.19
422.73	589.19
422.953	553.19
423.175	509.19
423.398	502.19
423.621	477.19
423.843	498.19
424.066	494.19
424.288	493.19
424.511	507.19
424.733	559.19
424.956	611.19
425.178	583.19
425.401	575.19
425.623	609.19
425.846	528.19
426.068	485.19
426.291	482.19
426.513	478.19
426.735	492.19
426.958	505.19
427.18	587.19
427.402	650.19
427.625	756.19
427.847	632.19
428.069	561.19
428.292	539.19
428.514	468.19
428.736	464.19
428.958	464.19
429.181	440.19
429.403	426.19
429.625	464.19
429.847	463.19
430.069	527.19
430.292	533.19
430.514	464.19
430.736	466.19
430.958	450.19
431.18	437.19
431.402	447.19
431.624	428.19
431.846	429.19
432.068	434.19
432.29	440.19
432.512	441.19
432.734	436.19
432.956	421.19
433.178	430.19
433.4	436.19
433.622	417.19
433.844	424.19
434.066	446.19
434.287	436.19
434.509	455.19
434.731	455.19
434.953	444.19
435.175	463.19
435.397	476.19
435.618	497.19
435.84	505.19
436.062	542.19
436.284	616.19
436.505	514.19
436.727	491.19
436.949	466.19
437.17	449.19
437.392	449.19
437.614	477.19
437.835	455.19
438.057	552.19
438.278	606.19
438.5	617.19
438.721	681.19
438.943	645.19
439.165	520.19
439.386	486.19
439.608	511.19
439.829	469.19
440.05	511.19
440.272	528.19
440.493	501.19
440.715	459.19
440.936	468.19
441.158	440.19
441.379	464.19
441.6	463.19
441.822	486.19
442.043	513.19
442.264	576.19
442.486	577.19
442.707	516.19
442.928	485.19
443.149	520.19
443.371	548.19
443.592	536.19
443.813	605.19
444.034	662.19
444.255	534.19
444.476	520.19
444.698	504.19
444.919	473.19
445.14	590.19
445.361	533.19
445.582	495.19
445.803	535.19
446.024	614.19
446.245	611.19
446.466	544.19
446.687	502.19
446.908	476.19
447.129	470.19
447.35	440.19
447.571	427.19
447.792	426.19
448.013	452.19
448.234	430.19
448.455	484.19
448.675	549.19
448.896	662.19
449.117	558.19
449.338	544.19
449.559	614.19
449.779	671.19
450	518.19
450.221	475.19
450.442	444.19
450.662	435.19
450.883	421.19
451.104	433.19
451.324	421.19
451.545	401.19
451.766	412.19
451.986	401.19
452.207	372.19
452.428	365.19
452.648	390.19
452.869	408.19
453.089	411.19
453.31	394.19
453.53	392.19
453.751	375.19
453.971	384.19
454.192	408.19
454.412	398.19
454.633	388.19
454.853	399.19
455.073	376.19
455.294	406.19
455.514	459.19
455.734	442.19
455.955	399.19
456.175	360.19
456.395	373.19
456.616	380.19
456.836	389.19
457.056	383.19
457.276	379.19
457.497	375.19
457.717	367.19
457.937	398.19
458.157	382.19
458.377	380.19
458.598	418.19
458.818	416.19
459.038	456.19
459.258	504.19
459.478	458.19
459.698	439.19
459.918	426.19
460.138	440.19
460.358	438.19
460.578	445.19
460.798	455.19
461.018	461.19
461.238	455.19
461.458	441.19
461.678	440.19
461.898	440.19
462.118	452.19
462.338	462.19
462.558	469.19
462.777	480.19
462.997	489.19
463.217	516.19
463.437	494.19
463.657	481.19
463.876	496.19
464.096	471.19
464.316	502.19
464.536	489.19
464.755	477.19
464.975	475.19
465.195	482.19
465.414	504.19
465.634	476.19
465.854	449.19
466.073	430.19
466.293	402.19
466.512	388.19
466.732	418.19
466.951	427.19
467.171	425.19
467.391	409.19
467.61	419.19
467.829	412.19
468.049	421.19
468.268	409.19
468.488	409.19
468.707	399.19
468.927	390.19
469.146	403.19
469.365	392.19
469.585	385.19
469.804	401.19
470.023	405.19
470.243	411.19
470.462	440.19
470.681	419.19
470.901	427.19
471.12	434.19
471.339	424.19
471.558	416.19
471.777	420.19
471.997	409.19
472.216	399.19
472.435	437.19
472.654	432.19
472.873	410.19
473.092	407.19
473.311	391.19
473.53	407.19
473.749	415.19
473.968	428.19
474.187	513.19
474.406	524.19
474.625	438.19
474.844	431.19
475.063	404.19
475.282	401.19
475.501	416.19
475.72	436.19
475.939	419.19
476.158	410.19
476.377	423.19
476.596	425.19
476.814	430.19
477.033	432.19
477.252	425.19
477.471	438.19
477.69	438.19
477.908	451.19
478.127	463.19
478.346	433.19
478.564	469.19
478.783	462.19
479.002	472.19
479.22	460.19
479.439	480.19
479.658	496.19
479.876	481.19
480.095	479.19
480.313	503.19
480.532	498.19
480.751	493.19
480.969	500.19
481.188	516.19
481.406	527.19
481.624	526.19
481.843	504.19
482.061	469.19
482.28	476.19
482.498	470.19
482.717	463.19
482.935	457.19
483.153	454.19
483.372	470.19
483.59	468.19
483.808	468.19
484.027	485.19
484.245	471.19
484.463	479.19
484.681	481.19
484.9	463.19
485.118	463.19
485.336	472.19
485.554	488.19
485.772	482.19
485.99	465.19
486.209	485.19
486.427	464.19
486.645	489.19
486.863	491.19
487.081	485.19
487.299	508.19
487.517	507.19
487.735	475.19
487.953	506.19
488.171	496.19
488.389	502.19
488.607	502.19
488.825	495.19
489.043	494.19
489.261	507.19
489.479	495.19
489.696	501.19
489.914	485.19
490.132	533.19
490.35	507.19
490.568	511.19
490.786	501.19
491.003	516.19
491.221	542.19
491.439	546.19
491.657	546.19
491.874	533.19
492.092	554.19
492.31	564.19
492.527	560.19
492.745	554.19
492.963	556.19
493.18	555.19
493.398	567.19
493.615	563.19
493.833	561.19
494.05	560.19
494.268	573.19
494.485	592.19
494.703	574.19
494.92	552.19
495.138	576.19
495.355	594.19
495.573	573.19
495.79	566.19
496.008	580.19
496.225	572.19
496.442	579.19
496.66	557.19
496.877	603.19
497.094	595.19
497.312	586.19
497.529	627.19
497.746	602.19
497.963	629.19
498.181	620.19
498.398	650.19
498.615	653.19
498.832	679.19
499.049	712.19
499.267	725.19
499.484	761.19
499.701	787.19
499.918	826.19
500.135	875.19
500.352	918.19
500.569	936.19
500.786	929.19
501.003	904.19
501.22	887.19
501.437	829.19
501.654	812.19
501.871	790.19
502.088	735.19
