Data from 1977.PennyLincolnUp.Lamp.En5.5.200Scan.071719.P1_HRD10591_16-05-01-863.txt Node
Date: Thu Jul 18 16:05:01 EDT 2019
User: cochatt
Spectrometer: HR+D1059
Trigger mode: 1
Integration Time (sec): 1.000000E-1
Scans to average: 1
Electric dark correction enabled: true
Nonlinearity correction enabled: false
Boxcar width: 0
XAxis mode: Wavelengths
Number of Pixels in Spectrum: 2048
>>>>>Begin Spectral Data<<<<<
223.165	-3.75
223.4	-3.75
223.635	-3.75
223.869	-21.75
224.104	-17.75
224.338	-24.75
224.573	-22.75
224.808	-15.75
225.042	-20.75
225.277	-10.75
225.511	7.25
225.746	16.25
225.98	5.25
226.215	7.25
226.449	12.25
226.683	24.25
226.918	21.25
227.152	44.25
227.387	41.25
227.621	53.25
227.856	45.25
228.09	44.25
228.324	52.25
228.559	53.25
228.793	74.25
229.027	77.25
229.262	91.25
229.496	102.25
229.73	98.25
229.964	106.25
230.199	106.25
230.433	96.25
230.667	115.25
230.901	109.25
231.136	105.25
231.37	91.25
231.604	116.25
231.838	98.25
232.072	97.25
232.306	108.25
232.541	101.25
232.775	106.25
233.009	97.25
233.243	91.25
233.477	99.25
233.711	111.25
233.945	110.25
234.179	113.25
234.413	111.25
234.647	96.25
234.881	105.25
235.115	102.25
235.349	117.25
235.583	119.25
235.817	101.25
236.051	129.25
236.285	109.25
236.519	121.25
236.753	125.25
236.987	117.25
237.221	143.25
237.455	173.25
237.689	157.25
237.922	134.25
238.156	117.25
238.39	115.25
238.624	131.25
238.858	106.25
239.091	117.25
239.325	107.25
239.559	111.25
239.793	115.25
240.027	125.25
240.26	133.25
240.494	129.25
240.728	137.25
240.961	134.25
241.195	129.25
241.429	129.25
241.662	124.25
241.896	114.25
242.13	119.25
242.363	135.25
242.597	118.25
242.83	124.25
243.064	131.25
243.298	135.25
243.531	144.25
243.765	134.25
243.998	137.25
244.232	123.25
244.465	134.25
244.699	132.25
244.932	133.25
245.166	139.25
245.399	135.25
245.633	148.25
245.866	139.25
246.099	133.25
246.333	138.25
246.566	149.25
246.8	136.25
247.033	143.25
247.266	142.25
247.5	157.25
247.733	147.25
247.966	143.25
248.2	132.25
248.433	180.25
248.666	163.25
248.899	171.25
249.133	161.25
249.366	170.25
249.599	165.25
249.832	183.25
250.066	151.25
250.299	169.25
250.532	164.25
250.765	165.25
250.998	181.25
251.231	203.25
251.465	196.25
251.698	181.25
251.931	162.25
252.164	183.25
252.397	169.25
252.63	189.25
252.863	183.25
253.096	193.25
253.329	198.25
253.562	198.25
253.795	173.25
254.028	194.25
254.261	193.25
254.494	194.25
254.727	207.25
254.96	219.25
255.193	228.25
255.426	201.25
255.659	202.25
255.892	190.25
256.124	205.25
256.357	194.25
256.59	186.25
256.823	172.25
257.056	196.25
257.289	186.25
257.521	200.25
257.754	201.25
257.987	205.25
258.22	184.25
258.452	195.25
258.685	184.25
258.918	191.25
259.151	186.25
259.383	194.25
259.616	189.25
259.849	207.25
260.081	207.25
260.314	224.25
260.547	221.25
260.779	213.25
261.012	214.25
261.244	189.25
261.477	206.25
261.71	186.25
261.942	211.25
262.175	201.25
262.407	193.25
262.64	194.25
262.872	192.25
263.105	191.25
263.337	207.25
263.57	198.25
263.802	199.25
264.035	196.25
264.267	203.25
264.499	203.25
264.732	206.25
264.964	209.25
265.197	203.25
265.429	189.25
265.661	201.25
265.894	216.25
266.126	202.25
266.358	196.25
266.591	204.25
266.823	231.25
267.055	204.25
267.287	228.25
267.52	203.25
267.752	214.25
267.984	209.25
268.216	214.25
268.448	214.25
268.681	219.25
268.913	227.25
269.145	226.25
269.377	228.25
269.609	246.25
269.841	250.25
270.073	247.25
270.306	246.25
270.538	264.25
270.77	257.25
271.002	258.25
271.234	243.25
271.466	248.25
271.698	270.25
271.93	252.25
272.162	271.25
272.394	265.25
272.626	248.25
272.858	266.25
273.09	252.25
273.322	239.25
273.553	242.25
273.785	246.25
274.017	244.25
274.249	227.25
274.481	256.25
274.713	258.25
274.945	238.25
275.176	249.25
275.408	251.25
275.64	264.25
275.872	253.25
276.104	249.25
276.335	247.25
276.567	241.25
276.799	274.25
277.031	263.25
277.262	258.25
277.494	270.25
277.726	271.25
277.957	249.25
278.189	257.25
278.421	263.25
278.652	239.25
278.884	257.25
279.115	266.25
279.347	251.25
279.579	270.25
279.81	265.25
280.042	261.25
280.273	263.25
280.505	270.25
280.736	269.25
280.968	272.25
281.199	267.25
281.431	254.25
281.662	270.25
281.894	266.25
282.125	261.25
282.356	262.25
282.588	281.25
282.819	275.25
283.051	282.25
283.282	258.25
283.513	269.25
283.745	279.25
283.976	270.25
284.207	270.25
284.439	257.25
284.67	277.25
284.901	268.25
285.132	280.25
285.364	273.25
285.595	277.25
285.826	270.25
286.057	267.25
286.288	268.25
286.52	270.25
286.751	284.25
286.982	275.25
287.213	266.25
287.444	283.25
287.675	274.25
287.906	289.25
288.138	280.25
288.369	294.25
288.6	287.25
288.831	286.25
289.062	284.25
289.293	284.25
289.524	281.25
289.755	276.25
289.986	268.25
290.217	278.25
290.448	275.25
290.679	291.25
290.91	286.25
291.141	297.25
291.371	293.25
291.602	298.25
291.833	289.25
292.064	298.25
292.295	293.25
292.526	289.25
292.757	279.25
292.987	281.25
293.218	294.25
293.449	296.25
293.68	269.25
293.91	292.25
294.141	276.25
294.372	285.25
294.603	281.25
294.833	298.25
295.064	286.25
295.295	284.25
295.525	298.25
295.756	279.25
295.987	301.25
296.217	305.25
296.448	314.25
296.679	280.25
296.909	301.25
297.14	306.25
297.37	301.25
297.601	312.25
297.831	309.25
298.062	293.25
298.292	296.25
298.523	309.25
298.753	323.25
298.984	313.25
299.214	300.25
299.445	311.25
299.675	306.25
299.905	301.25
300.136	300.25
300.366	312.25
300.597	305.25
300.827	314.25
301.057	321.25
301.288	322.25
301.518	316.25
301.748	323.25
301.979	318.25
302.209	321.25
302.439	306.25
302.669	301.25
302.9	327.25
303.13	317.25
303.36	336.25
303.59	334.25
303.82	322.25
304.051	340.25
304.281	332.25
304.511	323.25
304.741	320.25
304.971	338.25
305.201	341.25
305.431	309.25
305.661	315.25
305.891	313.25
306.121	316.25
306.352	320.25
306.582	321.25
306.812	315.25
307.042	310.25
307.272	321.25
307.502	314.25
307.731	344.25
307.961	326.25
308.191	334.25
308.421	347.25
308.651	340.25
308.881	333.25
309.111	340.25
309.341	317.25
309.571	340.25
309.8	333.25
310.03	349.25
310.26	348.25
310.49	325.25
310.72	348.25
310.949	351.25
311.179	377.25
311.409	357.25
311.639	332.25
311.868	351.25
312.098	360.25
312.328	358.25
312.557	377.25
312.787	366.25
313.017	358.25
313.246	354.25
313.476	374.25
313.706	371.25
313.935	353.25
314.165	363.25
314.394	363.25
314.624	356.25
314.853	354.25
315.083	343.25
315.312	363.25
315.542	355.25
315.771	347.25
316.001	340.25
316.23	366.25
316.46	349.25
316.689	358.25
316.919	355.25
317.148	341.25
317.377	362.25
317.607	358.25
317.836	353.25
318.065	346.25
318.295	364.25
318.524	353.25
318.753	347.25
318.983	363.25
319.212	363.25
319.441	371.25
319.67	347.25
319.9	350.25
320.129	365.25
320.358	349.25
320.587	356.25
320.816	349.25
321.046	367.25
321.275	379.25
321.504	362.25
321.733	369.25
321.962	373.25
322.191	377.25
322.42	371.25
322.649	388.25
322.878	387.25
323.108	387.25
323.337	419.25
323.566	402.25
323.795	417.25
324.024	439.25
324.253	514.25
324.482	639.25
324.71	893.25
324.939	1203.25
325.168	1028.25
325.397	593.25
325.626	457.25
325.855	405.25
326.084	403.25
326.313	404.25
326.542	421.25
326.77	406.25
326.999	461.25
327.228	609.25
327.457	823.25
327.686	929.25
327.914	635.25
328.143	507.25
328.372	469.25
328.6	435.25
328.829	441.25
329.058	453.25
329.287	419.25
329.515	421.25
329.744	410.25
329.972	405.25
330.201	427.25
330.43	425.25
330.658	438.25
330.887	440.25
331.115	453.25
331.344	438.25
331.572	410.25
331.801	435.25
332.03	435.25
332.258	384.25
332.486	409.25
332.715	416.25
332.943	419.25
333.172	430.25
333.4	439.25
333.629	439.25
333.857	453.25
334.085	443.25
334.314	437.25
334.542	450.25
334.771	450.25
334.999	443.25
335.227	455.25
335.455	420.25
335.684	420.25
335.912	415.25
336.14	457.25
336.369	421.25
336.597	423.25
336.825	442.25
337.053	421.25
337.281	411.25
337.51	420.25
337.738	401.25
337.966	427.25
338.194	405.25
338.422	396.25
338.65	403.25
338.878	405.25
339.106	399.25
339.334	426.25
339.562	397.25
339.79	397.25
340.018	418.25
340.246	405.25
340.474	389.25
340.702	401.25
340.93	391.25
341.158	400.25
341.386	394.25
341.614	396.25
341.842	404.25
342.07	402.25
342.298	383.25
342.526	385.25
342.754	401.25
342.981	392.25
343.209	406.25
343.437	409.25
343.665	411.25
343.893	417.25
344.12	422.25
344.348	413.25
344.576	400.25
344.804	421.25
345.031	403.25
345.259	400.25
345.487	408.25
345.714	398.25
345.942	378.25
346.17	369.25
346.397	389.25
346.625	383.25
346.853	389.25
347.08	386.25
347.308	382.25
347.535	390.25
347.763	380.25
347.99	374.25
348.218	386.25
348.445	384.25
348.673	358.25
348.9	377.25
349.128	371.25
349.355	379.25
349.583	385.25
349.81	377.25
350.037	348.25
350.265	373.25
350.492	363.25
350.72	355.25
350.947	372.25
351.174	371.25
351.402	362.25
351.629	377.25
351.856	381.25
352.083	372.25
352.311	349.25
352.538	354.25
352.765	362.25
352.992	403.25
353.22	350.25
353.447	365.25
353.674	373.25
353.901	362.25
354.128	357.25
354.355	382.25
354.583	353.25
354.81	371.25
355.037	372.25
355.264	351.25
355.491	383.25
355.718	362.25
355.945	350.25
356.172	350.25
356.399	373.25
356.626	357.25
356.853	360.25
357.08	359.25
357.307	355.25
357.534	346.25
357.761	349.25
357.988	373.25
358.215	355.25
358.441	383.25
358.668	373.25
358.895	368.25
359.122	351.25
359.349	349.25
359.576	354.25
359.802	365.25
360.029	368.25
360.256	381.25
360.483	385.25
360.709	364.25
360.936	367.25
361.163	355.25
361.39	377.25
361.616	362.25
361.843	361.25
362.07	353.25
362.296	368.25
362.523	375.25
362.749	373.25
362.976	347.25
363.203	363.25
363.429	370.25
363.656	366.25
363.882	346.25
364.109	359.25
364.335	356.25
364.562	347.25
364.788	359.25
365.015	364.25
365.241	365.25
365.468	369.25
365.694	357.25
365.92	379.25
366.147	353.25
366.373	362.25
366.599	350.25
366.826	360.25
367.052	341.25
367.278	383.25
367.505	366.25
367.731	371.25
367.957	349.25
368.184	347.25
368.41	356.25
368.636	350.25
368.862	378.25
369.089	360.25
369.315	350.25
369.541	360.25
369.767	359.25
369.993	373.25
370.219	382.25
370.445	342.25
370.672	345.25
370.898	369.25
371.124	347.25
371.35	367.25
371.576	371.25
371.802	364.25
372.028	365.25
372.254	362.25
372.48	351.25
372.706	359.25
372.932	359.25
373.158	356.25
373.384	371.25
373.61	371.25
373.835	364.25
374.061	375.25
374.287	375.25
374.513	361.25
374.739	381.25
374.965	377.25
375.191	370.25
375.416	394.25
375.642	364.25
375.868	362.25
376.094	361.25
376.319	355.25
376.545	368.25
376.771	336.25
376.997	342.25
377.222	375.25
377.448	368.25
377.674	365.25
377.899	332.25
378.125	351.25
378.35	350.25
378.576	354.25
378.802	363.25
379.027	366.25
379.253	343.25
379.478	371.25
379.704	362.25
379.929	355.25
380.155	366.25
380.38	359.25
380.606	378.25
380.831	349.25
381.057	357.25
381.282	374.25
381.507	360.25
381.733	371.25
381.958	380.25
382.184	370.25
382.409	366.25
382.634	385.25
382.86	381.25
383.085	358.25
383.31	369.25
383.535	369.25
383.761	374.25
383.986	372.25
384.211	418.25
384.436	395.25
384.662	402.25
384.887	377.25
385.112	403.25
385.337	390.25
385.562	403.25
385.787	410.25
386.013	408.25
386.238	405.25
386.463	410.25
386.688	398.25
386.913	388.25
387.138	419.25
387.363	398.25
387.588	387.25
387.813	413.25
388.038	411.25
388.263	401.25
388.488	386.25
388.713	396.25
388.938	388.25
389.163	399.25
389.387	400.25
389.612	401.25
389.837	393.25
390.062	397.25
390.287	385.25
390.512	393.25
390.736	387.25
390.961	410.25
391.186	400.25
391.411	424.25
391.636	402.25
391.86	404.25
392.085	417.25
392.31	417.25
392.534	409.25
392.759	429.25
392.984	419.25
393.208	391.25
393.433	414.25
393.658	410.25
393.882	414.25
394.107	414.25
394.331	413.25
394.556	396.25
394.78	410.25
395.005	409.25
395.229	423.25
395.454	411.25
395.678	418.25
395.903	410.25
396.127	423.25
396.352	439.25
396.576	424.25
396.801	416.25
397.025	405.25
397.249	415.25
397.474	428.25
397.698	449.25
397.922	431.25
398.147	449.25
398.371	456.25
398.595	445.25
398.82	460.25
399.044	468.25
399.268	493.25
399.492	521.25
399.717	538.25
399.941	555.25
400.165	582.25
400.389	562.25
400.613	512.25
400.837	501.25
401.062	466.25
401.286	468.25
401.51	447.25
401.734	467.25
401.958	460.25
402.182	467.25
402.406	441.25
402.63	456.25
402.854	461.25
403.078	464.25
403.302	467.25
403.526	459.25
403.75	463.25
403.974	467.25
404.198	457.25
404.422	469.25
404.645	485.25
404.869	475.25
405.093	509.25
405.317	507.25
405.541	520.25
405.765	492.25
405.988	488.25
406.212	499.25
406.436	480.25
406.66	492.25
406.883	497.25
407.107	520.25
407.331	563.25
407.555	600.25
407.778	593.25
408.002	549.25
408.226	520.25
408.449	522.25
408.673	479.25
408.896	531.25
409.12	564.25
409.344	520.25
409.567	502.25
409.791	471.25
410.014	474.25
410.238	443.25
410.461	456.25
410.685	493.25
410.908	476.25
411.132	497.25
411.355	513.25
411.578	509.25
411.802	488.25
412.025	443.25
412.249	465.25
412.472	486.25
412.695	475.25
412.919	487.25
413.142	463.25
413.365	443.25
413.589	451.25
413.812	447.25
414.035	451.25
414.258	448.25
414.482	426.25
414.705	446.25
414.928	443.25
415.151	451.25
415.374	428.25
415.597	440.25
415.821	425.25
416.044	454.25
416.267	447.25
416.49	410.25
416.713	430.25
416.936	421.25
417.159	445.25
417.382	429.25
417.605	421.25
417.828	425.25
418.051	441.25
418.274	440.25
418.497	426.25
418.72	438.25
418.943	435.25
419.166	457.25
419.389	463.25
419.611	469.25
419.834	474.25
420.057	469.25
420.28	462.25
420.503	437.25
420.726	448.25
420.948	449.25
421.171	467.25
421.394	510.25
421.617	442.25
421.839	445.25
422.062	438.25
422.285	442.25
422.507	487.25
422.73	527.25
422.953	509.25
423.175	465.25
423.398	455.25
423.621	462.25
423.843	470.25
424.066	483.25
424.288	462.25
424.511	467.25
424.733	508.25
424.956	577.25
425.178	550.25
425.401	528.25
425.623	558.25
425.846	468.25
426.068	446.25
426.291	426.25
426.513	437.25
426.735	464.25
426.958	467.25
427.18	540.25
427.402	625.25
427.625	690.25
427.847	554.25
428.069	514.25
428.292	484.25
428.514	452.25
428.736	430.25
428.958	432.25
429.181	420.25
429.403	414.25
429.625	422.25
429.847	450.25
430.069	492.25
430.292	481.25
430.514	419.25
430.736	425.25
430.958	404.25
431.18	413.25
431.402	415.25
431.624	436.25
431.846	402.25
432.068	408.25
432.29	418.25
432.512	398.25
432.734	397.25
432.956	417.25
433.178	414.25
433.4	407.25
433.622	425.25
433.844	411.25
434.066	408.25
434.287	405.25
434.509	434.25
434.731	432.25
434.953	422.25
435.175	428.25
435.397	470.25
435.618	447.25
435.84	484.25
436.062	528.25
436.284	571.25
436.505	483.25
436.727	446.25
436.949	421.25
437.17	413.25
437.392	415.25
437.614	435.25
437.835	436.25
438.057	506.25
438.278	553.25
438.5	555.25
438.721	612.25
438.943	602.25
439.165	486.25
439.386	431.25
439.608	451.25
439.829	429.25
440.05	466.25
440.272	487.25
440.493	476.25
440.715	417.25
440.936	439.25
441.158	419.25
441.379	421.25
441.6	458.25
441.822	460.25
442.043	478.25
442.264	530.25
442.486	563.25
442.707	494.25
442.928	469.25
443.149	452.25
443.371	476.25
443.592	486.25
443.813	563.25
444.034	627.25
444.255	521.25
444.476	488.25
444.698	471.25
444.919	473.25
445.14	569.25
445.361	504.25
445.582	485.25
445.803	523.25
446.024	574.25
446.245	561.25
446.466	542.25
446.687	478.25
446.908	472.25
447.129	425.25
447.35	409.25
447.571	418.25
447.792	418.25
448.013	401.25
448.234	420.25
448.455	461.25
448.675	535.25
448.896	599.25
449.117	532.25
449.338	502.25
449.559	557.25
449.779	646.25
450	503.25
450.221	440.25
450.442	401.25
450.662	391.25
450.883	405.25
451.104	393.25
451.324	367.25
451.545	365.25
451.766	393.25
451.986	378.25
452.207	378.25
452.428	372.25
452.648	389.25
452.869	373.25
453.089	380.25
453.31	382.25
453.53	349.25
453.751	363.25
453.971	388.25
454.192	394.25
454.412	369.25
454.633	379.25
454.853	358.25
455.073	356.25
455.294	391.25
455.514	404.25
455.734	415.25
455.955	373.25
456.175	358.25
456.395	354.25
456.616	348.25
456.836	345.25
457.056	373.25
457.276	360.25
457.497	350.25
457.717	364.25
457.937	365.25
458.157	364.25
458.377	369.25
458.598	387.25
458.818	405.25
459.038	419.25
459.258	460.25
459.478	414.25
459.698	397.25
459.918	400.25
460.138	423.25
460.358	416.25
460.578	434.25
460.798	401.25
461.018	419.25
461.238	441.25
461.458	417.25
461.678	430.25
461.898	441.25
462.118	441.25
462.338	436.25
462.558	446.25
462.777	463.25
462.997	476.25
463.217	465.25
463.437	519.25
463.657	450.25
463.876	489.25
464.096	477.25
464.316	449.25
464.536	471.25
464.755	449.25
464.975	430.25
465.195	444.25
465.414	449.25
465.634	453.25
465.854	422.25
466.073	407.25
466.293	407.25
466.512	405.25
466.732	397.25
466.951	395.25
467.171	402.25
467.391	380.25
467.61	373.25
467.829	397.25
468.049	398.25
468.268	399.25
468.488	387.25
468.707	375.25
468.927	398.25
469.146	379.25
469.365	365.25
469.585	383.25
469.804	389.25
470.023	381.25
470.243	404.25
470.462	393.25
470.681	410.25
470.901	399.25
471.12	411.25
471.339	412.25
471.558	389.25
471.777	387.25
471.997	400.25
472.216	399.25
472.435	395.25
472.654	382.25
472.873	394.25
473.092	405.25
473.311	393.25
473.53	380.25
473.749	394.25
473.968	413.25
474.187	485.25
474.406	495.25
474.625	415.25
474.844	382.25
475.063	376.25
475.282	374.25
475.501	409.25
475.72	377.25
475.939	414.25
476.158	405.25
476.377	406.25
476.596	404.25
476.814	405.25
477.033	412.25
477.252	414.25
477.471	426.25
477.69	409.25
477.908	425.25
478.127	418.25
478.346	442.25
478.564	439.25
478.783	431.25
479.002	439.25
479.22	453.25
479.439	461.25
479.658	451.25
479.876	447.25
480.095	471.25
480.313	491.25
480.532	475.25
480.751	474.25
480.969	475.25
481.188	475.25
481.406	476.25
481.624	474.25
481.843	477.25
482.061	461.25
482.28	461.25
482.498	459.25
482.717	445.25
482.935	446.25
483.153	455.25
483.372	447.25
483.59	443.25
483.808	460.25
484.027	453.25
484.245	446.25
484.463	461.25
484.681	458.25
484.9	461.25
485.118	474.25
485.336	463.25
485.554	460.25
485.772	469.25
485.99	465.25
486.209	486.25
486.427	470.25
486.645	440.25
486.863	474.25
487.081	460.25
487.299	443.25
487.517	487.25
487.735	475.25
487.953	486.25
488.171	458.25
488.389	470.25
488.607	466.25
488.825	461.25
489.043	480.25
489.261	487.25
489.479	485.25
489.696	471.25
489.914	480.25
490.132	479.25
490.35	472.25
490.568	474.25
490.786	480.25
491.003	495.25
491.221	500.25
491.439	505.25
491.657	510.25
491.874	528.25
492.092	546.25
492.31	547.25
492.527	532.25
492.745	513.25
492.963	522.25
493.18	517.25
493.398	544.25
493.615	525.25
493.833	540.25
494.05	551.25
494.268	563.25
494.485	535.25
494.703	538.25
494.92	557.25
495.138	558.25
495.355	540.25
495.573	524.25
495.79	538.25
496.008	534.25
496.225	542.25
496.442	531.25
496.66	566.25
496.877	556.25
497.094	559.25
497.312	558.25
497.529	569.25
497.746	585.25
497.963	554.25
498.181	606.25
498.398	631.25
498.615	661.25
498.832	665.25
499.049	667.25
499.267	702.25
499.484	712.25
499.701	757.25
499.918	794.25
500.135	840.25
500.352	877.25
500.569	918.25
500.786	901.25
501.003	867.25
501.22	823.25
501.437	787.25
501.654	789.25
501.871	766.25
502.088	694.25
