Data from 1977.PennyLincolnUp.Lamp.En5.5.200Scan.071719.P1_HRD10591_16-06-50-864.txt Node
Date: Thu Jul 18 16:06:50 EDT 2019
User: cochatt
Spectrometer: HR+D1059
Trigger mode: 1
Integration Time (sec): 1.000000E-1
Scans to average: 1
Electric dark correction enabled: true
Nonlinearity correction enabled: false
Boxcar width: 0
XAxis mode: Wavelengths
Number of Pixels in Spectrum: 2048
>>>>>Begin Spectral Data<<<<<
223.165	-14.88
223.4	-14.88
223.635	-14.88
223.869	-13.88
224.104	-9.88
224.338	-11.88
224.573	-15.88
224.808	-11.88
225.042	-12.88
225.277	-10.88
225.511	-20.88
225.746	-3.88
225.98	15.12
226.215	20.12
226.449	7.12
226.683	17.12
226.918	25.12
227.152	42.12
227.387	30.12
227.621	39.12
227.856	39.12
228.09	44.12
228.324	44.12
228.559	62.12
228.793	57.12
229.027	83.12
229.262	108.12
229.496	114.12
229.73	132.12
229.964	132.12
230.199	123.12
230.433	104.12
230.667	114.12
230.901	96.12
231.136	99.12
231.37	114.12
231.604	106.12
231.838	102.12
232.072	116.12
232.306	98.12
232.541	116.12
232.775	107.12
233.009	112.12
233.243	108.12
233.477	117.12
233.711	113.12
233.945	106.12
234.179	109.12
234.413	110.12
234.647	105.12
234.881	124.12
235.115	101.12
235.349	123.12
235.583	115.12
235.817	121.12
236.051	120.12
236.285	120.12
236.519	124.12
236.753	126.12
236.987	145.12
237.221	148.12
237.455	202.12
237.689	180.12
237.922	136.12
238.156	126.12
238.39	108.12
238.624	123.12
238.858	122.12
239.091	117.12
239.325	136.12
239.559	125.12
239.793	123.12
240.027	128.12
240.26	146.12
240.494	162.12
240.728	151.12
240.961	141.12
241.195	152.12
241.429	120.12
241.662	126.12
241.896	154.12
242.13	124.12
242.363	132.12
242.597	119.12
242.83	138.12
243.064	128.12
243.298	129.12
243.531	136.12
243.765	142.12
243.998	133.12
244.232	147.12
244.465	143.12
244.699	129.12
244.932	140.12
245.166	130.12
245.399	148.12
245.633	155.12
245.866	139.12
246.099	151.12
246.333	150.12
246.566	134.12
246.8	155.12
247.033	141.12
247.266	154.12
247.5	156.12
247.733	163.12
247.966	168.12
248.2	160.12
248.433	184.12
248.666	181.12
248.899	176.12
249.133	173.12
249.366	194.12
249.599	202.12
249.832	195.12
250.066	182.12
250.299	168.12
250.532	186.12
250.765	211.12
250.998	219.12
251.231	217.12
251.465	204.12
251.698	205.12
251.931	209.12
252.164	195.12
252.397	200.12
252.63	188.12
252.863	195.12
253.096	210.12
253.329	212.12
253.562	220.12
253.795	201.12
254.028	205.12
254.261	210.12
254.494	206.12
254.727	244.12
254.96	254.12
255.193	271.12
255.426	245.12
255.659	227.12
255.892	233.12
256.124	226.12
256.357	232.12
256.59	226.12
256.823	217.12
257.056	200.12
257.289	196.12
257.521	194.12
257.754	217.12
257.987	201.12
258.22	208.12
258.452	229.12
258.685	209.12
258.918	197.12
259.151	222.12
259.383	217.12
259.616	245.12
259.849	201.12
260.081	241.12
260.314	242.12
260.547	240.12
260.779	222.12
261.012	234.12
261.244	227.12
261.477	230.12
261.71	210.12
261.942	225.12
262.175	246.12
262.407	239.12
262.64	208.12
262.872	226.12
263.105	212.12
263.337	213.12
263.57	232.12
263.802	209.12
264.035	218.12
264.267	217.12
264.499	219.12
264.732	205.12
264.964	208.12
265.197	217.12
265.429	235.12
265.661	225.12
265.894	249.12
266.126	240.12
266.358	226.12
266.591	225.12
266.823	221.12
267.055	242.12
267.287	256.12
267.52	240.12
267.752	235.12
267.984	238.12
268.216	245.12
268.448	237.12
268.681	251.12
268.913	242.12
269.145	251.12
269.377	274.12
269.609	290.12
269.841	261.12
270.073	288.12
270.306	299.12
270.538	323.12
270.77	315.12
271.002	292.12
271.234	289.12
271.466	299.12
271.698	324.12
271.93	306.12
272.162	312.12
272.394	317.12
272.626	299.12
272.858	297.12
273.09	286.12
273.322	296.12
273.553	270.12
273.785	281.12
274.017	266.12
274.249	264.12
274.481	260.12
274.713	298.12
274.945	274.12
275.176	282.12
275.408	285.12
275.64	282.12
275.872	257.12
276.104	279.12
276.335	282.12
276.567	276.12
276.799	280.12
277.031	298.12
277.262	326.12
277.494	325.12
277.726	315.12
277.957	307.12
278.189	296.12
278.421	287.12
278.652	278.12
278.884	284.12
279.115	274.12
279.347	285.12
279.579	296.12
279.81	294.12
280.042	272.12
280.273	281.12
280.505	294.12
280.736	283.12
280.968	284.12
281.199	284.12
281.431	288.12
281.662	282.12
281.894	285.12
282.125	289.12
282.356	312.12
282.588	313.12
282.819	316.12
283.051	321.12
283.282	289.12
283.513	317.12
283.745	297.12
283.976	294.12
284.207	297.12
284.439	297.12
284.67	310.12
284.901	289.12
285.132	292.12
285.364	296.12
285.595	303.12
285.826	291.12
286.057	316.12
286.288	317.12
286.52	306.12
286.751	315.12
286.982	309.12
287.213	303.12
287.444	328.12
287.675	298.12
287.906	306.12
288.138	328.12
288.369	313.12
288.6	326.12
288.831	329.12
289.062	317.12
289.293	329.12
289.524	329.12
289.755	324.12
289.986	323.12
290.217	300.12
290.448	316.12
290.679	317.12
290.91	289.12
291.141	312.12
291.371	314.12
291.602	309.12
291.833	307.12
292.064	306.12
292.295	314.12
292.526	309.12
292.757	317.12
292.987	295.12
293.218	304.12
293.449	312.12
293.68	327.12
293.91	321.12
294.141	314.12
294.372	320.12
294.603	321.12
294.833	321.12
295.064	299.12
295.295	317.12
295.525	329.12
295.756	320.12
295.987	331.12
296.217	361.12
296.448	352.12
296.679	329.12
296.909	314.12
297.14	318.12
297.37	326.12
297.601	305.12
297.831	313.12
298.062	333.12
298.292	312.12
298.523	324.12
298.753	350.12
298.984	338.12
299.214	329.12
299.445	317.12
299.675	337.12
299.905	336.12
300.136	315.12
300.366	332.12
300.597	341.12
300.827	343.12
301.057	346.12
301.288	340.12
301.518	341.12
301.748	358.12
301.979	376.12
302.209	376.12
302.439	354.12
302.669	372.12
302.9	357.12
303.13	344.12
303.36	357.12
303.59	351.12
303.82	344.12
304.051	365.12
304.281	340.12
304.511	354.12
304.741	335.12
304.971	365.12
305.201	348.12
305.431	367.12
305.661	361.12
305.891	364.12
306.121	353.12
306.352	357.12
306.582	355.12
306.812	355.12
307.042	334.12
307.272	342.12
307.502	346.12
307.731	373.12
307.961	357.12
308.191	354.12
308.421	367.12
308.651	363.12
308.881	339.12
309.111	364.12
309.341	365.12
309.571	371.12
309.8	394.12
310.03	391.12
310.26	376.12
310.49	390.12
310.72	400.12
310.949	390.12
311.179	402.12
311.409	397.12
311.639	377.12
311.868	410.12
312.098	385.12
312.328	373.12
312.557	420.12
312.787	414.12
313.017	417.12
313.246	398.12
313.476	395.12
313.706	392.12
313.935	418.12
314.165	408.12
314.394	404.12
314.624	401.12
314.853	387.12
315.083	396.12
315.312	406.12
315.542	406.12
315.771	403.12
316.001	392.12
316.23	378.12
316.46	391.12
316.689	398.12
316.919	392.12
317.148	417.12
317.377	406.12
317.607	401.12
317.836	388.12
318.065	392.12
318.295	404.12
318.524	394.12
318.753	386.12
318.983	403.12
319.212	384.12
319.441	398.12
319.67	412.12
319.9	417.12
320.129	410.12
320.358	397.12
320.587	404.12
320.816	406.12
321.046	429.12
321.275	398.12
321.504	406.12
321.733	431.12
321.962	427.12
322.191	425.12
322.42	428.12
322.649	455.12
322.878	452.12
323.108	461.12
323.337	474.12
323.566	489.12
323.795	533.12
324.024	556.12
324.253	635.12
324.482	882.12
324.71	1286.12
324.939	1789.12
325.168	1518.12
325.397	804.12
325.626	592.12
325.855	538.12
326.084	499.12
326.313	501.12
326.542	521.12
326.77	552.12
326.999	621.12
327.228	794.12
327.457	1156.12
327.686	1339.12
327.914	911.12
328.143	641.12
328.372	579.12
328.6	548.12
328.829	523.12
329.058	556.12
329.287	558.12
329.515	509.12
329.744	491.12
329.972	523.12
330.201	528.12
330.43	548.12
330.658	536.12
330.887	577.12
331.115	550.12
331.344	500.12
331.572	496.12
331.801	478.12
332.03	486.12
332.258	482.12
332.486	470.12
332.715	438.12
332.943	473.12
333.172	473.12
333.4	481.12
333.629	480.12
333.857	465.12
334.085	500.12
334.314	510.12
334.542	549.12
334.771	536.12
334.999	493.12
335.227	512.12
335.455	471.12
335.684	468.12
335.912	459.12
336.14	466.12
336.369	461.12
336.597	483.12
336.825	450.12
337.053	470.12
337.281	472.12
337.51	466.12
337.738	444.12
337.966	450.12
338.194	465.12
338.422	452.12
338.65	459.12
338.878	462.12
339.106	440.12
339.334	445.12
339.562	438.12
339.79	475.12
340.018	458.12
340.246	469.12
340.474	444.12
340.702	456.12
340.93	427.12
341.158	444.12
341.386	420.12
341.614	442.12
341.842	428.12
342.07	442.12
342.298	438.12
342.526	425.12
342.754	412.12
342.981	422.12
343.209	441.12
343.437	447.12
343.665	476.12
343.893	459.12
344.12	465.12
344.348	451.12
344.576	484.12
344.804	486.12
345.031	460.12
345.259	462.12
345.487	432.12
345.714	427.12
345.942	432.12
346.17	425.12
346.397	435.12
346.625	424.12
346.853	424.12
347.08	423.12
347.308	430.12
347.535	424.12
347.763	443.12
347.99	438.12
348.218	440.12
348.445	417.12
348.673	412.12
348.9	417.12
349.128	418.12
349.355	406.12
349.583	404.12
349.81	418.12
350.037	418.12
350.265	419.12
350.492	408.12
350.72	424.12
350.947	407.12
351.174	428.12
351.402	434.12
351.629	421.12
351.856	412.12
352.083	448.12
352.311	428.12
352.538	426.12
352.765	418.12
352.992	428.12
353.22	409.12
353.447	421.12
353.674	391.12
353.901	405.12
354.128	373.12
354.355	392.12
354.583	408.12
354.81	412.12
355.037	385.12
355.264	379.12
355.491	404.12
355.718	401.12
355.945	396.12
356.172	406.12
356.399	388.12
356.626	390.12
356.853	381.12
357.08	396.12
357.307	374.12
357.534	394.12
357.761	394.12
357.988	399.12
358.215	388.12
358.441	388.12
358.668	397.12
358.895	385.12
359.122	392.12
359.349	404.12
359.576	424.12
359.802	437.12
360.029	442.12
360.256	440.12
360.483	413.12
360.709	412.12
360.936	401.12
361.163	417.12
361.39	418.12
361.616	417.12
361.843	399.12
362.07	388.12
362.296	406.12
362.523	406.12
362.749	415.12
362.976	388.12
363.203	404.12
363.429	378.12
363.656	392.12
363.882	405.12
364.109	390.12
364.335	388.12
364.562	381.12
364.788	385.12
365.015	379.12
365.241	394.12
365.468	399.12
365.694	399.12
365.92	381.12
366.147	405.12
366.373	376.12
366.599	392.12
366.826	390.12
367.052	397.12
367.278	391.12
367.505	399.12
367.731	386.12
367.957	396.12
368.184	394.12
368.41	393.12
368.636	397.12
368.862	408.12
369.089	394.12
369.315	385.12
369.541	414.12
369.767	388.12
369.993	391.12
370.219	392.12
370.445	394.12
370.672	415.12
370.898	396.12
371.124	404.12
371.35	402.12
371.576	394.12
371.802	393.12
372.028	392.12
372.254	406.12
372.48	389.12
372.706	428.12
372.932	397.12
373.158	391.12
373.384	397.12
373.61	407.12
373.835	401.12
374.061	410.12
374.287	404.12
374.513	393.12
374.739	390.12
374.965	412.12
375.191	402.12
375.416	417.12
375.642	397.12
375.868	389.12
376.094	409.12
376.319	378.12
376.545	385.12
376.771	392.12
376.997	398.12
377.222	393.12
377.448	399.12
377.674	379.12
377.899	372.12
378.125	379.12
378.35	396.12
378.576	401.12
378.802	380.12
379.027	382.12
379.253	408.12
379.478	388.12
379.704	380.12
379.929	385.12
380.155	391.12
380.38	388.12
380.606	389.12
380.831	384.12
381.057	411.12
381.282	390.12
381.507	384.12
381.733	398.12
381.958	380.12
382.184	395.12
382.409	388.12
382.634	388.12
382.86	394.12
383.085	400.12
383.31	400.12
383.535	392.12
383.761	404.12
383.986	409.12
384.211	434.12
384.436	414.12
384.662	405.12
384.887	425.12
385.112	409.12
385.337	426.12
385.562	425.12
385.787	433.12
386.013	449.12
386.238	436.12
386.463	408.12
386.688	427.12
386.913	424.12
387.138	417.12
387.363	436.12
387.588	420.12
387.813	430.12
388.038	416.12
388.263	434.12
388.488	448.12
388.713	440.12
388.938	445.12
389.163	436.12
389.387	444.12
389.612	443.12
389.837	418.12
390.062	437.12
390.287	443.12
390.512	450.12
390.736	440.12
390.961	418.12
391.186	434.12
391.411	445.12
391.636	422.12
391.86	439.12
392.085	476.12
392.31	444.12
392.534	444.12
392.759	418.12
392.984	436.12
393.208	446.12
393.433	435.12
393.658	423.12
393.882	422.12
394.107	447.12
394.331	442.12
394.556	426.12
394.78	439.12
395.005	434.12
395.229	439.12
395.454	460.12
395.678	449.12
395.903	453.12
396.127	463.12
396.352	471.12
396.576	452.12
396.801	447.12
397.025	419.12
397.249	448.12
397.474	440.12
397.698	452.12
397.922	477.12
398.147	464.12
398.371	457.12
398.595	471.12
398.82	478.12
399.044	497.12
399.268	524.12
399.492	530.12
399.717	591.12
399.941	591.12
400.165	610.12
400.389	621.12
400.613	572.12
400.837	523.12
401.062	487.12
401.286	493.12
401.51	488.12
401.734	478.12
401.958	483.12
402.182	490.12
402.406	504.12
402.63	502.12
402.854	516.12
403.078	499.12
403.302	502.12
403.526	527.12
403.75	518.12
403.974	499.12
404.198	527.12
404.422	527.12
404.645	506.12
404.869	525.12
405.093	554.12
405.317	579.12
405.541	603.12
405.765	570.12
405.988	542.12
406.212	542.12
406.436	548.12
406.66	548.12
406.883	554.12
407.107	574.12
407.331	593.12
407.555	667.12
407.778	655.12
408.002	599.12
408.226	552.12
408.449	538.12
408.673	566.12
408.896	571.12
409.12	614.12
409.344	584.12
409.567	505.12
409.791	517.12
410.014	506.12
410.238	509.12
410.461	500.12
410.685	497.12
410.908	516.12
411.132	540.12
411.355	576.12
411.578	569.12
411.802	544.12
412.025	512.12
412.249	520.12
412.472	529.12
412.695	545.12
412.919	534.12
413.142	504.12
413.365	497.12
413.589	481.12
413.812	487.12
414.035	476.12
414.258	446.12
414.482	474.12
414.705	465.12
414.928	475.12
415.151	458.12
415.374	487.12
415.597	457.12
415.821	466.12
416.044	457.12
416.267	449.12
416.49	475.12
416.713	450.12
416.936	479.12
417.159	453.12
417.382	476.12
417.605	465.12
417.828	482.12
418.051	489.12
418.274	510.12
418.497	480.12
418.72	471.12
418.943	451.12
419.166	487.12
419.389	500.12
419.611	494.12
419.834	490.12
420.057	485.12
420.28	490.12
420.503	464.12
420.726	491.12
420.948	487.12
421.171	531.12
421.394	549.12
421.617	493.12
421.839	475.12
422.062	507.12
422.285	517.12
422.507	563.12
422.73	603.12
422.953	590.12
423.175	548.12
423.398	493.12
423.621	515.12
423.843	516.12
424.066	506.12
424.288	525.12
424.511	540.12
424.733	573.12
424.956	630.12
425.178	622.12
425.401	616.12
425.623	644.12
425.846	538.12
426.068	515.12
426.291	486.12
426.513	484.12
426.735	516.12
426.958	550.12
427.18	635.12
427.402	732.12
427.625	773.12
427.847	686.12
428.069	606.12
428.292	544.12
428.514	516.12
428.736	471.12
428.958	497.12
429.181	472.12
429.403	456.12
429.625	452.12
429.847	505.12
430.069	539.12
430.292	564.12
430.514	505.12
430.736	464.12
430.958	460.12
431.18	469.12
431.402	450.12
431.624	443.12
431.846	459.12
432.068	460.12
432.29	439.12
432.512	450.12
432.734	464.12
432.956	449.12
433.178	476.12
433.4	472.12
433.622	451.12
433.844	447.12
434.066	453.12
434.287	451.12
434.509	449.12
434.731	467.12
434.953	468.12
435.175	471.12
435.397	500.12
435.618	498.12
435.84	523.12
436.062	636.12
436.284	646.12
436.505	551.12
436.727	502.12
436.949	482.12
437.17	470.12
437.392	467.12
437.614	474.12
437.835	498.12
438.057	578.12
438.278	650.12
438.5	670.12
438.721	718.12
438.943	696.12
439.165	558.12
439.386	506.12
439.608	518.12
439.829	527.12
440.05	524.12
440.272	555.12
440.493	527.12
440.715	484.12
440.936	496.12
441.158	475.12
441.379	465.12
441.6	473.12
441.822	500.12
442.043	538.12
442.264	605.12
442.486	645.12
442.707	566.12
442.928	528.12
443.149	508.12
443.371	532.12
443.592	574.12
443.813	658.12
444.034	674.12
444.255	569.12
444.476	530.12
444.698	530.12
444.919	534.12
445.14	631.12
445.361	546.12
445.582	550.12
445.803	605.12
446.024	657.12
446.245	690.12
446.466	609.12
446.687	534.12
446.908	502.12
447.129	483.12
447.35	452.12
447.571	464.12
447.792	448.12
448.013	438.12
448.234	471.12
448.455	518.12
448.675	596.12
448.896	716.12
449.117	612.12
449.338	555.12
449.559	688.12
449.779	756.12
450	610.12
450.221	515.12
450.442	468.12
450.662	452.12
450.883	443.12
451.104	454.12
451.324	434.12
451.545	427.12
451.766	432.12
451.986	410.12
452.207	410.12
452.428	397.12
452.648	389.12
452.869	395.12
453.089	413.12
453.31	448.12
453.53	429.12
453.751	423.12
453.971	416.12
454.192	428.12
454.412	429.12
454.633	416.12
454.853	402.12
455.073	405.12
455.294	429.12
455.514	460.12
455.734	462.12
455.955	410.12
456.175	393.12
456.395	388.12
456.616	392.12
456.836	391.12
457.056	395.12
457.276	379.12
457.497	418.12
457.717	389.12
457.937	417.12
458.157	414.12
458.377	413.12
458.598	418.12
458.818	475.12
459.038	501.12
459.258	546.12
459.478	466.12
459.698	449.12
459.918	467.12
460.138	448.12
460.358	449.12
460.578	465.12
460.798	476.12
461.018	445.12
461.238	456.12
461.458	458.12
461.678	444.12
461.898	487.12
462.118	454.12
462.338	484.12
462.558	477.12
462.777	485.12
462.997	518.12
463.217	520.12
463.437	516.12
463.657	504.12
463.876	476.12
464.096	500.12
464.316	503.12
464.536	498.12
464.755	481.12
464.975	484.12
465.195	500.12
465.414	548.12
465.634	491.12
465.854	483.12
466.073	444.12
466.293	424.12
466.512	445.12
466.732	425.12
466.951	444.12
467.171	442.12
467.391	430.12
467.61	428.12
467.829	434.12
468.049	438.12
468.268	424.12
468.488	415.12
468.707	416.12
468.927	412.12
469.146	415.12
469.365	397.12
469.585	411.12
469.804	409.12
470.023	447.12
470.243	435.12
470.462	437.12
470.681	428.12
470.901	438.12
471.12	437.12
471.339	424.12
471.558	436.12
471.777	422.12
471.997	415.12
472.216	439.12
472.435	460.12
472.654	427.12
472.873	421.12
473.092	430.12
473.311	407.12
473.53	441.12
473.749	418.12
473.968	478.12
474.187	530.12
474.406	573.12
474.625	448.12
474.844	429.12
475.063	438.12
475.282	430.12
475.501	434.12
475.72	429.12
475.939	459.12
476.158	447.12
476.377	428.12
476.596	430.12
476.814	440.12
477.033	426.12
477.252	441.12
477.471	454.12
477.69	480.12
477.908	470.12
478.127	479.12
478.346	460.12
478.564	469.12
478.783	479.12
479.002	492.12
479.22	505.12
479.439	520.12
479.658	524.12
479.876	512.12
480.095	527.12
480.313	540.12
480.532	527.12
480.751	534.12
480.969	530.12
481.188	554.12
481.406	572.12
481.624	546.12
481.843	533.12
482.061	492.12
482.28	501.12
482.498	476.12
482.717	482.12
482.935	493.12
483.153	496.12
483.372	494.12
483.59	500.12
483.808	477.12
484.027	493.12
484.245	490.12
484.463	508.12
484.681	508.12
484.9	504.12
485.118	496.12
485.336	508.12
485.554	504.12
485.772	517.12
485.99	499.12
486.209	514.12
486.427	517.12
486.645	518.12
486.863	529.12
487.081	515.12
487.299	532.12
487.517	514.12
487.735	526.12
487.953	543.12
488.171	506.12
488.389	521.12
488.607	518.12
488.825	512.12
489.043	512.12
489.261	526.12
489.479	541.12
489.696	544.12
489.914	530.12
490.132	528.12
490.35	532.12
490.568	534.12
490.786	553.12
491.003	565.12
491.221	545.12
491.439	571.12
491.657	566.12
491.874	564.12
492.092	569.12
492.31	579.12
492.527	586.12
492.745	581.12
492.963	626.12
493.18	603.12
493.398	635.12
493.615	594.12
493.833	613.12
494.05	620.12
494.268	606.12
494.485	594.12
494.703	614.12
494.92	605.12
495.138	602.12
495.355	625.12
495.573	605.12
495.79	621.12
496.008	621.12
496.225	607.12
496.442	596.12
496.66	602.12
496.877	619.12
497.094	611.12
497.312	647.12
497.529	620.12
497.746	652.12
497.963	651.12
498.181	679.12
498.398	711.12
498.615	696.12
498.832	692.12
499.049	756.12
499.267	785.12
499.484	777.12
499.701	806.12
499.918	888.12
500.135	901.12
500.352	935.12
500.569	989.12
500.786	970.12
501.003	930.12
501.22	902.12
501.437	877.12
501.654	867.12
501.871	817.12
