Data from 1977.PennyLincolnUp.Lamp.En5.5.200Scan.071719.P1_HRD10591_16-04-53-863.txt Node
Date: Thu Jul 18 16:04:53 EDT 2019
User: cochatt
Spectrometer: HR+D1059
Trigger mode: 1
Integration Time (sec): 1.000000E-1
Scans to average: 1
Electric dark correction enabled: true
Nonlinearity correction enabled: false
Boxcar width: 0
XAxis mode: Wavelengths
Number of Pixels in Spectrum: 2048
>>>>>Begin Spectral Data<<<<<
223.165	-5.5
223.4	-5.5
223.635	-5.5
223.869	-14.5
224.104	-19.5
224.338	-15.5
224.573	-13.5
224.808	-8.5
225.042	-14.5
225.277	-5.5
225.511	-1.5
225.746	1.5
225.98	4.5
226.215	2.5
226.449	31.5
226.683	12.5
226.918	16.5
227.152	29.5
227.387	54.5
227.621	40.5
227.856	51.5
228.09	53.5
228.324	58.5
228.559	56.5
228.793	70.5
229.027	85.5
229.262	103.5
229.496	74.5
229.73	106.5
229.964	111.5
230.199	105.5
230.433	112.5
230.667	104.5
230.901	118.5
231.136	94.5
231.37	103.5
231.604	96.5
231.838	103.5
232.072	124.5
232.306	101.5
232.541	112.5
232.775	101.5
233.009	115.5
233.243	111.5
233.477	110.5
233.711	106.5
233.945	111.5
234.179	112.5
234.413	108.5
234.647	112.5
234.881	104.5
235.115	110.5
235.349	115.5
235.583	107.5
235.817	124.5
236.051	120.5
236.285	114.5
236.519	125.5
236.753	108.5
236.987	131.5
237.221	144.5
237.455	168.5
237.689	146.5
237.922	115.5
238.156	113.5
238.39	118.5
238.624	128.5
238.858	124.5
239.091	122.5
239.325	122.5
239.559	126.5
239.793	122.5
240.027	127.5
240.26	122.5
240.494	125.5
240.728	149.5
240.961	126.5
241.195	119.5
241.429	123.5
241.662	118.5
241.896	130.5
242.13	131.5
242.363	119.5
242.597	123.5
242.83	132.5
243.064	139.5
243.298	143.5
243.531	133.5
243.765	144.5
243.998	130.5
244.232	137.5
244.465	129.5
244.699	146.5
244.932	144.5
245.166	134.5
245.399	133.5
245.633	139.5
245.866	147.5
246.099	120.5
246.333	118.5
246.566	146.5
246.8	142.5
247.033	126.5
247.266	149.5
247.5	147.5
247.733	154.5
247.966	149.5
248.2	163.5
248.433	154.5
248.666	171.5
248.899	154.5
249.133	186.5
249.366	171.5
249.599	166.5
249.832	152.5
250.066	171.5
250.299	174.5
250.532	170.5
250.765	163.5
250.998	182.5
251.231	182.5
251.465	185.5
251.698	186.5
251.931	188.5
252.164	178.5
252.397	160.5
252.63	177.5
252.863	183.5
253.096	178.5
253.329	184.5
253.562	172.5
253.795	186.5
254.028	207.5
254.261	178.5
254.494	204.5
254.727	206.5
254.96	215.5
255.193	209.5
255.426	198.5
255.659	182.5
255.892	186.5
256.124	188.5
256.357	190.5
256.59	175.5
256.823	182.5
257.056	174.5
257.289	173.5
257.521	194.5
257.754	177.5
257.987	191.5
258.22	178.5
258.452	182.5
258.685	198.5
258.918	182.5
259.151	176.5
259.383	196.5
259.616	190.5
259.849	195.5
260.081	201.5
260.314	209.5
260.547	223.5
260.779	206.5
261.012	224.5
261.244	202.5
261.477	206.5
261.71	198.5
261.942	186.5
262.175	199.5
262.407	192.5
262.64	190.5
262.872	209.5
263.105	199.5
263.337	196.5
263.57	195.5
263.802	188.5
264.035	213.5
264.267	186.5
264.499	191.5
264.732	204.5
264.964	222.5
265.197	214.5
265.429	185.5
265.661	197.5
265.894	190.5
266.126	206.5
266.358	201.5
266.591	211.5
266.823	213.5
267.055	200.5
267.287	210.5
267.52	205.5
267.752	220.5
267.984	232.5
268.216	221.5
268.448	223.5
268.681	211.5
268.913	230.5
269.145	219.5
269.377	233.5
269.609	229.5
269.841	226.5
270.073	241.5
270.306	228.5
270.538	251.5
270.77	264.5
271.002	244.5
271.234	251.5
271.466	241.5
271.698	250.5
271.93	259.5
272.162	243.5
272.394	242.5
272.626	259.5
272.858	241.5
273.09	243.5
273.322	242.5
273.553	228.5
273.785	232.5
274.017	239.5
274.249	250.5
274.481	249.5
274.713	233.5
274.945	233.5
275.176	241.5
275.408	235.5
275.64	240.5
275.872	245.5
276.104	246.5
276.335	241.5
276.567	250.5
276.799	250.5
277.031	257.5
277.262	247.5
277.494	268.5
277.726	250.5
277.957	260.5
278.189	254.5
278.421	242.5
278.652	238.5
278.884	248.5
279.115	237.5
279.347	242.5
279.579	281.5
279.81	270.5
280.042	260.5
280.273	265.5
280.505	253.5
280.736	242.5
280.968	244.5
281.199	255.5
281.431	246.5
281.662	249.5
281.894	255.5
282.125	268.5
282.356	253.5
282.588	262.5
282.819	270.5
283.051	256.5
283.282	254.5
283.513	263.5
283.745	262.5
283.976	263.5
284.207	261.5
284.439	264.5
284.67	275.5
284.901	261.5
285.132	274.5
285.364	275.5
285.595	264.5
285.826	254.5
286.057	270.5
286.288	269.5
286.52	275.5
286.751	282.5
286.982	286.5
287.213	243.5
287.444	260.5
287.675	273.5
287.906	292.5
288.138	288.5
288.369	263.5
288.6	276.5
288.831	266.5
289.062	271.5
289.293	282.5
289.524	275.5
289.755	286.5
289.986	279.5
290.217	270.5
290.448	278.5
290.679	294.5
290.91	292.5
291.141	276.5
291.371	280.5
291.602	270.5
291.833	280.5
292.064	288.5
292.295	282.5
292.526	291.5
292.757	281.5
292.987	278.5
293.218	271.5
293.449	285.5
293.68	272.5
293.91	278.5
294.141	275.5
294.372	281.5
294.603	264.5
294.833	294.5
295.064	287.5
295.295	315.5
295.525	295.5
295.756	289.5
295.987	270.5
296.217	298.5
296.448	313.5
296.679	297.5
296.909	292.5
297.14	291.5
297.37	300.5
297.601	292.5
297.831	287.5
298.062	284.5
298.292	283.5
298.523	291.5
298.753	283.5
298.984	282.5
299.214	290.5
299.445	311.5
299.675	284.5
299.905	292.5
300.136	295.5
300.366	318.5
300.597	291.5
300.827	313.5
301.057	313.5
301.288	307.5
301.518	317.5
301.748	294.5
301.979	307.5
302.209	301.5
302.439	307.5
302.669	334.5
302.9	306.5
303.13	313.5
303.36	305.5
303.59	297.5
303.82	314.5
304.051	304.5
304.281	304.5
304.511	323.5
304.741	303.5
304.971	318.5
305.201	323.5
305.431	318.5
305.661	312.5
305.891	336.5
306.121	316.5
306.352	316.5
306.582	305.5
306.812	300.5
307.042	301.5
307.272	314.5
307.502	299.5
307.731	324.5
307.961	326.5
308.191	304.5
308.421	326.5
308.651	320.5
308.881	330.5
309.111	322.5
309.341	320.5
309.571	314.5
309.8	326.5
310.03	348.5
310.26	320.5
310.49	324.5
310.72	317.5
310.949	329.5
311.179	324.5
311.409	335.5
311.639	335.5
311.868	349.5
312.098	334.5
312.328	335.5
312.557	353.5
312.787	339.5
313.017	342.5
313.246	349.5
313.476	340.5
313.706	341.5
313.935	360.5
314.165	366.5
314.394	358.5
314.624	340.5
314.853	353.5
315.083	326.5
315.312	348.5
315.542	378.5
315.771	334.5
316.001	336.5
316.23	333.5
316.46	346.5
316.689	355.5
316.919	347.5
317.148	349.5
317.377	345.5
317.607	370.5
317.836	365.5
318.065	372.5
318.295	355.5
318.524	345.5
318.753	355.5
318.983	351.5
319.212	335.5
319.441	328.5
319.67	351.5
319.9	345.5
320.129	348.5
320.358	344.5
320.587	359.5
320.816	352.5
321.046	345.5
321.275	340.5
321.504	334.5
321.733	362.5
321.962	352.5
322.191	370.5
322.42	381.5
322.649	348.5
322.878	360.5
323.108	366.5
323.337	385.5
323.566	391.5
323.795	392.5
324.024	413.5
324.253	472.5
324.482	593.5
324.71	828.5
324.939	1112.5
325.168	1009.5
325.397	556.5
325.626	443.5
325.855	411.5
326.084	399.5
326.313	402.5
326.542	407.5
326.77	423.5
326.999	458.5
327.228	552.5
327.457	759.5
327.686	870.5
327.914	602.5
328.143	482.5
328.372	433.5
328.6	416.5
328.829	426.5
329.058	438.5
329.287	420.5
329.515	410.5
329.744	388.5
329.972	396.5
330.201	391.5
330.43	420.5
330.658	437.5
330.887	440.5
331.115	439.5
331.344	408.5
331.572	405.5
331.801	401.5
332.03	398.5
332.258	417.5
332.486	395.5
332.715	396.5
332.943	430.5
333.172	394.5
333.4	438.5
333.629	431.5
333.857	417.5
334.085	436.5
334.314	424.5
334.542	418.5
334.771	422.5
334.999	435.5
335.227	431.5
335.455	429.5
335.684	402.5
335.912	427.5
336.14	412.5
336.369	407.5
336.597	398.5
336.825	412.5
337.053	408.5
337.281	410.5
337.51	402.5
337.738	419.5
337.966	411.5
338.194	389.5
338.422	396.5
338.65	401.5
338.878	383.5
339.106	387.5
339.334	399.5
339.562	380.5
339.79	397.5
340.018	370.5
340.246	397.5
340.474	398.5
340.702	386.5
340.93	370.5
341.158	379.5
341.386	381.5
341.614	371.5
341.842	377.5
342.07	391.5
342.298	374.5
342.526	379.5
342.754	381.5
342.981	397.5
343.209	390.5
343.437	397.5
343.665	386.5
343.893	404.5
344.12	407.5
344.348	412.5
344.576	393.5
344.804	393.5
345.031	407.5
345.259	390.5
345.487	383.5
345.714	401.5
345.942	371.5
346.17	363.5
346.397	378.5
346.625	366.5
346.853	368.5
347.08	369.5
347.308	374.5
347.535	363.5
347.763	375.5
347.99	371.5
348.218	360.5
348.445	383.5
348.673	355.5
348.9	376.5
349.128	355.5
349.355	346.5
349.583	353.5
349.81	363.5
350.037	365.5
350.265	364.5
350.492	371.5
350.72	365.5
350.947	372.5
351.174	353.5
351.402	351.5
351.629	371.5
351.856	384.5
352.083	371.5
352.311	368.5
352.538	378.5
352.765	355.5
352.992	382.5
353.22	345.5
353.447	362.5
353.674	340.5
353.901	344.5
354.128	352.5
354.355	376.5
354.583	348.5
354.81	348.5
355.037	350.5
355.264	369.5
355.491	359.5
355.718	359.5
355.945	359.5
356.172	355.5
356.399	340.5
356.626	354.5
356.853	352.5
357.08	370.5
357.307	361.5
357.534	346.5
357.761	332.5
357.988	332.5
358.215	354.5
358.441	363.5
358.668	356.5
358.895	356.5
359.122	346.5
359.349	345.5
359.576	356.5
359.802	363.5
360.029	370.5
360.256	379.5
360.483	362.5
360.709	360.5
360.936	375.5
361.163	352.5
361.39	359.5
361.616	346.5
361.843	341.5
362.07	342.5
362.296	358.5
362.523	356.5
362.749	356.5
362.976	347.5
363.203	362.5
363.429	369.5
363.656	344.5
363.882	376.5
364.109	378.5
364.335	343.5
364.562	370.5
364.788	338.5
365.015	346.5
365.241	344.5
365.468	357.5
365.694	348.5
365.92	345.5
366.147	335.5
366.373	346.5
366.599	346.5
366.826	349.5
367.052	335.5
367.278	343.5
367.505	336.5
367.731	354.5
367.957	350.5
368.184	348.5
368.41	347.5
368.636	349.5
368.862	365.5
369.089	349.5
369.315	351.5
369.541	352.5
369.767	353.5
369.993	367.5
370.219	362.5
370.445	348.5
370.672	359.5
370.898	342.5
371.124	363.5
371.35	350.5
371.576	365.5
371.802	355.5
372.028	349.5
372.254	369.5
372.48	361.5
372.706	358.5
372.932	361.5
373.158	352.5
373.384	356.5
373.61	359.5
373.835	369.5
374.061	364.5
374.287	374.5
374.513	352.5
374.739	366.5
374.965	355.5
375.191	386.5
375.416	358.5
375.642	363.5
375.868	371.5
376.094	348.5
376.319	352.5
376.545	353.5
376.771	366.5
376.997	350.5
377.222	356.5
377.448	347.5
377.674	377.5
377.899	353.5
378.125	349.5
378.35	361.5
378.576	350.5
378.802	363.5
379.027	360.5
379.253	364.5
379.478	367.5
379.704	347.5
379.929	356.5
380.155	348.5
380.38	381.5
380.606	358.5
380.831	357.5
381.057	375.5
381.282	355.5
381.507	362.5
381.733	357.5
381.958	352.5
382.184	378.5
382.409	378.5
382.634	356.5
382.86	355.5
383.085	360.5
383.31	385.5
383.535	378.5
383.761	371.5
383.986	382.5
384.211	384.5
384.436	371.5
384.662	386.5
384.887	404.5
385.112	387.5
385.337	405.5
385.562	378.5
385.787	392.5
386.013	388.5
386.238	395.5
386.463	413.5
386.688	395.5
386.913	396.5
387.138	407.5
387.363	388.5
387.588	387.5
387.813	388.5
388.038	399.5
388.263	412.5
388.488	394.5
388.713	399.5
388.938	380.5
389.163	411.5
389.387	380.5
389.612	383.5
389.837	372.5
390.062	400.5
390.287	375.5
390.512	378.5
390.736	395.5
390.961	388.5
391.186	390.5
391.411	400.5
391.636	393.5
391.86	401.5
392.085	411.5
392.31	393.5
392.534	402.5
392.759	400.5
392.984	412.5
393.208	403.5
393.433	422.5
393.658	403.5
393.882	412.5
394.107	412.5
394.331	388.5
394.556	405.5
394.78	370.5
395.005	389.5
395.229	394.5
395.454	404.5
395.678	412.5
395.903	418.5
396.127	430.5
396.352	409.5
396.576	392.5
396.801	413.5
397.025	417.5
397.249	417.5
397.474	399.5
397.698	404.5
397.922	409.5
398.147	410.5
398.371	428.5
398.595	425.5
398.82	418.5
399.044	470.5
399.268	452.5
399.492	520.5
399.717	523.5
399.941	532.5
400.165	544.5
400.389	525.5
400.613	492.5
400.837	478.5
401.062	462.5
401.286	451.5
401.51	449.5
401.734	439.5
401.958	440.5
402.182	435.5
402.406	452.5
402.63	455.5
402.854	459.5
403.078	442.5
403.302	431.5
403.526	454.5
403.75	451.5
403.974	448.5
404.198	476.5
404.422	462.5
404.645	445.5
404.869	468.5
405.093	460.5
405.317	499.5
405.541	498.5
405.765	462.5
405.988	478.5
406.212	480.5
406.436	489.5
406.66	479.5
406.883	474.5
407.107	486.5
407.331	506.5
407.555	587.5
407.778	556.5
408.002	527.5
408.226	491.5
408.449	480.5
408.673	481.5
408.896	502.5
409.12	522.5
409.344	516.5
409.567	467.5
409.791	450.5
410.014	458.5
410.238	460.5
410.461	457.5
410.685	442.5
410.908	460.5
411.132	475.5
411.355	488.5
411.578	504.5
411.802	454.5
412.025	455.5
412.249	456.5
412.472	450.5
412.695	475.5
412.919	459.5
413.142	425.5
413.365	439.5
413.589	422.5
413.812	433.5
414.035	426.5
414.258	447.5
414.482	435.5
414.705	418.5
414.928	447.5
415.151	440.5
415.374	425.5
415.597	436.5
415.821	417.5
416.044	392.5
416.267	431.5
416.49	428.5
416.713	405.5
416.936	430.5
417.159	429.5
417.382	430.5
417.605	420.5
417.828	424.5
418.051	424.5
418.274	415.5
418.497	435.5
418.72	428.5
418.943	429.5
419.166	444.5
419.389	454.5
419.611	458.5
419.834	446.5
420.057	448.5
420.28	449.5
420.503	422.5
420.726	430.5
420.948	428.5
421.171	479.5
421.394	475.5
421.617	458.5
421.839	430.5
422.062	445.5
422.285	454.5
422.507	478.5
422.73	520.5
422.953	516.5
423.175	491.5
423.398	440.5
423.621	450.5
423.843	447.5
424.066	435.5
424.288	457.5
424.511	452.5
424.733	482.5
424.956	551.5
425.178	515.5
425.401	507.5
425.623	531.5
425.846	466.5
426.068	456.5
426.291	441.5
426.513	422.5
426.735	467.5
426.958	472.5
427.18	518.5
427.402	603.5
427.625	640.5
427.847	539.5
428.069	456.5
428.292	454.5
428.514	410.5
428.736	421.5
428.958	411.5
429.181	410.5
429.403	392.5
429.625	418.5
429.847	425.5
430.069	461.5
430.292	474.5
430.514	410.5
430.736	413.5
430.958	400.5
431.18	405.5
431.402	407.5
431.624	400.5
431.846	403.5
432.068	399.5
432.29	412.5
432.512	385.5
432.734	399.5
432.956	402.5
433.178	407.5
433.4	390.5
433.622	404.5
433.844	410.5
434.066	409.5
434.287	422.5
434.509	414.5
434.731	407.5
434.953	419.5
435.175	421.5
435.397	434.5
435.618	446.5
435.84	462.5
436.062	508.5
436.284	551.5
436.505	478.5
436.727	458.5
436.949	410.5
437.17	411.5
437.392	414.5
437.614	402.5
437.835	420.5
438.057	481.5
438.278	532.5
438.5	544.5
438.721	578.5
438.943	578.5
439.165	446.5
439.386	445.5
439.608	420.5
439.829	424.5
440.05	436.5
440.272	449.5
440.493	442.5
440.715	420.5
440.936	429.5
441.158	414.5
441.379	416.5
441.6	442.5
441.822	444.5
442.043	474.5
442.264	518.5
442.486	530.5
442.707	456.5
442.928	434.5
443.149	453.5
443.371	455.5
443.592	487.5
443.813	557.5
444.034	598.5
444.255	495.5
444.476	456.5
444.698	454.5
444.919	467.5
445.14	537.5
445.361	476.5
445.582	462.5
445.803	497.5
446.024	560.5
446.245	547.5
446.466	487.5
446.687	470.5
446.908	419.5
447.129	418.5
447.35	405.5
447.571	402.5
447.792	396.5
448.013	396.5
448.234	408.5
448.455	440.5
448.675	506.5
448.896	557.5
449.117	499.5
449.338	480.5
449.559	540.5
449.779	618.5
450	486.5
450.221	415.5
450.442	399.5
450.662	392.5
450.883	391.5
451.104	379.5
451.324	379.5
451.545	364.5
451.766	352.5
451.986	360.5
452.207	367.5
452.428	360.5
452.648	355.5
452.869	358.5
453.089	383.5
453.31	388.5
453.53	356.5
453.751	381.5
453.971	365.5
454.192	369.5
454.412	361.5
454.633	382.5
454.853	372.5
455.073	357.5
455.294	371.5
455.514	387.5
455.734	394.5
455.955	362.5
456.175	353.5
456.395	352.5
456.616	344.5
456.836	325.5
457.056	338.5
457.276	358.5
457.497	335.5
457.717	354.5
457.937	353.5
458.157	357.5
458.377	349.5
458.598	376.5
458.818	389.5
459.038	405.5
459.258	435.5
459.478	418.5
459.698	396.5
459.918	386.5
460.138	397.5
460.358	393.5
460.578	430.5
460.798	417.5
461.018	436.5
461.238	419.5
461.458	427.5
461.678	426.5
461.898	407.5
462.118	411.5
462.338	431.5
462.558	444.5
462.777	449.5
462.997	454.5
463.217	471.5
463.437	467.5
463.657	483.5
463.876	460.5
464.096	442.5
464.316	459.5
464.536	454.5
464.755	459.5
464.975	438.5
465.195	451.5
465.414	446.5
465.634	416.5
465.854	424.5
466.073	388.5
466.293	388.5
466.512	402.5
466.732	384.5
466.951	390.5
467.171	388.5
467.391	377.5
467.61	378.5
467.829	386.5
468.049	364.5
468.268	366.5
468.488	374.5
468.707	367.5
468.927	386.5
469.146	370.5
469.365	372.5
469.585	390.5
469.804	371.5
470.023	396.5
470.243	394.5
470.462	402.5
470.681	381.5
470.901	388.5
471.12	381.5
471.339	394.5
471.558	390.5
471.777	375.5
471.997	367.5
472.216	378.5
472.435	376.5
472.654	386.5
472.873	374.5
473.092	398.5
473.311	370.5
473.53	392.5
473.749	403.5
473.968	394.5
474.187	454.5
474.406	452.5
474.625	395.5
474.844	395.5
475.063	388.5
475.282	383.5
475.501	387.5
475.72	386.5
475.939	386.5
476.158	385.5
476.377	393.5
476.596	387.5
476.814	392.5
477.033	416.5
477.252	407.5
477.471	420.5
477.69	418.5
477.908	411.5
478.127	427.5
478.346	410.5
478.564	424.5
478.783	434.5
479.002	441.5
479.22	436.5
479.439	438.5
479.658	456.5
479.876	452.5
480.095	441.5
480.313	475.5
480.532	456.5
480.751	467.5
480.969	481.5
481.188	482.5
481.406	463.5
481.624	442.5
481.843	438.5
482.061	459.5
482.28	428.5
482.498	426.5
482.717	449.5
482.935	443.5
483.153	459.5
483.372	440.5
483.59	441.5
483.808	420.5
484.027	448.5
484.245	425.5
484.463	450.5
484.681	457.5
484.9	440.5
485.118	465.5
485.336	452.5
485.554	440.5
485.772	427.5
485.99	445.5
486.209	464.5
486.427	457.5
486.645	482.5
486.863	439.5
487.081	464.5
487.299	451.5
487.517	479.5
487.735	443.5
487.953	480.5
488.171	454.5
488.389	470.5
488.607	470.5
488.825	456.5
489.043	472.5
489.261	479.5
489.479	450.5
489.696	488.5
489.914	466.5
490.132	472.5
490.35	482.5
490.568	466.5
490.786	475.5
491.003	478.5
491.221	492.5
491.439	515.5
491.657	492.5
491.874	498.5
492.092	487.5
492.31	507.5
492.527	508.5
492.745	497.5
492.963	505.5
493.18	490.5
493.398	525.5
493.615	524.5
493.833	536.5
494.05	527.5
494.268	532.5
494.485	515.5
494.703	553.5
494.92	523.5
495.138	530.5
495.355	531.5
495.573	503.5
495.79	532.5
496.008	570.5
496.225	539.5
496.442	531.5
496.66	542.5
496.877	540.5
497.094	529.5
497.312	550.5
497.529	548.5
497.746	551.5
497.963	544.5
498.181	600.5
498.398	608.5
498.615	632.5
498.832	625.5
499.049	641.5
499.267	672.5
499.484	690.5
499.701	734.5
499.918	776.5
500.135	819.5
500.352	880.5
500.569	882.5
500.786	888.5
501.003	856.5
501.22	819.5
501.437	765.5
501.654	735.5
501.871	734.5
502.088	690.5
502.305	646.5
502.522	622.5
502.739	615.5
502.956	607.5
503.172	593.5
503.389	588.5
503.606	578.5
503.823	551.5
504.04	550.5
504.256	559.5
504.473	549.5
504.69	571.5
504.907	558.5
505.123	529.5
505.34	520.5
505.557	538.5
505.773	506.5
505.99	507.5
506.207	519.5
506.423	490.5
506.64	494.5
506.856	496.5
507.073	488.5
507.289	516.5
507.506	504.5
507.722	475.5
507.939	492.5
508.155	459.5
508.372	455.5
508.588	462.5
508.805	449.5
509.021	483.5
509.238	468.5
509.454	461.5
509.67	480.5
509.887	467.5
510.103	458.5
510.319	468.5
510.536	481.5
510.752	623.5
510.968	570.5
511.184	462.5
511.401	447.5
511.617	450.5
511.833	450.5
512.049	442.5
512.265	455.5
512.481	444.5
512.698	434.5
512.914	433.5
513.13	423.5
513.346	450.5
513.562	440.5
513.778	461.5
513.994	446.5
514.21	452.5
514.426	475.5
514.642	459.5
514.858	475.5
515.074	479.5
515.29	495.5
515.506	578.5
515.721	528.5
515.937	472.5
516.153	477.5
516.369	450.5
516.585	445.5
516.801	468.5
517.016	487.5
517.232	486.5
517.448	492.5
517.664	481.5
517.879	464.5
518.095	491.5
518.311	504.5
518.527	482.5
518.742	470.5
518.958	459.5
519.173	471.5
519.389	470.5
519.605	482.5
519.82	452.5
520.036	466.5
