Data from 1977.PennyLincolnUp.Lamp.En5.5.200Scan.071719.P1_HRD10591_16-07-26-864.txt Node
Date: Thu Jul 18 16:07:26 EDT 2019
User: cochatt
Spectrometer: HR+D1059
Trigger mode: 1
Integration Time (sec): 1.000000E-1
Scans to average: 1
Electric dark correction enabled: true
Nonlinearity correction enabled: false
Boxcar width: 0
XAxis mode: Wavelengths
Number of Pixels in Spectrum: 2048
>>>>>Begin Spectral Data<<<<<
223.165	-12.5
223.4	-12.5
223.635	-12.5
223.869	-22.5
224.104	-2.5
224.338	-4.5
224.573	-33.5
224.808	-11.5
225.042	-18.5
225.277	-11.5
225.511	-13.5
225.746	3.5
225.98	16.5
226.215	17.5
226.449	23.5
226.683	26.5
226.918	21.5
227.152	21.5
227.387	32.5
227.621	35.5
227.856	39.5
228.09	36.5
228.324	36.5
228.559	47.5
228.793	67.5
229.027	67.5
229.262	86.5
229.496	92.5
229.73	115.5
229.964	138.5
230.199	103.5
230.433	102.5
230.667	121.5
230.901	116.5
231.136	113.5
231.37	104.5
231.604	122.5
231.838	103.5
232.072	118.5
232.306	106.5
232.541	108.5
232.775	109.5
233.009	107.5
233.243	93.5
233.477	115.5
233.711	99.5
233.945	119.5
234.179	113.5
234.413	127.5
234.647	127.5
234.881	123.5
235.115	119.5
235.349	107.5
235.583	118.5
235.817	128.5
236.051	123.5
236.285	125.5
236.519	122.5
236.753	128.5
236.987	144.5
237.221	169.5
237.455	191.5
237.689	177.5
237.922	118.5
238.156	125.5
238.39	129.5
238.624	122.5
238.858	123.5
239.091	108.5
239.325	119.5
239.559	122.5
239.793	115.5
240.027	134.5
240.26	138.5
240.494	153.5
240.728	155.5
240.961	144.5
241.195	147.5
241.429	139.5
241.662	145.5
241.896	141.5
242.13	121.5
242.363	129.5
242.597	106.5
242.83	124.5
243.064	125.5
243.298	132.5
243.531	135.5
243.765	133.5
243.998	153.5
244.232	144.5
244.465	132.5
244.699	145.5
244.932	144.5
245.166	141.5
245.399	153.5
245.633	131.5
245.866	157.5
246.099	147.5
246.333	140.5
246.566	139.5
246.8	151.5
247.033	147.5
247.266	152.5
247.5	167.5
247.733	171.5
247.966	159.5
248.2	177.5
248.433	173.5
248.666	180.5
248.899	183.5
249.133	205.5
249.366	208.5
249.599	182.5
249.832	168.5
250.066	180.5
250.299	171.5
250.532	198.5
250.765	207.5
250.998	200.5
251.231	222.5
251.465	225.5
251.698	204.5
251.931	216.5
252.164	180.5
252.397	187.5
252.63	207.5
252.863	203.5
253.096	221.5
253.329	228.5
253.562	225.5
253.795	205.5
254.028	203.5
254.261	218.5
254.494	209.5
254.727	230.5
254.96	262.5
255.193	251.5
255.426	234.5
255.659	228.5
255.892	218.5
256.124	232.5
256.357	210.5
256.59	213.5
256.823	191.5
257.056	216.5
257.289	204.5
257.521	201.5
257.754	217.5
257.987	215.5
258.22	205.5
258.452	215.5
258.685	202.5
258.918	209.5
259.151	195.5
259.383	219.5
259.616	243.5
259.849	222.5
260.081	224.5
260.314	235.5
260.547	240.5
260.779	252.5
261.012	231.5
261.244	227.5
261.477	243.5
261.71	219.5
261.942	225.5
262.175	225.5
262.407	216.5
262.64	199.5
262.872	217.5
263.105	226.5
263.337	213.5
263.57	209.5
263.802	217.5
264.035	203.5
264.267	217.5
264.499	204.5
264.732	208.5
264.964	232.5
265.197	205.5
265.429	211.5
265.661	229.5
265.894	220.5
266.126	237.5
266.358	221.5
266.591	222.5
266.823	237.5
267.055	248.5
267.287	229.5
267.52	238.5
267.752	228.5
267.984	228.5
268.216	226.5
268.448	236.5
268.681	236.5
268.913	265.5
269.145	272.5
269.377	285.5
269.609	262.5
269.841	275.5
270.073	259.5
270.306	290.5
270.538	322.5
270.77	298.5
271.002	314.5
271.234	292.5
271.466	298.5
271.698	298.5
271.93	325.5
272.162	296.5
272.394	305.5
272.626	305.5
272.858	305.5
273.09	281.5
273.322	270.5
273.553	267.5
273.785	273.5
274.017	279.5
274.249	276.5
274.481	273.5
274.713	267.5
274.945	288.5
275.176	281.5
275.408	283.5
275.64	264.5
275.872	291.5
276.104	275.5
276.335	283.5
276.567	268.5
276.799	287.5
277.031	305.5
277.262	313.5
277.494	310.5
277.726	300.5
277.957	305.5
278.189	293.5
278.421	278.5
278.652	270.5
278.884	296.5
279.115	299.5
279.347	292.5
279.579	273.5
279.81	289.5
280.042	275.5
280.273	270.5
280.505	274.5
280.736	278.5
280.968	279.5
281.199	297.5
281.431	281.5
281.662	284.5
281.894	275.5
282.125	277.5
282.356	300.5
282.588	311.5
282.819	315.5
283.051	290.5
283.282	302.5
283.513	286.5
283.745	280.5
283.976	281.5
284.207	309.5
284.439	307.5
284.67	289.5
284.901	317.5
285.132	294.5
285.364	291.5
285.595	294.5
285.826	299.5
286.057	304.5
286.288	291.5
286.52	298.5
286.751	308.5
286.982	303.5
287.213	291.5
287.444	291.5
287.675	324.5
287.906	314.5
288.138	308.5
288.369	308.5
288.6	327.5
288.831	315.5
289.062	323.5
289.293	339.5
289.524	323.5
289.755	298.5
289.986	316.5
290.217	303.5
290.448	307.5
290.679	333.5
290.91	323.5
291.141	310.5
291.371	307.5
291.602	308.5
291.833	316.5
292.064	322.5
292.295	318.5
292.526	301.5
292.757	327.5
292.987	314.5
293.218	292.5
293.449	310.5
293.68	308.5
293.91	312.5
294.141	311.5
294.372	316.5
294.603	309.5
294.833	327.5
295.064	292.5
295.295	303.5
295.525	307.5
295.756	331.5
295.987	347.5
296.217	341.5
296.448	322.5
296.679	327.5
296.909	315.5
297.14	315.5
297.37	330.5
297.601	321.5
297.831	335.5
298.062	340.5
298.292	336.5
298.523	319.5
298.753	340.5
298.984	332.5
299.214	334.5
299.445	327.5
299.675	331.5
299.905	325.5
300.136	334.5
300.366	338.5
300.597	329.5
300.827	355.5
301.057	339.5
301.288	359.5
301.518	341.5
301.748	328.5
301.979	337.5
302.209	353.5
302.439	354.5
302.669	372.5
302.9	348.5
303.13	344.5
303.36	349.5
303.59	367.5
303.82	356.5
304.051	373.5
304.281	375.5
304.511	341.5
304.741	354.5
304.971	363.5
305.201	362.5
305.431	348.5
305.661	352.5
305.891	359.5
306.121	359.5
306.352	368.5
306.582	343.5
306.812	330.5
307.042	327.5
307.272	364.5
307.502	336.5
307.731	364.5
307.961	346.5
308.191	364.5
308.421	370.5
308.651	364.5
308.881	359.5
309.111	373.5
309.341	367.5
309.571	363.5
309.8	386.5
310.03	383.5
310.26	382.5
310.49	400.5
310.72	383.5
310.949	367.5
311.179	403.5
311.409	387.5
311.639	392.5
311.868	393.5
312.098	384.5
312.328	386.5
312.557	399.5
312.787	403.5
313.017	391.5
313.246	412.5
313.476	397.5
313.706	390.5
313.935	395.5
314.165	389.5
314.394	427.5
314.624	422.5
314.853	403.5
315.083	405.5
315.312	397.5
315.542	399.5
315.771	379.5
316.001	384.5
316.23	380.5
316.46	397.5
316.689	396.5
316.919	393.5
317.148	393.5
317.377	411.5
317.607	384.5
317.836	397.5
318.065	396.5
318.295	389.5
318.524	391.5
318.753	402.5
318.983	406.5
319.212	387.5
319.441	393.5
319.67	409.5
319.9	409.5
320.129	402.5
320.358	392.5
320.587	428.5
320.816	395.5
321.046	406.5
321.275	400.5
321.504	408.5
321.733	431.5
321.962	399.5
322.191	422.5
322.42	421.5
322.649	436.5
322.878	447.5
323.108	447.5
323.337	466.5
323.566	492.5
323.795	513.5
324.024	559.5
324.253	622.5
324.482	876.5
324.71	1317.5
324.939	1820.5
325.168	1531.5
325.397	834.5
325.626	603.5
325.855	541.5
326.084	483.5
326.313	525.5
326.542	479.5
326.77	531.5
326.999	588.5
327.228	811.5
327.457	1118.5
327.686	1376.5
327.914	905.5
328.143	661.5
328.372	565.5
328.6	550.5
328.829	518.5
329.058	546.5
329.287	571.5
329.515	551.5
329.744	501.5
329.972	507.5
330.201	525.5
330.43	550.5
330.658	555.5
330.887	561.5
331.115	544.5
331.344	505.5
331.572	503.5
331.801	479.5
332.03	467.5
332.258	508.5
332.486	467.5
332.715	463.5
332.943	471.5
333.172	461.5
333.4	483.5
333.629	484.5
333.857	497.5
334.085	543.5
334.314	523.5
334.542	512.5
334.771	539.5
334.999	502.5
335.227	476.5
335.455	496.5
335.684	474.5
335.912	481.5
336.14	481.5
336.369	456.5
336.597	468.5
336.825	477.5
337.053	470.5
337.281	461.5
337.51	453.5
337.738	464.5
337.966	455.5
338.194	460.5
338.422	444.5
338.65	435.5
338.878	441.5
339.106	433.5
339.334	453.5
339.562	467.5
339.79	453.5
340.018	459.5
340.246	465.5
340.474	444.5
340.702	440.5
340.93	440.5
341.158	448.5
341.386	449.5
341.614	442.5
341.842	437.5
342.07	441.5
342.298	431.5
342.526	416.5
342.754	411.5
342.981	438.5
343.209	441.5
343.437	448.5
343.665	444.5
343.893	450.5
344.12	456.5
344.348	450.5
344.576	449.5
344.804	452.5
345.031	451.5
345.259	453.5
345.487	463.5
345.714	453.5
345.942	432.5
346.17	430.5
346.397	401.5
346.625	427.5
346.853	412.5
347.08	427.5
347.308	426.5
347.535	433.5
347.763	419.5
347.99	417.5
348.218	415.5
348.445	411.5
348.673	417.5
348.9	431.5
349.128	407.5
349.355	411.5
349.583	401.5
349.81	396.5
350.037	408.5
350.265	417.5
350.492	405.5
350.72	403.5
350.947	411.5
351.174	410.5
351.402	424.5
351.629	419.5
351.856	415.5
352.083	407.5
352.311	433.5
352.538	433.5
352.765	411.5
352.992	413.5
353.22	424.5
353.447	412.5
353.674	405.5
353.901	410.5
354.128	396.5
354.355	391.5
354.583	400.5
354.81	388.5
355.037	393.5
355.264	392.5
355.491	391.5
355.718	387.5
355.945	384.5
356.172	407.5
356.399	409.5
356.626	421.5
356.853	395.5
357.08	378.5
357.307	382.5
357.534	397.5
357.761	378.5
357.988	392.5
358.215	365.5
358.441	389.5
358.668	405.5
358.895	401.5
359.122	387.5
359.349	418.5
359.576	403.5
359.802	409.5
360.029	453.5
360.256	435.5
360.483	443.5
360.709	424.5
360.936	433.5
361.163	403.5
361.39	396.5
361.616	393.5
361.843	403.5
362.07	391.5
362.296	419.5
362.523	401.5
362.749	383.5
362.976	398.5
363.203	408.5
363.429	375.5
363.656	396.5
363.882	394.5
364.109	385.5
364.335	395.5
364.562	382.5
364.788	401.5
365.015	410.5
365.241	392.5
365.468	397.5
365.694	416.5
365.92	397.5
366.147	399.5
366.373	400.5
366.599	383.5
366.826	389.5
367.052	389.5
367.278	404.5
367.505	387.5
367.731	401.5
367.957	396.5
368.184	395.5
368.41	389.5
368.636	385.5
368.862	387.5
369.089	384.5
369.315	400.5
369.541	404.5
369.767	389.5
369.993	381.5
370.219	377.5
370.445	407.5
370.672	394.5
370.898	414.5
371.124	387.5
371.35	391.5
371.576	397.5
371.802	392.5
372.028	391.5
372.254	388.5
372.48	394.5
372.706	390.5
372.932	389.5
373.158	392.5
373.384	394.5
373.61	396.5
373.835	418.5
374.061	400.5
374.287	387.5
374.513	405.5
374.739	398.5
374.965	409.5
375.191	401.5
375.416	410.5
375.642	396.5
375.868	385.5
376.094	377.5
376.319	398.5
376.545	393.5
376.771	405.5
376.997	395.5
377.222	379.5
377.448	376.5
377.674	381.5
377.899	391.5
378.125	380.5
378.35	397.5
378.576	412.5
378.802	386.5
379.027	382.5
379.253	386.5
379.478	386.5
379.704	390.5
379.929	392.5
380.155	367.5
380.38	385.5
380.606	395.5
380.831	396.5
381.057	396.5
381.282	393.5
381.507	389.5
381.733	379.5
381.958	396.5
382.184	425.5
382.409	391.5
382.634	394.5
382.86	409.5
383.085	409.5
383.31	410.5
383.535	406.5
383.761	418.5
383.986	397.5
384.211	417.5
384.436	420.5
384.662	399.5
384.887	427.5
385.112	410.5
385.337	420.5
385.562	440.5
385.787	443.5
386.013	457.5
386.238	441.5
386.463	416.5
386.688	433.5
386.913	415.5
387.138	418.5
387.363	435.5
387.588	398.5
387.813	420.5
388.038	407.5
388.263	440.5
388.488	443.5
388.713	435.5
388.938	430.5
389.163	427.5
389.387	436.5
389.612	427.5
389.837	425.5
390.062	423.5
390.287	443.5
390.512	434.5
390.736	439.5
390.961	434.5
391.186	435.5
391.411	430.5
391.636	447.5
391.86	445.5
392.085	451.5
392.31	447.5
392.534	438.5
392.759	459.5
392.984	430.5
393.208	424.5
393.433	443.5
393.658	443.5
393.882	417.5
394.107	444.5
394.331	410.5
394.556	439.5
394.78	450.5
395.005	454.5
395.229	440.5
395.454	446.5
395.678	433.5
395.903	451.5
396.127	471.5
396.352	470.5
396.576	471.5
396.801	433.5
397.025	439.5
397.249	468.5
397.474	451.5
397.698	474.5
397.922	465.5
398.147	474.5
398.371	473.5
398.595	479.5
398.82	479.5
399.044	489.5
399.268	523.5
399.492	547.5
399.717	575.5
399.941	576.5
400.165	617.5
400.389	593.5
400.613	552.5
400.837	523.5
401.062	508.5
401.286	483.5
401.51	499.5
401.734	503.5
401.958	507.5
402.182	489.5
402.406	514.5
402.63	515.5
402.854	497.5
403.078	518.5
403.302	499.5
403.526	502.5
403.75	522.5
403.974	504.5
404.198	521.5
404.422	498.5
404.645	518.5
404.869	512.5
405.093	546.5
405.317	562.5
405.541	595.5
405.765	537.5
405.988	542.5
406.212	531.5
406.436	526.5
406.66	549.5
406.883	546.5
407.107	568.5
407.331	593.5
407.555	643.5
407.778	641.5
408.002	599.5
408.226	554.5
408.449	559.5
408.673	536.5
408.896	559.5
409.12	585.5
409.344	577.5
409.567	540.5
409.791	508.5
410.014	508.5
410.238	509.5
410.461	500.5
410.685	499.5
410.908	493.5
411.132	530.5
411.355	552.5
411.578	543.5
411.802	525.5
412.025	506.5
412.249	502.5
412.472	549.5
412.695	559.5
412.919	552.5
413.142	515.5
413.365	495.5
413.589	492.5
413.812	485.5
414.035	456.5
414.258	473.5
414.482	476.5
414.705	463.5
414.928	488.5
415.151	452.5
415.374	452.5
415.597	468.5
415.821	456.5
416.044	448.5
416.267	458.5
416.49	454.5
416.713	454.5
416.936	456.5
417.159	464.5
417.382	481.5
417.605	469.5
417.828	486.5
418.051	483.5
418.274	489.5
418.497	479.5
418.72	484.5
418.943	468.5
419.166	498.5
419.389	480.5
419.611	499.5
419.834	507.5
420.057	504.5
420.28	492.5
420.503	474.5
420.726	483.5
420.948	485.5
421.171	523.5
421.394	566.5
421.617	505.5
421.839	474.5
422.062	489.5
422.285	527.5
422.507	556.5
422.73	606.5
422.953	589.5
423.175	511.5
423.398	533.5
423.621	507.5
423.843	513.5
424.066	518.5
424.288	529.5
424.511	540.5
424.733	603.5
424.956	640.5
425.178	601.5
425.401	599.5
425.623	632.5
425.846	566.5
426.068	538.5
426.291	488.5
426.513	492.5
426.735	524.5
426.958	569.5
427.18	634.5
427.402	715.5
427.625	796.5
427.847	682.5
428.069	575.5
428.292	550.5
428.514	501.5
428.736	508.5
428.958	475.5
429.181	476.5
429.403	470.5
429.625	476.5
429.847	517.5
430.069	548.5
430.292	538.5
430.514	476.5
430.736	451.5
430.958	467.5
431.18	448.5
431.402	429.5
431.624	411.5
431.846	441.5
432.068	452.5
432.29	453.5
432.512	447.5
432.734	461.5
432.956	454.5
433.178	457.5
433.4	474.5
433.622	463.5
433.844	436.5
434.066	450.5
434.287	447.5
434.509	459.5
434.731	463.5
434.953	481.5
435.175	474.5
435.397	492.5
435.618	517.5
435.84	554.5
436.062	627.5
436.284	643.5
436.505	560.5
436.727	517.5
436.949	478.5
437.17	483.5
437.392	465.5
437.614	473.5
437.835	514.5
438.057	575.5
438.278	661.5
438.5	661.5
438.721	729.5
438.943	692.5
439.165	551.5
439.386	541.5
439.608	501.5
439.829	501.5
440.05	525.5
440.272	549.5
440.493	530.5
440.715	500.5
440.936	478.5
441.158	482.5
441.379	458.5
441.6	483.5
441.822	515.5
442.043	543.5
442.264	605.5
442.486	639.5
442.707	567.5
442.928	489.5
443.149	533.5
443.371	547.5
443.592	578.5
443.813	646.5
444.034	708.5
444.255	577.5
444.476	551.5
444.698	515.5
444.919	518.5
445.14	620.5
445.361	564.5
445.582	537.5
445.803	578.5
446.024	680.5
446.245	682.5
446.466	643.5
446.687	533.5
446.908	538.5
447.129	466.5
447.35	457.5
447.571	471.5
447.792	455.5
448.013	475.5
448.234	482.5
448.455	524.5
448.675	615.5
448.896	704.5
449.117	626.5
449.338	567.5
449.559	676.5
449.779	733.5
450	612.5
450.221	531.5
450.442	471.5
450.662	439.5
450.883	445.5
451.104	466.5
451.324	437.5
451.545	411.5
451.766	431.5
451.986	404.5
452.207	405.5
452.428	407.5
452.648	410.5
452.869	419.5
453.089	426.5
453.31	415.5
453.53	394.5
453.751	421.5
453.971	401.5
454.192	407.5
454.412	413.5
454.633	413.5
454.853	416.5
455.073	395.5
455.294	431.5
455.514	491.5
455.734	467.5
455.955	410.5
456.175	407.5
456.395	394.5
456.616	373.5
456.836	381.5
457.056	401.5
457.276	379.5
457.497	401.5
457.717	407.5
457.937	394.5
458.157	398.5
458.377	413.5
458.598	398.5
458.818	463.5
459.038	524.5
459.258	539.5
459.478	462.5
459.698	457.5
459.918	436.5
460.138	449.5
460.358	453.5
460.578	455.5
460.798	451.5
461.018	456.5
461.238	461.5
461.458	460.5
461.678	441.5
461.898	474.5
462.118	484.5
462.338	471.5
462.558	464.5
462.777	483.5
462.997	522.5
463.217	509.5
463.437	535.5
463.657	501.5
463.876	507.5
464.096	488.5
464.316	476.5
464.536	513.5
464.755	502.5
464.975	477.5
465.195	497.5
465.414	537.5
465.634	487.5
465.854	440.5
466.073	450.5
466.293	425.5
466.512	438.5
466.732	409.5
466.951	391.5
467.171	413.5
467.391	410.5
467.61	437.5
467.829	443.5
468.049	435.5
468.268	414.5
468.488	442.5
468.707	419.5
468.927	427.5
469.146	416.5
469.365	423.5
469.585	418.5
469.804	428.5
470.023	436.5
470.243	429.5
470.462	454.5
470.681	448.5
470.901	453.5
471.12	448.5
471.339	429.5
471.558	403.5
471.777	439.5
471.997	417.5
472.216	428.5
472.435	447.5
472.654	456.5
472.873	426.5
473.092	416.5
473.311	425.5
473.53	423.5
473.749	429.5
473.968	443.5
474.187	528.5
474.406	561.5
474.625	469.5
474.844	443.5
475.063	457.5
475.282	419.5
475.501	420.5
475.72	437.5
475.939	436.5
476.158	425.5
476.377	419.5
476.596	427.5
476.814	431.5
477.033	436.5
477.252	425.5
477.471	441.5
477.69	457.5
477.908	475.5
478.127	468.5
478.346	464.5
478.564	502.5
478.783	481.5
479.002	500.5
479.22	490.5
479.439	497.5
479.658	492.5
479.876	522.5
480.095	531.5
480.313	527.5
480.532	526.5
480.751	521.5
480.969	525.5
481.188	556.5
481.406	566.5
481.624	542.5
481.843	528.5
482.061	486.5
482.28	501.5
482.498	488.5
482.717	479.5
482.935	479.5
483.153	488.5
483.372	496.5
483.59	482.5
483.808	480.5
484.027	487.5
484.245	492.5
484.463	493.5
484.681	525.5
484.9	482.5
485.118	512.5
485.336	517.5
485.554	528.5
485.772	489.5
485.99	511.5
486.209	498.5
486.427	512.5
486.645	525.5
486.863	531.5
487.081	524.5
487.299	544.5
487.517	493.5
487.735	522.5
487.953	521.5
488.171	513.5
488.389	522.5
488.607	521.5
488.825	523.5
489.043	512.5
489.261	537.5
489.479	539.5
489.696	528.5
489.914	531.5
490.132	555.5
490.35	546.5
490.568	537.5
490.786	539.5
491.003	546.5
491.221	563.5
491.439	553.5
491.657	583.5
491.874	572.5
492.092	583.5
492.31	576.5
492.527	572.5
492.745	593.5
492.963	589.5
493.18	591.5
493.398	596.5
493.615	608.5
493.833	611.5
494.05	600.5
494.268	595.5
494.485	617.5
494.703	621.5
494.92	619.5
495.138	604.5
495.355	623.5
495.573	609.5
495.79	631.5
496.008	619.5
496.225	599.5
496.442	647.5
496.66	641.5
496.877	625.5
497.094	601.5
497.312	624.5
497.529	639.5
497.746	671.5
497.963	644.5
498.181	664.5
498.398	691.5
498.615	715.5
498.832	720.5
499.049	701.5
499.267	776.5
499.484	793.5
499.701	787.5
499.918	858.5
500.135	893.5
500.352	935.5
500.569	939.5
500.786	963.5
501.003	973.5
501.22	893.5
501.437	880.5
501.654	843.5
501.871	791.5
502.088	776.5
502.305	751.5
502.522	716.5
502.739	715.5
502.956	683.5
503.172	655.5
503.389	677.5
503.606	650.5
503.823	640.5
504.04	650.5
504.256	638.5
504.473	641.5
504.69	625.5
504.907	644.5
505.123	597.5
505.34	591.5
505.557	597.5
505.773	599.5
505.99	595.5
506.207	620.5
506.423	572.5
506.64	582.5
506.856	576.5
507.073	563.5
507.289	555.5
507.506	559.5
507.722	539.5
507.939	557.5
508.155	568.5
508.372	553.5
508.588	555.5
508.805	547.5
509.021	535.5
509.238	564.5
509.454	566.5
509.67	528.5
509.887	559.5
510.103	531.5
510.319	548.5
510.536	607.5
510.752	896.5
510.968	711.5
511.184	543.5
511.401	532.5
511.617	526.5
511.833	522.5
512.049	504.5
512.265	520.5
512.481	503.5
512.698	512.5
512.914	523.5
513.13	496.5
513.346	491.5
513.562	526.5
513.778	501.5
513.994	490.5
514.21	539.5
514.426	547.5
514.642	587.5
514.858	573.5
515.074	595.5
515.29	691.5
515.506	905.5
515.721	737.5
515.937	581.5
516.153	565.5
516.369	543.5
516.585	545.5
516.801	541.5
517.016	555.5
517.232	552.5
517.448	543.5
517.664	565.5
517.879	569.5
518.095	557.5
518.311	552.5
518.527	559.5
518.742	530.5
518.958	527.5
519.173	544.5
519.389	530.5
519.605	519.5
519.82	520.5
