Data from 1977.PennyLincolnUp.Lamp.En5.5.200Scan.071719.P1_HRD10591_16-05-34-863.txt Node
Date: Thu Jul 18 16:05:34 EDT 2019
User: cochatt
Spectrometer: HR+D1059
Trigger mode: 1
Integration Time (sec): 1.000000E-1
Scans to average: 1
Electric dark correction enabled: true
Nonlinearity correction enabled: false
Boxcar width: 0
XAxis mode: Wavelengths
Number of Pixels in Spectrum: 2048
>>>>>Begin Spectral Data<<<<<
223.165	-26.75
223.4	-26.75
223.635	-26.75
223.869	-22.75
224.104	-2.75
224.338	-3.75
224.573	-6.75
224.808	-6.75
225.042	-12.75
225.277	8.25
225.511	-3.75
225.746	6.25
225.98	-0.75
226.215	19.25
226.449	5.25
226.683	19.25
226.918	8.25
227.152	20.25
227.387	21.25
227.621	28.25
227.856	28.25
228.09	43.25
228.324	49.25
228.559	41.25
228.793	61.25
229.027	73.25
229.262	100.25
229.496	102.25
229.73	100.25
229.964	116.25
230.199	98.25
230.433	102.25
230.667	114.25
230.901	102.25
231.136	102.25
231.37	112.25
231.604	104.25
231.838	106.25
232.072	99.25
232.306	104.25
232.541	96.25
232.775	106.25
233.009	107.25
233.243	113.25
233.477	108.25
233.711	102.25
233.945	105.25
234.179	113.25
234.413	100.25
234.647	108.25
234.881	102.25
235.115	124.25
235.349	115.25
235.583	107.25
235.817	96.25
236.051	125.25
236.285	133.25
236.519	113.25
236.753	119.25
236.987	131.25
237.221	132.25
237.455	170.25
237.689	163.25
237.922	125.25
238.156	132.25
238.39	124.25
238.624	123.25
238.858	120.25
239.091	108.25
239.325	102.25
239.559	113.25
239.793	119.25
240.027	117.25
240.26	125.25
240.494	146.25
240.728	128.25
240.961	142.25
241.195	126.25
241.429	141.25
241.662	133.25
241.896	136.25
242.13	124.25
242.363	121.25
242.597	127.25
242.83	123.25
243.064	143.25
243.298	140.25
243.531	129.25
243.765	118.25
243.998	137.25
244.232	135.25
244.465	128.25
244.699	129.25
244.932	150.25
245.166	128.25
245.399	147.25
245.633	147.25
245.866	136.25
246.099	135.25
246.333	138.25
246.566	147.25
246.8	154.25
247.033	147.25
247.266	139.25
247.5	150.25
247.733	145.25
247.966	158.25
248.2	151.25
248.433	161.25
248.666	156.25
248.899	166.25
249.133	165.25
249.366	187.25
249.599	168.25
249.832	160.25
250.066	181.25
250.299	176.25
250.532	187.25
250.765	187.25
250.998	188.25
251.231	184.25
251.465	195.25
251.698	181.25
251.931	175.25
252.164	180.25
252.397	189.25
252.63	168.25
252.863	192.25
253.096	203.25
253.329	212.25
253.562	191.25
253.795	209.25
254.028	181.25
254.261	201.25
254.494	204.25
254.727	223.25
254.96	219.25
255.193	242.25
255.426	219.25
255.659	193.25
255.892	210.25
256.124	220.25
256.357	195.25
256.59	222.25
256.823	189.25
257.056	195.25
257.289	184.25
257.521	209.25
257.754	191.25
257.987	210.25
258.22	195.25
258.452	199.25
258.685	189.25
258.918	204.25
259.151	212.25
259.383	200.25
259.616	215.25
259.849	192.25
260.081	209.25
260.314	214.25
260.547	218.25
260.779	210.25
261.012	211.25
261.244	200.25
261.477	221.25
261.71	199.25
261.942	203.25
262.175	220.25
262.407	189.25
262.64	195.25
262.872	216.25
263.105	206.25
263.337	217.25
263.57	212.25
263.802	208.25
264.035	196.25
264.267	200.25
264.499	202.25
264.732	212.25
264.964	203.25
265.197	215.25
265.429	210.25
265.661	207.25
265.894	207.25
266.126	203.25
266.358	226.25
266.591	223.25
266.823	209.25
267.055	215.25
267.287	211.25
267.52	223.25
267.752	228.25
267.984	232.25
268.216	229.25
268.448	226.25
268.681	224.25
268.913	232.25
269.145	249.25
269.377	259.25
269.609	242.25
269.841	259.25
270.073	235.25
270.306	281.25
270.538	259.25
270.77	281.25
271.002	273.25
271.234	257.25
271.466	271.25
271.698	270.25
271.93	282.25
272.162	281.25
272.394	284.25
272.626	273.25
272.858	277.25
273.09	260.25
273.322	251.25
273.553	259.25
273.785	268.25
274.017	266.25
274.249	249.25
274.481	224.25
274.713	236.25
274.945	248.25
275.176	256.25
275.408	251.25
275.64	243.25
275.872	241.25
276.104	244.25
276.335	260.25
276.567	240.25
276.799	245.25
277.031	278.25
277.262	295.25
277.494	291.25
277.726	286.25
277.957	281.25
278.189	275.25
278.421	277.25
278.652	252.25
278.884	264.25
279.115	234.25
279.347	253.25
279.579	268.25
279.81	273.25
280.042	275.25
280.273	267.25
280.505	255.25
280.736	275.25
280.968	266.25
281.199	259.25
281.431	263.25
281.662	261.25
281.894	279.25
282.125	278.25
282.356	288.25
282.588	288.25
282.819	279.25
283.051	283.25
283.282	276.25
283.513	263.25
283.745	263.25
283.976	253.25
284.207	274.25
284.439	268.25
284.67	279.25
284.901	264.25
285.132	291.25
285.364	283.25
285.595	280.25
285.826	275.25
286.057	283.25
286.288	275.25
286.52	280.25
286.751	282.25
286.982	277.25
287.213	293.25
287.444	288.25
287.675	287.25
287.906	289.25
288.138	307.25
288.369	305.25
288.6	307.25
288.831	306.25
289.062	307.25
289.293	299.25
289.524	297.25
289.755	286.25
289.986	303.25
290.217	314.25
290.448	294.25
290.679	292.25
290.91	299.25
291.141	284.25
291.371	311.25
291.602	288.25
291.833	298.25
292.064	293.25
292.295	298.25
292.526	294.25
292.757	280.25
292.987	300.25
293.218	291.25
293.449	301.25
293.68	307.25
293.91	283.25
294.141	299.25
294.372	300.25
294.603	301.25
294.833	296.25
295.064	308.25
295.295	304.25
295.525	298.25
295.756	303.25
295.987	305.25
296.217	313.25
296.448	317.25
296.679	290.25
296.909	311.25
297.14	313.25
297.37	296.25
297.601	307.25
297.831	297.25
298.062	298.25
298.292	298.25
298.523	298.25
298.753	304.25
298.984	319.25
299.214	328.25
299.445	308.25
299.675	332.25
299.905	326.25
300.136	315.25
300.366	335.25
300.597	307.25
300.827	316.25
301.057	335.25
301.288	310.25
301.518	319.25
301.748	340.25
301.979	325.25
302.209	322.25
302.439	323.25
302.669	333.25
302.9	319.25
303.13	317.25
303.36	327.25
303.59	330.25
303.82	333.25
304.051	343.25
304.281	339.25
304.511	323.25
304.741	321.25
304.971	333.25
305.201	331.25
305.431	328.25
305.661	310.25
305.891	333.25
306.121	337.25
306.352	338.25
306.582	336.25
306.812	329.25
307.042	336.25
307.272	321.25
307.502	328.25
307.731	338.25
307.961	364.25
308.191	350.25
308.421	342.25
308.651	328.25
308.881	333.25
309.111	335.25
309.341	344.25
309.571	354.25
309.8	356.25
310.03	351.25
310.26	358.25
310.49	349.25
310.72	375.25
310.949	353.25
311.179	371.25
311.409	359.25
311.639	354.25
311.868	363.25
312.098	358.25
312.328	356.25
312.557	362.25
312.787	381.25
313.017	375.25
313.246	387.25
313.476	362.25
313.706	369.25
313.935	366.25
314.165	371.25
314.394	384.25
314.624	377.25
314.853	371.25
315.083	383.25
315.312	375.25
315.542	368.25
315.771	365.25
316.001	362.25
316.23	375.25
316.46	353.25
316.689	381.25
316.919	361.25
317.148	376.25
317.377	386.25
317.607	375.25
317.836	370.25
318.065	381.25
318.295	352.25
318.524	377.25
318.753	367.25
318.983	371.25
319.212	362.25
319.441	351.25
319.67	387.25
319.9	385.25
320.129	375.25
320.358	376.25
320.587	377.25
320.816	362.25
321.046	371.25
321.275	374.25
321.504	388.25
321.733	395.25
321.962	401.25
322.191	375.25
322.42	393.25
322.649	404.25
322.878	413.25
323.108	411.25
323.337	419.25
323.566	445.25
323.795	458.25
324.024	476.25
324.253	554.25
324.482	736.25
324.71	1064.25
324.939	1432.25
325.168	1237.25
325.397	692.25
325.626	511.25
325.855	463.25
326.084	440.25
326.313	435.25
326.542	462.25
326.77	476.25
326.999	525.25
327.228	675.25
327.457	957.25
327.686	1112.25
327.914	759.25
328.143	547.25
328.372	482.25
328.6	477.25
328.829	463.25
329.058	467.25
329.287	484.25
329.515	465.25
329.744	445.25
329.972	451.25
330.201	442.25
330.43	447.25
330.658	474.25
330.887	460.25
331.115	493.25
331.344	469.25
331.572	437.25
331.801	457.25
332.03	456.25
332.258	456.25
332.486	421.25
332.715	439.25
332.943	443.25
333.172	435.25
333.4	419.25
333.629	435.25
333.857	447.25
334.085	479.25
334.314	462.25
334.542	496.25
334.771	481.25
334.999	459.25
335.227	472.25
335.455	439.25
335.684	457.25
335.912	433.25
336.14	436.25
336.369	439.25
336.597	420.25
336.825	421.25
337.053	446.25
337.281	433.25
337.51	421.25
337.738	420.25
337.966	426.25
338.194	420.25
338.422	428.25
338.65	425.25
338.878	416.25
339.106	412.25
339.334	431.25
339.562	402.25
339.79	425.25
340.018	397.25
340.246	431.25
340.474	427.25
340.702	391.25
340.93	404.25
341.158	411.25
341.386	412.25
341.614	404.25
341.842	392.25
342.07	393.25
342.298	407.25
342.526	405.25
342.754	406.25
342.981	397.25
343.209	397.25
343.437	416.25
343.665	415.25
343.893	437.25
344.12	443.25
344.348	436.25
344.576	432.25
344.804	405.25
345.031	444.25
345.259	417.25
345.487	400.25
345.714	410.25
345.942	390.25
346.17	391.25
346.397	379.25
346.625	392.25
346.853	379.25
347.08	397.25
347.308	382.25
347.535	388.25
347.763	392.25
347.99	383.25
348.218	405.25
348.445	393.25
348.673	412.25
348.9	399.25
349.128	385.25
349.355	379.25
349.583	384.25
349.81	379.25
350.037	385.25
350.265	381.25
350.492	368.25
350.72	393.25
350.947	391.25
351.174	377.25
351.402	379.25
351.629	390.25
351.856	393.25
352.083	396.25
352.311	399.25
352.538	396.25
352.765	390.25
352.992	374.25
353.22	387.25
353.447	403.25
353.674	380.25
353.901	376.25
354.128	379.25
354.355	364.25
354.583	371.25
354.81	364.25
355.037	364.25
355.264	367.25
355.491	356.25
355.718	362.25
355.945	362.25
356.172	376.25
356.399	379.25
356.626	363.25
356.853	378.25
357.08	375.25
357.307	387.25
357.534	381.25
357.761	376.25
357.988	367.25
358.215	355.25
358.441	369.25
358.668	354.25
358.895	372.25
359.122	358.25
359.349	375.25
359.576	388.25
359.802	397.25
360.029	397.25
360.256	421.25
360.483	398.25
360.709	394.25
360.936	367.25
361.163	385.25
361.39	388.25
361.616	404.25
361.843	394.25
362.07	385.25
362.296	383.25
362.523	369.25
362.749	377.25
362.976	371.25
363.203	386.25
363.429	346.25
363.656	360.25
363.882	375.25
364.109	365.25
364.335	361.25
364.562	372.25
364.788	367.25
365.015	379.25
365.241	371.25
365.468	352.25
365.694	367.25
365.92	379.25
366.147	375.25
366.373	373.25
366.599	369.25
366.826	369.25
367.052	351.25
367.278	362.25
367.505	368.25
367.731	355.25
367.957	367.25
368.184	360.25
368.41	367.25
368.636	363.25
368.862	377.25
369.089	377.25
369.315	371.25
369.541	360.25
369.767	387.25
369.993	363.25
370.219	366.25
370.445	373.25
370.672	378.25
370.898	371.25
371.124	359.25
371.35	369.25
371.576	367.25
371.802	375.25
372.028	377.25
372.254	369.25
372.48	364.25
372.706	391.25
372.932	352.25
373.158	378.25
373.384	377.25
373.61	374.25
373.835	365.25
374.061	372.25
374.287	359.25
374.513	376.25
374.739	393.25
374.965	415.25
375.191	387.25
375.416	395.25
375.642	367.25
375.868	385.25
376.094	379.25
376.319	375.25
376.545	381.25
376.771	354.25
376.997	355.25
377.222	377.25
377.448	376.25
377.674	367.25
377.899	364.25
378.125	377.25
378.35	371.25
378.576	369.25
378.802	357.25
379.027	351.25
379.253	378.25
379.478	359.25
379.704	369.25
379.929	375.25
380.155	386.25
380.38	373.25
380.606	357.25
380.831	370.25
381.057	386.25
381.282	377.25
381.507	361.25
381.733	355.25
381.958	371.25
382.184	355.25
382.409	375.25
382.634	401.25
382.86	392.25
383.085	375.25
383.31	397.25
383.535	390.25
383.761	385.25
383.986	392.25
384.211	393.25
384.436	396.25
384.662	393.25
384.887	409.25
385.112	382.25
385.337	401.25
385.562	408.25
385.787	388.25
386.013	409.25
386.238	411.25
386.463	410.25
386.688	424.25
386.913	403.25
387.138	421.25
387.363	397.25
387.588	412.25
387.813	407.25
388.038	405.25
388.263	419.25
388.488	407.25
388.713	428.25
388.938	419.25
389.163	417.25
389.387	416.25
389.612	412.25
389.837	410.25
390.062	396.25
390.287	408.25
390.512	396.25
390.736	392.25
390.961	401.25
391.186	409.25
391.411	423.25
391.636	423.25
391.86	401.25
392.085	411.25
392.31	414.25
392.534	421.25
392.759	420.25
392.984	427.25
393.208	420.25
393.433	419.25
393.658	421.25
393.882	416.25
394.107	419.25
394.331	410.25
394.556	407.25
394.78	403.25
395.005	398.25
395.229	418.25
395.454	427.25
395.678	412.25
395.903	438.25
396.127	435.25
396.352	431.25
396.576	419.25
396.801	427.25
397.025	415.25
397.249	449.25
397.474	433.25
397.698	442.25
397.922	434.25
398.147	452.25
398.371	469.25
398.595	466.25
398.82	451.25
399.044	475.25
399.268	507.25
399.492	529.25
399.717	567.25
399.941	588.25
400.165	576.25
400.389	568.25
400.613	517.25
400.837	500.25
401.062	491.25
401.286	469.25
401.51	470.25
401.734	472.25
401.958	464.25
402.182	463.25
402.406	470.25
402.63	475.25
402.854	461.25
403.078	462.25
403.302	463.25
403.526	482.25
403.75	483.25
403.974	487.25
404.198	488.25
404.422	497.25
404.645	515.25
404.869	497.25
405.093	513.25
405.317	551.25
405.541	541.25
405.765	504.25
405.988	513.25
406.212	508.25
406.436	503.25
406.66	525.25
406.883	496.25
407.107	522.25
407.331	549.25
407.555	604.25
407.778	589.25
408.002	562.25
408.226	532.25
408.449	540.25
408.673	522.25
408.896	525.25
409.12	567.25
409.344	555.25
409.567	505.25
409.791	491.25
410.014	475.25
410.238	466.25
410.461	467.25
410.685	487.25
410.908	475.25
411.132	505.25
411.355	524.25
411.578	540.25
411.802	486.25
412.025	462.25
412.249	484.25
412.472	498.25
412.695	521.25
412.919	495.25
413.142	476.25
413.365	459.25
413.589	460.25
413.812	454.25
414.035	460.25
414.258	451.25
414.482	447.25
414.705	460.25
414.928	463.25
415.151	457.25
415.374	436.25
415.597	427.25
415.821	419.25
416.044	432.25
416.267	442.25
416.49	425.25
416.713	427.25
416.936	438.25
417.159	437.25
417.382	442.25
417.605	425.25
417.828	459.25
418.051	454.25
418.274	451.25
418.497	437.25
418.72	452.25
418.943	426.25
419.166	466.25
419.389	461.25
419.611	478.25
419.834	468.25
420.057	447.25
420.28	464.25
420.503	458.25
420.726	435.25
420.948	462.25
421.171	475.25
421.394	521.25
421.617	493.25
421.839	445.25
422.062	465.25
422.285	465.25
422.507	486.25
422.73	547.25
422.953	539.25
423.175	499.25
423.398	476.25
423.621	462.25
423.843	483.25
424.066	467.25
424.288	493.25
424.511	515.25
424.733	531.25
424.956	610.25
425.178	555.25
425.401	568.25
425.623	582.25
425.846	481.25
426.068	495.25
426.291	457.25
426.513	461.25
426.735	480.25
426.958	500.25
427.18	564.25
427.402	662.25
427.625	703.25
427.847	596.25
428.069	515.25
428.292	474.25
428.514	483.25
428.736	440.25
428.958	450.25
429.181	431.25
429.403	409.25
429.625	450.25
429.847	463.25
430.069	511.25
430.292	509.25
430.514	439.25
430.736	425.25
430.958	433.25
431.18	414.25
431.402	428.25
431.624	438.25
431.846	421.25
432.068	428.25
432.29	426.25
432.512	427.25
432.734	429.25
432.956	424.25
433.178	408.25
433.4	425.25
433.622	421.25
433.844	404.25
434.066	397.25
434.287	431.25
434.509	407.25
434.731	451.25
434.953	456.25
435.175	465.25
435.397	467.25
435.618	468.25
435.84	499.25
436.062	571.25
436.284	601.25
436.505	498.25
436.727	488.25
436.949	458.25
437.17	433.25
437.392	459.25
437.614	451.25
437.835	468.25
438.057	515.25
438.278	608.25
438.5	563.25
438.721	661.25
438.943	645.25
439.165	498.25
439.386	491.25
439.608	473.25
439.829	469.25
440.05	464.25
440.272	519.25
440.493	466.25
440.715	449.25
440.936	448.25
441.158	465.25
441.379	451.25
441.6	449.25
441.822	454.25
442.043	499.25
442.264	559.25
442.486	585.25
442.707	488.25
442.928	498.25
443.149	485.25
443.371	495.25
443.592	502.25
443.813	605.25
444.034	635.25
444.255	542.25
444.476	516.25
444.698	504.25
444.919	471.25
445.14	585.25
445.361	533.25
445.582	493.25
445.803	526.25
446.024	599.25
446.245	591.25
446.466	551.25
446.687	483.25
446.908	460.25
447.129	430.25
447.35	432.25
447.571	432.25
447.792	411.25
448.013	427.25
448.234	434.25
448.455	471.25
448.675	538.25
448.896	641.25
449.117	563.25
449.338	521.25
449.559	604.25
449.779	683.25
450	503.25
450.221	471.25
450.442	457.25
450.662	394.25
450.883	418.25
451.104	439.25
451.324	416.25
451.545	403.25
451.766	391.25
451.986	378.25
452.207	384.25
452.428	403.25
452.648	396.25
452.869	390.25
453.089	382.25
453.31	391.25
453.53	382.25
453.751	389.25
453.971	404.25
454.192	387.25
454.412	371.25
454.633	368.25
454.853	379.25
455.073	397.25
455.294	410.25
455.514	440.25
455.734	447.25
455.955	395.25
456.175	374.25
456.395	365.25
456.616	374.25
456.836	371.25
457.056	371.25
457.276	373.25
457.497	359.25
457.717	371.25
457.937	375.25
458.157	377.25
458.377	392.25
458.598	383.25
458.818	415.25
459.038	482.25
459.258	486.25
459.478	432.25
459.698	423.25
459.918	431.25
460.138	413.25
460.358	438.25
460.578	426.25
460.798	415.25
461.018	447.25
461.238	448.25
461.458	448.25
461.678	430.25
461.898	422.25
462.118	435.25
462.338	455.25
462.558	447.25
462.777	454.25
462.997	509.25
463.217	472.25
463.437	505.25
463.657	477.25
463.876	475.25
464.096	494.25
464.316	474.25
464.536	463.25
464.755	460.25
464.975	481.25
465.195	479.25
465.414	482.25
465.634	466.25
465.854	420.25
466.073	428.25
466.293	410.25
466.512	396.25
466.732	388.25
466.951	391.25
467.171	401.25
467.391	426.25
467.61	415.25
467.829	421.25
468.049	415.25
468.268	392.25
468.488	393.25
468.707	400.25
468.927	385.25
469.146	389.25
469.365	372.25
469.585	411.25
469.804	391.25
470.023	410.25
470.243	398.25
470.462	393.25
470.681	407.25
470.901	419.25
471.12	407.25
471.339	380.25
471.558	401.25
471.777	403.25
471.997	393.25
472.216	379.25
472.435	407.25
472.654	415.25
472.873	427.25
473.092	422.25
473.311	407.25
473.53	409.25
473.749	419.25
473.968	432.25
474.187	477.25
474.406	491.25
474.625	440.25
474.844	412.25
475.063	412.25
475.282	406.25
475.501	401.25
475.72	413.25
475.939	422.25
476.158	396.25
476.377	403.25
476.596	407.25
476.814	417.25
477.033	409.25
477.252	411.25
477.471	452.25
477.69	435.25
477.908	443.25
478.127	458.25
478.346	427.25
478.564	446.25
478.783	449.25
479.002	446.25
479.22	470.25
479.439	462.25
479.658	464.25
479.876	476.25
480.095	472.25
480.313	500.25
480.532	495.25
480.751	485.25
480.969	507.25
481.188	511.25
481.406	523.25
481.624	486.25
481.843	460.25
482.061	463.25
482.28	441.25
482.498	444.25
482.717	458.25
482.935	472.25
483.153	455.25
483.372	455.25
483.59	473.25
483.808	451.25
484.027	463.25
484.245	443.25
484.463	451.25
484.681	474.25
484.9	468.25
485.118	475.25
485.336	450.25
485.554	461.25
485.772	449.25
485.99	471.25
486.209	461.25
486.427	476.25
486.645	505.25
486.863	491.25
487.081	499.25
487.299	473.25
487.517	470.25
487.735	500.25
487.953	483.25
488.171	475.25
488.389	482.25
488.607	481.25
488.825	491.25
489.043	476.25
489.261	481.25
489.479	483.25
489.696	495.25
489.914	503.25
490.132	500.25
490.35	517.25
490.568	492.25
490.786	509.25
491.003	504.25
491.221	520.25
491.439	543.25
491.657	531.25
491.874	544.25
492.092	552.25
492.31	536.25
492.527	544.25
492.745	549.25
492.963	542.25
493.18	538.25
493.398	545.25
493.615	561.25
493.833	547.25
494.05	552.25
494.268	550.25
494.485	542.25
494.703	541.25
494.92	557.25
495.138	551.25
495.355	544.25
495.573	544.25
495.79	571.25
496.008	562.25
496.225	550.25
496.442	552.25
496.66	560.25
496.877	575.25
497.094	550.25
497.312	567.25
497.529	605.25
497.746	602.25
497.963	614.25
498.181	629.25
498.398	643.25
498.615	656.25
498.832	651.25
499.049	693.25
499.267	687.25
499.484	715.25
499.701	764.25
499.918	799.25
500.135	853.25
500.352	895.25
500.569	905.25
500.786	921.25
501.003	895.25
501.22	906.25
501.437	808.25
501.654	754.25
501.871	746.25
502.088	711.25
