Data from 1977.PennyLincolnUp.Lamp.En5.5.200Scan.071719.P1_HRD10591_16-07-50-865.txt Node
Date: Thu Jul 18 16:07:50 EDT 2019
User: cochatt
Spectrometer: HR+D1059
Trigger mode: 1
Integration Time (sec): 1.000000E-1
Scans to average: 1
Electric dark correction enabled: true
Nonlinearity correction enabled: false
Boxcar width: 0
XAxis mode: Wavelengths
Number of Pixels in Spectrum: 2048
>>>>>Begin Spectral Data<<<<<
223.165	-12.88
223.4	-12.88
223.635	-12.88
223.869	-14.88
224.104	-12.88
224.338	-27.88
224.573	-12.88
224.808	-14.88
225.042	-5.88
225.277	-1.88
225.511	-8.88
225.746	11.12
225.98	9.12
226.215	27.12
226.449	14.12
226.683	7.12
226.918	15.12
227.152	29.12
227.387	36.12
227.621	34.12
227.856	35.12
228.09	60.12
228.324	57.12
228.559	57.12
228.793	54.12
229.027	96.12
229.262	118.12
229.496	108.12
229.73	119.12
229.964	139.12
230.199	128.12
230.433	102.12
230.667	117.12
230.901	91.12
231.136	111.12
231.37	97.12
231.604	105.12
231.838	120.12
232.072	110.12
232.306	102.12
232.541	112.12
232.775	111.12
233.009	123.12
233.243	108.12
233.477	106.12
233.711	115.12
233.945	121.12
234.179	98.12
234.413	118.12
234.647	120.12
234.881	102.12
235.115	105.12
235.349	106.12
235.583	114.12
235.817	136.12
236.051	126.12
236.285	108.12
236.519	115.12
236.753	129.12
236.987	136.12
237.221	175.12
237.455	205.12
237.689	165.12
237.922	139.12
238.156	118.12
238.39	126.12
238.624	123.12
238.858	116.12
239.091	115.12
239.325	121.12
239.559	108.12
239.793	127.12
240.027	133.12
240.26	150.12
240.494	147.12
240.728	138.12
240.961	147.12
241.195	153.12
241.429	126.12
241.662	129.12
241.896	139.12
242.13	126.12
242.363	142.12
242.597	140.12
242.83	148.12
243.064	148.12
243.298	141.12
243.531	144.12
243.765	152.12
243.998	140.12
244.232	148.12
244.465	126.12
244.699	136.12
244.932	135.12
245.166	163.12
245.399	142.12
245.633	140.12
245.866	145.12
246.099	149.12
246.333	134.12
246.566	152.12
246.8	144.12
247.033	154.12
247.266	166.12
247.5	167.12
247.733	190.12
247.966	166.12
248.2	177.12
248.433	169.12
248.666	181.12
248.899	168.12
249.133	175.12
249.366	194.12
249.599	182.12
249.832	177.12
250.066	189.12
250.299	174.12
250.532	178.12
250.765	197.12
250.998	224.12
251.231	222.12
251.465	202.12
251.698	205.12
251.931	196.12
252.164	186.12
252.397	185.12
252.63	177.12
252.863	179.12
253.096	222.12
253.329	217.12
253.562	221.12
253.795	204.12
254.028	206.12
254.261	219.12
254.494	234.12
254.727	243.12
254.96	264.12
255.193	244.12
255.426	223.12
255.659	217.12
255.892	220.12
256.124	239.12
256.357	256.12
256.59	216.12
256.823	208.12
257.056	205.12
257.289	213.12
257.521	198.12
257.754	215.12
257.987	206.12
258.22	217.12
258.452	210.12
258.685	203.12
258.918	201.12
259.151	210.12
259.383	214.12
259.616	214.12
259.849	220.12
260.081	232.12
260.314	245.12
260.547	245.12
260.779	252.12
261.012	227.12
261.244	220.12
261.477	228.12
261.71	225.12
261.942	209.12
262.175	228.12
262.407	226.12
262.64	204.12
262.872	219.12
263.105	199.12
263.337	225.12
263.57	231.12
263.802	230.12
264.035	205.12
264.267	212.12
264.499	212.12
264.732	224.12
264.964	185.12
265.197	215.12
265.429	229.12
265.661	213.12
265.894	213.12
266.126	222.12
266.358	227.12
266.591	229.12
266.823	237.12
267.055	220.12
267.287	239.12
267.52	226.12
267.752	221.12
267.984	251.12
268.216	234.12
268.448	218.12
268.681	241.12
268.913	247.12
269.145	244.12
269.377	262.12
269.609	284.12
269.841	269.12
270.073	281.12
270.306	291.12
270.538	302.12
270.77	302.12
271.002	293.12
271.234	296.12
271.466	298.12
271.698	296.12
271.93	301.12
272.162	323.12
272.394	313.12
272.626	309.12
272.858	300.12
273.09	280.12
273.322	292.12
273.553	267.12
273.785	276.12
274.017	271.12
274.249	261.12
274.481	278.12
274.713	271.12
274.945	285.12
275.176	275.12
275.408	269.12
275.64	276.12
275.872	257.12
276.104	261.12
276.335	269.12
276.567	281.12
276.799	290.12
277.031	290.12
277.262	321.12
277.494	317.12
277.726	320.12
277.957	290.12
278.189	283.12
278.421	277.12
278.652	288.12
278.884	284.12
279.115	272.12
279.347	266.12
279.579	275.12
279.81	307.12
280.042	293.12
280.273	277.12
280.505	285.12
280.736	290.12
280.968	265.12
281.199	272.12
281.431	284.12
281.662	275.12
281.894	274.12
282.125	274.12
282.356	276.12
282.588	297.12
282.819	320.12
283.051	301.12
283.282	283.12
283.513	297.12
283.745	310.12
283.976	299.12
284.207	301.12
284.439	292.12
284.67	286.12
284.901	306.12
285.132	290.12
285.364	291.12
285.595	308.12
285.826	299.12
286.057	284.12
286.288	278.12
286.52	300.12
286.751	307.12
286.982	290.12
287.213	315.12
287.444	298.12
287.675	300.12
287.906	305.12
288.138	305.12
288.369	310.12
288.6	321.12
288.831	330.12
289.062	325.12
289.293	316.12
289.524	294.12
289.755	302.12
289.986	302.12
290.217	309.12
290.448	316.12
290.679	302.12
290.91	306.12
291.141	313.12
291.371	297.12
291.602	310.12
291.833	326.12
292.064	308.12
292.295	316.12
292.526	308.12
292.757	323.12
292.987	313.12
293.218	306.12
293.449	332.12
293.68	320.12
293.91	326.12
294.141	299.12
294.372	293.12
294.603	311.12
294.833	315.12
295.064	317.12
295.295	317.12
295.525	296.12
295.756	315.12
295.987	332.12
296.217	337.12
296.448	341.12
296.679	318.12
296.909	312.12
297.14	313.12
297.37	342.12
297.601	330.12
297.831	314.12
298.062	310.12
298.292	326.12
298.523	329.12
298.753	321.12
298.984	322.12
299.214	322.12
299.445	335.12
299.675	334.12
299.905	331.12
300.136	333.12
300.366	330.12
300.597	316.12
300.827	324.12
301.057	343.12
301.288	333.12
301.518	348.12
301.748	353.12
301.979	350.12
302.209	346.12
302.439	342.12
302.669	332.12
302.9	341.12
303.13	334.12
303.36	332.12
303.59	338.12
303.82	353.12
304.051	352.12
304.281	333.12
304.511	340.12
304.741	346.12
304.971	334.12
305.201	354.12
305.431	345.12
305.661	342.12
305.891	334.12
306.121	343.12
306.352	355.12
306.582	336.12
306.812	350.12
307.042	347.12
307.272	327.12
307.502	348.12
307.731	344.12
307.961	355.12
308.191	353.12
308.421	372.12
308.651	364.12
308.881	365.12
309.111	362.12
309.341	333.12
309.571	353.12
309.8	364.12
310.03	369.12
310.26	372.12
310.49	386.12
310.72	380.12
310.949	400.12
311.179	381.12
311.409	371.12
311.639	390.12
311.868	372.12
312.098	388.12
312.328	394.12
312.557	417.12
312.787	426.12
313.017	398.12
313.246	398.12
313.476	398.12
313.706	375.12
313.935	387.12
314.165	403.12
314.394	396.12
314.624	393.12
314.853	419.12
315.083	391.12
315.312	386.12
315.542	398.12
315.771	396.12
316.001	382.12
316.23	403.12
316.46	398.12
316.689	391.12
316.919	376.12
317.148	407.12
317.377	399.12
317.607	400.12
317.836	403.12
318.065	405.12
318.295	409.12
318.524	391.12
318.753	405.12
318.983	397.12
319.212	395.12
319.441	383.12
319.67	416.12
319.9	398.12
320.129	400.12
320.358	385.12
320.587	392.12
320.816	385.12
321.046	387.12
321.275	401.12
321.504	389.12
321.733	429.12
321.962	408.12
322.191	419.12
322.42	443.12
322.649	441.12
322.878	442.12
323.108	455.12
323.337	469.12
323.566	480.12
323.795	479.12
324.024	525.12
324.253	641.12
324.482	863.12
324.71	1305.12
324.939	1780.12
325.168	1567.12
325.397	825.12
325.626	591.12
325.855	499.12
326.084	500.12
326.313	492.12
326.542	486.12
326.77	536.12
326.999	595.12
327.228	810.12
327.457	1122.12
327.686	1331.12
327.914	907.12
328.143	644.12
328.372	578.12
328.6	545.12
328.829	513.12
329.058	541.12
329.287	544.12
329.515	506.12
329.744	481.12
329.972	487.12
330.201	506.12
330.43	534.12
330.658	569.12
330.887	572.12
331.115	534.12
331.344	514.12
331.572	487.12
331.801	491.12
332.03	485.12
332.258	462.12
332.486	468.12
332.715	464.12
332.943	459.12
333.172	477.12
333.4	470.12
333.629	469.12
333.857	492.12
334.085	485.12
334.314	516.12
334.542	535.12
334.771	528.12
334.999	491.12
335.227	493.12
335.455	476.12
335.684	473.12
335.912	473.12
336.14	462.12
336.369	463.12
336.597	474.12
336.825	461.12
337.053	440.12
337.281	450.12
337.51	444.12
337.738	461.12
337.966	449.12
338.194	452.12
338.422	447.12
338.65	425.12
338.878	442.12
339.106	435.12
339.334	443.12
339.562	415.12
339.79	420.12
340.018	425.12
340.246	419.12
340.474	451.12
340.702	431.12
340.93	437.12
341.158	458.12
341.386	417.12
341.614	431.12
341.842	429.12
342.07	424.12
342.298	412.12
342.526	426.12
342.754	410.12
342.981	403.12
343.209	394.12
343.437	433.12
343.665	426.12
343.893	437.12
344.12	453.12
344.348	454.12
344.576	450.12
344.804	448.12
345.031	442.12
345.259	473.12
345.487	439.12
345.714	427.12
345.942	436.12
346.17	431.12
346.397	424.12
346.625	443.12
346.853	422.12
347.08	396.12
347.308	416.12
347.535	420.12
347.763	443.12
347.99	409.12
348.218	407.12
348.445	417.12
348.673	417.12
348.9	399.12
349.128	405.12
349.355	394.12
349.583	402.12
349.81	408.12
350.037	403.12
350.265	405.12
350.492	398.12
350.72	392.12
350.947	395.12
351.174	429.12
351.402	411.12
351.629	417.12
351.856	396.12
352.083	399.12
352.311	404.12
352.538	417.12
352.765	399.12
352.992	393.12
353.22	379.12
353.447	418.12
353.674	411.12
353.901	412.12
354.128	395.12
354.355	396.12
354.583	388.12
354.81	399.12
355.037	380.12
355.264	382.12
355.491	387.12
355.718	392.12
355.945	370.12
356.172	390.12
356.399	405.12
356.626	394.12
356.853	395.12
357.08	379.12
357.307	373.12
357.534	395.12
357.761	374.12
357.988	377.12
358.215	391.12
358.441	382.12
358.668	390.12
358.895	403.12
359.122	393.12
359.349	403.12
359.576	403.12
359.802	424.12
360.029	429.12
360.256	435.12
360.483	420.12
360.709	397.12
360.936	422.12
361.163	409.12
361.39	413.12
361.616	399.12
361.843	389.12
362.07	412.12
362.296	397.12
362.523	385.12
362.749	376.12
362.976	394.12
363.203	380.12
363.429	379.12
363.656	389.12
363.882	362.12
364.109	367.12
364.335	391.12
364.562	391.12
364.788	405.12
365.015	376.12
365.241	392.12
365.468	365.12
365.694	375.12
365.92	391.12
366.147	388.12
366.373	383.12
366.599	385.12
366.826	381.12
367.052	396.12
367.278	364.12
367.505	381.12
367.731	389.12
367.957	374.12
368.184	389.12
368.41	387.12
368.636	414.12
368.862	391.12
369.089	401.12
369.315	389.12
369.541	396.12
369.767	379.12
369.993	380.12
370.219	383.12
370.445	382.12
370.672	388.12
370.898	387.12
371.124	385.12
371.35	378.12
371.576	385.12
371.802	381.12
372.028	386.12
372.254	362.12
372.48	389.12
372.706	363.12
372.932	395.12
373.158	399.12
373.384	396.12
373.61	396.12
373.835	402.12
374.061	384.12
374.287	393.12
374.513	382.12
374.739	400.12
374.965	411.12
375.191	369.12
375.416	395.12
375.642	397.12
375.868	384.12
376.094	390.12
376.319	386.12
376.545	379.12
376.771	387.12
376.997	392.12
377.222	390.12
377.448	387.12
377.674	379.12
377.899	375.12
378.125	366.12
378.35	375.12
378.576	387.12
378.802	385.12
379.027	375.12
379.253	387.12
379.478	366.12
379.704	383.12
379.929	390.12
380.155	380.12
380.38	395.12
380.606	384.12
380.831	403.12
381.057	405.12
381.282	384.12
381.507	359.12
381.733	390.12
381.958	378.12
382.184	380.12
382.409	401.12
382.634	382.12
382.86	378.12
383.085	390.12
383.31	396.12
383.535	417.12
383.761	421.12
383.986	404.12
384.211	388.12
384.436	403.12
384.662	429.12
384.887	406.12
385.112	405.12
385.337	435.12
385.562	399.12
385.787	414.12
386.013	397.12
386.238	414.12
386.463	421.12
386.688	398.12
386.913	415.12
387.138	416.12
387.363	417.12
387.588	418.12
387.813	430.12
388.038	413.12
388.263	405.12
388.488	429.12
388.713	433.12
388.938	403.12
389.163	430.12
389.387	412.12
389.612	421.12
389.837	402.12
390.062	417.12
390.287	411.12
390.512	409.12
390.736	403.12
390.961	409.12
391.186	422.12
391.411	435.12
391.636	423.12
391.86	428.12
392.085	421.12
392.31	440.12
392.534	443.12
392.759	434.12
392.984	430.12
393.208	428.12
393.433	406.12
393.658	437.12
393.882	431.12
394.107	406.12
394.331	433.12
394.556	418.12
394.78	430.12
395.005	453.12
395.229	426.12
395.454	423.12
395.678	443.12
395.903	425.12
396.127	468.12
396.352	465.12
396.576	434.12
396.801	445.12
397.025	451.12
397.249	462.12
397.474	459.12
397.698	462.12
397.922	461.12
398.147	477.12
398.371	477.12
398.595	460.12
398.82	477.12
399.044	482.12
399.268	510.12
399.492	545.12
399.717	554.12
399.941	606.12
400.165	614.12
400.389	595.12
400.613	529.12
400.837	516.12
401.062	478.12
401.286	481.12
401.51	473.12
401.734	458.12
401.958	478.12
402.182	475.12
402.406	463.12
402.63	478.12
402.854	461.12
403.078	497.12
403.302	488.12
403.526	500.12
403.75	513.12
403.974	506.12
404.198	508.12
404.422	510.12
404.645	491.12
404.869	521.12
405.093	516.12
405.317	547.12
405.541	574.12
405.765	540.12
405.988	521.12
406.212	530.12
406.436	513.12
406.66	536.12
406.883	546.12
407.107	549.12
407.331	582.12
407.555	633.12
407.778	642.12
408.002	590.12
408.226	548.12
408.449	519.12
408.673	546.12
408.896	561.12
409.12	588.12
409.344	537.12
409.567	544.12
409.791	525.12
410.014	493.12
410.238	464.12
410.461	497.12
410.685	493.12
410.908	518.12
411.132	541.12
411.355	537.12
411.578	542.12
411.802	506.12
412.025	488.12
412.249	505.12
412.472	521.12
412.695	547.12
412.919	537.12
413.142	484.12
413.365	484.12
413.589	484.12
413.812	444.12
414.035	459.12
414.258	466.12
414.482	477.12
414.705	476.12
414.928	455.12
415.151	444.12
415.374	466.12
415.597	469.12
415.821	452.12
416.044	445.12
416.267	461.12
416.49	453.12
416.713	433.12
416.936	466.12
417.159	482.12
417.382	457.12
417.605	439.12
417.828	452.12
418.051	468.12
418.274	483.12
418.497	458.12
418.72	451.12
418.943	442.12
419.166	470.12
419.389	486.12
419.611	494.12
419.834	486.12
420.057	482.12
420.28	485.12
420.503	486.12
420.726	490.12
420.948	498.12
421.171	498.12
421.394	527.12
421.617	471.12
421.839	485.12
422.062	489.12
422.285	495.12
422.507	525.12
422.73	597.12
422.953	572.12
423.175	515.12
423.398	505.12
423.621	516.12
423.843	515.12
424.066	507.12
424.288	519.12
424.511	522.12
424.733	543.12
424.956	641.12
425.178	594.12
425.401	595.12
425.623	628.12
425.846	535.12
426.068	506.12
426.291	516.12
426.513	525.12
426.735	523.12
426.958	535.12
427.18	605.12
427.402	686.12
427.625	803.12
427.847	655.12
428.069	578.12
428.292	544.12
428.514	463.12
428.736	479.12
428.958	476.12
429.181	450.12
429.403	443.12
429.625	466.12
429.847	511.12
430.069	528.12
430.292	563.12
430.514	490.12
430.736	451.12
430.958	430.12
431.18	449.12
431.402	445.12
431.624	439.12
431.846	439.12
432.068	445.12
432.29	449.12
432.512	430.12
432.734	461.12
432.956	435.12
433.178	430.12
433.4	437.12
433.622	441.12
433.844	435.12
434.066	452.12
434.287	464.12
434.509	446.12
434.731	443.12
434.953	472.12
435.175	475.12
435.397	505.12
435.618	501.12
435.84	529.12
436.062	605.12
436.284	650.12
436.505	561.12
436.727	503.12
436.949	476.12
437.17	478.12
437.392	444.12
437.614	486.12
437.835	489.12
438.057	555.12
438.278	632.12
438.5	635.12
438.721	692.12
438.943	679.12
439.165	563.12
439.386	503.12
439.608	492.12
439.829	486.12
440.05	502.12
440.272	544.12
440.493	518.12
440.715	488.12
440.936	480.12
441.158	460.12
441.379	456.12
441.6	469.12
441.822	503.12
442.043	549.12
442.264	606.12
442.486	617.12
442.707	542.12
442.928	511.12
443.149	517.12
443.371	515.12
443.592	563.12
443.813	643.12
444.034	667.12
444.255	583.12
444.476	525.12
444.698	509.12
444.919	514.12
445.14	611.12
445.361	575.12
445.582	536.12
445.803	615.12
446.024	673.12
446.245	666.12
446.466	618.12
446.687	525.12
446.908	489.12
447.129	482.12
447.35	450.12
447.571	451.12
447.792	436.12
448.013	467.12
448.234	475.12
448.455	490.12
448.675	609.12
448.896	698.12
449.117	595.12
449.338	540.12
449.559	676.12
449.779	758.12
450	588.12
450.221	490.12
450.442	467.12
450.662	451.12
450.883	419.12
451.104	472.12
451.324	436.12
451.545	435.12
451.766	408.12
451.986	393.12
452.207	393.12
452.428	406.12
452.648	401.12
452.869	391.12
453.089	412.12
453.31	412.12
453.53	418.12
453.751	395.12
453.971	405.12
454.192	425.12
454.412	405.12
454.633	400.12
454.853	401.12
455.073	394.12
455.294	411.12
455.514	491.12
455.734	459.12
455.955	415.12
456.175	394.12
456.395	383.12
456.616	370.12
456.836	377.12
457.056	378.12
457.276	371.12
457.497	393.12
457.717	408.12
457.937	393.12
458.157	392.12
458.377	414.12
458.598	420.12
458.818	459.12
459.038	501.12
459.258	546.12
459.478	458.12
459.698	445.12
459.918	433.12
460.138	433.12
460.358	429.12
460.578	441.12
460.798	423.12
461.018	449.12
461.238	452.12
461.458	435.12
461.678	443.12
461.898	450.12
462.118	456.12
462.338	456.12
462.558	470.12
462.777	471.12
462.997	482.12
463.217	511.12
463.437	491.12
463.657	487.12
463.876	475.12
464.096	480.12
464.316	474.12
464.536	499.12
464.755	456.12
464.975	492.12
465.195	497.12
465.414	542.12
465.634	470.12
465.854	469.12
466.073	451.12
466.293	414.12
466.512	442.12
466.732	410.12
466.951	430.12
467.171	418.12
467.391	417.12
467.61	404.12
467.829	406.12
468.049	423.12
468.268	423.12
468.488	412.12
468.707	415.12
468.927	382.12
469.146	426.12
469.365	413.12
469.585	430.12
469.804	389.12
470.023	414.12
470.243	421.12
470.462	410.12
470.681	423.12
470.901	409.12
471.12	428.12
471.339	418.12
471.558	414.12
471.777	423.12
471.997	430.12
472.216	407.12
472.435	419.12
472.654	427.12
472.873	410.12
473.092	430.12
473.311	403.12
473.53	405.12
473.749	424.12
473.968	458.12
474.187	532.12
474.406	555.12
474.625	467.12
474.844	435.12
475.063	412.12
475.282	411.12
475.501	429.12
475.72	414.12
475.939	410.12
476.158	414.12
476.377	441.12
476.596	400.12
476.814	445.12
477.033	429.12
477.252	446.12
477.471	437.12
477.69	449.12
477.908	452.12
478.127	445.12
478.346	457.12
478.564	462.12
478.783	479.12
479.002	490.12
479.22	480.12
479.439	497.12
479.658	494.12
479.876	491.12
480.095	523.12
480.313	541.12
480.532	511.12
480.751	514.12
480.969	530.12
481.188	545.12
481.406	540.12
481.624	511.12
481.843	527.12
482.061	480.12
482.28	492.12
482.498	489.12
482.717	484.12
482.935	474.12
483.153	489.12
483.372	485.12
483.59	469.12
483.808	485.12
484.027	489.12
484.245	469.12
484.463	457.12
484.681	480.12
484.9	485.12
485.118	507.12
485.336	486.12
485.554	474.12
485.772	520.12
485.99	511.12
486.209	513.12
486.427	498.12
486.645	509.12
486.863	529.12
487.081	516.12
487.299	517.12
487.517	526.12
487.735	502.12
487.953	515.12
488.171	537.12
488.389	513.12
488.607	509.12
488.825	509.12
489.043	513.12
489.261	535.12
489.479	520.12
489.696	493.12
489.914	504.12
490.132	523.12
490.35	530.12
490.568	545.12
490.786	546.12
491.003	538.12
491.221	539.12
491.439	575.12
491.657	554.12
491.874	575.12
492.092	590.12
492.31	554.12
492.527	557.12
492.745	572.12
492.963	589.12
493.18	584.12
493.398	610.12
493.615	578.12
493.833	582.12
494.05	602.12
494.268	577.12
494.485	567.12
494.703	613.12
494.92	607.12
495.138	590.12
495.355	621.12
495.573	579.12
495.79	595.12
496.008	608.12
496.225	616.12
496.442	594.12
496.66	593.12
496.877	601.12
497.094	626.12
497.312	622.12
497.529	617.12
497.746	627.12
497.963	637.12
498.181	679.12
498.398	682.12
498.615	661.12
498.832	709.12
499.049	686.12
499.267	718.12
499.484	767.12
499.701	817.12
499.918	819.12
500.135	892.12
500.352	905.12
500.569	935.12
500.786	948.12
501.003	908.12
501.22	885.12
501.437	847.12
501.654	817.12
501.871	814.12
502.088	763.12
