Data from 1977.PennyLincolnUp.Lamp.En5.5.200Scan.071719.P1_HRD10591_16-07-42-865.txt Node
Date: Thu Jul 18 16:07:42 EDT 2019
User: cochatt
Spectrometer: HR+D1059
Trigger mode: 1
Integration Time (sec): 1.000000E-1
Scans to average: 1
Electric dark correction enabled: true
Nonlinearity correction enabled: false
Boxcar width: 0
XAxis mode: Wavelengths
Number of Pixels in Spectrum: 2048
>>>>>Begin Spectral Data<<<<<
223.165	-11.5
223.4	-11.5
223.635	-11.5
223.869	-16.5
224.104	-23.5
224.338	-18.5
224.573	-19.5
224.808	-12.5
225.042	2.5
225.277	-9.5
225.511	-3.5
225.746	4.5
225.98	3.5
226.215	8.5
226.449	21.5
226.683	17.5
226.918	26.5
227.152	30.5
227.387	27.5
227.621	42.5
227.856	37.5
228.09	47.5
228.324	60.5
228.559	48.5
228.793	66.5
229.027	82.5
229.262	108.5
229.496	101.5
229.73	127.5
229.964	150.5
230.199	127.5
230.433	108.5
230.667	111.5
230.901	121.5
231.136	111.5
231.37	121.5
231.604	108.5
231.838	126.5
232.072	118.5
232.306	104.5
232.541	114.5
232.775	107.5
233.009	102.5
233.243	125.5
233.477	110.5
233.711	119.5
233.945	122.5
234.179	108.5
234.413	114.5
234.647	110.5
234.881	117.5
235.115	120.5
235.349	114.5
235.583	120.5
235.817	122.5
236.051	120.5
236.285	131.5
236.519	132.5
236.753	133.5
236.987	139.5
237.221	180.5
237.455	208.5
237.689	181.5
237.922	143.5
238.156	143.5
238.39	128.5
238.624	131.5
238.858	115.5
239.091	123.5
239.325	133.5
239.559	143.5
239.793	132.5
240.027	134.5
240.26	140.5
240.494	155.5
240.728	145.5
240.961	131.5
241.195	150.5
241.429	146.5
241.662	137.5
241.896	130.5
242.13	128.5
242.363	132.5
242.597	132.5
242.83	141.5
243.064	131.5
243.298	140.5
243.531	144.5
243.765	141.5
243.998	139.5
244.232	140.5
244.465	149.5
244.699	153.5
244.932	140.5
245.166	145.5
245.399	142.5
245.633	138.5
245.866	149.5
246.099	162.5
246.333	143.5
246.566	159.5
246.8	149.5
247.033	156.5
247.266	171.5
247.5	162.5
247.733	170.5
247.966	178.5
248.2	182.5
248.433	171.5
248.666	167.5
248.899	172.5
249.133	203.5
249.366	195.5
249.599	196.5
249.832	163.5
250.066	175.5
250.299	170.5
250.532	181.5
250.765	198.5
250.998	213.5
251.231	223.5
251.465	213.5
251.698	203.5
251.931	188.5
252.164	202.5
252.397	195.5
252.63	195.5
252.863	203.5
253.096	207.5
253.329	208.5
253.562	210.5
253.795	213.5
254.028	210.5
254.261	206.5
254.494	219.5
254.727	237.5
254.96	263.5
255.193	271.5
255.426	253.5
255.659	237.5
255.892	229.5
256.124	232.5
256.357	224.5
256.59	211.5
256.823	224.5
257.056	220.5
257.289	210.5
257.521	204.5
257.754	215.5
257.987	220.5
258.22	224.5
258.452	205.5
258.685	224.5
258.918	202.5
259.151	214.5
259.383	224.5
259.616	226.5
259.849	242.5
260.081	235.5
260.314	254.5
260.547	274.5
260.779	263.5
261.012	249.5
261.244	227.5
261.477	240.5
261.71	226.5
261.942	216.5
262.175	244.5
262.407	232.5
262.64	220.5
262.872	221.5
263.105	239.5
263.337	229.5
263.57	229.5
263.802	217.5
264.035	215.5
264.267	219.5
264.499	221.5
264.732	229.5
264.964	223.5
265.197	224.5
265.429	235.5
265.661	211.5
265.894	226.5
266.126	237.5
266.358	219.5
266.591	232.5
266.823	244.5
267.055	242.5
267.287	251.5
267.52	239.5
267.752	237.5
267.984	237.5
268.216	229.5
268.448	242.5
268.681	264.5
268.913	255.5
269.145	283.5
269.377	283.5
269.609	277.5
269.841	278.5
270.073	281.5
270.306	298.5
270.538	309.5
270.77	318.5
271.002	309.5
271.234	299.5
271.466	299.5
271.698	317.5
271.93	333.5
272.162	317.5
272.394	314.5
272.626	311.5
272.858	286.5
273.09	292.5
273.322	304.5
273.553	268.5
273.785	270.5
274.017	283.5
274.249	271.5
274.481	276.5
274.713	291.5
274.945	271.5
275.176	287.5
275.408	277.5
275.64	271.5
275.872	261.5
276.104	285.5
276.335	287.5
276.567	298.5
276.799	308.5
277.031	310.5
277.262	323.5
277.494	328.5
277.726	301.5
277.957	299.5
278.189	285.5
278.421	292.5
278.652	290.5
278.884	294.5
279.115	291.5
279.347	284.5
279.579	261.5
279.81	285.5
280.042	282.5
280.273	285.5
280.505	283.5
280.736	290.5
280.968	293.5
281.199	290.5
281.431	287.5
281.662	308.5
281.894	289.5
282.125	288.5
282.356	272.5
282.588	317.5
282.819	309.5
283.051	288.5
283.282	291.5
283.513	294.5
283.745	291.5
283.976	288.5
284.207	314.5
284.439	301.5
284.67	311.5
284.901	279.5
285.132	310.5
285.364	297.5
285.595	284.5
285.826	280.5
286.057	308.5
286.288	278.5
286.52	311.5
286.751	304.5
286.982	320.5
287.213	320.5
287.444	299.5
287.675	298.5
287.906	320.5
288.138	330.5
288.369	333.5
288.6	317.5
288.831	312.5
289.062	317.5
289.293	312.5
289.524	295.5
289.755	325.5
289.986	308.5
290.217	319.5
290.448	300.5
290.679	310.5
290.91	331.5
291.141	319.5
291.371	326.5
291.602	318.5
291.833	308.5
292.064	293.5
292.295	311.5
292.526	319.5
292.757	324.5
292.987	326.5
293.218	330.5
293.449	329.5
293.68	309.5
293.91	327.5
294.141	315.5
294.372	303.5
294.603	310.5
294.833	309.5
295.064	331.5
295.295	324.5
295.525	326.5
295.756	323.5
295.987	327.5
296.217	359.5
296.448	350.5
296.679	333.5
296.909	314.5
297.14	332.5
297.37	326.5
297.601	325.5
297.831	325.5
298.062	339.5
298.292	313.5
298.523	327.5
298.753	320.5
298.984	334.5
299.214	337.5
299.445	346.5
299.675	336.5
299.905	352.5
300.136	340.5
300.366	344.5
300.597	332.5
300.827	334.5
301.057	354.5
301.288	340.5
301.518	336.5
301.748	376.5
301.979	359.5
302.209	350.5
302.439	348.5
302.669	354.5
302.9	349.5
303.13	368.5
303.36	345.5
303.59	357.5
303.82	350.5
304.051	364.5
304.281	357.5
304.511	385.5
304.741	355.5
304.971	355.5
305.201	370.5
305.431	349.5
305.661	347.5
305.891	351.5
306.121	342.5
306.352	362.5
306.582	370.5
306.812	355.5
307.042	336.5
307.272	368.5
307.502	373.5
307.731	374.5
307.961	356.5
308.191	338.5
308.421	362.5
308.651	352.5
308.881	350.5
309.111	375.5
309.341	346.5
309.571	359.5
309.8	364.5
310.03	374.5
310.26	377.5
310.49	380.5
310.72	386.5
310.949	418.5
311.179	408.5
311.409	394.5
311.639	406.5
311.868	408.5
312.098	399.5
312.328	416.5
312.557	397.5
312.787	424.5
313.017	404.5
313.246	406.5
313.476	399.5
313.706	403.5
313.935	397.5
314.165	421.5
314.394	410.5
314.624	408.5
314.853	411.5
315.083	391.5
315.312	419.5
315.542	401.5
315.771	390.5
316.001	398.5
316.23	415.5
316.46	388.5
316.689	390.5
316.919	404.5
317.148	402.5
317.377	407.5
317.607	400.5
317.836	397.5
318.065	397.5
318.295	408.5
318.524	399.5
318.753	391.5
318.983	413.5
319.212	415.5
319.441	398.5
319.67	425.5
319.9	411.5
320.129	393.5
320.358	405.5
320.587	412.5
320.816	420.5
321.046	420.5
321.275	439.5
321.504	408.5
321.733	419.5
321.962	409.5
322.191	428.5
322.42	445.5
322.649	439.5
322.878	473.5
323.108	465.5
323.337	471.5
323.566	492.5
323.795	514.5
324.024	557.5
324.253	646.5
324.482	894.5
324.71	1360.5
324.939	1847.5
325.168	1592.5
325.397	848.5
325.626	607.5
325.855	529.5
326.084	515.5
326.313	506.5
326.542	507.5
326.77	548.5
326.999	635.5
327.228	820.5
327.457	1192.5
327.686	1393.5
327.914	922.5
328.143	653.5
328.372	598.5
328.6	555.5
328.829	540.5
329.058	536.5
329.287	550.5
329.515	521.5
329.744	522.5
329.972	492.5
330.201	502.5
330.43	541.5
330.658	563.5
330.887	562.5
331.115	542.5
331.344	515.5
331.572	509.5
331.801	507.5
332.03	503.5
332.258	493.5
332.486	489.5
332.715	482.5
332.943	476.5
333.172	505.5
333.4	489.5
333.629	486.5
333.857	502.5
334.085	514.5
334.314	521.5
334.542	524.5
334.771	527.5
334.999	494.5
335.227	501.5
335.455	498.5
335.684	483.5
335.912	451.5
336.14	453.5
336.369	479.5
336.597	480.5
336.825	447.5
337.053	465.5
337.281	461.5
337.51	438.5
337.738	462.5
337.966	462.5
338.194	474.5
338.422	453.5
338.65	477.5
338.878	463.5
339.106	462.5
339.334	463.5
339.562	448.5
339.79	435.5
340.018	458.5
340.246	434.5
340.474	451.5
340.702	451.5
340.93	435.5
341.158	441.5
341.386	437.5
341.614	446.5
341.842	460.5
342.07	426.5
342.298	431.5
342.526	454.5
342.754	455.5
342.981	427.5
343.209	438.5
343.437	447.5
343.665	440.5
343.893	434.5
344.12	455.5
344.348	491.5
344.576	452.5
344.804	464.5
345.031	455.5
345.259	476.5
345.487	450.5
345.714	456.5
345.942	447.5
346.17	427.5
346.397	430.5
346.625	428.5
346.853	421.5
347.08	439.5
347.308	421.5
347.535	432.5
347.763	452.5
347.99	410.5
348.218	412.5
348.445	432.5
348.673	443.5
348.9	416.5
349.128	428.5
349.355	416.5
349.583	419.5
349.81	405.5
350.037	435.5
350.265	391.5
350.492	405.5
350.72	400.5
350.947	430.5
351.174	440.5
351.402	413.5
351.629	414.5
351.856	433.5
352.083	427.5
352.311	418.5
352.538	417.5
352.765	427.5
352.992	413.5
353.22	431.5
353.447	411.5
353.674	406.5
353.901	407.5
354.128	403.5
354.355	394.5
354.583	413.5
354.81	415.5
355.037	399.5
355.264	397.5
355.491	389.5
355.718	403.5
355.945	391.5
356.172	393.5
356.399	395.5
356.626	380.5
356.853	408.5
357.08	407.5
357.307	389.5
357.534	379.5
357.761	401.5
357.988	404.5
358.215	407.5
358.441	369.5
358.668	394.5
358.895	387.5
359.122	410.5
359.349	415.5
359.576	402.5
359.802	420.5
360.029	460.5
360.256	457.5
360.483	447.5
360.709	399.5
360.936	417.5
361.163	405.5
361.39	425.5
361.616	404.5
361.843	411.5
362.07	421.5
362.296	410.5
362.523	408.5
362.749	402.5
362.976	408.5
363.203	412.5
363.429	408.5
363.656	392.5
363.882	394.5
364.109	405.5
364.335	387.5
364.562	393.5
364.788	390.5
365.015	392.5
365.241	401.5
365.468	410.5
365.694	403.5
365.92	407.5
366.147	392.5
366.373	386.5
366.599	395.5
366.826	390.5
367.052	378.5
367.278	388.5
367.505	395.5
367.731	411.5
367.957	400.5
368.184	407.5
368.41	376.5
368.636	400.5
368.862	414.5
369.089	403.5
369.315	380.5
369.541	414.5
369.767	406.5
369.993	398.5
370.219	381.5
370.445	379.5
370.672	407.5
370.898	400.5
371.124	402.5
371.35	421.5
371.576	395.5
371.802	388.5
372.028	397.5
372.254	418.5
372.48	402.5
372.706	391.5
372.932	396.5
373.158	408.5
373.384	407.5
373.61	407.5
373.835	414.5
374.061	395.5
374.287	382.5
374.513	416.5
374.739	398.5
374.965	418.5
375.191	416.5
375.416	398.5
375.642	385.5
375.868	392.5
376.094	392.5
376.319	380.5
376.545	402.5
376.771	375.5
376.997	374.5
377.222	390.5
377.448	398.5
377.674	376.5
377.899	382.5
378.125	392.5
378.35	403.5
378.576	378.5
378.802	394.5
379.027	413.5
379.253	375.5
379.478	403.5
379.704	390.5
379.929	394.5
380.155	397.5
380.38	402.5
380.606	385.5
380.831	393.5
381.057	403.5
381.282	403.5
381.507	383.5
381.733	386.5
381.958	390.5
382.184	396.5
382.409	391.5
382.634	413.5
382.86	405.5
383.085	403.5
383.31	399.5
383.535	409.5
383.761	406.5
383.986	410.5
384.211	409.5
384.436	387.5
384.662	417.5
384.887	443.5
385.112	423.5
385.337	429.5
385.562	424.5
385.787	410.5
386.013	416.5
386.238	423.5
386.463	449.5
386.688	417.5
386.913	425.5
387.138	419.5
387.363	416.5
387.588	418.5
387.813	428.5
388.038	437.5
388.263	427.5
388.488	438.5
388.713	450.5
388.938	439.5
389.163	444.5
389.387	430.5
389.612	419.5
389.837	407.5
390.062	430.5
390.287	439.5
390.512	435.5
390.736	424.5
390.961	426.5
391.186	418.5
391.411	424.5
391.636	451.5
391.86	452.5
392.085	451.5
392.31	453.5
392.534	459.5
392.759	431.5
392.984	435.5
393.208	445.5
393.433	443.5
393.658	434.5
393.882	432.5
394.107	430.5
394.331	426.5
394.556	438.5
394.78	447.5
395.005	436.5
395.229	427.5
395.454	452.5
395.678	451.5
395.903	436.5
396.127	470.5
396.352	458.5
396.576	485.5
396.801	456.5
397.025	453.5
397.249	442.5
397.474	454.5
397.698	457.5
397.922	468.5
398.147	470.5
398.371	489.5
398.595	495.5
398.82	476.5
399.044	521.5
399.268	536.5
399.492	569.5
399.717	580.5
399.941	625.5
400.165	636.5
400.389	605.5
400.613	562.5
400.837	543.5
401.062	506.5
401.286	514.5
401.51	502.5
401.734	498.5
401.958	476.5
402.182	475.5
402.406	506.5
402.63	493.5
402.854	471.5
403.078	500.5
403.302	510.5
403.526	508.5
403.75	526.5
403.974	515.5
404.198	521.5
404.422	532.5
404.645	515.5
404.869	521.5
405.093	552.5
405.317	580.5
405.541	608.5
405.765	553.5
405.988	524.5
406.212	550.5
406.436	553.5
406.66	559.5
406.883	542.5
407.107	593.5
407.331	614.5
407.555	656.5
407.778	652.5
408.002	598.5
408.226	566.5
408.449	576.5
408.673	560.5
408.896	578.5
409.12	611.5
409.344	599.5
409.567	538.5
409.791	528.5
410.014	505.5
410.238	520.5
410.461	519.5
410.685	502.5
410.908	517.5
411.132	553.5
411.355	593.5
411.578	558.5
411.802	505.5
412.025	491.5
412.249	527.5
412.472	538.5
412.695	555.5
412.919	553.5
413.142	515.5
413.365	506.5
413.589	499.5
413.812	495.5
414.035	503.5
414.258	476.5
414.482	492.5
414.705	453.5
414.928	483.5
415.151	486.5
415.374	468.5
415.597	476.5
415.821	468.5
416.044	469.5
416.267	465.5
416.49	467.5
416.713	476.5
416.936	458.5
417.159	465.5
417.382	485.5
417.605	458.5
417.828	476.5
418.051	491.5
418.274	474.5
418.497	473.5
418.72	485.5
418.943	476.5
419.166	490.5
419.389	522.5
419.611	525.5
419.834	500.5
420.057	508.5
420.28	490.5
420.503	493.5
420.726	500.5
420.948	514.5
421.171	516.5
421.394	556.5
421.617	533.5
421.839	488.5
422.062	495.5
422.285	510.5
422.507	528.5
422.73	621.5
422.953	580.5
423.175	522.5
423.398	510.5
423.621	522.5
423.843	513.5
424.066	504.5
424.288	509.5
424.511	527.5
424.733	595.5
424.956	660.5
425.178	614.5
425.401	622.5
425.623	636.5
425.846	558.5
426.068	529.5
426.291	530.5
426.513	532.5
426.735	532.5
426.958	554.5
427.18	620.5
427.402	766.5
427.625	780.5
427.847	702.5
428.069	616.5
428.292	538.5
428.514	490.5
428.736	495.5
428.958	486.5
429.181	472.5
429.403	463.5
429.625	484.5
429.847	526.5
430.069	554.5
430.292	556.5
430.514	481.5
430.736	468.5
430.958	473.5
431.18	472.5
431.402	456.5
431.624	454.5
431.846	454.5
432.068	446.5
432.29	452.5
432.512	434.5
432.734	445.5
432.956	462.5
433.178	449.5
433.4	463.5
433.622	450.5
433.844	450.5
434.066	443.5
434.287	444.5
434.509	463.5
434.731	452.5
434.953	477.5
435.175	469.5
435.397	506.5
435.618	511.5
435.84	558.5
436.062	624.5
436.284	684.5
436.505	546.5
436.727	524.5
436.949	505.5
437.17	483.5
437.392	475.5
437.614	488.5
437.835	499.5
438.057	573.5
438.278	674.5
438.5	674.5
438.721	737.5
438.943	679.5
439.165	556.5
439.386	544.5
439.608	509.5
439.829	510.5
440.05	529.5
440.272	569.5
440.493	547.5
440.715	498.5
440.936	480.5
441.158	476.5
441.379	474.5
441.6	484.5
441.822	528.5
442.043	562.5
442.264	623.5
442.486	648.5
442.707	544.5
442.928	544.5
443.149	517.5
443.371	536.5
443.592	578.5
443.813	640.5
444.034	729.5
444.255	603.5
444.476	548.5
444.698	536.5
444.919	520.5
445.14	663.5
445.361	585.5
445.582	557.5
445.803	604.5
446.024	688.5
446.245	692.5
446.466	624.5
446.687	521.5
446.908	509.5
447.129	460.5
447.35	458.5
447.571	478.5
447.792	457.5
448.013	452.5
448.234	456.5
448.455	498.5
448.675	620.5
448.896	720.5
449.117	608.5
449.338	583.5
449.559	661.5
449.779	758.5
450	598.5
450.221	509.5
450.442	470.5
450.662	463.5
450.883	437.5
451.104	470.5
451.324	446.5
451.545	439.5
451.766	420.5
451.986	413.5
452.207	408.5
452.428	420.5
452.648	432.5
452.869	403.5
453.089	404.5
453.31	420.5
453.53	412.5
453.751	406.5
453.971	410.5
454.192	432.5
454.412	422.5
454.633	411.5
454.853	415.5
455.073	407.5
455.294	446.5
455.514	490.5
455.734	481.5
455.955	415.5
456.175	402.5
456.395	386.5
456.616	382.5
456.836	385.5
457.056	399.5
457.276	361.5
457.497	390.5
457.717	386.5
457.937	399.5
458.157	398.5
458.377	410.5
458.598	423.5
458.818	483.5
459.038	539.5
459.258	528.5
459.478	482.5
459.698	463.5
459.918	440.5
460.138	458.5
460.358	474.5
460.578	449.5
460.798	464.5
461.018	456.5
461.238	452.5
461.458	449.5
461.678	477.5
461.898	461.5
462.118	474.5
462.338	486.5
462.558	479.5
462.777	503.5
462.997	485.5
463.217	516.5
463.437	526.5
463.657	501.5
463.876	500.5
464.096	514.5
464.316	486.5
464.536	525.5
464.755	493.5
464.975	505.5
465.195	507.5
465.414	552.5
465.634	487.5
465.854	468.5
466.073	438.5
466.293	456.5
466.512	436.5
466.732	444.5
466.951	435.5
467.171	439.5
467.391	431.5
467.61	422.5
467.829	454.5
468.049	416.5
468.268	429.5
468.488	416.5
468.707	430.5
468.927	418.5
469.146	399.5
469.365	426.5
469.585	433.5
469.804	429.5
470.023	420.5
470.243	430.5
470.462	421.5
470.681	468.5
470.901	442.5
471.12	426.5
471.339	425.5
471.558	431.5
471.777	424.5
471.997	423.5
472.216	421.5
472.435	428.5
472.654	424.5
472.873	418.5
473.092	428.5
473.311	432.5
473.53	419.5
473.749	447.5
473.968	490.5
474.187	533.5
474.406	566.5
474.625	470.5
474.844	427.5
475.063	398.5
475.282	425.5
475.501	432.5
475.72	451.5
475.939	450.5
476.158	462.5
476.377	427.5
476.596	437.5
476.814	456.5
477.033	443.5
477.252	445.5
477.471	466.5
477.69	452.5
477.908	474.5
478.127	503.5
478.346	470.5
478.564	478.5
478.783	466.5
479.002	478.5
479.22	473.5
479.439	499.5
479.658	508.5
479.876	500.5
480.095	522.5
480.313	540.5
480.532	516.5
480.751	545.5
480.969	534.5
481.188	540.5
481.406	571.5
481.624	520.5
481.843	532.5
482.061	502.5
482.28	490.5
482.498	487.5
482.717	479.5
482.935	480.5
483.153	473.5
483.372	482.5
483.59	477.5
483.808	516.5
484.027	482.5
484.245	485.5
484.463	490.5
484.681	495.5
484.9	490.5
485.118	506.5
485.336	513.5
485.554	513.5
485.772	499.5
485.99	494.5
486.209	509.5
486.427	518.5
486.645	543.5
486.863	524.5
487.081	525.5
487.299	524.5
487.517	538.5
487.735	508.5
487.953	497.5
488.171	509.5
488.389	526.5
488.607	525.5
488.825	526.5
489.043	515.5
489.261	519.5
489.479	519.5
489.696	524.5
489.914	546.5
490.132	525.5
490.35	560.5
490.568	567.5
490.786	524.5
491.003	562.5
491.221	555.5
491.439	588.5
491.657	593.5
491.874	582.5
492.092	594.5
492.31	586.5
492.527	604.5
492.745	603.5
492.963	587.5
493.18	611.5
493.398	611.5
493.615	607.5
493.833	617.5
494.05	619.5
494.268	601.5
494.485	612.5
494.703	607.5
494.92	614.5
495.138	634.5
495.355	622.5
495.573	612.5
495.79	618.5
496.008	611.5
496.225	611.5
496.442	629.5
496.66	619.5
496.877	617.5
497.094	610.5
497.312	646.5
497.529	663.5
497.746	650.5
497.963	673.5
498.181	682.5
498.398	690.5
498.615	691.5
498.832	706.5
499.049	740.5
499.267	763.5
499.484	815.5
499.701	840.5
499.918	831.5
500.135	895.5
500.352	964.5
500.569	955.5
500.786	962.5
501.003	974.5
501.22	920.5
501.437	885.5
501.654	848.5
501.871	818.5
502.088	783.5
502.305	742.5
502.522	734.5
502.739	714.5
502.956	681.5
503.172	688.5
503.389	664.5
503.606	642.5
503.823	650.5
504.04	643.5
504.256	629.5
504.473	641.5
504.69	634.5
504.907	629.5
505.123	616.5
505.34	596.5
505.557	596.5
505.773	595.5
505.99	569.5
506.207	588.5
506.423	587.5
506.64	572.5
506.856	553.5
507.073	565.5
507.289	543.5
507.506	551.5
507.722	548.5
507.939	581.5
508.155	577.5
508.372	537.5
508.588	526.5
508.805	565.5
509.021	563.5
509.238	558.5
509.454	559.5
509.67	583.5
509.887	539.5
510.103	548.5
510.319	566.5
510.536	621.5
510.752	886.5
510.968	728.5
511.184	539.5
511.401	528.5
511.617	526.5
511.833	541.5
512.049	528.5
512.265	503.5
512.481	507.5
512.698	510.5
512.914	504.5
513.13	519.5
513.346	514.5
513.562	517.5
513.778	516.5
513.994	505.5
514.21	524.5
514.426	526.5
514.642	547.5
514.858	596.5
515.074	591.5
515.29	687.5
515.506	901.5
515.721	774.5
515.937	586.5
516.153	542.5
516.369	540.5
516.585	534.5
516.801	549.5
517.016	545.5
517.232	568.5
517.448	572.5
517.664	576.5
517.879	563.5
518.095	558.5
518.311	540.5
518.527	542.5
518.742	548.5
518.958	527.5
519.173	530.5
519.389	529.5
519.605	508.5
519.82	526.5
