Data from 1977.PennyLincolnUp.Lamp.En5.5.200Scan.071719.P1_HRD10591_16-07-35-864.txt Node
Date: Thu Jul 18 16:07:35 EDT 2019
User: cochatt
Spectrometer: HR+D1059
Trigger mode: 1
Integration Time (sec): 1.000000E-1
Scans to average: 1
Electric dark correction enabled: true
Nonlinearity correction enabled: false
Boxcar width: 0
XAxis mode: Wavelengths
Number of Pixels in Spectrum: 2048
>>>>>Begin Spectral Data<<<<<
223.165	-20
223.4	-20
223.635	-20
223.869	-19
224.104	-22
224.338	-19
224.573	-31
224.808	-17
225.042	-15
225.277	-10
225.511	8
225.746	9
225.98	5
226.215	26
226.449	25
226.683	16
226.918	32
227.152	32
227.387	40
227.621	44
227.856	53
228.09	58
228.324	47
228.559	49
228.793	77
229.027	97
229.262	109
229.496	111
229.73	111
229.964	144
230.199	114
230.433	118
230.667	111
230.901	113
231.136	121
231.37	97
231.604	111
231.838	101
232.072	111
232.306	116
232.541	108
232.775	108
233.009	120
233.243	116
233.477	106
233.711	121
233.945	109
234.179	116
234.413	118
234.647	118
234.881	115
235.115	130
235.349	112
235.583	132
235.817	121
236.051	124
236.285	134
236.519	125
236.753	134
236.987	140
237.221	155
237.455	200
237.689	196
237.922	140
238.156	139
238.39	144
238.624	111
238.858	121
239.091	126
239.325	134
239.559	123
239.793	127
240.027	138
240.26	140
240.494	153
240.728	150
240.961	147
241.195	134
241.429	131
241.662	145
241.896	141
242.13	143
242.363	148
242.597	129
242.83	142
243.064	140
243.298	131
243.531	145
243.765	134
243.998	147
244.232	132
244.465	154
244.699	149
244.932	150
245.166	152
245.399	150
245.633	138
245.866	141
246.099	173
246.333	166
246.566	141
246.8	155
247.033	163
247.266	152
247.5	177
247.733	173
247.966	175
248.2	170
248.433	158
248.666	170
248.899	169
249.133	201
249.366	198
249.599	194
249.832	187
250.066	180
250.299	193
250.532	186
250.765	195
250.998	218
251.231	231
251.465	222
251.698	185
251.931	198
252.164	194
252.397	202
252.63	187
252.863	209
253.096	208
253.329	237
253.562	223
253.795	211
254.028	208
254.261	206
254.494	233
254.727	251
254.96	261
255.193	253
255.426	245
255.659	236
255.892	224
256.124	242
256.357	226
256.59	217
256.823	216
257.056	210
257.289	208
257.521	212
257.754	206
257.987	226
258.22	209
258.452	205
258.685	222
258.918	216
259.151	228
259.383	233
259.616	226
259.849	230
260.081	239
260.314	258
260.547	279
260.779	237
261.012	240
261.244	237
261.477	226
261.71	221
261.942	233
262.175	233
262.407	233
262.64	212
262.872	219
263.105	221
263.337	210
263.57	205
263.802	219
264.035	207
264.267	209
264.499	212
264.732	232
264.964	221
265.197	221
265.429	233
265.661	215
265.894	237
266.126	230
266.358	221
266.591	222
266.823	237
267.055	241
267.287	236
267.52	249
267.752	241
267.984	245
268.216	232
268.448	264
268.681	239
268.913	253
269.145	275
269.377	275
269.609	277
269.841	287
270.073	293
270.306	307
270.538	315
270.77	322
271.002	323
271.234	314
271.466	290
271.698	314
271.93	320
272.162	316
272.394	336
272.626	312
272.858	296
273.09	289
273.322	279
273.553	264
273.785	290
274.017	272
274.249	287
274.481	283
274.713	281
274.945	284
275.176	285
275.408	284
275.64	275
275.872	267
276.104	284
276.335	285
276.567	279
276.799	291
277.031	318
277.262	337
277.494	334
277.726	314
277.957	277
278.189	290
278.421	282
278.652	300
278.884	276
279.115	293
279.347	298
279.579	292
279.81	285
280.042	285
280.273	292
280.505	268
280.736	285
280.968	294
281.199	275
281.431	289
281.662	295
281.894	289
282.125	279
282.356	301
282.588	324
282.819	315
283.051	303
283.282	287
283.513	302
283.745	311
283.976	294
284.207	334
284.439	299
284.67	308
284.901	304
285.132	317
285.364	292
285.595	284
285.826	311
286.057	301
286.288	320
286.52	318
286.751	312
286.982	317
287.213	301
287.444	299
287.675	316
287.906	327
288.138	326
288.369	319
288.6	308
288.831	324
289.062	324
289.293	327
289.524	310
289.755	308
289.986	316
290.217	308
290.448	293
290.679	310
290.91	307
291.141	312
291.371	322
291.602	318
291.833	297
292.064	322
292.295	337
292.526	330
292.757	327
292.987	304
293.218	298
293.449	312
293.68	333
293.91	314
294.141	317
294.372	314
294.603	312
294.833	330
295.064	317
295.295	312
295.525	326
295.756	301
295.987	334
296.217	339
296.448	345
296.679	334
296.909	312
297.14	334
297.37	315
297.601	325
297.831	317
298.062	294
298.292	303
298.523	345
298.753	323
298.984	332
299.214	313
299.445	332
299.675	318
299.905	346
300.136	329
300.366	345
300.597	334
300.827	338
301.057	334
301.288	340
301.518	353
301.748	330
301.979	330
302.209	349
302.439	350
302.669	354
302.9	348
303.13	356
303.36	343
303.59	336
303.82	369
304.051	346
304.281	349
304.511	348
304.741	355
304.971	347
305.201	349
305.431	361
305.661	351
305.891	348
306.121	358
306.352	337
306.582	369
306.812	336
307.042	375
307.272	366
307.502	356
307.731	373
307.961	348
308.191	368
308.421	354
308.651	348
308.881	366
309.111	370
309.341	359
309.571	377
309.8	389
310.03	378
310.26	388
310.49	383
310.72	395
310.949	382
311.179	407
311.409	398
311.639	388
311.868	394
312.098	408
312.328	383
312.557	392
312.787	421
313.017	398
313.246	405
313.476	398
313.706	401
313.935	405
314.165	408
314.394	418
314.624	413
314.853	396
315.083	397
315.312	402
315.542	386
315.771	375
316.001	398
316.23	399
316.46	403
316.689	410
316.919	393
317.148	402
317.377	395
317.607	406
317.836	401
318.065	383
318.295	384
318.524	405
318.753	388
318.983	409
319.212	396
319.441	422
319.67	403
319.9	385
320.129	417
320.358	403
320.587	407
320.816	385
321.046	412
321.275	403
321.504	399
321.733	412
321.962	400
322.191	456
322.42	428
322.649	449
322.878	461
323.108	464
323.337	472
323.566	490
323.795	534
324.024	539
324.253	665
324.482	906
324.71	1312
324.939	1800
325.168	1562
325.397	824
325.626	588
325.855	524
326.084	481
326.313	490
326.542	489
326.77	523
326.999	637
327.228	839
327.457	1177
327.686	1376
327.914	907
328.143	625
328.372	567
328.6	558
328.829	506
329.058	548
329.287	536
329.515	545
329.744	485
329.972	502
330.201	502
330.43	532
330.658	551
330.887	559
331.115	556
331.344	506
331.572	483
331.801	490
332.03	497
332.258	489
332.486	481
332.715	449
332.943	469
333.172	481
333.4	478
333.629	498
333.857	513
334.085	503
334.314	498
334.542	524
334.771	543
334.999	483
335.227	494
335.455	481
335.684	482
335.912	469
336.14	453
336.369	458
336.597	460
336.825	500
337.053	456
337.281	433
337.51	457
337.738	453
337.966	454
338.194	447
338.422	455
338.65	452
338.878	438
339.106	443
339.334	440
339.562	420
339.79	445
340.018	440
340.246	442
340.474	429
340.702	439
340.93	441
341.158	427
341.386	456
341.614	434
341.842	449
342.07	434
342.298	424
342.526	400
342.754	428
342.981	428
343.209	444
343.437	449
343.665	463
343.893	461
344.12	460
344.348	448
344.576	465
344.804	458
345.031	433
345.259	449
345.487	453
345.714	429
345.942	439
346.17	423
346.397	413
346.625	418
346.853	417
347.08	408
347.308	431
347.535	431
347.763	440
347.99	421
348.218	424
348.445	422
348.673	433
348.9	409
349.128	426
349.355	404
349.583	404
349.81	420
350.037	398
350.265	407
350.492	422
350.72	420
350.947	390
351.174	403
351.402	404
351.629	430
351.856	406
352.083	408
352.311	430
352.538	414
352.765	398
352.992	414
353.22	414
353.447	400
353.674	407
353.901	408
354.128	408
354.355	400
354.583	410
354.81	396
355.037	408
355.264	383
355.491	388
355.718	389
355.945	407
356.172	388
356.399	389
356.626	388
356.853	386
357.08	392
357.307	388
357.534	397
357.761	382
357.988	382
358.215	388
358.441	379
358.668	382
358.895	399
359.122	406
359.349	383
359.576	401
359.802	418
360.029	456
360.256	469
360.483	436
360.709	411
360.936	420
361.163	410
361.39	407
361.616	414
361.843	410
362.07	390
362.296	415
362.523	416
362.749	398
362.976	410
363.203	403
363.429	390
363.656	408
363.882	392
364.109	376
364.335	396
364.562	398
364.788	402
365.015	385
365.241	405
365.468	408
365.694	405
365.92	394
366.147	380
366.373	409
366.599	408
366.826	386
367.052	392
367.278	408
367.505	409
367.731	394
367.957	397
368.184	406
368.41	378
368.636	406
368.862	412
369.089	400
369.315	390
369.541	411
369.767	395
369.993	378
370.219	410
370.445	392
370.672	391
370.898	388
371.124	380
371.35	398
371.576	403
371.802	386
372.028	394
372.254	384
372.48	392
372.706	386
372.932	401
373.158	416
373.384	392
373.61	408
373.835	396
374.061	408
374.287	398
374.513	407
374.739	412
374.965	410
375.191	393
375.416	398
375.642	399
375.868	406
376.094	385
376.319	374
376.545	384
376.771	397
376.997	389
377.222	390
377.448	380
377.674	389
377.899	387
378.125	354
378.35	378
378.576	390
378.802	372
379.027	394
379.253	385
379.478	386
379.704	387
379.929	384
380.155	366
380.38	390
380.606	388
380.831	388
381.057	411
381.282	384
381.507	386
381.733	396
381.958	382
382.184	400
382.409	388
382.634	396
382.86	393
383.085	406
383.31	398
383.535	407
383.761	401
383.986	412
384.211	417
384.436	415
384.662	422
384.887	449
385.112	420
385.337	431
385.562	422
385.787	425
386.013	415
386.238	424
386.463	428
386.688	427
386.913	422
387.138	415
387.363	430
387.588	425
387.813	432
388.038	423
388.263	428
388.488	431
388.713	423
388.938	419
389.163	432
389.387	424
389.612	419
389.837	430
390.062	442
390.287	435
390.512	425
390.736	417
390.961	438
391.186	426
391.411	419
391.636	415
391.86	461
392.085	438
392.31	430
392.534	433
392.759	438
392.984	427
393.208	433
393.433	448
393.658	428
393.882	419
394.107	418
394.331	446
394.556	436
394.78	426
395.005	428
395.229	424
395.454	440
395.678	445
395.903	457
396.127	454
396.352	467
396.576	447
396.801	449
397.025	441
397.249	450
397.474	460
397.698	452
397.922	456
398.147	475
398.371	476
398.595	488
398.82	488
399.044	511
399.268	500
399.492	555
399.717	592
399.941	611
400.165	595
400.389	602
400.613	552
400.837	527
401.062	500
401.286	491
401.51	509
401.734	486
401.958	482
402.182	488
402.406	488
402.63	485
402.854	498
403.078	513
403.302	492
403.526	501
403.75	486
403.974	517
404.198	514
404.422	512
404.645	513
404.869	523
405.093	540
405.317	573
405.541	613
405.765	558
405.988	534
406.212	534
406.436	550
406.66	556
406.883	539
407.107	574
407.331	598
407.555	636
407.778	630
408.002	583
408.226	568
408.449	544
408.673	551
408.896	577
409.12	600
409.344	578
409.567	530
409.791	508
410.014	507
410.238	522
410.461	500
410.685	505
410.908	522
411.132	516
411.355	574
411.578	550
411.802	495
412.025	504
412.249	488
412.472	516
412.695	545
412.919	528
413.142	489
413.365	494
413.589	489
413.812	468
414.035	462
414.258	481
414.482	477
414.705	480
414.928	494
415.151	483
415.374	452
415.597	465
415.821	476
416.044	452
416.267	474
416.49	462
416.713	438
416.936	457
417.159	444
417.382	484
417.605	482
417.828	456
418.051	464
418.274	486
418.497	484
418.72	475
418.943	449
419.166	477
419.389	497
419.611	508
419.834	497
420.057	507
420.28	496
420.503	494
420.726	493
420.948	498
421.171	531
421.394	570
421.617	496
421.839	465
422.062	463
422.285	497
422.507	548
422.73	618
422.953	590
423.175	531
423.398	522
423.621	502
423.843	513
424.066	509
424.288	511
424.511	501
424.733	570
424.956	639
425.178	620
425.401	624
425.623	650
425.846	548
426.068	515
426.291	511
426.513	501
426.735	504
426.958	555
427.18	636
427.402	739
427.625	801
427.847	676
428.069	612
428.292	552
428.514	479
428.736	454
428.958	470
429.181	441
429.403	470
429.625	474
429.847	514
430.069	574
430.292	548
430.514	490
430.736	463
430.958	465
431.18	444
431.402	474
431.624	447
431.846	442
432.068	446
432.29	440
432.512	455
432.734	458
432.956	452
433.178	450
433.4	445
433.622	445
433.844	442
434.066	443
434.287	447
434.509	466
434.731	443
434.953	492
435.175	484
435.397	495
435.618	504
435.84	517
436.062	640
436.284	686
436.505	570
436.727	506
436.949	486
437.17	460
437.392	467
437.614	470
437.835	493
438.057	555
438.278	650
438.5	654
438.721	739
438.943	726
439.165	572
439.386	532
439.608	504
439.829	494
440.05	500
440.272	559
440.493	512
440.715	494
440.936	474
441.158	455
441.379	470
441.6	491
441.822	507
442.043	544
442.264	608
442.486	647
442.707	544
442.928	516
443.149	522
443.371	529
443.592	564
443.813	662
444.034	710
444.255	597
444.476	525
444.698	515
444.919	524
445.14	636
445.361	553
445.582	548
445.803	585
446.024	664
446.245	680
446.466	622
446.687	546
446.908	501
447.129	489
447.35	477
447.571	452
447.792	444
448.013	465
448.234	484
448.455	509
448.675	615
448.896	718
449.117	604
449.338	574
449.559	673
449.779	764
450	607
450.221	504
450.442	468
450.662	452
450.883	476
451.104	453
451.324	438
451.545	428
451.766	416
451.986	418
452.207	429
452.428	408
452.648	418
452.869	402
453.089	413
453.31	428
453.53	418
453.751	409
453.971	384
454.192	415
454.412	409
454.633	406
454.853	412
455.073	424
455.294	457
455.514	487
455.734	471
455.955	385
456.175	400
456.395	405
456.616	390
456.836	396
457.056	398
457.276	389
457.497	397
457.717	392
457.937	391
458.157	408
458.377	414
458.598	434
458.818	446
459.038	554
459.258	536
459.478	474
459.698	449
459.918	444
460.138	462
460.358	458
460.578	429
460.798	474
461.018	479
461.238	447
461.458	466
461.678	443
461.898	452
462.118	465
462.338	479
462.558	502
462.777	493
462.997	503
463.217	534
463.437	504
463.657	534
463.876	479
464.096	488
464.316	481
464.536	483
464.755	485
464.975	490
465.195	494
465.414	521
465.634	491
465.854	442
466.073	457
466.293	432
466.512	413
466.732	422
466.951	433
467.171	423
467.391	415
467.61	423
467.829	429
468.049	424
468.268	430
468.488	409
468.707	416
468.927	435
469.146	414
469.365	431
469.585	403
469.804	412
470.023	440
470.243	409
470.462	422
470.681	436
470.901	453
471.12	440
471.339	428
471.558	425
471.777	428
471.997	410
472.216	427
472.435	440
472.654	435
472.873	422
473.092	421
473.311	424
473.53	428
473.749	442
473.968	472
474.187	554
474.406	556
474.625	484
474.844	450
475.063	431
475.282	422
475.501	426
475.72	423
475.939	408
476.158	438
476.377	427
476.596	430
476.814	437
477.033	440
477.252	458
477.471	451
477.69	461
477.908	453
478.127	457
478.346	465
478.564	461
478.783	475
479.002	479
479.22	486
479.439	505
479.658	518
479.876	510
480.095	493
480.313	551
480.532	545
480.751	548
480.969	535
481.188	543
481.406	572
481.624	540
481.843	503
482.061	500
482.28	493
482.498	481
482.717	467
482.935	476
483.153	486
483.372	503
483.59	513
483.808	486
484.027	500
484.245	491
484.463	460
484.681	504
484.9	479
485.118	518
485.336	482
485.554	496
485.772	487
485.99	512
486.209	496
486.427	511
486.645	488
486.863	518
487.081	521
487.299	531
487.517	529
487.735	512
487.953	528
488.171	513
488.389	534
488.607	528
488.825	531
489.043	548
489.261	533
489.479	520
489.696	538
489.914	528
490.132	534
490.35	537
490.568	538
490.786	570
491.003	575
491.221	570
491.439	555
491.657	569
491.874	576
492.092	554
492.31	596
492.527	590
492.745	599
492.963	594
493.18	588
493.398	585
493.615	615
493.833	594
494.05	588
494.268	596
494.485	597
494.703	598
494.92	586
495.138	626
495.355	620
495.573	595
495.79	598
496.008	601
496.225	603
496.442	621
496.66	604
496.877	608
497.094	616
497.312	646
497.529	632
497.746	652
497.963	649
498.181	678
498.398	684
498.615	694
498.832	722
499.049	716
499.267	763
499.484	771
499.701	802
499.918	838
500.135	879
500.352	942
500.569	948
500.786	939
501.003	911
501.22	891
501.437	868
501.654	850
501.871	816
502.088	755
502.305	755
502.522	711
502.739	694
502.956	692
503.172	668
503.389	653
503.606	646
503.823	635
504.04	640
504.256	617
504.473	595
504.69	624
504.907	633
505.123	622
505.34	591
505.557	617
505.773	574
505.99	593
506.207	584
506.423	579
506.64	585
506.856	580
507.073	574
507.289	557
507.506	558
507.722	561
507.939	572
508.155	543
508.372	543
508.588	530
508.805	542
509.021	528
509.238	566
509.454	556
509.67	541
509.887	530
510.103	573
510.319	547
510.536	608
510.752	857
510.968	703
511.184	544
511.401	536
511.617	530
511.833	505
512.049	512
512.265	525
512.481	514
512.698	506
512.914	513
513.13	495
513.346	491
513.562	529
513.778	509
513.994	506
514.21	529
514.426	529
514.642	573
514.858	564
515.074	593
515.29	676
515.506	854
515.721	732
515.937	586
516.153	545
516.369	554
516.585	530
516.801	545
517.016	548
517.232	548
517.448	543
517.664	538
517.879	566
518.095	554
518.311	553
518.527	542
518.742	537
518.958	516
519.173	499
519.389	513
519.605	511
519.82	524
520.036	508
520.251	558
520.467	543
520.682	522
520.898	556
521.113	550
521.329	555
521.544	636
521.76	714
521.975	1043
522.19	1026
522.406	652
522.621	570
522.836	522
523.052	484
523.267	463
523.482	464
523.698	453
523.913	476
524.128	484
524.343	451
524.559	471
524.774	443
524.989	442
525.204	443
525.419	450
525.634	430
525.849	431
526.064	441
526.28	453
526.495	420
526.71	434
526.925	446
527.14	434
527.355	422
527.57	423
527.785	416
527.999	428
528.214	429
528.429	428
528.644	433
528.859	442
529.074	453
529.289	447
529.503	476
529.718	463
529.933	433
530.148	446
530.363	406
530.577	437
530.792	421
531.007	416
531.221	422
531.436	415
531.651	396
531.865	407
532.08	393
532.295	415
532.509	419
532.724	400
532.938	418
533.153	409
533.367	398
533.582	405
533.796	416
534.011	397
534.225	392
534.44	396
534.654	412
534.868	411
535.083	387
535.297	430
535.511	414
535.726	412
535.94	413
536.154	416
536.369	409
536.583	412
536.797	396
537.011	393
537.225	416
537.44	418
537.654	402
537.868	415
538.082	384
538.296	394
538.51	398
538.724	380
538.938	405
539.153	400
539.367	415
539.581	385
539.795	388
540.009	409
540.222	386
540.436	414
540.65	387
540.864	380
541.078	392
541.292	391
541.506	416
541.72	395
541.934	396
542.147	405
542.361	390
542.575	386
542.789	397
543.002	378
543.216	390
543.43	373
543.644	384
543.857	413
544.071	400
544.285	390
544.498	395
544.712	392
544.925	395
545.139	392
545.352	394
545.566	384
545.779	386
545.993	395
546.206	390
546.42	396
546.633	391
546.847	374
547.06	396
547.274	369
547.487	382
547.7	396
547.914	384
548.127	370
548.34	378
548.554	386
548.767	381
548.98	383
549.193	392
549.407	378
549.62	396
549.833	392
550.046	408
550.259	384
550.473	376
550.686	384
550.899	391
551.112	385
551.325	358
551.538	359
551.751	360
551.964	370
552.177	380
552.39	404
552.603	397
552.816	392
553.029	380
553.242	397
553.455	388
553.667	400
553.88	386
554.093	400
554.306	392
554.519	378
554.732	366
554.944	369
555.157	362
555.37	358
555.583	381
555.795	366
556.008	350
556.221	350
556.433	356
556.646	354
556.859	343
557.071	327
557.284	346
557.496	357
557.709	362
557.921	338
558.134	321
558.346	337
558.559	339
558.771	331
558.984	329
559.196	331
559.409	343
559.621	347
559.833	337
560.046	338
560.258	338
560.47	345
560.683	330
560.895	320
561.107	330
561.32	343
561.532	322
561.744	359
561.956	358
562.168	344
562.381	322
562.593	353
562.805	335
563.017	322
563.229	316
563.441	332
563.653	332
