Data from 1977.PennyLincolnUp.Lamp.En5.5.200Scan.071719.P1_HRD10591_16-05-49-863.txt Node
Date: Thu Jul 18 16:05:49 EDT 2019
User: cochatt
Spectrometer: HR+D1059
Trigger mode: 1
Integration Time (sec): 1.000000E-1
Scans to average: 1
Electric dark correction enabled: true
Nonlinearity correction enabled: false
Boxcar width: 0
XAxis mode: Wavelengths
Number of Pixels in Spectrum: 2048
>>>>>Begin Spectral Data<<<<<
223.165	-18.81
223.4	-18.81
223.635	-18.81
223.869	-14.81
224.104	-23.81
224.338	-8.81
224.573	-10.81
224.808	-9.81
225.042	-8.81
225.277	-4.81
225.511	-7.81
225.746	-6.81
225.98	10.19
226.215	17.19
226.449	13.19
226.683	22.19
226.918	29.19
227.152	23.19
227.387	46.19
227.621	41.19
227.856	56.19
228.09	54.19
228.324	55.19
228.559	61.19
228.793	79.19
229.027	99.19
229.262	104.19
229.496	106.19
229.73	129.19
229.964	145.19
230.199	116.19
230.433	105.19
230.667	111.19
230.901	120.19
231.136	109.19
231.37	107.19
231.604	114.19
231.838	115.19
232.072	120.19
232.306	111.19
232.541	126.19
232.775	101.19
233.009	120.19
233.243	116.19
233.477	106.19
233.711	115.19
233.945	123.19
234.179	108.19
234.413	115.19
234.647	124.19
234.881	121.19
235.115	120.19
235.349	122.19
235.583	134.19
235.817	126.19
236.051	125.19
236.285	124.19
236.519	142.19
236.753	133.19
236.987	142.19
237.221	163.19
237.455	192.19
237.689	160.19
237.922	152.19
238.156	129.19
238.39	126.19
238.624	124.19
238.858	129.19
239.091	134.19
239.325	125.19
239.559	128.19
239.793	127.19
240.027	134.19
240.26	150.19
240.494	136.19
240.728	137.19
240.961	146.19
241.195	137.19
241.429	130.19
241.662	130.19
241.896	138.19
242.13	152.19
242.363	135.19
242.597	129.19
242.83	143.19
243.064	134.19
243.298	129.19
243.531	135.19
243.765	141.19
243.998	157.19
244.232	139.19
244.465	147.19
244.699	150.19
244.932	159.19
245.166	160.19
245.399	140.19
245.633	141.19
245.866	141.19
246.099	130.19
246.333	161.19
246.566	150.19
246.8	144.19
247.033	143.19
247.266	162.19
247.5	173.19
247.733	167.19
247.966	172.19
248.2	167.19
248.433	168.19
248.666	174.19
248.899	177.19
249.133	188.19
249.366	209.19
249.599	178.19
249.832	175.19
250.066	177.19
250.299	175.19
250.532	185.19
250.765	196.19
250.998	211.19
251.231	208.19
251.465	207.19
251.698	209.19
251.931	192.19
252.164	201.19
252.397	189.19
252.63	173.19
252.863	200.19
253.096	223.19
253.329	220.19
253.562	230.19
253.795	217.19
254.028	217.19
254.261	205.19
254.494	208.19
254.727	238.19
254.96	237.19
255.193	229.19
255.426	240.19
255.659	239.19
255.892	231.19
256.124	211.19
256.357	226.19
256.59	232.19
256.823	213.19
257.056	210.19
257.289	211.19
257.521	195.19
257.754	199.19
257.987	194.19
258.22	202.19
258.452	208.19
258.685	206.19
258.918	210.19
259.151	225.19
259.383	223.19
259.616	214.19
259.849	248.19
260.081	234.19
260.314	242.19
260.547	254.19
260.779	240.19
261.012	225.19
261.244	221.19
261.477	224.19
261.71	220.19
261.942	209.19
262.175	233.19
262.407	213.19
262.64	222.19
262.872	221.19
263.105	206.19
263.337	210.19
263.57	211.19
263.802	184.19
264.035	210.19
264.267	216.19
264.499	224.19
264.732	230.19
264.964	228.19
265.197	219.19
265.429	225.19
265.661	218.19
265.894	242.19
266.126	228.19
266.358	223.19
266.591	235.19
266.823	242.19
267.055	241.19
267.287	238.19
267.52	225.19
267.752	233.19
267.984	241.19
268.216	237.19
268.448	234.19
268.681	240.19
268.913	238.19
269.145	276.19
269.377	274.19
269.609	265.19
269.841	274.19
270.073	270.19
270.306	298.19
270.538	300.19
270.77	317.19
271.002	288.19
271.234	282.19
271.466	291.19
271.698	317.19
271.93	311.19
272.162	313.19
272.394	307.19
272.626	311.19
272.858	279.19
273.09	272.19
273.322	271.19
273.553	272.19
273.785	278.19
274.017	281.19
274.249	268.19
274.481	268.19
274.713	277.19
274.945	287.19
275.176	295.19
275.408	277.19
275.64	267.19
275.872	278.19
276.104	274.19
276.335	272.19
276.567	280.19
276.799	280.19
277.031	298.19
277.262	318.19
277.494	294.19
277.726	301.19
277.957	315.19
278.189	297.19
278.421	277.19
278.652	283.19
278.884	295.19
279.115	287.19
279.347	279.19
279.579	281.19
279.81	296.19
280.042	283.19
280.273	273.19
280.505	279.19
280.736	291.19
280.968	288.19
281.199	293.19
281.431	290.19
281.662	297.19
281.894	284.19
282.125	288.19
282.356	298.19
282.588	314.19
282.819	303.19
283.051	297.19
283.282	298.19
283.513	281.19
283.745	300.19
283.976	293.19
284.207	287.19
284.439	309.19
284.67	309.19
284.901	289.19
285.132	286.19
285.364	276.19
285.595	287.19
285.826	322.19
286.057	307.19
286.288	306.19
286.52	304.19
286.751	290.19
286.982	311.19
287.213	317.19
287.444	319.19
287.675	310.19
287.906	315.19
288.138	322.19
288.369	324.19
288.6	341.19
288.831	306.19
289.062	318.19
289.293	301.19
289.524	312.19
289.755	309.19
289.986	298.19
290.217	318.19
290.448	292.19
290.679	314.19
290.91	311.19
291.141	317.19
291.371	318.19
291.602	284.19
291.833	321.19
292.064	320.19
292.295	301.19
292.526	317.19
292.757	307.19
292.987	317.19
293.218	314.19
293.449	312.19
293.68	318.19
293.91	331.19
294.141	304.19
294.372	311.19
294.603	307.19
294.833	310.19
295.064	330.19
295.295	322.19
295.525	312.19
295.756	294.19
295.987	321.19
296.217	313.19
296.448	343.19
296.679	330.19
296.909	327.19
297.14	323.19
297.37	306.19
297.601	321.19
297.831	322.19
298.062	315.19
298.292	315.19
298.523	316.19
298.753	332.19
298.984	331.19
299.214	319.19
299.445	326.19
299.675	341.19
299.905	335.19
300.136	316.19
300.366	348.19
300.597	345.19
300.827	332.19
301.057	348.19
301.288	339.19
301.518	346.19
301.748	349.19
301.979	349.19
302.209	369.19
302.439	354.19
302.669	354.19
302.9	354.19
303.13	353.19
303.36	355.19
303.59	361.19
303.82	354.19
304.051	350.19
304.281	355.19
304.511	352.19
304.741	341.19
304.971	342.19
305.201	360.19
305.431	348.19
305.661	352.19
305.891	348.19
306.121	344.19
306.352	367.19
306.582	342.19
306.812	341.19
307.042	352.19
307.272	359.19
307.502	361.19
307.731	359.19
307.961	376.19
308.191	346.19
308.421	345.19
308.651	364.19
308.881	373.19
309.111	343.19
309.341	354.19
309.571	366.19
309.8	387.19
310.03	365.19
310.26	364.19
310.49	393.19
310.72	379.19
310.949	394.19
311.179	400.19
311.409	398.19
311.639	392.19
311.868	371.19
312.098	382.19
312.328	389.19
312.557	383.19
312.787	404.19
313.017	398.19
313.246	395.19
313.476	389.19
313.706	390.19
313.935	394.19
314.165	389.19
314.394	415.19
314.624	401.19
314.853	388.19
315.083	403.19
315.312	413.19
315.542	382.19
315.771	393.19
316.001	381.19
316.23	385.19
316.46	387.19
316.689	394.19
316.919	391.19
317.148	393.19
317.377	392.19
317.607	398.19
317.836	399.19
318.065	392.19
318.295	402.19
318.524	406.19
318.753	388.19
318.983	377.19
319.212	381.19
319.441	382.19
319.67	422.19
319.9	393.19
320.129	393.19
320.358	416.19
320.587	381.19
320.816	402.19
321.046	424.19
321.275	406.19
321.504	402.19
321.733	413.19
321.962	412.19
322.191	414.19
322.42	429.19
322.649	431.19
322.878	438.19
323.108	432.19
323.337	455.19
323.566	481.19
323.795	477.19
324.024	538.19
324.253	591.19
324.482	791.19
324.71	1176.19
324.939	1559.19
325.168	1306.19
325.397	736.19
325.626	560.19
325.855	505.19
326.084	478.19
326.313	470.19
326.542	482.19
326.77	517.19
326.999	573.19
327.228	733.19
327.457	1026.19
327.686	1181.19
327.914	831.19
328.143	612.19
328.372	516.19
328.6	516.19
328.829	523.19
329.058	515.19
329.287	518.19
329.515	528.19
329.744	482.19
329.972	482.19
330.201	493.19
330.43	494.19
330.658	518.19
330.887	532.19
331.115	502.19
331.344	505.19
331.572	479.19
331.801	485.19
332.03	464.19
332.258	460.19
332.486	453.19
332.715	466.19
332.943	459.19
333.172	475.19
333.4	465.19
333.629	486.19
333.857	503.19
334.085	502.19
334.314	504.19
334.542	508.19
334.771	497.19
334.999	496.19
335.227	507.19
335.455	484.19
335.684	473.19
335.912	462.19
336.14	451.19
336.369	464.19
336.597	474.19
336.825	488.19
337.053	466.19
337.281	440.19
337.51	468.19
337.738	457.19
337.966	441.19
338.194	441.19
338.422	449.19
338.65	451.19
338.878	458.19
339.106	455.19
339.334	446.19
339.562	457.19
339.79	449.19
340.018	426.19
340.246	427.19
340.474	441.19
340.702	420.19
340.93	432.19
341.158	444.19
341.386	434.19
341.614	427.19
341.842	421.19
342.07	418.19
342.298	437.19
342.526	432.19
342.754	413.19
342.981	411.19
343.209	424.19
343.437	448.19
343.665	453.19
343.893	464.19
344.12	458.19
344.348	453.19
344.576	459.19
344.804	448.19
345.031	439.19
345.259	447.19
345.487	441.19
345.714	430.19
345.942	409.19
346.17	412.19
346.397	436.19
346.625	409.19
346.853	441.19
347.08	424.19
347.308	418.19
347.535	420.19
347.763	431.19
347.99	402.19
348.218	422.19
348.445	424.19
348.673	430.19
348.9	421.19
349.128	421.19
349.355	403.19
349.583	412.19
349.81	418.19
350.037	407.19
350.265	394.19
350.492	420.19
350.72	397.19
350.947	418.19
351.174	417.19
351.402	400.19
351.629	406.19
351.856	394.19
352.083	403.19
352.311	414.19
352.538	419.19
352.765	418.19
352.992	403.19
353.22	417.19
353.447	426.19
353.674	417.19
353.901	405.19
354.128	393.19
354.355	395.19
354.583	392.19
354.81	392.19
355.037	398.19
355.264	384.19
355.491	379.19
355.718	387.19
355.945	381.19
356.172	391.19
356.399	395.19
356.626	391.19
356.853	405.19
357.08	407.19
357.307	391.19
357.534	389.19
357.761	392.19
357.988	389.19
358.215	387.19
358.441	401.19
358.668	391.19
358.895	409.19
359.122	389.19
359.349	402.19
359.576	403.19
359.802	419.19
360.029	439.19
360.256	433.19
360.483	417.19
360.709	412.19
360.936	399.19
361.163	411.19
361.39	413.19
361.616	414.19
361.843	399.19
362.07	402.19
362.296	398.19
362.523	383.19
362.749	396.19
362.976	396.19
363.203	401.19
363.429	391.19
363.656	379.19
363.882	409.19
364.109	411.19
364.335	398.19
364.562	388.19
364.788	386.19
365.015	409.19
365.241	387.19
365.468	391.19
365.694	403.19
365.92	376.19
366.147	380.19
366.373	377.19
366.599	406.19
366.826	391.19
367.052	378.19
367.278	392.19
367.505	388.19
367.731	392.19
367.957	403.19
368.184	408.19
368.41	397.19
368.636	408.19
368.862	405.19
369.089	408.19
369.315	392.19
369.541	374.19
369.767	383.19
369.993	392.19
370.219	383.19
370.445	401.19
370.672	379.19
370.898	394.19
371.124	380.19
371.35	391.19
371.576	388.19
371.802	386.19
372.028	377.19
372.254	386.19
372.48	386.19
372.706	400.19
372.932	399.19
373.158	417.19
373.384	408.19
373.61	414.19
373.835	394.19
374.061	411.19
374.287	406.19
374.513	410.19
374.739	393.19
374.965	385.19
375.191	401.19
375.416	394.19
375.642	407.19
375.868	395.19
376.094	397.19
376.319	396.19
376.545	389.19
376.771	375.19
376.997	378.19
377.222	379.19
377.448	382.19
377.674	382.19
377.899	391.19
378.125	406.19
378.35	367.19
378.576	381.19
378.802	394.19
379.027	367.19
379.253	378.19
379.478	407.19
379.704	375.19
379.929	389.19
380.155	395.19
380.38	390.19
380.606	388.19
380.831	394.19
381.057	396.19
381.282	396.19
381.507	405.19
381.733	400.19
381.958	383.19
382.184	405.19
382.409	392.19
382.634	410.19
382.86	403.19
383.085	398.19
383.31	386.19
383.535	423.19
383.761	402.19
383.986	414.19
384.211	428.19
384.436	430.19
384.662	425.19
384.887	401.19
385.112	429.19
385.337	439.19
385.562	423.19
385.787	421.19
386.013	437.19
386.238	441.19
386.463	433.19
386.688	421.19
386.913	432.19
387.138	441.19
387.363	431.19
387.588	402.19
387.813	435.19
388.038	421.19
388.263	427.19
388.488	429.19
388.713	428.19
388.938	430.19
389.163	426.19
389.387	422.19
389.612	422.19
389.837	421.19
390.062	421.19
390.287	426.19
390.512	425.19
390.736	417.19
390.961	434.19
391.186	443.19
391.411	429.19
391.636	432.19
391.86	455.19
392.085	414.19
392.31	439.19
392.534	441.19
392.759	436.19
392.984	455.19
393.208	433.19
393.433	426.19
393.658	433.19
393.882	444.19
394.107	415.19
394.331	434.19
394.556	448.19
394.78	442.19
395.005	435.19
395.229	445.19
395.454	446.19
395.678	444.19
395.903	444.19
396.127	465.19
396.352	445.19
396.576	439.19
396.801	461.19
397.025	455.19
397.249	457.19
397.474	457.19
397.698	462.19
397.922	460.19
398.147	457.19
398.371	483.19
398.595	484.19
398.82	496.19
399.044	509.19
399.268	551.19
399.492	552.19
399.717	599.19
399.941	602.19
400.165	598.19
400.389	605.19
400.613	544.19
400.837	503.19
401.062	475.19
401.286	501.19
401.51	495.19
401.734	466.19
401.958	489.19
402.182	488.19
402.406	511.19
402.63	490.19
402.854	505.19
403.078	491.19
403.302	482.19
403.526	514.19
403.75	528.19
403.974	489.19
404.198	501.19
404.422	530.19
404.645	506.19
404.869	506.19
405.093	535.19
405.317	557.19
405.541	596.19
405.765	537.19
405.988	508.19
406.212	530.19
406.436	553.19
406.66	553.19
406.883	538.19
407.107	571.19
407.331	579.19
407.555	654.19
407.778	655.19
408.002	567.19
408.226	572.19
408.449	568.19
408.673	557.19
408.896	554.19
409.12	606.19
409.344	565.19
409.567	507.19
409.791	532.19
410.014	481.19
410.238	495.19
410.461	503.19
410.685	511.19
410.908	507.19
411.132	559.19
411.355	546.19
411.578	542.19
411.802	504.19
412.025	485.19
412.249	508.19
412.472	531.19
412.695	535.19
412.919	523.19
413.142	491.19
413.365	481.19
413.589	483.19
413.812	494.19
414.035	482.19
414.258	466.19
414.482	489.19
414.705	480.19
414.928	464.19
415.151	476.19
415.374	474.19
415.597	453.19
415.821	450.19
416.044	466.19
416.267	466.19
416.49	471.19
416.713	451.19
416.936	475.19
417.159	472.19
417.382	468.19
417.605	475.19
417.828	488.19
418.051	477.19
418.274	473.19
418.497	474.19
418.72	444.19
418.943	453.19
419.166	501.19
419.389	492.19
419.611	517.19
419.834	480.19
420.057	482.19
420.28	489.19
420.503	455.19
420.726	481.19
420.948	488.19
421.171	522.19
421.394	545.19
421.617	508.19
421.839	485.19
422.062	479.19
422.285	487.19
422.507	537.19
422.73	578.19
422.953	587.19
423.175	517.19
423.398	512.19
423.621	502.19
423.843	520.19
424.066	514.19
424.288	527.19
424.511	525.19
424.733	560.19
424.956	619.19
425.178	576.19
425.401	611.19
425.623	618.19
425.846	542.19
426.068	487.19
426.291	508.19
426.513	487.19
426.735	505.19
426.958	557.19
427.18	584.19
427.402	714.19
427.625	761.19
427.847	673.19
428.069	599.19
428.292	518.19
428.514	504.19
428.736	478.19
428.958	463.19
429.181	456.19
429.403	464.19
429.625	462.19
429.847	492.19
430.069	536.19
430.292	533.19
430.514	465.19
430.736	461.19
430.958	457.19
431.18	463.19
431.402	457.19
431.624	441.19
431.846	437.19
432.068	436.19
432.29	446.19
432.512	442.19
432.734	446.19
432.956	450.19
433.178	458.19
433.4	464.19
433.622	455.19
433.844	463.19
434.066	440.19
434.287	454.19
434.509	452.19
434.731	475.19
434.953	478.19
435.175	492.19
435.397	515.19
435.618	490.19
435.84	543.19
436.062	581.19
436.284	635.19
436.505	543.19
436.727	505.19
436.949	474.19
437.17	461.19
437.392	478.19
437.614	473.19
437.835	513.19
438.057	559.19
438.278	626.19
438.5	660.19
438.721	689.19
438.943	649.19
439.165	553.19
439.386	498.19
439.608	511.19
439.829	482.19
440.05	513.19
440.272	542.19
440.493	496.19
440.715	474.19
440.936	461.19
441.158	481.19
441.379	465.19
441.6	490.19
441.822	506.19
442.043	537.19
442.264	603.19
442.486	607.19
442.707	521.19
442.928	496.19
443.149	506.19
443.371	501.19
443.592	559.19
443.813	640.19
444.034	679.19
444.255	573.19
444.476	542.19
444.698	519.19
444.919	522.19
445.14	617.19
445.361	593.19
445.582	527.19
445.803	577.19
446.024	628.19
446.245	624.19
446.466	577.19
446.687	537.19
446.908	485.19
447.129	474.19
447.35	461.19
447.571	457.19
447.792	438.19
448.013	445.19
448.234	472.19
448.455	513.19
448.675	603.19
448.896	671.19
449.117	592.19
449.338	545.19
449.559	635.19
449.779	691.19
450	572.19
450.221	481.19
450.442	463.19
450.662	442.19
450.883	450.19
451.104	451.19
451.324	428.19
451.545	421.19
451.766	420.19
451.986	412.19
452.207	409.19
452.428	409.19
452.648	398.19
452.869	395.19
453.089	414.19
453.31	423.19
453.53	422.19
453.751	412.19
453.971	405.19
454.192	409.19
454.412	407.19
454.633	399.19
454.853	421.19
455.073	402.19
455.294	427.19
455.514	476.19
455.734	464.19
455.955	408.19
456.175	400.19
456.395	387.19
456.616	387.19
456.836	383.19
457.056	384.19
457.276	379.19
457.497	399.19
457.717	413.19
457.937	365.19
458.157	389.19
458.377	409.19
458.598	428.19
458.818	460.19
459.038	505.19
459.258	527.19
459.478	461.19
459.698	444.19
459.918	438.19
460.138	440.19
460.358	447.19
460.578	464.19
460.798	469.19
461.018	462.19
461.238	451.19
461.458	466.19
461.678	458.19
461.898	467.19
462.118	463.19
462.338	473.19
462.558	493.19
462.777	474.19
462.997	500.19
463.217	538.19
463.437	513.19
463.657	502.19
463.876	495.19
464.096	483.19
464.316	504.19
464.536	493.19
464.755	475.19
464.975	496.19
465.195	490.19
465.414	529.19
465.634	478.19
465.854	461.19
466.073	463.19
466.293	469.19
466.512	447.19
466.732	411.19
466.951	413.19
467.171	416.19
467.391	424.19
467.61	440.19
467.829	421.19
468.049	432.19
468.268	399.19
468.488	424.19
468.707	416.19
468.927	400.19
469.146	420.19
469.365	427.19
469.585	419.19
469.804	419.19
470.023	423.19
470.243	430.19
470.462	447.19
470.681	444.19
470.901	421.19
471.12	441.19
471.339	425.19
471.558	414.19
471.777	430.19
471.997	412.19
472.216	432.19
472.435	441.19
472.654	434.19
472.873	409.19
473.092	411.19
473.311	425.19
473.53	438.19
473.749	427.19
473.968	466.19
474.187	527.19
474.406	513.19
474.625	445.19
474.844	441.19
475.063	422.19
475.282	443.19
475.501	430.19
475.72	434.19
475.939	431.19
476.158	434.19
476.377	439.19
476.596	428.19
476.814	428.19
477.033	429.19
477.252	448.19
477.471	437.19
477.69	464.19
477.908	456.19
478.127	475.19
478.346	481.19
478.564	479.19
478.783	473.19
479.002	494.19
479.22	508.19
479.439	487.19
479.658	502.19
479.876	518.19
480.095	513.19
480.313	525.19
480.532	508.19
480.751	545.19
480.969	529.19
481.188	536.19
481.406	563.19
481.624	529.19
481.843	512.19
482.061	510.19
482.28	472.19
482.498	477.19
482.717	464.19
482.935	482.19
483.153	498.19
483.372	485.19
483.59	481.19
483.808	493.19
484.027	462.19
484.245	493.19
484.463	519.19
484.681	486.19
484.9	512.19
485.118	505.19
485.336	487.19
485.554	511.19
485.772	514.19
485.99	486.19
486.209	521.19
486.427	495.19
486.645	513.19
486.863	509.19
487.081	515.19
487.299	497.19
487.517	510.19
487.735	518.19
487.953	504.19
488.171	519.19
488.389	518.19
488.607	525.19
488.825	527.19
489.043	529.19
489.261	498.19
489.479	506.19
489.696	530.19
489.914	537.19
490.132	531.19
490.35	544.19
490.568	531.19
490.786	555.19
491.003	556.19
491.221	546.19
491.439	552.19
491.657	538.19
491.874	561.19
492.092	573.19
492.31	573.19
492.527	588.19
492.745	596.19
492.963	587.19
493.18	611.19
493.398	590.19
493.615	577.19
493.833	592.19
494.05	597.19
494.268	589.19
494.485	588.19
494.703	597.19
494.92	613.19
495.138	591.19
495.355	592.19
495.573	592.19
495.79	591.19
496.008	602.19
496.225	594.19
496.442	608.19
496.66	608.19
496.877	598.19
497.094	603.19
497.312	609.19
497.529	625.19
497.746	625.19
497.963	658.19
498.181	647.19
498.398	677.19
498.615	696.19
498.832	692.19
499.049	713.19
499.267	737.19
499.484	795.19
499.701	811.19
499.918	861.19
500.135	889.19
500.352	942.19
500.569	957.19
500.786	962.19
501.003	940.19
501.22	922.19
501.437	888.19
501.654	802.19
501.871	805.19
