Data from 1977.PennyLincolnUp.Lamp.En5.5.200Scan.071719.P1_HRD10591_16-07-17-864.txt Node
Date: Thu Jul 18 16:07:17 EDT 2019
User: cochatt
Spectrometer: HR+D1059
Trigger mode: 1
Integration Time (sec): 1.000000E-1
Scans to average: 1
Electric dark correction enabled: true
Nonlinearity correction enabled: false
Boxcar width: 0
XAxis mode: Wavelengths
Number of Pixels in Spectrum: 2048
>>>>>Begin Spectral Data<<<<<
223.165	-18.56
223.4	-18.56
223.635	-18.56
223.869	-9.56
224.104	-38.56
224.338	-22.56
224.573	-4.56
224.808	-18.56
225.042	-20.56
225.277	1.44
225.511	6.44
225.746	-1.56
225.98	8.44
226.215	6.44
226.449	27.44
226.683	28.44
226.918	30.44
227.152	25.44
227.387	30.44
227.621	27.44
227.856	48.44
228.09	35.44
228.324	43.44
228.559	58.44
228.793	70.44
229.027	97.44
229.262	109.44
229.496	98.44
229.73	117.44
229.964	130.44
230.199	124.44
230.433	91.44
230.667	125.44
230.901	96.44
231.136	101.44
231.37	102.44
231.604	118.44
231.838	99.44
232.072	103.44
232.306	117.44
232.541	108.44
232.775	116.44
233.009	118.44
233.243	107.44
233.477	105.44
233.711	117.44
233.945	126.44
234.179	111.44
234.413	120.44
234.647	112.44
234.881	112.44
235.115	121.44
235.349	109.44
235.583	114.44
235.817	125.44
236.051	117.44
236.285	114.44
236.519	118.44
236.753	140.44
236.987	137.44
237.221	147.44
237.455	195.44
237.689	178.44
237.922	129.44
238.156	147.44
238.39	121.44
238.624	118.44
238.858	121.44
239.091	124.44
239.325	115.44
239.559	122.44
239.793	114.44
240.027	136.44
240.26	145.44
240.494	144.44
240.728	143.44
240.961	148.44
241.195	131.44
241.429	133.44
241.662	138.44
241.896	122.44
242.13	129.44
242.363	118.44
242.597	128.44
242.83	139.44
243.064	132.44
243.298	141.44
243.531	134.44
243.765	146.44
243.998	153.44
244.232	139.44
244.465	140.44
244.699	156.44
244.932	142.44
245.166	140.44
245.399	143.44
245.633	144.44
245.866	137.44
246.099	136.44
246.333	132.44
246.566	143.44
246.8	147.44
247.033	142.44
247.266	163.44
247.5	149.44
247.733	155.44
247.966	150.44
248.2	181.44
248.433	160.44
248.666	159.44
248.899	174.44
249.133	192.44
249.366	210.44
249.599	188.44
249.832	181.44
250.066	192.44
250.299	173.44
250.532	182.44
250.765	181.44
250.998	205.44
251.231	197.44
251.465	211.44
251.698	196.44
251.931	209.44
252.164	181.44
252.397	195.44
252.63	211.44
252.863	212.44
253.096	192.44
253.329	193.44
253.562	204.44
253.795	202.44
254.028	208.44
254.261	209.44
254.494	218.44
254.727	245.44
254.96	244.44
255.193	251.44
255.426	238.44
255.659	235.44
255.892	218.44
256.124	233.44
256.357	226.44
256.59	229.44
256.823	233.44
257.056	201.44
257.289	190.44
257.521	217.44
257.754	212.44
257.987	194.44
258.22	205.44
258.452	200.44
258.685	207.44
258.918	222.44
259.151	219.44
259.383	226.44
259.616	214.44
259.849	214.44
260.081	226.44
260.314	245.44
260.547	245.44
260.779	244.44
261.012	230.44
261.244	214.44
261.477	227.44
261.71	215.44
261.942	222.44
262.175	228.44
262.407	235.44
262.64	207.44
262.872	208.44
263.105	210.44
263.337	209.44
263.57	209.44
263.802	226.44
264.035	220.44
264.267	219.44
264.499	217.44
264.732	218.44
264.964	219.44
265.197	211.44
265.429	212.44
265.661	224.44
265.894	212.44
266.126	238.44
266.358	218.44
266.591	213.44
266.823	226.44
267.055	239.44
267.287	247.44
267.52	246.44
267.752	235.44
267.984	224.44
268.216	231.44
268.448	236.44
268.681	232.44
268.913	243.44
269.145	242.44
269.377	282.44
269.609	268.44
269.841	278.44
270.073	270.44
270.306	267.44
270.538	305.44
270.77	305.44
271.002	312.44
271.234	308.44
271.466	290.44
271.698	298.44
271.93	310.44
272.162	306.44
272.394	301.44
272.626	301.44
272.858	290.44
273.09	279.44
273.322	281.44
273.553	276.44
273.785	270.44
274.017	259.44
274.249	281.44
274.481	271.44
274.713	281.44
274.945	261.44
275.176	278.44
275.408	256.44
275.64	261.44
275.872	263.44
276.104	290.44
276.335	274.44
276.567	282.44
276.799	292.44
277.031	297.44
277.262	313.44
277.494	310.44
277.726	306.44
277.957	292.44
278.189	300.44
278.421	276.44
278.652	298.44
278.884	296.44
279.115	271.44
279.347	273.44
279.579	279.44
279.81	275.44
280.042	277.44
280.273	278.44
280.505	280.44
280.736	294.44
280.968	283.44
281.199	289.44
281.431	276.44
281.662	279.44
281.894	285.44
282.125	286.44
282.356	291.44
282.588	287.44
282.819	301.44
283.051	291.44
283.282	273.44
283.513	280.44
283.745	285.44
283.976	302.44
284.207	281.44
284.439	291.44
284.67	291.44
284.901	290.44
285.132	299.44
285.364	280.44
285.595	285.44
285.826	278.44
286.057	287.44
286.288	310.44
286.52	298.44
286.751	312.44
286.982	308.44
287.213	302.44
287.444	309.44
287.675	284.44
287.906	314.44
288.138	316.44
288.369	296.44
288.6	324.44
288.831	323.44
289.062	312.44
289.293	313.44
289.524	321.44
289.755	309.44
289.986	287.44
290.217	308.44
290.448	313.44
290.679	314.44
290.91	314.44
291.141	307.44
291.371	304.44
291.602	306.44
291.833	296.44
292.064	306.44
292.295	309.44
292.526	316.44
292.757	313.44
292.987	322.44
293.218	308.44
293.449	332.44
293.68	321.44
293.91	313.44
294.141	304.44
294.372	300.44
294.603	304.44
294.833	313.44
295.064	306.44
295.295	314.44
295.525	330.44
295.756	285.44
295.987	314.44
296.217	346.44
296.448	357.44
296.679	331.44
296.909	334.44
297.14	305.44
297.37	317.44
297.601	330.44
297.831	325.44
298.062	324.44
298.292	320.44
298.523	331.44
298.753	333.44
298.984	322.44
299.214	317.44
299.445	334.44
299.675	338.44
299.905	325.44
300.136	317.44
300.366	322.44
300.597	334.44
300.827	357.44
301.057	329.44
301.288	343.44
301.518	350.44
301.748	356.44
301.979	359.44
302.209	347.44
302.439	351.44
302.669	338.44
302.9	315.44
303.13	328.44
303.36	345.44
303.59	349.44
303.82	324.44
304.051	348.44
304.281	350.44
304.511	346.44
304.741	337.44
304.971	375.44
305.201	356.44
305.431	352.44
305.661	363.44
305.891	337.44
306.121	356.44
306.352	357.44
306.582	353.44
306.812	348.44
307.042	336.44
307.272	353.44
307.502	368.44
307.731	353.44
307.961	347.44
308.191	351.44
308.421	344.44
308.651	341.44
308.881	341.44
309.111	347.44
309.341	372.44
309.571	371.44
309.8	362.44
310.03	371.44
310.26	392.44
310.49	351.44
310.72	380.44
310.949	400.44
311.179	410.44
311.409	391.44
311.639	408.44
311.868	377.44
312.098	378.44
312.328	384.44
312.557	401.44
312.787	400.44
313.017	395.44
313.246	400.44
313.476	376.44
313.706	373.44
313.935	394.44
314.165	429.44
314.394	396.44
314.624	398.44
314.853	389.44
315.083	380.44
315.312	410.44
315.542	363.44
315.771	396.44
316.001	388.44
316.23	393.44
316.46	383.44
316.689	381.44
316.919	386.44
317.148	396.44
317.377	390.44
317.607	404.44
317.836	388.44
318.065	407.44
318.295	398.44
318.524	384.44
318.753	384.44
318.983	395.44
319.212	375.44
319.441	388.44
319.67	376.44
319.9	408.44
320.129	387.44
320.358	382.44
320.587	401.44
320.816	398.44
321.046	424.44
321.275	404.44
321.504	420.44
321.733	398.44
321.962	408.44
322.191	418.44
322.42	424.44
322.649	426.44
322.878	443.44
323.108	458.44
323.337	442.44
323.566	482.44
323.795	505.44
324.024	545.44
324.253	642.44
324.482	854.44
324.71	1267.44
324.939	1726.44
325.168	1513.44
325.397	800.44
325.626	594.44
325.855	545.44
326.084	480.44
326.313	472.44
326.542	484.44
326.77	537.44
326.999	599.44
327.228	783.44
327.457	1145.44
327.686	1306.44
327.914	902.44
328.143	625.44
328.372	553.44
328.6	547.44
328.829	514.44
329.058	524.44
329.287	531.44
329.515	516.44
329.744	494.44
329.972	504.44
330.201	501.44
330.43	527.44
330.658	553.44
330.887	566.44
331.115	548.44
331.344	485.44
331.572	481.44
331.801	471.44
332.03	473.44
332.258	467.44
332.486	461.44
332.715	452.44
332.943	465.44
333.172	476.44
333.4	474.44
333.629	491.44
333.857	511.44
334.085	499.44
334.314	521.44
334.542	521.44
334.771	528.44
334.999	515.44
335.227	491.44
335.455	470.44
335.684	465.44
335.912	440.44
336.14	442.44
336.369	455.44
336.597	447.44
336.825	481.44
337.053	460.44
337.281	458.44
337.51	469.44
337.738	426.44
337.966	447.44
338.194	452.44
338.422	444.44
338.65	453.44
338.878	450.44
339.106	451.44
339.334	446.44
339.562	435.44
339.79	446.44
340.018	421.44
340.246	430.44
340.474	421.44
340.702	425.44
340.93	430.44
341.158	427.44
341.386	444.44
341.614	434.44
341.842	425.44
342.07	434.44
342.298	421.44
342.526	430.44
342.754	420.44
342.981	417.44
343.209	426.44
343.437	452.44
343.665	422.44
343.893	434.44
344.12	454.44
344.348	460.44
344.576	447.44
344.804	438.44
345.031	438.44
345.259	452.44
345.487	447.44
345.714	425.44
345.942	417.44
346.17	393.44
346.397	415.44
346.625	404.44
346.853	416.44
347.08	417.44
347.308	420.44
347.535	408.44
347.763	422.44
347.99	421.44
348.218	437.44
348.445	441.44
348.673	417.44
348.9	408.44
349.128	411.44
349.355	425.44
349.583	407.44
349.81	394.44
350.037	415.44
350.265	405.44
350.492	404.44
350.72	396.44
350.947	404.44
351.174	397.44
351.402	398.44
351.629	406.44
351.856	417.44
352.083	412.44
352.311	420.44
352.538	403.44
352.765	413.44
352.992	422.44
353.22	385.44
353.447	390.44
353.674	393.44
353.901	411.44
354.128	394.44
354.355	379.44
354.583	376.44
354.81	373.44
355.037	388.44
355.264	385.44
355.491	383.44
355.718	392.44
355.945	380.44
356.172	389.44
356.399	408.44
356.626	364.44
356.853	374.44
357.08	367.44
357.307	373.44
357.534	379.44
357.761	376.44
357.988	398.44
358.215	387.44
358.441	389.44
358.668	382.44
358.895	391.44
359.122	385.44
359.349	394.44
359.576	394.44
359.802	408.44
360.029	404.44
360.256	428.44
360.483	425.44
360.709	406.44
360.936	396.44
361.163	423.44
361.39	412.44
361.616	393.44
361.843	414.44
362.07	404.44
362.296	392.44
362.523	393.44
362.749	379.44
362.976	398.44
363.203	397.44
363.429	389.44
363.656	392.44
363.882	368.44
364.109	398.44
364.335	373.44
364.562	368.44
364.788	388.44
365.015	383.44
365.241	372.44
365.468	383.44
365.694	399.44
365.92	414.44
366.147	395.44
366.373	417.44
366.599	380.44
366.826	384.44
367.052	387.44
367.278	366.44
367.505	383.44
367.731	370.44
367.957	372.44
368.184	382.44
368.41	393.44
368.636	405.44
368.862	405.44
369.089	401.44
369.315	397.44
369.541	405.44
369.767	395.44
369.993	383.44
370.219	388.44
370.445	386.44
370.672	393.44
370.898	381.44
371.124	381.44
371.35	393.44
371.576	387.44
371.802	379.44
372.028	382.44
372.254	390.44
372.48	397.44
372.706	398.44
372.932	397.44
373.158	374.44
373.384	383.44
373.61	382.44
373.835	400.44
374.061	393.44
374.287	396.44
374.513	373.44
374.739	391.44
374.965	379.44
375.191	380.44
375.416	398.44
375.642	388.44
375.868	419.44
376.094	416.44
376.319	375.44
376.545	389.44
376.771	388.44
376.997	377.44
377.222	365.44
377.448	368.44
377.674	386.44
377.899	405.44
378.125	380.44
378.35	372.44
378.576	379.44
378.802	371.44
379.027	377.44
379.253	361.44
379.478	357.44
379.704	395.44
379.929	394.44
380.155	377.44
380.38	396.44
380.606	392.44
380.831	381.44
381.057	379.44
381.282	385.44
381.507	391.44
381.733	392.44
381.958	409.44
382.184	394.44
382.409	400.44
382.634	398.44
382.86	406.44
383.085	384.44
383.31	410.44
383.535	381.44
383.761	405.44
383.986	391.44
384.211	399.44
384.436	399.44
384.662	416.44
384.887	420.44
385.112	409.44
385.337	426.44
385.562	418.44
385.787	405.44
386.013	429.44
386.238	434.44
386.463	408.44
386.688	441.44
386.913	412.44
387.138	413.44
387.363	413.44
387.588	411.44
387.813	399.44
388.038	416.44
388.263	406.44
388.488	413.44
388.713	418.44
388.938	436.44
389.163	436.44
389.387	435.44
389.612	450.44
389.837	413.44
390.062	426.44
390.287	406.44
390.512	391.44
390.736	426.44
390.961	434.44
391.186	419.44
391.411	422.44
391.636	435.44
391.86	434.44
392.085	442.44
392.31	419.44
392.534	418.44
392.759	425.44
392.984	411.44
393.208	438.44
393.433	420.44
393.658	421.44
393.882	414.44
394.107	430.44
394.331	423.44
394.556	412.44
394.78	418.44
395.005	448.44
395.229	432.44
395.454	434.44
395.678	453.44
395.903	445.44
396.127	472.44
396.352	454.44
396.576	449.44
396.801	432.44
397.025	438.44
397.249	448.44
397.474	443.44
397.698	450.44
397.922	454.44
398.147	462.44
398.371	481.44
398.595	486.44
398.82	470.44
399.044	482.44
399.268	506.44
399.492	552.44
399.717	590.44
399.941	596.44
400.165	585.44
400.389	596.44
400.613	552.44
400.837	514.44
401.062	508.44
401.286	474.44
401.51	485.44
401.734	468.44
401.958	478.44
402.182	476.44
402.406	470.44
402.63	483.44
402.854	485.44
403.078	481.44
403.302	513.44
403.526	506.44
403.75	500.44
403.974	510.44
404.198	490.44
404.422	502.44
404.645	506.44
404.869	511.44
405.093	546.44
405.317	539.44
405.541	573.44
405.765	539.44
405.988	516.44
406.212	523.44
406.436	519.44
406.66	538.44
406.883	546.44
407.107	556.44
407.331	598.44
407.555	655.44
407.778	636.44
408.002	605.44
408.226	564.44
408.449	536.44
408.673	552.44
408.896	577.44
409.12	604.44
409.344	566.44
409.567	520.44
409.791	516.44
410.014	494.44
410.238	513.44
410.461	480.44
410.685	513.44
410.908	512.44
411.132	554.44
411.355	570.44
411.578	518.44
411.802	496.44
412.025	498.44
412.249	517.44
412.472	528.44
412.695	524.44
412.919	530.44
413.142	501.44
413.365	478.44
413.589	477.44
413.812	459.44
414.035	468.44
414.258	437.44
414.482	486.44
414.705	450.44
414.928	453.44
415.151	457.44
415.374	463.44
415.597	462.44
415.821	457.44
416.044	462.44
416.267	460.44
416.49	458.44
416.713	461.44
416.936	452.44
417.159	453.44
417.382	468.44
417.605	466.44
417.828	477.44
418.051	475.44
418.274	453.44
418.497	463.44
418.72	461.44
418.943	451.44
419.166	483.44
419.389	517.44
419.611	490.44
419.834	499.44
420.057	475.44
420.28	487.44
420.503	473.44
420.726	462.44
420.948	502.44
421.171	522.44
421.394	532.44
421.617	498.44
421.839	468.44
422.062	480.44
422.285	498.44
422.507	542.44
422.73	619.44
422.953	574.44
423.175	506.44
423.398	480.44
423.621	491.44
423.843	533.44
424.066	512.44
424.288	512.44
424.511	520.44
424.733	581.44
424.956	610.44
425.178	591.44
425.401	611.44
425.623	621.44
425.846	531.44
426.068	489.44
426.291	503.44
426.513	516.44
426.735	506.44
426.958	551.44
427.18	600.44
427.402	682.44
427.625	799.44
427.847	662.44
428.069	603.44
428.292	534.44
428.514	515.44
428.736	485.44
428.958	470.44
429.181	437.44
429.403	455.44
429.625	466.44
429.847	484.44
430.069	551.44
430.292	540.44
430.514	472.44
430.736	461.44
430.958	467.44
431.18	441.44
431.402	444.44
431.624	429.44
431.846	426.44
432.068	430.44
432.29	436.44
432.512	427.44
432.734	442.44
432.956	440.44
433.178	460.44
433.4	447.44
433.622	429.44
433.844	443.44
434.066	434.44
434.287	449.44
434.509	444.44
434.731	458.44
434.953	477.44
435.175	474.44
435.397	504.44
435.618	500.44
435.84	514.44
436.062	601.44
436.284	674.44
436.505	556.44
436.727	489.44
436.949	462.44
437.17	454.44
437.392	461.44
437.614	477.44
437.835	475.44
438.057	568.44
438.278	653.44
438.5	640.44
438.721	718.44
438.943	693.44
439.165	566.44
439.386	497.44
439.608	514.44
439.829	506.44
440.05	526.44
440.272	547.44
440.493	513.44
440.715	478.44
440.936	462.44
441.158	465.44
441.379	474.44
441.6	477.44
441.822	491.44
442.043	507.44
442.264	608.44
442.486	629.44
442.707	516.44
442.928	492.44
443.149	518.44
443.371	518.44
443.592	565.44
443.813	636.44
444.034	698.44
444.255	563.44
444.476	533.44
444.698	531.44
444.919	500.44
445.14	610.44
445.361	566.44
445.582	515.44
445.803	572.44
446.024	656.44
446.245	650.44
446.466	605.44
446.687	530.44
446.908	511.44
447.129	480.44
447.35	458.44
447.571	457.44
447.792	453.44
448.013	447.44
448.234	447.44
448.455	501.44
448.675	602.44
448.896	702.44
449.117	601.44
449.338	560.44
449.559	645.44
449.779	750.44
450	577.44
450.221	501.44
450.442	462.44
450.662	449.44
450.883	452.44
451.104	450.44
451.324	448.44
451.545	420.44
451.766	413.44
451.986	410.44
452.207	421.44
452.428	419.44
452.648	417.44
452.869	418.44
453.089	398.44
453.31	414.44
453.53	413.44
453.751	388.44
453.971	410.44
454.192	436.44
454.412	404.44
454.633	393.44
454.853	396.44
455.073	397.44
455.294	423.44
455.514	471.44
455.734	467.44
455.955	397.44
456.175	394.44
456.395	380.44
456.616	387.44
456.836	394.44
457.056	385.44
457.276	367.44
457.497	404.44
457.717	388.44
457.937	392.44
458.157	393.44
458.377	406.44
458.598	402.44
458.818	448.44
459.038	503.44
459.258	529.44
459.478	469.44
459.698	424.44
459.918	436.44
460.138	437.44
460.358	428.44
460.578	443.44
460.798	473.44
461.018	464.44
461.238	449.44
461.458	455.44
461.678	466.44
461.898	455.44
462.118	459.44
462.338	471.44
462.558	461.44
462.777	482.44
462.997	487.44
463.217	498.44
463.437	513.44
463.657	512.44
463.876	482.44
464.096	483.44
464.316	506.44
464.536	492.44
464.755	488.44
464.975	484.44
465.195	506.44
465.414	539.44
465.634	472.44
465.854	451.44
466.073	452.44
466.293	418.44
466.512	429.44
466.732	417.44
466.951	424.44
467.171	416.44
467.391	402.44
467.61	430.44
467.829	417.44
468.049	420.44
468.268	418.44
468.488	408.44
468.707	419.44
468.927	396.44
469.146	419.44
469.365	394.44
469.585	410.44
469.804	404.44
470.023	430.44
470.243	395.44
470.462	419.44
470.681	442.44
470.901	422.44
471.12	409.44
471.339	417.44
471.558	429.44
471.777	424.44
471.997	408.44
472.216	433.44
472.435	443.44
472.654	440.44
472.873	406.44
473.092	411.44
473.311	425.44
473.53	422.44
473.749	431.44
473.968	440.44
474.187	534.44
474.406	564.44
474.625	477.44
474.844	437.44
475.063	419.44
475.282	414.44
475.501	412.44
475.72	433.44
475.939	440.44
476.158	421.44
476.377	424.44
476.596	427.44
476.814	447.44
477.033	439.44
477.252	462.44
477.471	439.44
477.69	451.44
477.908	465.44
478.127	480.44
478.346	472.44
478.564	459.44
478.783	455.44
479.002	448.44
479.22	496.44
479.439	482.44
479.658	483.44
479.876	481.44
480.095	498.44
480.313	516.44
480.532	506.44
480.751	497.44
480.969	524.44
481.188	536.44
481.406	569.44
481.624	517.44
481.843	502.44
482.061	493.44
482.28	504.44
482.498	470.44
482.717	482.44
482.935	480.44
483.153	497.44
483.372	484.44
483.59	466.44
483.808	460.44
484.027	461.44
484.245	493.44
484.463	467.44
484.681	516.44
484.9	486.44
485.118	497.44
485.336	496.44
485.554	491.44
485.772	516.44
485.99	492.44
486.209	496.44
486.427	489.44
486.645	519.44
486.863	513.44
487.081	540.44
487.299	521.44
487.517	525.44
487.735	517.44
487.953	518.44
488.171	531.44
488.389	517.44
488.607	507.44
488.825	526.44
489.043	512.44
489.261	509.44
489.479	522.44
489.696	516.44
489.914	522.44
490.132	519.44
490.35	538.44
490.568	547.44
490.786	556.44
491.003	557.44
491.221	549.44
491.439	553.44
491.657	566.44
491.874	579.44
492.092	585.44
492.31	565.44
492.527	579.44
492.745	590.44
492.963	571.44
493.18	585.44
493.398	598.44
493.615	601.44
493.833	600.44
494.05	598.44
494.268	596.44
494.485	626.44
494.703	574.44
494.92	616.44
495.138	599.44
495.355	606.44
495.573	609.44
495.79	606.44
496.008	627.44
496.225	611.44
496.442	608.44
496.66	604.44
496.877	617.44
497.094	612.44
497.312	611.44
497.529	646.44
497.746	644.44
497.963	643.44
498.181	642.44
498.398	681.44
498.615	667.44
498.832	699.44
499.049	736.44
499.267	729.44
499.484	781.44
499.701	813.44
499.918	838.44
500.135	880.44
500.352	939.44
500.569	929.44
500.786	947.44
501.003	954.44
501.22	901.44
501.437	870.44
501.654	836.44
501.871	782.44
502.088	792.44
