Data from 1977.PennyLincolnUp.Lamp.En5.5.200Scan.071719.P1_HRD10591_16-06-04-864.txt Node
Date: Thu Jul 18 16:06:04 EDT 2019
User: cochatt
Spectrometer: HR+D1059
Trigger mode: 1
Integration Time (sec): 1.000000E-1
Scans to average: 1
Electric dark correction enabled: true
Nonlinearity correction enabled: false
Boxcar width: 0
XAxis mode: Wavelengths
Number of Pixels in Spectrum: 2048
>>>>>Begin Spectral Data<<<<<
223.165	-12.5
223.4	-12.5
223.635	-12.5
223.869	-9.5
224.104	-1.5
224.338	-26.5
224.573	-34.5
224.808	-21.5
225.042	5.5
225.277	-9.5
225.511	-2.5
225.746	13.5
225.98	13.5
226.215	3.5
226.449	11.5
226.683	5.5
226.918	30.5
227.152	34.5
227.387	34.5
227.621	46.5
227.856	36.5
228.09	41.5
228.324	51.5
228.559	47.5
228.793	62.5
229.027	98.5
229.262	92.5
229.496	117.5
229.73	111.5
229.964	128.5
230.199	114.5
230.433	105.5
230.667	100.5
230.901	104.5
231.136	115.5
231.37	99.5
231.604	97.5
231.838	104.5
232.072	118.5
232.306	103.5
232.541	93.5
232.775	118.5
233.009	122.5
233.243	106.5
233.477	102.5
233.711	114.5
233.945	119.5
234.179	115.5
234.413	123.5
234.647	126.5
234.881	107.5
235.115	127.5
235.349	129.5
235.583	123.5
235.817	130.5
236.051	124.5
236.285	125.5
236.519	138.5
236.753	115.5
236.987	143.5
237.221	176.5
237.455	212.5
237.689	170.5
237.922	138.5
238.156	123.5
238.39	124.5
238.624	130.5
238.858	109.5
239.091	119.5
239.325	116.5
239.559	111.5
239.793	124.5
240.027	138.5
240.26	136.5
240.494	140.5
240.728	145.5
240.961	136.5
241.195	126.5
241.429	141.5
241.662	123.5
241.896	126.5
242.13	135.5
242.363	134.5
242.597	134.5
242.83	149.5
243.064	132.5
243.298	146.5
243.531	140.5
243.765	146.5
243.998	147.5
244.232	135.5
244.465	138.5
244.699	156.5
244.932	138.5
245.166	137.5
245.399	140.5
245.633	126.5
245.866	144.5
246.099	137.5
246.333	134.5
246.566	164.5
246.8	151.5
247.033	142.5
247.266	150.5
247.5	156.5
247.733	149.5
247.966	149.5
248.2	164.5
248.433	159.5
248.666	172.5
248.899	166.5
249.133	180.5
249.366	185.5
249.599	179.5
249.832	174.5
250.066	170.5
250.299	175.5
250.532	187.5
250.765	182.5
250.998	198.5
251.231	218.5
251.465	204.5
251.698	175.5
251.931	188.5
252.164	172.5
252.397	172.5
252.63	195.5
252.863	191.5
253.096	207.5
253.329	217.5
253.562	225.5
253.795	202.5
254.028	189.5
254.261	202.5
254.494	217.5
254.727	232.5
254.96	258.5
255.193	274.5
255.426	229.5
255.659	218.5
255.892	210.5
256.124	219.5
256.357	205.5
256.59	208.5
256.823	218.5
257.056	198.5
257.289	200.5
257.521	205.5
257.754	205.5
257.987	194.5
258.22	190.5
258.452	191.5
258.685	202.5
258.918	205.5
259.151	212.5
259.383	210.5
259.616	217.5
259.849	214.5
260.081	238.5
260.314	239.5
260.547	255.5
260.779	247.5
261.012	235.5
261.244	221.5
261.477	216.5
261.71	229.5
261.942	214.5
262.175	219.5
262.407	216.5
262.64	204.5
262.872	206.5
263.105	223.5
263.337	204.5
263.57	212.5
263.802	203.5
264.035	220.5
264.267	208.5
264.499	198.5
264.732	209.5
264.964	215.5
265.197	215.5
265.429	218.5
265.661	205.5
265.894	216.5
266.126	226.5
266.358	221.5
266.591	220.5
266.823	231.5
267.055	233.5
267.287	233.5
267.52	229.5
267.752	224.5
267.984	235.5
268.216	226.5
268.448	227.5
268.681	237.5
268.913	236.5
269.145	254.5
269.377	283.5
269.609	262.5
269.841	269.5
270.073	274.5
270.306	279.5
270.538	285.5
270.77	296.5
271.002	278.5
271.234	290.5
271.466	294.5
271.698	310.5
271.93	304.5
272.162	319.5
272.394	318.5
272.626	300.5
272.858	286.5
273.09	280.5
273.322	259.5
273.553	266.5
273.785	270.5
274.017	271.5
274.249	268.5
274.481	263.5
274.713	242.5
274.945	265.5
275.176	269.5
275.408	272.5
275.64	267.5
275.872	266.5
276.104	278.5
276.335	259.5
276.567	271.5
276.799	277.5
277.031	288.5
277.262	281.5
277.494	298.5
277.726	285.5
277.957	288.5
278.189	288.5
278.421	278.5
278.652	281.5
278.884	278.5
279.115	264.5
279.347	283.5
279.579	269.5
279.81	249.5
280.042	262.5
280.273	284.5
280.505	278.5
280.736	274.5
280.968	259.5
281.199	256.5
281.431	270.5
281.662	289.5
281.894	264.5
282.125	270.5
282.356	283.5
282.588	293.5
282.819	310.5
283.051	290.5
283.282	278.5
283.513	301.5
283.745	288.5
283.976	295.5
284.207	294.5
284.439	286.5
284.67	290.5
284.901	300.5
285.132	287.5
285.364	294.5
285.595	296.5
285.826	288.5
286.057	295.5
286.288	271.5
286.52	284.5
286.751	298.5
286.982	280.5
287.213	283.5
287.444	280.5
287.675	319.5
287.906	290.5
288.138	316.5
288.369	303.5
288.6	310.5
288.831	310.5
289.062	309.5
289.293	301.5
289.524	314.5
289.755	300.5
289.986	311.5
290.217	300.5
290.448	296.5
290.679	302.5
290.91	309.5
291.141	303.5
291.371	287.5
291.602	307.5
291.833	298.5
292.064	317.5
292.295	304.5
292.526	294.5
292.757	316.5
292.987	296.5
293.218	306.5
293.449	314.5
293.68	310.5
293.91	295.5
294.141	289.5
294.372	291.5
294.603	302.5
294.833	314.5
295.064	306.5
295.295	311.5
295.525	307.5
295.756	316.5
295.987	301.5
296.217	323.5
296.448	341.5
296.679	320.5
296.909	322.5
297.14	320.5
297.37	320.5
297.601	321.5
297.831	311.5
298.062	328.5
298.292	322.5
298.523	314.5
298.753	316.5
298.984	330.5
299.214	318.5
299.445	318.5
299.675	326.5
299.905	324.5
300.136	314.5
300.366	322.5
300.597	324.5
300.827	315.5
301.057	349.5
301.288	338.5
301.518	356.5
301.748	332.5
301.979	344.5
302.209	361.5
302.439	335.5
302.669	340.5
302.9	344.5
303.13	331.5
303.36	356.5
303.59	351.5
303.82	348.5
304.051	352.5
304.281	342.5
304.511	348.5
304.741	350.5
304.971	333.5
305.201	330.5
305.431	342.5
305.661	343.5
305.891	341.5
306.121	344.5
306.352	348.5
306.582	343.5
306.812	335.5
307.042	317.5
307.272	342.5
307.502	361.5
307.731	341.5
307.961	346.5
308.191	339.5
308.421	356.5
308.651	355.5
308.881	352.5
309.111	357.5
309.341	346.5
309.571	374.5
309.8	357.5
310.03	363.5
310.26	347.5
310.49	367.5
310.72	366.5
310.949	376.5
311.179	390.5
311.409	362.5
311.639	370.5
311.868	374.5
312.098	379.5
312.328	390.5
312.557	406.5
312.787	392.5
313.017	402.5
313.246	385.5
313.476	365.5
313.706	378.5
313.935	374.5
314.165	372.5
314.394	398.5
314.624	395.5
314.853	401.5
315.083	399.5
315.312	374.5
315.542	376.5
315.771	358.5
316.001	372.5
316.23	375.5
316.46	382.5
316.689	390.5
316.919	371.5
317.148	370.5
317.377	392.5
317.607	395.5
317.836	378.5
318.065	364.5
318.295	386.5
318.524	381.5
318.753	396.5
318.983	406.5
319.212	381.5
319.441	367.5
319.67	394.5
319.9	386.5
320.129	399.5
320.358	386.5
320.587	372.5
320.816	382.5
321.046	407.5
321.275	407.5
321.504	393.5
321.733	386.5
321.962	403.5
322.191	410.5
322.42	417.5
322.649	415.5
322.878	415.5
323.108	440.5
323.337	456.5
323.566	471.5
323.795	480.5
324.024	534.5
324.253	621.5
324.482	835.5
324.71	1190.5
324.939	1629.5
325.168	1412.5
325.397	777.5
325.626	558.5
325.855	504.5
326.084	466.5
326.313	462.5
326.542	468.5
326.77	494.5
326.999	574.5
327.228	756.5
327.457	1070.5
327.686	1235.5
327.914	851.5
328.143	589.5
328.372	534.5
328.6	513.5
328.829	503.5
329.058	515.5
329.287	530.5
329.515	517.5
329.744	464.5
329.972	463.5
330.201	477.5
330.43	504.5
330.658	535.5
330.887	543.5
331.115	523.5
331.344	485.5
331.572	470.5
331.801	469.5
332.03	473.5
332.258	464.5
332.486	464.5
332.715	454.5
332.943	457.5
333.172	447.5
333.4	467.5
333.629	473.5
333.857	477.5
334.085	484.5
334.314	493.5
334.542	530.5
334.771	526.5
334.999	479.5
335.227	482.5
335.455	481.5
335.684	457.5
335.912	442.5
336.14	446.5
336.369	456.5
336.597	456.5
336.825	446.5
337.053	426.5
337.281	443.5
337.51	448.5
337.738	450.5
337.966	430.5
338.194	432.5
338.422	436.5
338.65	422.5
338.878	419.5
339.106	427.5
339.334	420.5
339.562	423.5
339.79	427.5
340.018	431.5
340.246	418.5
340.474	434.5
340.702	423.5
340.93	428.5
341.158	450.5
341.386	439.5
341.614	446.5
341.842	415.5
342.07	401.5
342.298	424.5
342.526	412.5
342.754	414.5
342.981	412.5
343.209	414.5
343.437	421.5
343.665	445.5
343.893	445.5
344.12	458.5
344.348	425.5
344.576	438.5
344.804	438.5
345.031	452.5
345.259	432.5
345.487	416.5
345.714	431.5
345.942	415.5
346.17	414.5
346.397	429.5
346.625	376.5
346.853	421.5
347.08	400.5
347.308	389.5
347.535	423.5
347.763	415.5
347.99	409.5
348.218	421.5
348.445	413.5
348.673	425.5
348.9	424.5
349.128	399.5
349.355	401.5
349.583	389.5
349.81	406.5
350.037	387.5
350.265	405.5
350.492	386.5
350.72	398.5
350.947	392.5
351.174	381.5
351.402	424.5
351.629	408.5
351.856	388.5
352.083	406.5
352.311	414.5
352.538	399.5
352.765	426.5
352.992	404.5
353.22	395.5
353.447	389.5
353.674	397.5
353.901	400.5
354.128	375.5
354.355	374.5
354.583	375.5
354.81	362.5
355.037	388.5
355.264	388.5
355.491	380.5
355.718	379.5
355.945	390.5
356.172	377.5
356.399	370.5
356.626	388.5
356.853	371.5
357.08	395.5
357.307	381.5
357.534	397.5
357.761	407.5
357.988	390.5
358.215	389.5
358.441	370.5
358.668	385.5
358.895	390.5
359.122	404.5
359.349	407.5
359.576	380.5
359.802	386.5
360.029	424.5
360.256	418.5
360.483	411.5
360.709	400.5
360.936	401.5
361.163	384.5
361.39	379.5
361.616	395.5
361.843	391.5
362.07	391.5
362.296	404.5
362.523	400.5
362.749	400.5
362.976	400.5
363.203	404.5
363.429	371.5
363.656	399.5
363.882	378.5
364.109	391.5
364.335	387.5
364.562	389.5
364.788	384.5
365.015	388.5
365.241	379.5
365.468	381.5
365.694	380.5
365.92	382.5
366.147	360.5
366.373	382.5
366.599	384.5
366.826	380.5
367.052	372.5
367.278	379.5
367.505	376.5
367.731	382.5
367.957	383.5
368.184	379.5
368.41	395.5
368.636	383.5
368.862	379.5
369.089	401.5
369.315	390.5
369.541	386.5
369.767	396.5
369.993	376.5
370.219	382.5
370.445	381.5
370.672	380.5
370.898	370.5
371.124	379.5
371.35	397.5
371.576	404.5
371.802	391.5
372.028	380.5
372.254	389.5
372.48	375.5
372.706	370.5
372.932	394.5
373.158	399.5
373.384	388.5
373.61	395.5
373.835	392.5
374.061	389.5
374.287	394.5
374.513	405.5
374.739	390.5
374.965	371.5
375.191	399.5
375.416	412.5
375.642	386.5
375.868	380.5
376.094	374.5
376.319	377.5
376.545	392.5
376.771	377.5
376.997	380.5
377.222	364.5
377.448	396.5
377.674	373.5
377.899	378.5
378.125	378.5
378.35	370.5
378.576	383.5
378.802	385.5
379.027	382.5
379.253	380.5
379.478	372.5
379.704	381.5
379.929	386.5
380.155	381.5
380.38	407.5
380.606	387.5
380.831	376.5
381.057	388.5
381.282	382.5
381.507	380.5
381.733	391.5
381.958	400.5
382.184	382.5
382.409	384.5
382.634	410.5
382.86	408.5
383.085	388.5
383.31	396.5
383.535	392.5
383.761	386.5
383.986	389.5
384.211	413.5
384.436	407.5
384.662	393.5
384.887	425.5
385.112	405.5
385.337	390.5
385.562	415.5
385.787	404.5
386.013	447.5
386.238	409.5
386.463	422.5
386.688	404.5
386.913	396.5
387.138	402.5
387.363	415.5
387.588	414.5
387.813	414.5
388.038	438.5
388.263	423.5
388.488	405.5
388.713	418.5
388.938	434.5
389.163	421.5
389.387	418.5
389.612	413.5
389.837	404.5
390.062	420.5
390.287	421.5
390.512	409.5
390.736	431.5
390.961	426.5
391.186	422.5
391.411	418.5
391.636	417.5
391.86	447.5
392.085	465.5
392.31	413.5
392.534	434.5
392.759	426.5
392.984	427.5
393.208	437.5
393.433	443.5
393.658	417.5
393.882	411.5
394.107	414.5
394.331	432.5
394.556	437.5
394.78	431.5
395.005	415.5
395.229	431.5
395.454	429.5
395.678	427.5
395.903	449.5
396.127	474.5
396.352	469.5
396.576	435.5
396.801	423.5
397.025	420.5
397.249	429.5
397.474	439.5
397.698	430.5
397.922	438.5
398.147	449.5
398.371	477.5
398.595	467.5
398.82	471.5
399.044	498.5
399.268	514.5
399.492	538.5
399.717	555.5
399.941	594.5
400.165	591.5
400.389	587.5
400.613	541.5
400.837	515.5
401.062	490.5
401.286	486.5
401.51	469.5
401.734	477.5
401.958	480.5
402.182	479.5
402.406	484.5
402.63	508.5
402.854	463.5
403.078	486.5
403.302	510.5
403.526	494.5
403.75	502.5
403.974	484.5
404.198	487.5
404.422	503.5
404.645	503.5
404.869	528.5
405.093	520.5
405.317	549.5
405.541	568.5
405.765	534.5
405.988	502.5
406.212	527.5
406.436	533.5
406.66	532.5
406.883	533.5
407.107	544.5
407.331	588.5
407.555	644.5
407.778	609.5
408.002	586.5
408.226	567.5
408.449	555.5
408.673	535.5
408.896	569.5
409.12	586.5
409.344	554.5
409.567	516.5
409.791	501.5
410.014	500.5
410.238	499.5
410.461	492.5
410.685	512.5
410.908	528.5
411.132	527.5
411.355	568.5
411.578	530.5
411.802	508.5
412.025	504.5
412.249	508.5
412.472	502.5
412.695	532.5
412.919	503.5
413.142	501.5
413.365	478.5
413.589	466.5
413.812	451.5
414.035	444.5
414.258	465.5
414.482	469.5
414.705	475.5
414.928	475.5
415.151	468.5
415.374	437.5
415.597	447.5
415.821	448.5
416.044	456.5
416.267	468.5
416.49	456.5
416.713	461.5
416.936	454.5
417.159	456.5
417.382	464.5
417.605	461.5
417.828	471.5
418.051	470.5
418.274	463.5
418.497	445.5
418.72	465.5
418.943	469.5
419.166	471.5
419.389	478.5
419.611	476.5
419.834	476.5
420.057	463.5
420.28	475.5
420.503	457.5
420.726	458.5
420.948	483.5
421.171	511.5
421.394	535.5
421.617	480.5
421.839	456.5
422.062	456.5
422.285	486.5
422.507	517.5
422.73	598.5
422.953	585.5
423.175	501.5
423.398	492.5
423.621	488.5
423.843	508.5
424.066	495.5
424.288	494.5
424.511	512.5
424.733	556.5
424.956	643.5
425.178	592.5
425.401	588.5
425.623	616.5
425.846	518.5
426.068	496.5
426.291	486.5
426.513	519.5
426.735	524.5
426.958	527.5
427.18	598.5
427.402	684.5
427.625	745.5
427.847	644.5
428.069	575.5
428.292	509.5
428.514	472.5
428.736	442.5
428.958	459.5
429.181	464.5
429.403	451.5
429.625	448.5
429.847	490.5
430.069	536.5
430.292	534.5
430.514	476.5
430.736	462.5
430.958	461.5
431.18	439.5
431.402	420.5
431.624	420.5
431.846	438.5
432.068	446.5
432.29	442.5
432.512	431.5
432.734	450.5
432.956	447.5
433.178	440.5
433.4	437.5
433.622	445.5
433.844	460.5
434.066	438.5
434.287	408.5
434.509	427.5
434.731	463.5
434.953	470.5
435.175	469.5
435.397	506.5
435.618	484.5
435.84	556.5
436.062	572.5
436.284	639.5
436.505	544.5
436.727	485.5
436.949	450.5
437.17	441.5
437.392	453.5
437.614	449.5
437.835	488.5
438.057	540.5
438.278	620.5
438.5	632.5
438.721	696.5
438.943	668.5
439.165	536.5
439.386	506.5
439.608	485.5
439.829	491.5
440.05	513.5
440.272	530.5
440.493	511.5
440.715	469.5
440.936	459.5
441.158	444.5
441.379	453.5
441.6	479.5
441.822	467.5
442.043	514.5
442.264	591.5
442.486	630.5
442.707	518.5
442.928	499.5
443.149	514.5
443.371	496.5
443.592	557.5
443.813	632.5
444.034	686.5
444.255	581.5
444.476	522.5
444.698	501.5
444.919	488.5
445.14	597.5
445.361	557.5
445.582	519.5
445.803	564.5
446.024	621.5
446.245	628.5
446.466	592.5
446.687	532.5
446.908	486.5
447.129	476.5
447.35	439.5
447.571	452.5
447.792	449.5
448.013	442.5
448.234	475.5
448.455	489.5
448.675	572.5
448.896	675.5
449.117	580.5
449.338	570.5
449.559	640.5
449.779	685.5
450	547.5
450.221	484.5
450.442	463.5
450.662	415.5
450.883	447.5
451.104	444.5
451.324	429.5
451.545	429.5
451.766	403.5
451.986	399.5
452.207	411.5
452.428	411.5
452.648	397.5
452.869	406.5
453.089	412.5
453.31	397.5
453.53	382.5
453.751	400.5
453.971	407.5
454.192	401.5
454.412	385.5
454.633	396.5
454.853	408.5
455.073	394.5
455.294	418.5
455.514	465.5
455.734	457.5
455.955	400.5
456.175	370.5
456.395	383.5
456.616	389.5
456.836	388.5
457.056	379.5
457.276	374.5
457.497	394.5
457.717	378.5
457.937	396.5
458.157	404.5
458.377	377.5
458.598	422.5
458.818	454.5
459.038	500.5
459.258	517.5
459.478	454.5
459.698	436.5
459.918	434.5
460.138	430.5
460.358	448.5
460.578	442.5
460.798	440.5
461.018	451.5
461.238	442.5
461.458	466.5
461.678	429.5
461.898	448.5
462.118	456.5
462.338	451.5
462.558	458.5
462.777	498.5
462.997	484.5
463.217	512.5
463.437	509.5
463.657	485.5
463.876	480.5
464.096	488.5
464.316	496.5
464.536	493.5
464.755	485.5
464.975	488.5
465.195	480.5
465.414	487.5
465.634	479.5
465.854	460.5
466.073	426.5
466.293	418.5
466.512	423.5
466.732	422.5
466.951	428.5
467.171	410.5
467.391	407.5
467.61	393.5
467.829	414.5
468.049	419.5
468.268	390.5
468.488	410.5
468.707	397.5
468.927	399.5
469.146	400.5
469.365	418.5
469.585	391.5
469.804	426.5
470.023	398.5
470.243	423.5
470.462	422.5
470.681	448.5
470.901	416.5
471.12	421.5
471.339	418.5
471.558	413.5
471.777	423.5
471.997	420.5
472.216	408.5
472.435	402.5
472.654	423.5
472.873	410.5
473.092	407.5
473.311	421.5
473.53	398.5
473.749	405.5
473.968	461.5
474.187	524.5
474.406	532.5
474.625	429.5
474.844	443.5
475.063	426.5
475.282	425.5
475.501	431.5
475.72	442.5
475.939	405.5
476.158	418.5
476.377	426.5
476.596	430.5
476.814	437.5
477.033	453.5
477.252	452.5
477.471	438.5
477.69	442.5
477.908	462.5
478.127	447.5
478.346	441.5
478.564	460.5
478.783	454.5
479.002	475.5
479.22	486.5
479.439	485.5
479.658	491.5
479.876	494.5
480.095	496.5
480.313	518.5
480.532	520.5
480.751	496.5
480.969	487.5
481.188	540.5
481.406	541.5
481.624	502.5
481.843	491.5
482.061	481.5
482.28	475.5
482.498	467.5
482.717	491.5
482.935	460.5
483.153	475.5
483.372	473.5
483.59	484.5
483.808	481.5
484.027	472.5
484.245	453.5
484.463	495.5
484.681	496.5
484.9	492.5
485.118	486.5
485.336	470.5
485.554	491.5
485.772	489.5
485.99	500.5
486.209	502.5
486.427	492.5
486.645	491.5
486.863	519.5
487.081	517.5
487.299	504.5
487.517	501.5
487.735	503.5
487.953	517.5
488.171	515.5
488.389	516.5
488.607	495.5
488.825	510.5
489.043	511.5
489.261	496.5
489.479	512.5
489.696	513.5
489.914	504.5
490.132	507.5
490.35	531.5
490.568	489.5
490.786	543.5
491.003	521.5
491.221	560.5
491.439	549.5
491.657	540.5
491.874	570.5
492.092	546.5
492.31	572.5
492.527	560.5
492.745	575.5
492.963	578.5
493.18	574.5
493.398	592.5
493.615	569.5
493.833	565.5
494.05	584.5
494.268	584.5
494.485	567.5
494.703	571.5
494.92	575.5
495.138	590.5
495.355	586.5
495.573	596.5
495.79	585.5
496.008	580.5
496.225	600.5
496.442	578.5
496.66	584.5
496.877	586.5
497.094	617.5
497.312	584.5
497.529	600.5
497.746	623.5
497.963	631.5
498.181	649.5
498.398	663.5
498.615	662.5
498.832	677.5
499.049	705.5
499.267	722.5
499.484	752.5
499.701	781.5
499.918	832.5
500.135	858.5
500.352	919.5
500.569	941.5
500.786	922.5
501.003	913.5
501.22	864.5
501.437	851.5
501.654	793.5
501.871	784.5
502.088	743.5
502.305	735.5
502.522	688.5
502.739	677.5
502.956	660.5
503.172	657.5
503.389	643.5
503.606	639.5
503.823	627.5
504.04	626.5
504.256	617.5
504.473	602.5
504.69	601.5
504.907	623.5
505.123	585.5
505.34	559.5
505.557	589.5
505.773	581.5
505.99	566.5
506.207	569.5
506.423	559.5
506.64	552.5
506.856	570.5
507.073	560.5
507.289	545.5
507.506	549.5
507.722	535.5
507.939	547.5
508.155	529.5
508.372	542.5
508.588	525.5
508.805	549.5
509.021	532.5
509.238	539.5
509.454	553.5
509.67	539.5
509.887	554.5
510.103	517.5
510.319	520.5
510.536	598.5
510.752	808.5
510.968	690.5
511.184	535.5
511.401	501.5
511.617	494.5
511.833	488.5
512.049	493.5
512.265	484.5
512.481	520.5
512.698	501.5
512.914	487.5
513.13	488.5
513.346	513.5
513.562	495.5
513.778	492.5
513.994	500.5
514.21	490.5
514.426	491.5
514.642	562.5
514.858	541.5
515.074	576.5
515.29	641.5
515.506	825.5
515.721	700.5
515.937	555.5
516.153	522.5
516.369	548.5
516.585	526.5
516.801	508.5
517.016	520.5
517.232	525.5
517.448	529.5
517.664	516.5
517.879	532.5
518.095	545.5
518.311	543.5
518.527	526.5
518.742	540.5
518.958	509.5
519.173	503.5
519.389	507.5
519.605	491.5
519.82	504.5
520.036	518.5
