Data from 1977.PennyLincolnUp.Lamp.En5.5.200Scan.071719.P1_HRD10591_16-07-15-864.txt Node
Date: Thu Jul 18 16:07:15 EDT 2019
User: cochatt
Spectrometer: HR+D1059
Trigger mode: 1
Integration Time (sec): 1.000000E-1
Scans to average: 1
Electric dark correction enabled: true
Nonlinearity correction enabled: false
Boxcar width: 0
XAxis mode: Wavelengths
Number of Pixels in Spectrum: 2048
>>>>>Begin Spectral Data<<<<<
223.165	-3.5
223.4	-3.5
223.635	-3.5
223.869	-17.5
224.104	-9.5
224.338	-16.5
224.573	-7.5
224.808	-14.5
225.042	-12.5
225.277	-17.5
225.511	-3.5
225.746	1.5
225.98	0.5
226.215	5.5
226.449	16.5
226.683	24.5
226.918	16.5
227.152	37.5
227.387	34.5
227.621	23.5
227.856	51.5
228.09	38.5
228.324	60.5
228.559	59.5
228.793	73.5
229.027	96.5
229.262	116.5
229.496	110.5
229.73	133.5
229.964	145.5
230.199	132.5
230.433	113.5
230.667	109.5
230.901	103.5
231.136	121.5
231.37	118.5
231.604	114.5
231.838	118.5
232.072	105.5
232.306	115.5
232.541	120.5
232.775	111.5
233.009	127.5
233.243	107.5
233.477	99.5
233.711	121.5
233.945	119.5
234.179	108.5
234.413	131.5
234.647	115.5
234.881	125.5
235.115	113.5
235.349	108.5
235.583	123.5
235.817	133.5
236.051	132.5
236.285	126.5
236.519	149.5
236.753	135.5
236.987	142.5
237.221	170.5
237.455	209.5
237.689	169.5
237.922	139.5
238.156	131.5
238.39	115.5
238.624	140.5
238.858	131.5
239.091	124.5
239.325	135.5
239.559	123.5
239.793	131.5
240.027	135.5
240.26	153.5
240.494	161.5
240.728	162.5
240.961	156.5
241.195	134.5
241.429	139.5
241.662	133.5
241.896	144.5
242.13	156.5
242.363	146.5
242.597	148.5
242.83	133.5
243.064	152.5
243.298	137.5
243.531	128.5
243.765	136.5
243.998	135.5
244.232	139.5
244.465	135.5
244.699	133.5
244.932	152.5
245.166	154.5
245.399	151.5
245.633	154.5
245.866	143.5
246.099	151.5
246.333	143.5
246.566	148.5
246.8	147.5
247.033	151.5
247.266	173.5
247.5	164.5
247.733	181.5
247.966	176.5
248.2	162.5
248.433	181.5
248.666	160.5
248.899	171.5
249.133	186.5
249.366	204.5
249.599	209.5
249.832	182.5
250.066	180.5
250.299	161.5
250.532	198.5
250.765	202.5
250.998	236.5
251.231	236.5
251.465	217.5
251.698	212.5
251.931	215.5
252.164	201.5
252.397	203.5
252.63	205.5
252.863	205.5
253.096	230.5
253.329	219.5
253.562	223.5
253.795	215.5
254.028	224.5
254.261	221.5
254.494	237.5
254.727	246.5
254.96	279.5
255.193	279.5
255.426	254.5
255.659	227.5
255.892	241.5
256.124	232.5
256.357	219.5
256.59	228.5
256.823	229.5
257.056	203.5
257.289	218.5
257.521	225.5
257.754	221.5
257.987	205.5
258.22	222.5
258.452	223.5
258.685	222.5
258.918	205.5
259.151	223.5
259.383	228.5
259.616	215.5
259.849	232.5
260.081	232.5
260.314	269.5
260.547	272.5
260.779	268.5
261.012	233.5
261.244	224.5
261.477	230.5
261.71	208.5
261.942	236.5
262.175	243.5
262.407	224.5
262.64	229.5
262.872	218.5
263.105	232.5
263.337	220.5
263.57	229.5
263.802	233.5
264.035	203.5
264.267	227.5
264.499	234.5
264.732	221.5
264.964	223.5
265.197	233.5
265.429	217.5
265.661	226.5
265.894	232.5
266.126	218.5
266.358	231.5
266.591	233.5
266.823	225.5
267.055	247.5
267.287	247.5
267.52	226.5
267.752	236.5
267.984	238.5
268.216	243.5
268.448	247.5
268.681	266.5
268.913	253.5
269.145	271.5
269.377	273.5
269.609	290.5
269.841	278.5
270.073	290.5
270.306	315.5
270.538	332.5
270.77	315.5
271.002	313.5
271.234	309.5
271.466	310.5
271.698	316.5
271.93	331.5
272.162	343.5
272.394	327.5
272.626	321.5
272.858	289.5
273.09	295.5
273.322	300.5
273.553	296.5
273.785	280.5
274.017	297.5
274.249	269.5
274.481	273.5
274.713	262.5
274.945	299.5
275.176	295.5
275.408	271.5
275.64	259.5
275.872	287.5
276.104	278.5
276.335	281.5
276.567	327.5
276.799	299.5
277.031	324.5
277.262	320.5
277.494	335.5
277.726	308.5
277.957	310.5
278.189	293.5
278.421	287.5
278.652	285.5
278.884	296.5
279.115	292.5
279.347	294.5
279.579	289.5
279.81	292.5
280.042	291.5
280.273	285.5
280.505	296.5
280.736	279.5
280.968	289.5
281.199	283.5
281.431	289.5
281.662	300.5
281.894	288.5
282.125	289.5
282.356	304.5
282.588	317.5
282.819	336.5
283.051	297.5
283.282	293.5
283.513	289.5
283.745	313.5
283.976	310.5
284.207	314.5
284.439	296.5
284.67	297.5
284.901	325.5
285.132	287.5
285.364	299.5
285.595	315.5
285.826	301.5
286.057	314.5
286.288	302.5
286.52	318.5
286.751	294.5
286.982	302.5
287.213	297.5
287.444	304.5
287.675	317.5
287.906	321.5
288.138	318.5
288.369	310.5
288.6	321.5
288.831	321.5
289.062	323.5
289.293	317.5
289.524	330.5
289.755	317.5
289.986	333.5
290.217	305.5
290.448	316.5
290.679	316.5
290.91	334.5
291.141	327.5
291.371	331.5
291.602	313.5
291.833	300.5
292.064	335.5
292.295	326.5
292.526	312.5
292.757	326.5
292.987	325.5
293.218	319.5
293.449	313.5
293.68	329.5
293.91	321.5
294.141	320.5
294.372	320.5
294.603	307.5
294.833	314.5
295.064	326.5
295.295	312.5
295.525	323.5
295.756	335.5
295.987	342.5
296.217	342.5
296.448	348.5
296.679	316.5
296.909	329.5
297.14	334.5
297.37	329.5
297.601	345.5
297.831	330.5
298.062	328.5
298.292	352.5
298.523	347.5
298.753	342.5
298.984	321.5
299.214	320.5
299.445	352.5
299.675	327.5
299.905	359.5
300.136	348.5
300.366	341.5
300.597	331.5
300.827	362.5
301.057	344.5
301.288	361.5
301.518	363.5
301.748	360.5
301.979	353.5
302.209	363.5
302.439	354.5
302.669	359.5
302.9	374.5
303.13	350.5
303.36	367.5
303.59	361.5
303.82	346.5
304.051	370.5
304.281	356.5
304.511	371.5
304.741	357.5
304.971	373.5
305.201	374.5
305.431	368.5
305.661	372.5
305.891	350.5
306.121	358.5
306.352	379.5
306.582	363.5
306.812	367.5
307.042	353.5
307.272	350.5
307.502	367.5
307.731	382.5
307.961	357.5
308.191	354.5
308.421	371.5
308.651	368.5
308.881	381.5
309.111	391.5
309.341	369.5
309.571	362.5
309.8	400.5
310.03	389.5
310.26	384.5
310.49	411.5
310.72	407.5
310.949	403.5
311.179	421.5
311.409	403.5
311.639	379.5
311.868	404.5
312.098	406.5
312.328	410.5
312.557	419.5
312.787	405.5
313.017	399.5
313.246	383.5
313.476	399.5
313.706	398.5
313.935	406.5
314.165	425.5
314.394	422.5
314.624	429.5
314.853	416.5
315.083	396.5
315.312	394.5
315.542	400.5
315.771	408.5
316.001	392.5
316.23	390.5
316.46	409.5
316.689	387.5
316.919	417.5
317.148	421.5
317.377	395.5
317.607	413.5
317.836	408.5
318.065	393.5
318.295	397.5
318.524	405.5
318.753	409.5
318.983	421.5
319.212	399.5
319.441	399.5
319.67	380.5
319.9	406.5
320.129	413.5
320.358	410.5
320.587	404.5
320.816	413.5
321.046	410.5
321.275	426.5
321.504	419.5
321.733	426.5
321.962	439.5
322.191	437.5
322.42	443.5
322.649	453.5
322.878	472.5
323.108	460.5
323.337	494.5
323.566	520.5
323.795	505.5
324.024	558.5
324.253	655.5
324.482	878.5
324.71	1299.5
324.939	1782.5
325.168	1553.5
325.397	849.5
325.626	608.5
325.855	540.5
326.084	524.5
326.313	508.5
326.542	524.5
326.77	554.5
326.999	638.5
327.228	825.5
327.457	1167.5
327.686	1374.5
327.914	917.5
328.143	655.5
328.372	584.5
328.6	567.5
328.829	536.5
329.058	586.5
329.287	554.5
329.515	538.5
329.744	518.5
329.972	499.5
330.201	525.5
330.43	546.5
330.658	572.5
330.887	589.5
331.115	556.5
331.344	533.5
331.572	499.5
331.801	524.5
332.03	501.5
332.258	487.5
332.486	495.5
332.715	478.5
332.943	492.5
333.172	496.5
333.4	485.5
333.629	482.5
333.857	507.5
334.085	521.5
334.314	519.5
334.542	531.5
334.771	566.5
334.999	517.5
335.227	495.5
335.455	483.5
335.684	496.5
335.912	491.5
336.14	476.5
336.369	494.5
336.597	478.5
336.825	481.5
337.053	451.5
337.281	477.5
337.51	472.5
337.738	467.5
337.966	466.5
338.194	475.5
338.422	484.5
338.65	465.5
338.878	480.5
339.106	445.5
339.334	471.5
339.562	453.5
339.79	442.5
340.018	455.5
340.246	453.5
340.474	460.5
340.702	451.5
340.93	470.5
341.158	437.5
341.386	441.5
341.614	446.5
341.842	459.5
342.07	455.5
342.298	441.5
342.526	444.5
342.754	438.5
342.981	430.5
343.209	445.5
343.437	453.5
343.665	467.5
343.893	469.5
344.12	450.5
344.348	465.5
344.576	460.5
344.804	465.5
345.031	469.5
345.259	479.5
345.487	451.5
345.714	438.5
345.942	428.5
346.17	447.5
346.397	417.5
346.625	425.5
346.853	436.5
347.08	425.5
347.308	426.5
347.535	451.5
347.763	430.5
347.99	443.5
348.218	428.5
348.445	444.5
348.673	448.5
348.9	411.5
349.128	423.5
349.355	459.5
349.583	442.5
349.81	427.5
350.037	412.5
350.265	407.5
350.492	431.5
350.72	427.5
350.947	413.5
351.174	430.5
351.402	416.5
351.629	433.5
351.856	433.5
352.083	423.5
352.311	412.5
352.538	426.5
352.765	420.5
352.992	429.5
353.22	396.5
353.447	423.5
353.674	416.5
353.901	404.5
354.128	405.5
354.355	407.5
354.583	405.5
354.81	410.5
355.037	407.5
355.264	403.5
355.491	400.5
355.718	385.5
355.945	404.5
356.172	391.5
356.399	392.5
356.626	412.5
356.853	415.5
357.08	396.5
357.307	390.5
357.534	399.5
357.761	385.5
357.988	405.5
358.215	406.5
358.441	407.5
358.668	393.5
358.895	417.5
359.122	393.5
359.349	420.5
359.576	418.5
359.802	428.5
360.029	446.5
360.256	459.5
360.483	448.5
360.709	425.5
360.936	408.5
361.163	427.5
361.39	414.5
361.616	439.5
361.843	413.5
362.07	423.5
362.296	401.5
362.523	420.5
362.749	418.5
362.976	412.5
363.203	407.5
363.429	380.5
363.656	393.5
363.882	394.5
364.109	415.5
364.335	401.5
364.562	413.5
364.788	388.5
365.015	400.5
365.241	390.5
365.468	399.5
365.694	413.5
365.92	424.5
366.147	395.5
366.373	407.5
366.599	413.5
366.826	378.5
367.052	394.5
367.278	417.5
367.505	417.5
367.731	400.5
367.957	409.5
368.184	415.5
368.41	411.5
368.636	418.5
368.862	400.5
369.089	399.5
369.315	405.5
369.541	397.5
369.767	398.5
369.993	409.5
370.219	408.5
370.445	408.5
370.672	402.5
370.898	390.5
371.124	400.5
371.35	384.5
371.576	400.5
371.802	396.5
372.028	412.5
372.254	410.5
372.48	398.5
372.706	406.5
372.932	413.5
373.158	405.5
373.384	410.5
373.61	414.5
373.835	400.5
374.061	400.5
374.287	420.5
374.513	430.5
374.739	401.5
374.965	428.5
375.191	399.5
375.416	389.5
375.642	416.5
375.868	409.5
376.094	397.5
376.319	398.5
376.545	415.5
376.771	405.5
376.997	384.5
377.222	388.5
377.448	397.5
377.674	413.5
377.899	389.5
378.125	398.5
378.35	400.5
378.576	388.5
378.802	402.5
379.027	377.5
379.253	393.5
379.478	405.5
379.704	401.5
379.929	404.5
380.155	400.5
380.38	386.5
380.606	408.5
380.831	391.5
381.057	407.5
381.282	390.5
381.507	413.5
381.733	421.5
381.958	390.5
382.184	396.5
382.409	396.5
382.634	409.5
382.86	391.5
383.085	383.5
383.31	390.5
383.535	421.5
383.761	403.5
383.986	402.5
384.211	411.5
384.436	430.5
384.662	402.5
384.887	425.5
385.112	427.5
385.337	424.5
385.562	443.5
385.787	425.5
386.013	416.5
386.238	432.5
386.463	439.5
386.688	438.5
386.913	426.5
387.138	430.5
387.363	429.5
387.588	431.5
387.813	415.5
388.038	418.5
388.263	413.5
388.488	441.5
388.713	448.5
388.938	431.5
389.163	441.5
389.387	429.5
389.612	439.5
389.837	443.5
390.062	417.5
390.287	436.5
390.512	423.5
390.736	429.5
390.961	418.5
391.186	436.5
391.411	421.5
391.636	435.5
391.86	451.5
392.085	454.5
392.31	447.5
392.534	455.5
392.759	469.5
392.984	449.5
393.208	423.5
393.433	422.5
393.658	460.5
393.882	432.5
394.107	433.5
394.331	439.5
394.556	437.5
394.78	451.5
395.005	449.5
395.229	456.5
395.454	443.5
395.678	473.5
395.903	470.5
396.127	474.5
396.352	481.5
396.576	469.5
396.801	452.5
397.025	441.5
397.249	461.5
397.474	454.5
397.698	450.5
397.922	460.5
398.147	492.5
398.371	496.5
398.595	489.5
398.82	511.5
399.044	515.5
399.268	517.5
399.492	567.5
399.717	590.5
399.941	609.5
400.165	621.5
400.389	603.5
400.613	552.5
400.837	519.5
401.062	518.5
401.286	493.5
401.51	515.5
401.734	492.5
401.958	503.5
402.182	490.5
402.406	512.5
402.63	496.5
402.854	502.5
403.078	525.5
403.302	526.5
403.526	525.5
403.75	519.5
403.974	533.5
404.198	532.5
404.422	526.5
404.645	543.5
404.869	531.5
405.093	536.5
405.317	553.5
405.541	608.5
405.765	573.5
405.988	521.5
406.212	527.5
406.436	556.5
406.66	562.5
406.883	537.5
407.107	574.5
407.331	617.5
407.555	661.5
407.778	661.5
408.002	629.5
408.226	570.5
408.449	543.5
408.673	575.5
408.896	583.5
409.12	615.5
409.344	604.5
409.567	524.5
409.791	537.5
410.014	537.5
410.238	485.5
410.461	515.5
410.685	521.5
410.908	514.5
411.132	561.5
411.355	567.5
411.578	561.5
411.802	522.5
412.025	503.5
412.249	483.5
412.472	519.5
412.695	565.5
412.919	529.5
413.142	512.5
413.365	504.5
413.589	477.5
413.812	492.5
414.035	489.5
414.258	479.5
414.482	466.5
414.705	483.5
414.928	480.5
415.151	474.5
415.374	485.5
415.597	489.5
415.821	478.5
416.044	471.5
416.267	480.5
416.49	462.5
416.713	466.5
416.936	454.5
417.159	470.5
417.382	472.5
417.605	477.5
417.828	491.5
418.051	477.5
418.274	499.5
418.497	463.5
418.72	487.5
418.943	465.5
419.166	507.5
419.389	507.5
419.611	500.5
419.834	501.5
420.057	501.5
420.28	505.5
420.503	497.5
420.726	487.5
420.948	492.5
421.171	542.5
421.394	567.5
421.617	513.5
421.839	511.5
422.062	484.5
422.285	517.5
422.507	559.5
422.73	608.5
422.953	631.5
423.175	533.5
423.398	499.5
423.621	521.5
423.843	507.5
424.066	525.5
424.288	549.5
424.511	547.5
424.733	561.5
424.956	653.5
425.178	630.5
425.401	639.5
425.623	656.5
425.846	570.5
426.068	542.5
426.291	527.5
426.513	533.5
426.735	545.5
426.958	566.5
427.18	620.5
427.402	740.5
427.625	824.5
427.847	697.5
428.069	602.5
428.292	567.5
428.514	524.5
428.736	486.5
428.958	491.5
429.181	468.5
429.403	461.5
429.625	468.5
429.847	530.5
430.069	578.5
430.292	582.5
430.514	485.5
430.736	470.5
430.958	466.5
431.18	451.5
431.402	467.5
431.624	448.5
431.846	439.5
432.068	464.5
432.29	447.5
432.512	477.5
432.734	462.5
432.956	466.5
433.178	458.5
433.4	477.5
433.622	458.5
433.844	473.5
434.066	463.5
434.287	458.5
434.509	454.5
434.731	477.5
434.953	493.5
435.175	509.5
435.397	501.5
435.618	492.5
435.84	555.5
436.062	642.5
436.284	679.5
436.505	564.5
436.727	533.5
436.949	497.5
437.17	490.5
437.392	467.5
437.614	485.5
437.835	515.5
438.057	575.5
438.278	654.5
438.5	671.5
438.721	741.5
438.943	705.5
439.165	578.5
439.386	505.5
439.608	507.5
439.829	517.5
440.05	533.5
440.272	573.5
440.493	564.5
440.715	525.5
440.936	507.5
441.158	510.5
441.379	486.5
441.6	496.5
441.822	530.5
442.043	543.5
442.264	599.5
442.486	638.5
442.707	599.5
442.928	504.5
443.149	529.5
443.371	548.5
443.592	563.5
443.813	661.5
444.034	722.5
444.255	592.5
444.476	520.5
444.698	549.5
444.919	533.5
445.14	658.5
445.361	594.5
445.582	560.5
445.803	603.5
446.024	681.5
446.245	675.5
446.466	600.5
446.687	548.5
446.908	519.5
447.129	523.5
447.35	491.5
447.571	456.5
447.792	476.5
448.013	472.5
448.234	488.5
448.455	522.5
448.675	599.5
448.896	736.5
449.117	609.5
449.338	581.5
449.559	658.5
449.779	755.5
450	589.5
450.221	529.5
450.442	479.5
450.662	459.5
450.883	427.5
451.104	453.5
451.324	469.5
451.545	431.5
451.766	425.5
451.986	422.5
452.207	423.5
452.428	421.5
452.648	436.5
452.869	427.5
453.089	433.5
453.31	427.5
453.53	404.5
453.751	416.5
453.971	431.5
454.192	421.5
454.412	431.5
454.633	410.5
454.853	407.5
455.073	419.5
455.294	444.5
455.514	499.5
455.734	473.5
455.955	411.5
456.175	394.5
456.395	413.5
456.616	393.5
456.836	418.5
457.056	391.5
457.276	417.5
457.497	391.5
457.717	399.5
457.937	395.5
458.157	391.5
458.377	393.5
458.598	418.5
458.818	467.5
459.038	539.5
459.258	533.5
459.478	476.5
459.698	451.5
459.918	462.5
460.138	461.5
460.358	457.5
460.578	445.5
460.798	480.5
461.018	474.5
461.238	445.5
461.458	445.5
461.678	444.5
461.898	459.5
462.118	465.5
462.338	468.5
462.558	475.5
462.777	497.5
462.997	515.5
463.217	517.5
463.437	529.5
463.657	516.5
463.876	515.5
464.096	498.5
464.316	507.5
464.536	492.5
464.755	517.5
464.975	493.5
465.195	540.5
465.414	529.5
465.634	475.5
465.854	480.5
466.073	463.5
466.293	459.5
466.512	451.5
466.732	412.5
466.951	450.5
467.171	439.5
467.391	419.5
467.61	414.5
467.829	443.5
468.049	447.5
468.268	434.5
468.488	399.5
468.707	403.5
468.927	413.5
469.146	418.5
469.365	421.5
469.585	419.5
469.804	419.5
470.023	450.5
470.243	427.5
470.462	447.5
470.681	465.5
470.901	430.5
471.12	441.5
471.339	448.5
471.558	435.5
471.777	437.5
471.997	412.5
472.216	412.5
472.435	462.5
472.654	452.5
472.873	457.5
473.092	441.5
473.311	423.5
473.53	424.5
473.749	461.5
473.968	467.5
474.187	556.5
474.406	571.5
474.625	480.5
474.844	453.5
475.063	425.5
475.282	441.5
475.501	431.5
475.72	421.5
475.939	424.5
476.158	431.5
476.377	466.5
476.596	451.5
476.814	444.5
477.033	439.5
477.252	466.5
477.471	464.5
477.69	469.5
477.908	474.5
478.127	458.5
478.346	455.5
478.564	495.5
478.783	500.5
479.002	496.5
479.22	498.5
479.439	495.5
479.658	519.5
479.876	526.5
480.095	499.5
480.313	547.5
480.532	544.5
480.751	527.5
480.969	533.5
481.188	575.5
481.406	579.5
481.624	533.5
481.843	528.5
482.061	514.5
482.28	479.5
482.498	500.5
482.717	491.5
482.935	513.5
483.153	503.5
483.372	487.5
483.59	502.5
483.808	480.5
484.027	497.5
484.245	499.5
484.463	487.5
484.681	533.5
484.9	488.5
485.118	506.5
485.336	515.5
485.554	513.5
485.772	504.5
485.99	521.5
486.209	520.5
486.427	508.5
486.645	525.5
486.863	528.5
487.081	538.5
487.299	535.5
487.517	517.5
487.735	505.5
487.953	518.5
488.171	516.5
488.389	534.5
488.607	531.5
488.825	549.5
489.043	535.5
489.261	547.5
489.479	540.5
489.696	538.5
489.914	545.5
490.132	556.5
490.35	550.5
490.568	542.5
490.786	557.5
491.003	576.5
491.221	593.5
491.439	590.5
491.657	583.5
491.874	592.5
492.092	594.5
492.31	596.5
492.527	607.5
492.745	600.5
492.963	602.5
493.18	613.5
493.398	612.5
493.615	598.5
493.833	607.5
494.05	598.5
494.268	617.5
494.485	617.5
494.703	626.5
494.92	631.5
495.138	615.5
495.355	621.5
495.573	625.5
495.79	637.5
496.008	636.5
496.225	628.5
496.442	635.5
496.66	638.5
496.877	613.5
497.094	637.5
497.312	625.5
497.529	639.5
497.746	662.5
497.963	634.5
498.181	673.5
498.398	699.5
498.615	695.5
498.832	723.5
499.049	740.5
499.267	749.5
499.484	784.5
499.701	805.5
499.918	867.5
500.135	922.5
500.352	987.5
500.569	961.5
500.786	985.5
501.003	967.5
501.22	932.5
501.437	883.5
501.654	850.5
501.871	823.5
502.088	793.5
502.305	763.5
502.522	724.5
502.739	702.5
502.956	684.5
503.172	675.5
503.389	674.5
503.606	681.5
503.823	660.5
504.04	645.5
504.256	643.5
504.473	649.5
504.69	643.5
504.907	628.5
505.123	636.5
505.34	598.5
505.557	599.5
505.773	594.5
505.99	617.5
506.207	623.5
506.423	590.5
506.64	559.5
506.856	589.5
507.073	585.5
507.289	583.5
507.506	562.5
507.722	587.5
507.939	592.5
508.155	563.5
508.372	567.5
508.588	541.5
508.805	563.5
509.021	557.5
509.238	590.5
509.454	556.5
509.67	573.5
509.887	569.5
510.103	534.5
510.319	569.5
510.536	627.5
510.752	903.5
510.968	772.5
511.184	560.5
511.401	559.5
511.617	539.5
511.833	556.5
512.049	547.5
512.265	493.5
512.481	521.5
512.698	507.5
512.914	515.5
513.13	512.5
513.346	506.5
513.562	532.5
513.778	517.5
513.994	526.5
514.21	539.5
514.426	545.5
514.642	547.5
514.858	583.5
515.074	598.5
515.29	673.5
515.506	913.5
515.721	751.5
515.937	589.5
516.153	565.5
516.369	569.5
516.585	544.5
516.801	567.5
517.016	544.5
517.232	573.5
517.448	569.5
517.664	576.5
517.879	564.5
518.095	557.5
518.311	553.5
518.527	574.5
518.742	549.5
518.958	550.5
519.173	536.5
519.389	547.5
519.605	539.5
519.82	520.5
520.036	525.5
