Data from 1977.PennyLincolnUp.Lamp.En5.5.200Scan.071719.P1_HRD10591_16-06-14-863.txt Node
Date: Thu Jul 18 16:06:14 EDT 2019
User: cochatt
Spectrometer: HR+D1059
Trigger mode: 1
Integration Time (sec): 1.000000E-1
Scans to average: 1
Electric dark correction enabled: true
Nonlinearity correction enabled: false
Boxcar width: 0
XAxis mode: Wavelengths
Number of Pixels in Spectrum: 2048
>>>>>Begin Spectral Data<<<<<
223.165	-7.44
223.4	-7.44
223.635	-7.44
223.869	-20.44
224.104	-12.44
224.338	-19.44
224.573	-7.44
224.808	-14.44
225.042	1.56
225.277	-12.44
225.511	4.56
225.746	-7.44
225.98	6.56
226.215	15.56
226.449	17.56
226.683	6.56
226.918	21.56
227.152	27.56
227.387	28.56
227.621	36.56
227.856	42.56
228.09	57.56
228.324	55.56
228.559	51.56
228.793	66.56
229.027	89.56
229.262	110.56
229.496	106.56
229.73	126.56
229.964	135.56
230.199	135.56
230.433	126.56
230.667	105.56
230.901	91.56
231.136	114.56
231.37	120.56
231.604	108.56
231.838	121.56
232.072	121.56
232.306	109.56
232.541	119.56
232.775	99.56
233.009	115.56
233.243	99.56
233.477	108.56
233.711	110.56
233.945	106.56
234.179	115.56
234.413	115.56
234.647	119.56
234.881	107.56
235.115	121.56
235.349	107.56
235.583	118.56
235.817	121.56
236.051	125.56
236.285	131.56
236.519	124.56
236.753	119.56
236.987	126.56
237.221	166.56
237.455	201.56
237.689	169.56
237.922	127.56
238.156	121.56
238.39	115.56
238.624	130.56
238.858	121.56
239.091	127.56
239.325	123.56
239.559	122.56
239.793	127.56
240.027	136.56
240.26	119.56
240.494	138.56
240.728	153.56
240.961	127.56
241.195	134.56
241.429	146.56
241.662	140.56
241.896	143.56
242.13	130.56
242.363	135.56
242.597	140.56
242.83	137.56
243.064	143.56
243.298	137.56
243.531	126.56
243.765	128.56
243.998	136.56
244.232	136.56
244.465	148.56
244.699	136.56
244.932	148.56
245.166	155.56
245.399	154.56
245.633	152.56
245.866	144.56
246.099	130.56
246.333	137.56
246.566	148.56
246.8	167.56
247.033	149.56
247.266	153.56
247.5	157.56
247.733	155.56
247.966	172.56
248.2	182.56
248.433	174.56
248.666	174.56
248.899	173.56
249.133	181.56
249.366	187.56
249.599	182.56
249.832	177.56
250.066	167.56
250.299	177.56
250.532	183.56
250.765	186.56
250.998	213.56
251.231	208.56
251.465	185.56
251.698	211.56
251.931	185.56
252.164	193.56
252.397	184.56
252.63	197.56
252.863	197.56
253.096	215.56
253.329	215.56
253.562	201.56
253.795	206.56
254.028	209.56
254.261	217.56
254.494	220.56
254.727	257.56
254.96	269.56
255.193	244.56
255.426	232.56
255.659	243.56
255.892	215.56
256.124	217.56
256.357	225.56
256.59	215.56
256.823	204.56
257.056	219.56
257.289	206.56
257.521	215.56
257.754	221.56
257.987	197.56
258.22	205.56
258.452	199.56
258.685	207.56
258.918	207.56
259.151	211.56
259.383	221.56
259.616	243.56
259.849	229.56
260.081	230.56
260.314	250.56
260.547	253.56
260.779	231.56
261.012	241.56
261.244	233.56
261.477	217.56
261.71	222.56
261.942	222.56
262.175	223.56
262.407	223.56
262.64	211.56
262.872	209.56
263.105	228.56
263.337	217.56
263.57	223.56
263.802	221.56
264.035	225.56
264.267	210.56
264.499	251.56
264.732	223.56
264.964	231.56
265.197	221.56
265.429	207.56
265.661	227.56
265.894	243.56
266.126	226.56
266.358	234.56
266.591	229.56
266.823	233.56
267.055	238.56
267.287	235.56
267.52	221.56
267.752	229.56
267.984	241.56
268.216	236.56
268.448	253.56
268.681	241.56
268.913	251.56
269.145	275.56
269.377	285.56
269.609	283.56
269.841	274.56
270.073	282.56
270.306	284.56
270.538	316.56
270.77	306.56
271.002	310.56
271.234	284.56
271.466	302.56
271.698	306.56
271.93	308.56
272.162	306.56
272.394	317.56
272.626	301.56
272.858	298.56
273.09	284.56
273.322	260.56
273.553	277.56
273.785	270.56
274.017	267.56
274.249	275.56
274.481	273.56
274.713	276.56
274.945	277.56
275.176	278.56
275.408	250.56
275.64	292.56
275.872	274.56
276.104	271.56
276.335	281.56
276.567	289.56
276.799	271.56
277.031	297.56
277.262	300.56
277.494	313.56
277.726	318.56
277.957	298.56
278.189	285.56
278.421	294.56
278.652	273.56
278.884	265.56
279.115	309.56
279.347	275.56
279.579	293.56
279.81	282.56
280.042	287.56
280.273	293.56
280.505	302.56
280.736	288.56
280.968	279.56
281.199	293.56
281.431	294.56
281.662	289.56
281.894	307.56
282.125	313.56
282.356	309.56
282.588	295.56
282.819	315.56
283.051	310.56
283.282	281.56
283.513	295.56
283.745	284.56
283.976	291.56
284.207	308.56
284.439	289.56
284.67	292.56
284.901	295.56
285.132	303.56
285.364	287.56
285.595	303.56
285.826	296.56
286.057	309.56
286.288	293.56
286.52	299.56
286.751	311.56
286.982	305.56
287.213	303.56
287.444	292.56
287.675	324.56
287.906	332.56
288.138	343.56
288.369	313.56
288.6	316.56
288.831	309.56
289.062	327.56
289.293	321.56
289.524	306.56
289.755	305.56
289.986	308.56
290.217	294.56
290.448	310.56
290.679	319.56
290.91	323.56
291.141	319.56
291.371	319.56
291.602	322.56
291.833	314.56
292.064	313.56
292.295	298.56
292.526	314.56
292.757	315.56
292.987	308.56
293.218	300.56
293.449	321.56
293.68	321.56
293.91	328.56
294.141	300.56
294.372	332.56
294.603	326.56
294.833	317.56
295.064	312.56
295.295	305.56
295.525	313.56
295.756	313.56
295.987	315.56
296.217	330.56
296.448	351.56
296.679	331.56
296.909	314.56
297.14	316.56
297.37	321.56
297.601	346.56
297.831	324.56
298.062	346.56
298.292	346.56
298.523	336.56
298.753	355.56
298.984	341.56
299.214	329.56
299.445	335.56
299.675	330.56
299.905	329.56
300.136	332.56
300.366	329.56
300.597	348.56
300.827	343.56
301.057	333.56
301.288	355.56
301.518	347.56
301.748	345.56
301.979	340.56
302.209	345.56
302.439	364.56
302.669	341.56
302.9	355.56
303.13	346.56
303.36	370.56
303.59	348.56
303.82	354.56
304.051	359.56
304.281	379.56
304.511	348.56
304.741	360.56
304.971	354.56
305.201	363.56
305.431	358.56
305.661	365.56
305.891	336.56
306.121	355.56
306.352	363.56
306.582	370.56
306.812	357.56
307.042	366.56
307.272	361.56
307.502	371.56
307.731	363.56
307.961	366.56
308.191	355.56
308.421	336.56
308.651	359.56
308.881	381.56
309.111	358.56
309.341	367.56
309.571	355.56
309.8	355.56
310.03	382.56
310.26	379.56
310.49	363.56
310.72	381.56
310.949	405.56
311.179	402.56
311.409	408.56
311.639	385.56
311.868	390.56
312.098	381.56
312.328	395.56
312.557	403.56
312.787	428.56
313.017	400.56
313.246	384.56
313.476	397.56
313.706	390.56
313.935	402.56
314.165	399.56
314.394	430.56
314.624	407.56
314.853	388.56
315.083	386.56
315.312	414.56
315.542	395.56
315.771	402.56
316.001	380.56
316.23	390.56
316.46	383.56
316.689	398.56
316.919	402.56
317.148	403.56
317.377	414.56
317.607	401.56
317.836	410.56
318.065	378.56
318.295	395.56
318.524	382.56
318.753	390.56
318.983	381.56
319.212	410.56
319.441	410.56
319.67	410.56
319.9	399.56
320.129	400.56
320.358	375.56
320.587	405.56
320.816	406.56
321.046	411.56
321.275	421.56
321.504	396.56
321.733	390.56
321.962	422.56
322.191	425.56
322.42	435.56
322.649	454.56
322.878	470.56
323.108	442.56
323.337	463.56
323.566	465.56
323.795	498.56
324.024	515.56
324.253	631.56
324.482	829.56
324.71	1244.56
324.939	1665.56
325.168	1445.56
325.397	781.56
325.626	593.56
325.855	523.56
326.084	470.56
326.313	473.56
326.542	494.56
326.77	533.56
326.999	581.56
327.228	759.56
327.457	1091.56
327.686	1290.56
327.914	869.56
328.143	619.56
328.372	572.56
328.6	530.56
328.829	535.56
329.058	540.56
329.287	535.56
329.515	505.56
329.744	513.56
329.972	493.56
330.201	503.56
330.43	518.56
330.658	548.56
330.887	533.56
331.115	533.56
331.344	498.56
331.572	492.56
331.801	488.56
332.03	494.56
332.258	477.56
332.486	472.56
332.715	469.56
332.943	480.56
333.172	471.56
333.4	455.56
333.629	480.56
333.857	501.56
334.085	503.56
334.314	507.56
334.542	524.56
334.771	535.56
334.999	515.56
335.227	488.56
335.455	487.56
335.684	473.56
335.912	480.56
336.14	457.56
336.369	485.56
336.597	483.56
336.825	453.56
337.053	458.56
337.281	451.56
337.51	438.56
337.738	476.56
337.966	462.56
338.194	445.56
338.422	437.56
338.65	443.56
338.878	467.56
339.106	462.56
339.334	453.56
339.562	449.56
339.79	458.56
340.018	422.56
340.246	416.56
340.474	469.56
340.702	448.56
340.93	426.56
341.158	450.56
341.386	459.56
341.614	444.56
341.842	435.56
342.07	417.56
342.298	420.56
342.526	462.56
342.754	427.56
342.981	444.56
343.209	424.56
343.437	435.56
343.665	449.56
343.893	462.56
344.12	481.56
344.348	475.56
344.576	453.56
344.804	447.56
345.031	470.56
345.259	431.56
345.487	439.56
345.714	433.56
345.942	413.56
346.17	449.56
346.397	439.56
346.625	431.56
346.853	431.56
347.08	419.56
347.308	416.56
347.535	434.56
347.763	425.56
347.99	420.56
348.218	441.56
348.445	438.56
348.673	413.56
348.9	441.56
349.128	402.56
349.355	421.56
349.583	419.56
349.81	398.56
350.037	420.56
350.265	389.56
350.492	416.56
350.72	409.56
350.947	393.56
351.174	427.56
351.402	428.56
351.629	425.56
351.856	425.56
352.083	422.56
352.311	418.56
352.538	438.56
352.765	417.56
352.992	417.56
353.22	430.56
353.447	404.56
353.674	410.56
353.901	399.56
354.128	426.56
354.355	408.56
354.583	409.56
354.81	410.56
355.037	386.56
355.264	389.56
355.491	405.56
355.718	386.56
355.945	387.56
356.172	381.56
356.399	385.56
356.626	397.56
356.853	385.56
357.08	403.56
357.307	390.56
357.534	391.56
357.761	376.56
357.988	389.56
358.215	383.56
358.441	382.56
358.668	403.56
358.895	389.56
359.122	404.56
359.349	409.56
359.576	403.56
359.802	434.56
360.029	443.56
360.256	425.56
360.483	441.56
360.709	425.56
360.936	408.56
361.163	421.56
361.39	395.56
361.616	423.56
361.843	405.56
362.07	400.56
362.296	397.56
362.523	414.56
362.749	394.56
362.976	402.56
363.203	388.56
363.429	383.56
363.656	393.56
363.882	395.56
364.109	412.56
364.335	408.56
364.562	400.56
364.788	389.56
365.015	390.56
365.241	405.56
365.468	382.56
365.694	397.56
365.92	409.56
366.147	390.56
366.373	389.56
366.599	394.56
366.826	401.56
367.052	404.56
367.278	409.56
367.505	379.56
367.731	399.56
367.957	388.56
368.184	378.56
368.41	390.56
368.636	402.56
368.862	393.56
369.089	412.56
369.315	395.56
369.541	384.56
369.767	402.56
369.993	415.56
370.219	391.56
370.445	386.56
370.672	401.56
370.898	394.56
371.124	402.56
371.35	397.56
371.576	397.56
371.802	378.56
372.028	391.56
372.254	388.56
372.48	392.56
372.706	407.56
372.932	389.56
373.158	402.56
373.384	419.56
373.61	417.56
373.835	396.56
374.061	384.56
374.287	414.56
374.513	397.56
374.739	410.56
374.965	383.56
375.191	388.56
375.416	411.56
375.642	421.56
375.868	378.56
376.094	403.56
376.319	377.56
376.545	398.56
376.771	391.56
376.997	394.56
377.222	397.56
377.448	397.56
377.674	385.56
377.899	379.56
378.125	379.56
378.35	397.56
378.576	397.56
378.802	396.56
379.027	391.56
379.253	396.56
379.478	379.56
379.704	404.56
379.929	394.56
380.155	401.56
380.38	379.56
380.606	398.56
380.831	389.56
381.057	399.56
381.282	398.56
381.507	377.56
381.733	410.56
381.958	394.56
382.184	405.56
382.409	413.56
382.634	417.56
382.86	401.56
383.085	400.56
383.31	415.56
383.535	429.56
383.761	397.56
383.986	415.56
384.211	408.56
384.436	426.56
384.662	405.56
384.887	437.56
385.112	423.56
385.337	423.56
385.562	413.56
385.787	421.56
386.013	435.56
386.238	445.56
386.463	445.56
386.688	446.56
386.913	420.56
387.138	433.56
387.363	439.56
387.588	446.56
387.813	434.56
388.038	411.56
388.263	426.56
388.488	440.56
388.713	430.56
388.938	447.56
389.163	432.56
389.387	420.56
389.612	415.56
389.837	432.56
390.062	430.56
390.287	427.56
390.512	443.56
390.736	426.56
390.961	431.56
391.186	441.56
391.411	441.56
391.636	439.56
391.86	438.56
392.085	438.56
392.31	449.56
392.534	446.56
392.759	429.56
392.984	442.56
393.208	429.56
393.433	438.56
393.658	435.56
393.882	449.56
394.107	435.56
394.331	444.56
394.556	430.56
394.78	434.56
395.005	461.56
395.229	453.56
395.454	445.56
395.678	455.56
395.903	474.56
396.127	460.56
396.352	479.56
396.576	459.56
396.801	453.56
397.025	427.56
397.249	437.56
397.474	437.56
397.698	459.56
397.922	445.56
398.147	462.56
398.371	490.56
398.595	470.56
398.82	482.56
399.044	507.56
399.268	525.56
399.492	542.56
399.717	596.56
399.941	600.56
400.165	626.56
400.389	619.56
400.613	569.56
400.837	530.56
401.062	507.56
401.286	491.56
401.51	498.56
401.734	495.56
401.958	502.56
402.182	508.56
402.406	494.56
402.63	484.56
402.854	491.56
403.078	487.56
403.302	530.56
403.526	507.56
403.75	509.56
403.974	501.56
404.198	513.56
404.422	531.56
404.645	522.56
404.869	533.56
405.093	536.56
405.317	569.56
405.541	610.56
405.765	556.56
405.988	532.56
406.212	539.56
406.436	534.56
406.66	544.56
406.883	540.56
407.107	559.56
407.331	587.56
407.555	643.56
407.778	646.56
408.002	595.56
408.226	555.56
408.449	554.56
408.673	557.56
408.896	571.56
409.12	623.56
409.344	581.56
409.567	521.56
409.791	522.56
410.014	515.56
410.238	482.56
410.461	520.56
410.685	492.56
410.908	528.56
411.132	567.56
411.355	586.56
411.578	549.56
411.802	505.56
412.025	490.56
412.249	505.56
412.472	506.56
412.695	543.56
412.919	546.56
413.142	513.56
413.365	499.56
413.589	484.56
413.812	471.56
414.035	479.56
414.258	499.56
414.482	472.56
414.705	483.56
414.928	454.56
415.151	471.56
415.374	485.56
415.597	493.56
415.821	471.56
416.044	463.56
416.267	465.56
416.49	470.56
416.713	474.56
416.936	456.56
417.159	454.56
417.382	472.56
417.605	460.56
417.828	488.56
418.051	485.56
418.274	481.56
418.497	467.56
418.72	450.56
418.943	449.56
419.166	490.56
419.389	524.56
419.611	493.56
419.834	507.56
420.057	486.56
420.28	480.56
420.503	484.56
420.726	490.56
420.948	484.56
421.171	538.56
421.394	541.56
421.617	506.56
421.839	487.56
422.062	491.56
422.285	492.56
422.507	558.56
422.73	598.56
422.953	607.56
423.175	535.56
423.398	481.56
423.621	507.56
423.843	503.56
424.066	532.56
424.288	514.56
424.511	522.56
424.733	577.56
424.956	627.56
425.178	606.56
425.401	614.56
425.623	622.56
425.846	534.56
426.068	518.56
426.291	507.56
426.513	532.56
426.735	526.56
426.958	537.56
427.18	589.56
427.402	692.56
427.625	779.56
427.847	653.56
428.069	581.56
428.292	537.56
428.514	475.56
428.736	491.56
428.958	484.56
429.181	476.56
429.403	473.56
429.625	478.56
429.847	507.56
430.069	544.56
430.292	562.56
430.514	477.56
430.736	482.56
430.958	463.56
431.18	444.56
431.402	455.56
431.624	455.56
431.846	454.56
432.068	466.56
432.29	449.56
432.512	459.56
432.734	453.56
432.956	433.56
433.178	467.56
433.4	461.56
433.622	435.56
433.844	453.56
434.066	462.56
434.287	459.56
434.509	455.56
434.731	456.56
434.953	474.56
435.175	487.56
435.397	485.56
435.618	502.56
435.84	537.56
436.062	619.56
436.284	677.56
436.505	573.56
436.727	513.56
436.949	495.56
437.17	445.56
437.392	441.56
437.614	473.56
437.835	500.56
438.057	572.56
438.278	638.56
438.5	670.56
438.721	706.56
438.943	672.56
439.165	569.56
439.386	494.56
439.608	498.56
439.829	513.56
440.05	521.56
440.272	539.56
440.493	523.56
440.715	518.56
440.936	484.56
441.158	473.56
441.379	473.56
441.6	493.56
441.822	475.56
442.043	549.56
442.264	603.56
442.486	653.56
442.707	564.56
442.928	517.56
443.149	520.56
443.371	526.56
443.592	555.56
443.813	641.56
444.034	686.56
444.255	586.56
444.476	532.56
444.698	537.56
444.919	533.56
445.14	631.56
445.361	586.56
445.582	538.56
445.803	572.56
446.024	655.56
446.245	663.56
446.466	585.56
446.687	529.56
446.908	496.56
447.129	489.56
447.35	461.56
447.571	453.56
447.792	460.56
448.013	458.56
448.234	465.56
448.455	521.56
448.675	606.56
448.896	685.56
449.117	601.56
449.338	571.56
449.559	628.56
449.779	734.56
450	581.56
450.221	474.56
450.442	459.56
450.662	442.56
450.883	439.56
451.104	452.56
451.324	438.56
451.545	445.56
451.766	428.56
451.986	428.56
452.207	423.56
452.428	396.56
452.648	421.56
452.869	409.56
453.089	433.56
453.31	446.56
453.53	413.56
453.751	423.56
453.971	404.56
454.192	417.56
454.412	393.56
454.633	400.56
454.853	407.56
455.073	398.56
455.294	403.56
455.514	483.56
455.734	474.56
455.955	400.56
456.175	389.56
456.395	379.56
456.616	394.56
456.836	387.56
457.056	407.56
457.276	365.56
457.497	392.56
457.717	405.56
457.937	385.56
458.157	403.56
458.377	393.56
458.598	413.56
458.818	477.56
459.038	531.56
459.258	553.56
459.478	482.56
459.698	435.56
459.918	438.56
460.138	455.56
460.358	461.56
460.578	466.56
460.798	475.56
461.018	462.56
461.238	457.56
461.458	472.56
461.678	454.56
461.898	486.56
462.118	455.56
462.338	497.56
462.558	461.56
462.777	471.56
462.997	510.56
463.217	513.56
463.437	518.56
463.657	503.56
463.876	514.56
464.096	508.56
464.316	511.56
464.536	490.56
464.755	492.56
464.975	503.56
465.195	494.56
465.414	561.56
465.634	478.56
465.854	490.56
466.073	469.56
466.293	435.56
466.512	427.56
466.732	428.56
466.951	428.56
467.171	414.56
467.391	428.56
467.61	421.56
467.829	432.56
468.049	447.56
468.268	429.56
468.488	417.56
468.707	425.56
468.927	408.56
469.146	406.56
469.365	430.56
469.585	390.56
469.804	427.56
470.023	458.56
470.243	417.56
470.462	415.56
470.681	445.56
470.901	444.56
471.12	421.56
471.339	411.56
471.558	440.56
471.777	424.56
471.997	411.56
472.216	419.56
472.435	446.56
472.654	427.56
472.873	439.56
473.092	433.56
473.311	415.56
473.53	412.56
473.749	426.56
473.968	446.56
474.187	523.56
474.406	550.56
474.625	469.56
474.844	449.56
475.063	441.56
475.282	425.56
475.501	421.56
475.72	439.56
475.939	437.56
476.158	436.56
476.377	439.56
476.596	460.56
476.814	459.56
477.033	462.56
477.252	456.56
477.471	461.56
477.69	453.56
477.908	478.56
478.127	471.56
478.346	454.56
478.564	475.56
478.783	478.56
479.002	495.56
479.22	473.56
479.439	509.56
479.658	511.56
479.876	527.56
480.095	510.56
480.313	543.56
480.532	526.56
480.751	525.56
480.969	531.56
481.188	536.56
481.406	554.56
481.624	528.56
481.843	501.56
482.061	493.56
482.28	491.56
482.498	503.56
482.717	489.56
482.935	492.56
483.153	476.56
483.372	501.56
483.59	489.56
483.808	484.56
484.027	471.56
484.245	481.56
484.463	479.56
484.681	492.56
484.9	510.56
485.118	484.56
485.336	503.56
485.554	505.56
485.772	502.56
485.99	519.56
486.209	505.56
486.427	512.56
486.645	515.56
486.863	502.56
487.081	518.56
487.299	530.56
487.517	530.56
487.735	503.56
487.953	509.56
488.171	533.56
488.389	500.56
488.607	547.56
488.825	513.56
489.043	535.56
489.261	520.56
489.479	505.56
489.696	500.56
489.914	522.56
490.132	533.56
490.35	543.56
490.568	548.56
490.786	554.56
491.003	531.56
491.221	563.56
491.439	567.56
491.657	600.56
491.874	581.56
492.092	569.56
492.31	561.56
492.527	599.56
492.745	593.56
492.963	605.56
493.18	588.56
493.398	583.56
493.615	600.56
493.833	576.56
494.05	617.56
494.268	595.56
494.485	590.56
494.703	587.56
494.92	590.56
495.138	591.56
495.355	610.56
495.573	614.56
495.79	620.56
496.008	612.56
496.225	583.56
496.442	624.56
496.66	603.56
496.877	607.56
497.094	641.56
497.312	635.56
497.529	631.56
497.746	653.56
497.963	662.56
498.181	693.56
498.398	683.56
498.615	708.56
498.832	706.56
499.049	724.56
499.267	783.56
499.484	791.56
499.701	831.56
499.918	871.56
500.135	919.56
500.352	920.56
500.569	983.56
500.786	978.56
501.003	965.56
501.22	935.56
501.437	872.56
501.654	863.56
501.871	828.56
502.088	780.56
