Data from 1977.PennyLincolnUp.Lamp.En5.5.200Scan.071719.P1_HRD10591_16-06-41-864.txt Node
Date: Thu Jul 18 16:06:41 EDT 2019
User: cochatt
Spectrometer: HR+D1059
Trigger mode: 1
Integration Time (sec): 1.000000E-1
Scans to average: 1
Electric dark correction enabled: true
Nonlinearity correction enabled: false
Boxcar width: 0
XAxis mode: Wavelengths
Number of Pixels in Spectrum: 2048
>>>>>Begin Spectral Data<<<<<
223.165	-9.19
223.4	-9.19
223.635	-9.19
223.869	-20.19
224.104	-11.19
224.338	-14.19
224.573	-16.19
224.808	-19.19
225.042	-20.19
225.277	-7.19
225.511	-5.19
225.746	5.81
225.98	4.81
226.215	11.81
226.449	13.81
226.683	17.81
226.918	36.81
227.152	31.81
227.387	30.81
227.621	36.81
227.856	50.81
228.09	41.81
228.324	46.81
228.559	66.81
228.793	69.81
229.027	88.81
229.262	101.81
229.496	103.81
229.73	122.81
229.964	137.81
230.199	127.81
230.433	111.81
230.667	116.81
230.901	123.81
231.136	109.81
231.37	105.81
231.604	113.81
231.838	114.81
232.072	119.81
232.306	119.81
232.541	114.81
232.775	106.81
233.009	112.81
233.243	104.81
233.477	107.81
233.711	110.81
233.945	115.81
234.179	123.81
234.413	123.81
234.647	126.81
234.881	119.81
235.115	121.81
235.349	117.81
235.583	119.81
235.817	134.81
236.051	121.81
236.285	122.81
236.519	127.81
236.753	123.81
236.987	136.81
237.221	177.81
237.455	209.81
237.689	168.81
237.922	135.81
238.156	142.81
238.39	140.81
238.624	131.81
238.858	107.81
239.091	119.81
239.325	123.81
239.559	128.81
239.793	136.81
240.027	142.81
240.26	129.81
240.494	150.81
240.728	133.81
240.961	143.81
241.195	137.81
241.429	131.81
241.662	152.81
241.896	139.81
242.13	121.81
242.363	131.81
242.597	128.81
242.83	140.81
243.064	141.81
243.298	131.81
243.531	123.81
243.765	148.81
243.998	134.81
244.232	151.81
244.465	151.81
244.699	136.81
244.932	147.81
245.166	149.81
245.399	145.81
245.633	149.81
245.866	151.81
246.099	143.81
246.333	146.81
246.566	151.81
246.8	143.81
247.033	143.81
247.266	157.81
247.5	171.81
247.733	176.81
247.966	179.81
248.2	165.81
248.433	156.81
248.666	175.81
248.899	181.81
249.133	166.81
249.366	191.81
249.599	189.81
249.832	179.81
250.066	174.81
250.299	187.81
250.532	203.81
250.765	193.81
250.998	222.81
251.231	208.81
251.465	217.81
251.698	198.81
251.931	176.81
252.164	187.81
252.397	198.81
252.63	192.81
252.863	194.81
253.096	218.81
253.329	220.81
253.562	209.81
253.795	208.81
254.028	206.81
254.261	219.81
254.494	235.81
254.727	230.81
254.96	254.81
255.193	250.81
255.426	253.81
255.659	235.81
255.892	204.81
256.124	214.81
256.357	220.81
256.59	230.81
256.823	198.81
257.056	181.81
257.289	213.81
257.521	217.81
257.754	201.81
257.987	198.81
258.22	200.81
258.452	211.81
258.685	211.81
258.918	191.81
259.151	201.81
259.383	221.81
259.616	221.81
259.849	225.81
260.081	229.81
260.314	231.81
260.547	257.81
260.779	223.81
261.012	217.81
261.244	222.81
261.477	229.81
261.71	237.81
261.942	230.81
262.175	224.81
262.407	235.81
262.64	227.81
262.872	211.81
263.105	220.81
263.337	226.81
263.57	208.81
263.802	211.81
264.035	207.81
264.267	217.81
264.499	222.81
264.732	221.81
264.964	231.81
265.197	209.81
265.429	223.81
265.661	232.81
265.894	225.81
266.126	219.81
266.358	224.81
266.591	231.81
266.823	228.81
267.055	236.81
267.287	241.81
267.52	252.81
267.752	232.81
267.984	234.81
268.216	240.81
268.448	259.81
268.681	250.81
268.913	255.81
269.145	271.81
269.377	282.81
269.609	265.81
269.841	266.81
270.073	287.81
270.306	301.81
270.538	308.81
270.77	296.81
271.002	307.81
271.234	283.81
271.466	282.81
271.698	291.81
271.93	307.81
272.162	309.81
272.394	314.81
272.626	301.81
272.858	283.81
273.09	267.81
273.322	285.81
273.553	270.81
273.785	272.81
274.017	263.81
274.249	252.81
274.481	276.81
274.713	263.81
274.945	263.81
275.176	260.81
275.408	284.81
275.64	282.81
275.872	261.81
276.104	276.81
276.335	274.81
276.567	289.81
276.799	298.81
277.031	315.81
277.262	304.81
277.494	313.81
277.726	323.81
277.957	280.81
278.189	278.81
278.421	286.81
278.652	297.81
278.884	270.81
279.115	289.81
279.347	265.81
279.579	278.81
279.81	287.81
280.042	275.81
280.273	297.81
280.505	281.81
280.736	273.81
280.968	283.81
281.199	272.81
281.431	285.81
281.662	278.81
281.894	267.81
282.125	293.81
282.356	301.81
282.588	302.81
282.819	313.81
283.051	293.81
283.282	274.81
283.513	300.81
283.745	284.81
283.976	284.81
284.207	313.81
284.439	289.81
284.67	302.81
284.901	293.81
285.132	301.81
285.364	308.81
285.595	296.81
285.826	303.81
286.057	310.81
286.288	297.81
286.52	311.81
286.751	311.81
286.982	294.81
287.213	315.81
287.444	305.81
287.675	305.81
287.906	305.81
288.138	327.81
288.369	320.81
288.6	313.81
288.831	305.81
289.062	298.81
289.293	316.81
289.524	313.81
289.755	316.81
289.986	299.81
290.217	316.81
290.448	312.81
290.679	320.81
290.91	287.81
291.141	286.81
291.371	300.81
291.602	325.81
291.833	317.81
292.064	331.81
292.295	301.81
292.526	299.81
292.757	313.81
292.987	322.81
293.218	325.81
293.449	312.81
293.68	320.81
293.91	328.81
294.141	308.81
294.372	327.81
294.603	323.81
294.833	324.81
295.064	332.81
295.295	312.81
295.525	325.81
295.756	340.81
295.987	341.81
296.217	329.81
296.448	318.81
296.679	339.81
296.909	331.81
297.14	320.81
297.37	315.81
297.601	331.81
297.831	311.81
298.062	317.81
298.292	330.81
298.523	322.81
298.753	327.81
298.984	334.81
299.214	319.81
299.445	332.81
299.675	337.81
299.905	324.81
300.136	319.81
300.366	335.81
300.597	331.81
300.827	340.81
301.057	342.81
301.288	337.81
301.518	357.81
301.748	323.81
301.979	337.81
302.209	355.81
302.439	349.81
302.669	359.81
302.9	366.81
303.13	360.81
303.36	350.81
303.59	335.81
303.82	353.81
304.051	355.81
304.281	348.81
304.511	359.81
304.741	362.81
304.971	361.81
305.201	347.81
305.431	359.81
305.661	346.81
305.891	337.81
306.121	343.81
306.352	364.81
306.582	350.81
306.812	344.81
307.042	356.81
307.272	369.81
307.502	368.81
307.731	349.81
307.961	353.81
308.191	347.81
308.421	374.81
308.651	349.81
308.881	358.81
309.111	366.81
309.341	364.81
309.571	365.81
309.8	375.81
310.03	359.81
310.26	369.81
310.49	385.81
310.72	388.81
310.949	405.81
311.179	393.81
311.409	375.81
311.639	373.81
311.868	388.81
312.098	389.81
312.328	384.81
312.557	403.81
312.787	411.81
313.017	399.81
313.246	407.81
313.476	375.81
313.706	377.81
313.935	391.81
314.165	410.81
314.394	394.81
314.624	407.81
314.853	402.81
315.083	384.81
315.312	384.81
315.542	390.81
315.771	399.81
316.001	387.81
316.23	383.81
316.46	396.81
316.689	393.81
316.919	386.81
317.148	385.81
317.377	388.81
317.607	414.81
317.836	381.81
318.065	402.81
318.295	375.81
318.524	381.81
318.753	391.81
318.983	383.81
319.212	379.81
319.441	386.81
319.67	402.81
319.9	393.81
320.129	385.81
320.358	392.81
320.587	395.81
320.816	409.81
321.046	400.81
321.275	401.81
321.504	404.81
321.733	425.81
321.962	422.81
322.191	430.81
322.42	418.81
322.649	452.81
322.878	448.81
323.108	450.81
323.337	461.81
323.566	463.81
323.795	493.81
324.024	540.81
324.253	620.81
324.482	822.81
324.71	1224.81
324.939	1641.81
325.168	1438.81
325.397	797.81
325.626	580.81
325.855	512.81
326.084	499.81
326.313	471.81
326.542	486.81
326.77	540.81
326.999	606.81
327.228	779.81
327.457	1099.81
327.686	1245.81
327.914	885.81
328.143	627.81
328.372	535.81
328.6	549.81
328.829	533.81
329.058	515.81
329.287	501.81
329.515	495.81
329.744	497.81
329.972	483.81
330.201	496.81
330.43	509.81
330.658	543.81
330.887	531.81
331.115	546.81
331.344	515.81
331.572	484.81
331.801	493.81
332.03	466.81
332.258	446.81
332.486	467.81
332.715	461.81
332.943	471.81
333.172	461.81
333.4	489.81
333.629	499.81
333.857	488.81
334.085	504.81
334.314	517.81
334.542	519.81
334.771	519.81
334.999	511.81
335.227	482.81
335.455	461.81
335.684	504.81
335.912	464.81
336.14	465.81
336.369	480.81
336.597	474.81
336.825	452.81
337.053	462.81
337.281	441.81
337.51	449.81
337.738	468.81
337.966	435.81
338.194	458.81
338.422	459.81
338.65	451.81
338.878	429.81
339.106	452.81
339.334	439.81
339.562	457.81
339.79	437.81
340.018	430.81
340.246	432.81
340.474	443.81
340.702	408.81
340.93	435.81
341.158	416.81
341.386	433.81
341.614	432.81
341.842	470.81
342.07	444.81
342.298	429.81
342.526	439.81
342.754	430.81
342.981	430.81
343.209	421.81
343.437	437.81
343.665	468.81
343.893	456.81
344.12	464.81
344.348	440.81
344.576	448.81
344.804	456.81
345.031	428.81
345.259	450.81
345.487	440.81
345.714	428.81
345.942	419.81
346.17	417.81
346.397	429.81
346.625	404.81
346.853	435.81
347.08	425.81
347.308	413.81
347.535	406.81
347.763	415.81
347.99	422.81
348.218	425.81
348.445	424.81
348.673	425.81
348.9	403.81
349.128	431.81
349.355	422.81
349.583	415.81
349.81	402.81
350.037	377.81
350.265	399.81
350.492	404.81
350.72	408.81
350.947	418.81
351.174	399.81
351.402	423.81
351.629	417.81
351.856	400.81
352.083	399.81
352.311	414.81
352.538	416.81
352.765	418.81
352.992	394.81
353.22	400.81
353.447	428.81
353.674	393.81
353.901	400.81
354.128	398.81
354.355	392.81
354.583	400.81
354.81	396.81
355.037	390.81
355.264	397.81
355.491	391.81
355.718	373.81
355.945	382.81
356.172	375.81
356.399	391.81
356.626	362.81
356.853	376.81
357.08	397.81
357.307	373.81
357.534	384.81
357.761	387.81
357.988	387.81
358.215	392.81
358.441	381.81
358.668	405.81
358.895	402.81
359.122	405.81
359.349	375.81
359.576	388.81
359.802	414.81
360.029	431.81
360.256	428.81
360.483	415.81
360.709	415.81
360.936	419.81
361.163	394.81
361.39	424.81
361.616	413.81
361.843	418.81
362.07	394.81
362.296	380.81
362.523	400.81
362.749	380.81
362.976	377.81
363.203	408.81
363.429	379.81
363.656	385.81
363.882	402.81
364.109	405.81
364.335	376.81
364.562	384.81
364.788	378.81
365.015	386.81
365.241	371.81
365.468	383.81
365.694	404.81
365.92	397.81
366.147	393.81
366.373	402.81
366.599	398.81
366.826	405.81
367.052	381.81
367.278	392.81
367.505	384.81
367.731	384.81
367.957	406.81
368.184	405.81
368.41	417.81
368.636	405.81
368.862	408.81
369.089	401.81
369.315	406.81
369.541	385.81
369.767	399.81
369.993	381.81
370.219	371.81
370.445	401.81
370.672	400.81
370.898	382.81
371.124	394.81
371.35	398.81
371.576	393.81
371.802	407.81
372.028	384.81
372.254	393.81
372.48	406.81
372.706	396.81
372.932	389.81
373.158	397.81
373.384	380.81
373.61	406.81
373.835	395.81
374.061	389.81
374.287	404.81
374.513	414.81
374.739	392.81
374.965	419.81
375.191	382.81
375.416	397.81
375.642	393.81
375.868	397.81
376.094	393.81
376.319	382.81
376.545	393.81
376.771	400.81
376.997	389.81
377.222	404.81
377.448	387.81
377.674	391.81
377.899	380.81
378.125	379.81
378.35	379.81
378.576	369.81
378.802	358.81
379.027	371.81
379.253	385.81
379.478	392.81
379.704	391.81
379.929	392.81
380.155	398.81
380.38	388.81
380.606	378.81
380.831	387.81
381.057	387.81
381.282	383.81
381.507	394.81
381.733	381.81
381.958	381.81
382.184	383.81
382.409	388.81
382.634	396.81
382.86	386.81
383.085	401.81
383.31	389.81
383.535	396.81
383.761	398.81
383.986	388.81
384.211	402.81
384.436	405.81
384.662	400.81
384.887	427.81
385.112	410.81
385.337	425.81
385.562	411.81
385.787	422.81
386.013	445.81
386.238	425.81
386.463	439.81
386.688	451.81
386.913	410.81
387.138	409.81
387.363	432.81
387.588	423.81
387.813	426.81
388.038	432.81
388.263	425.81
388.488	450.81
388.713	453.81
388.938	432.81
389.163	419.81
389.387	428.81
389.612	437.81
389.837	437.81
390.062	414.81
390.287	440.81
390.512	424.81
390.736	431.81
390.961	425.81
391.186	431.81
391.411	441.81
391.636	421.81
391.86	443.81
392.085	443.81
392.31	445.81
392.534	449.81
392.759	438.81
392.984	425.81
393.208	427.81
393.433	438.81
393.658	441.81
393.882	428.81
394.107	423.81
394.331	431.81
394.556	410.81
394.78	436.81
395.005	430.81
395.229	437.81
395.454	419.81
395.678	435.81
395.903	483.81
396.127	444.81
396.352	442.81
396.576	467.81
396.801	450.81
397.025	439.81
397.249	424.81
397.474	444.81
397.698	448.81
397.922	462.81
398.147	443.81
398.371	483.81
398.595	470.81
398.82	480.81
399.044	495.81
399.268	508.81
399.492	536.81
399.717	583.81
399.941	611.81
400.165	616.81
400.389	601.81
400.613	564.81
400.837	541.81
401.062	508.81
401.286	485.81
401.51	485.81
401.734	475.81
401.958	491.81
402.182	497.81
402.406	488.81
402.63	496.81
402.854	488.81
403.078	491.81
403.302	490.81
403.526	517.81
403.75	509.81
403.974	490.81
404.198	499.81
404.422	505.81
404.645	521.81
404.869	519.81
405.093	533.81
405.317	570.81
405.541	599.81
405.765	535.81
405.988	515.81
406.212	538.81
406.436	542.81
406.66	552.81
406.883	539.81
407.107	575.81
407.331	573.81
407.555	622.81
407.778	661.81
408.002	590.81
408.226	565.81
408.449	558.81
408.673	555.81
408.896	564.81
409.12	597.81
409.344	560.81
409.567	537.81
409.791	520.81
410.014	487.81
410.238	516.81
410.461	503.81
410.685	501.81
410.908	494.81
411.132	517.81
411.355	570.81
411.578	537.81
411.802	487.81
412.025	499.81
412.249	486.81
412.472	517.81
412.695	549.81
412.919	522.81
413.142	495.81
413.365	475.81
413.589	465.81
413.812	468.81
414.035	466.81
414.258	488.81
414.482	464.81
414.705	476.81
414.928	460.81
415.151	471.81
415.374	453.81
415.597	469.81
415.821	463.81
416.044	456.81
416.267	465.81
416.49	466.81
416.713	473.81
416.936	485.81
417.159	439.81
417.382	458.81
417.605	471.81
417.828	473.81
418.051	486.81
418.274	479.81
418.497	485.81
418.72	472.81
418.943	446.81
419.166	491.81
419.389	513.81
419.611	492.81
419.834	480.81
420.057	484.81
420.28	471.81
420.503	472.81
420.726	475.81
420.948	514.81
421.171	528.81
421.394	544.81
421.617	493.81
421.839	481.81
422.062	494.81
422.285	481.81
422.507	528.81
422.73	595.81
422.953	560.81
423.175	487.81
423.398	508.81
423.621	523.81
423.843	525.81
424.066	491.81
424.288	492.81
424.511	552.81
424.733	573.81
424.956	635.81
425.178	602.81
425.401	580.81
425.623	628.81
425.846	545.81
426.068	517.81
426.291	486.81
426.513	493.81
426.735	510.81
426.958	536.81
427.18	602.81
427.402	730.81
427.625	779.81
427.847	672.81
428.069	591.81
428.292	529.81
428.514	488.81
428.736	461.81
428.958	484.81
429.181	462.81
429.403	484.81
429.625	496.81
429.847	501.81
430.069	557.81
430.292	534.81
430.514	472.81
430.736	454.81
430.958	473.81
431.18	455.81
431.402	445.81
431.624	417.81
431.846	448.81
432.068	441.81
432.29	473.81
432.512	446.81
432.734	460.81
432.956	445.81
433.178	461.81
433.4	461.81
433.622	456.81
433.844	453.81
434.066	449.81
434.287	421.81
434.509	439.81
434.731	432.81
434.953	489.81
435.175	489.81
435.397	513.81
435.618	518.81
435.84	543.81
436.062	609.81
436.284	679.81
436.505	547.81
436.727	494.81
436.949	492.81
437.17	464.81
437.392	471.81
437.614	476.81
437.835	489.81
438.057	555.81
438.278	621.81
438.5	652.81
438.721	708.81
438.943	691.81
439.165	549.81
439.386	511.81
439.608	498.81
439.829	492.81
440.05	497.81
440.272	559.81
440.493	526.81
440.715	491.81
440.936	482.81
441.158	466.81
441.379	483.81
441.6	511.81
441.822	469.81
442.043	515.81
442.264	618.81
442.486	628.81
442.707	549.81
442.928	520.81
443.149	514.81
443.371	537.81
443.592	558.81
443.813	647.81
444.034	699.81
444.255	572.81
444.476	538.81
444.698	528.81
444.919	535.81
445.14	600.81
445.361	558.81
445.582	533.81
445.803	554.81
446.024	681.81
446.245	648.81
446.466	620.81
446.687	527.81
446.908	499.81
447.129	489.81
447.35	455.81
447.571	471.81
447.792	436.81
448.013	459.81
448.234	469.81
448.455	520.81
448.675	593.81
448.896	711.81
449.117	594.81
449.338	557.81
449.559	653.81
449.779	727.81
450	595.81
450.221	479.81
450.442	465.81
450.662	446.81
450.883	435.81
451.104	426.81
451.324	431.81
451.545	432.81
451.766	418.81
451.986	420.81
452.207	432.81
452.428	409.81
452.648	419.81
452.869	409.81
453.089	422.81
453.31	404.81
453.53	428.81
453.751	432.81
453.971	419.81
454.192	407.81
454.412	408.81
454.633	391.81
454.853	395.81
455.073	397.81
455.294	430.81
455.514	488.81
455.734	471.81
455.955	413.81
456.175	399.81
456.395	398.81
456.616	398.81
456.836	388.81
457.056	415.81
457.276	394.81
457.497	399.81
457.717	399.81
457.937	393.81
458.157	399.81
458.377	397.81
458.598	409.81
458.818	456.81
459.038	524.81
459.258	543.81
459.478	477.81
459.698	460.81
459.918	447.81
460.138	448.81
460.358	443.81
460.578	460.81
460.798	459.81
461.018	455.81
461.238	446.81
461.458	448.81
461.678	460.81
461.898	462.81
462.118	448.81
462.338	452.81
462.558	464.81
462.777	488.81
462.997	497.81
463.217	500.81
463.437	522.81
463.657	509.81
463.876	500.81
464.096	480.81
464.316	485.81
464.536	499.81
464.755	482.81
464.975	503.81
465.195	519.81
465.414	547.81
465.634	490.81
465.854	463.81
466.073	444.81
466.293	423.81
466.512	456.81
466.732	424.81
466.951	428.81
467.171	428.81
467.391	417.81
467.61	417.81
467.829	436.81
468.049	422.81
468.268	422.81
468.488	416.81
468.707	407.81
468.927	400.81
469.146	387.81
469.365	400.81
469.585	407.81
469.804	444.81
470.023	420.81
470.243	405.81
470.462	423.81
470.681	457.81
470.901	419.81
471.12	420.81
471.339	440.81
471.558	443.81
471.777	414.81
471.997	417.81
472.216	429.81
472.435	455.81
472.654	429.81
472.873	423.81
473.092	400.81
473.311	426.81
473.53	425.81
473.749	430.81
473.968	467.81
474.187	537.81
474.406	565.81
474.625	445.81
474.844	449.81
475.063	421.81
475.282	425.81
475.501	428.81
475.72	445.81
475.939	420.81
476.158	437.81
476.377	428.81
476.596	428.81
476.814	440.81
477.033	439.81
477.252	433.81
477.471	435.81
477.69	435.81
477.908	458.81
478.127	477.81
478.346	451.81
478.564	454.81
478.783	466.81
479.002	485.81
479.22	474.81
479.439	495.81
479.658	488.81
479.876	521.81
480.095	521.81
480.313	547.81
480.532	561.81
480.751	538.81
480.969	527.81
481.188	553.81
481.406	526.81
481.624	508.81
481.843	501.81
482.061	500.81
482.28	468.81
482.498	485.81
482.717	509.81
482.935	505.81
483.153	494.81
483.372	481.81
483.59	486.81
483.808	490.81
484.027	492.81
484.245	504.81
484.463	474.81
484.681	495.81
484.9	483.81
485.118	499.81
485.336	493.81
485.554	496.81
485.772	492.81
485.99	486.81
486.209	523.81
486.427	499.81
486.645	524.81
486.863	545.81
487.081	539.81
487.299	516.81
487.517	517.81
487.735	532.81
487.953	498.81
488.171	519.81
488.389	508.81
488.607	528.81
488.825	523.81
489.043	543.81
489.261	521.81
489.479	550.81
489.696	535.81
489.914	507.81
490.132	537.81
490.35	532.81
490.568	521.81
490.786	536.81
491.003	559.81
491.221	550.81
491.439	552.81
491.657	578.81
491.874	575.81
492.092	576.81
492.31	561.81
492.527	568.81
492.745	567.81
492.963	575.81
493.18	576.81
493.398	595.81
493.615	590.81
493.833	603.81
494.05	580.81
494.268	584.81
494.485	585.81
494.703	597.81
494.92	600.81
495.138	604.81
495.355	589.81
495.573	598.81
495.79	592.81
496.008	592.81
496.225	613.81
496.442	614.81
496.66	596.81
496.877	614.81
497.094	632.81
497.312	624.81
497.529	627.81
497.746	626.81
497.963	661.81
498.181	670.81
498.398	678.81
498.615	691.81
498.832	684.81
499.049	709.81
499.267	760.81
499.484	789.81
499.701	823.81
499.918	857.81
500.135	883.81
500.352	935.81
500.569	963.81
500.786	949.81
501.003	919.81
501.22	907.81
501.437	833.81
501.654	829.81
501.871	799.81
