Data from 1977.PennyLincolnUp.Lamp.En5.5.200Scan.071719.P1_HRD10591_16-06-57-864.txt Node
Date: Thu Jul 18 16:06:57 EDT 2019
User: cochatt
Spectrometer: HR+D1059
Trigger mode: 1
Integration Time (sec): 1.000000E-1
Scans to average: 1
Electric dark correction enabled: true
Nonlinearity correction enabled: false
Boxcar width: 0
XAxis mode: Wavelengths
Number of Pixels in Spectrum: 2048
>>>>>Begin Spectral Data<<<<<
223.165	-11.38
223.4	-11.38
223.635	-11.38
223.869	-24.38
224.104	-14.38
224.338	-13.38
224.573	-17.38
224.808	-12.38
225.042	-11.38
225.277	3.62
225.511	-10.38
225.746	-1.38
225.98	2.62
226.215	21.62
226.449	11.62
226.683	27.62
226.918	23.62
227.152	25.62
227.387	21.62
227.621	44.62
227.856	42.62
228.09	51.62
228.324	53.62
228.559	58.62
228.793	75.62
229.027	97.62
229.262	100.62
229.496	114.62
229.73	114.62
229.964	139.62
230.199	119.62
230.433	113.62
230.667	122.62
230.901	117.62
231.136	90.62
231.37	110.62
231.604	114.62
231.838	115.62
232.072	120.62
232.306	115.62
232.541	117.62
232.775	115.62
233.009	126.62
233.243	104.62
233.477	122.62
233.711	130.62
233.945	108.62
234.179	110.62
234.413	125.62
234.647	115.62
234.881	121.62
235.115	114.62
235.349	119.62
235.583	129.62
235.817	115.62
236.051	125.62
236.285	120.62
236.519	129.62
236.753	120.62
236.987	136.62
237.221	161.62
237.455	209.62
237.689	173.62
237.922	155.62
238.156	152.62
238.39	126.62
238.624	114.62
238.858	138.62
239.091	129.62
239.325	129.62
239.559	130.62
239.793	123.62
240.027	135.62
240.26	148.62
240.494	149.62
240.728	133.62
240.961	141.62
241.195	128.62
241.429	141.62
241.662	126.62
241.896	124.62
242.13	130.62
242.363	125.62
242.597	129.62
242.83	127.62
243.064	137.62
243.298	138.62
243.531	148.62
243.765	138.62
243.998	126.62
244.232	142.62
244.465	131.62
244.699	135.62
244.932	134.62
245.166	154.62
245.399	127.62
245.633	151.62
245.866	149.62
246.099	153.62
246.333	140.62
246.566	162.62
246.8	163.62
247.033	165.62
247.266	147.62
247.5	159.62
247.733	165.62
247.966	165.62
248.2	174.62
248.433	163.62
248.666	173.62
248.899	177.62
249.133	190.62
249.366	201.62
249.599	181.62
249.832	177.62
250.066	172.62
250.299	163.62
250.532	191.62
250.765	195.62
250.998	217.62
251.231	220.62
251.465	205.62
251.698	182.62
251.931	197.62
252.164	195.62
252.397	194.62
252.63	196.62
252.863	204.62
253.096	197.62
253.329	232.62
253.562	221.62
253.795	207.62
254.028	234.62
254.261	224.62
254.494	224.62
254.727	238.62
254.96	269.62
255.193	265.62
255.426	246.62
255.659	236.62
255.892	216.62
256.124	237.62
256.357	203.62
256.59	225.62
256.823	207.62
257.056	217.62
257.289	209.62
257.521	218.62
257.754	211.62
257.987	212.62
258.22	211.62
258.452	198.62
258.685	211.62
258.918	210.62
259.151	210.62
259.383	216.62
259.616	210.62
259.849	216.62
260.081	241.62
260.314	247.62
260.547	253.62
260.779	223.62
261.012	222.62
261.244	249.62
261.477	235.62
261.71	225.62
261.942	215.62
262.175	240.62
262.407	211.62
262.64	234.62
262.872	213.62
263.105	214.62
263.337	223.62
263.57	193.62
263.802	207.62
264.035	236.62
264.267	232.62
264.499	215.62
264.732	229.62
264.964	223.62
265.197	241.62
265.429	231.62
265.661	225.62
265.894	218.62
266.126	223.62
266.358	228.62
266.591	218.62
266.823	245.62
267.055	236.62
267.287	234.62
267.52	230.62
267.752	235.62
267.984	220.62
268.216	241.62
268.448	245.62
268.681	261.62
268.913	259.62
269.145	262.62
269.377	276.62
269.609	293.62
269.841	262.62
270.073	292.62
270.306	282.62
270.538	314.62
270.77	320.62
271.002	299.62
271.234	311.62
271.466	287.62
271.698	302.62
271.93	325.62
272.162	301.62
272.394	317.62
272.626	290.62
272.858	299.62
273.09	287.62
273.322	276.62
273.553	292.62
273.785	271.62
274.017	272.62
274.249	281.62
274.481	278.62
274.713	259.62
274.945	274.62
275.176	273.62
275.408	277.62
275.64	275.62
275.872	285.62
276.104	278.62
276.335	291.62
276.567	284.62
276.799	281.62
277.031	303.62
277.262	325.62
277.494	323.62
277.726	312.62
277.957	301.62
278.189	298.62
278.421	286.62
278.652	298.62
278.884	279.62
279.115	298.62
279.347	281.62
279.579	286.62
279.81	268.62
280.042	270.62
280.273	285.62
280.505	280.62
280.736	291.62
280.968	269.62
281.199	276.62
281.431	280.62
281.662	301.62
281.894	295.62
282.125	294.62
282.356	305.62
282.588	319.62
282.819	328.62
283.051	300.62
283.282	278.62
283.513	267.62
283.745	287.62
283.976	306.62
284.207	302.62
284.439	293.62
284.67	293.62
284.901	298.62
285.132	318.62
285.364	297.62
285.595	314.62
285.826	309.62
286.057	293.62
286.288	296.62
286.52	281.62
286.751	300.62
286.982	305.62
287.213	297.62
287.444	308.62
287.675	314.62
287.906	322.62
288.138	342.62
288.369	345.62
288.6	316.62
288.831	323.62
289.062	322.62
289.293	316.62
289.524	316.62
289.755	307.62
289.986	298.62
290.217	305.62
290.448	312.62
290.679	317.62
290.91	312.62
291.141	318.62
291.371	314.62
291.602	329.62
291.833	326.62
292.064	314.62
292.295	298.62
292.526	305.62
292.757	313.62
292.987	326.62
293.218	306.62
293.449	321.62
293.68	309.62
293.91	317.62
294.141	311.62
294.372	303.62
294.603	336.62
294.833	337.62
295.064	317.62
295.295	299.62
295.525	311.62
295.756	333.62
295.987	325.62
296.217	317.62
296.448	322.62
296.679	346.62
296.909	322.62
297.14	331.62
297.37	325.62
297.601	333.62
297.831	309.62
298.062	321.62
298.292	312.62
298.523	330.62
298.753	326.62
298.984	311.62
299.214	342.62
299.445	338.62
299.675	336.62
299.905	330.62
300.136	342.62
300.366	322.62
300.597	333.62
300.827	347.62
301.057	337.62
301.288	363.62
301.518	353.62
301.748	342.62
301.979	344.62
302.209	367.62
302.439	357.62
302.669	353.62
302.9	366.62
303.13	357.62
303.36	359.62
303.59	353.62
303.82	334.62
304.051	375.62
304.281	348.62
304.511	362.62
304.741	358.62
304.971	356.62
305.201	362.62
305.431	360.62
305.661	356.62
305.891	340.62
306.121	341.62
306.352	356.62
306.582	348.62
306.812	370.62
307.042	350.62
307.272	363.62
307.502	351.62
307.731	362.62
307.961	362.62
308.191	365.62
308.421	342.62
308.651	360.62
308.881	352.62
309.111	356.62
309.341	374.62
309.571	377.62
309.8	371.62
310.03	365.62
310.26	382.62
310.49	375.62
310.72	408.62
310.949	409.62
311.179	417.62
311.409	400.62
311.639	379.62
311.868	382.62
312.098	404.62
312.328	400.62
312.557	414.62
312.787	393.62
313.017	423.62
313.246	408.62
313.476	381.62
313.706	407.62
313.935	396.62
314.165	403.62
314.394	420.62
314.624	397.62
314.853	443.62
315.083	401.62
315.312	409.62
315.542	386.62
315.771	398.62
316.001	402.62
316.23	389.62
316.46	399.62
316.689	414.62
316.919	405.62
317.148	410.62
317.377	405.62
317.607	398.62
317.836	381.62
318.065	389.62
318.295	391.62
318.524	403.62
318.753	398.62
318.983	404.62
319.212	419.62
319.441	399.62
319.67	417.62
319.9	427.62
320.129	376.62
320.358	407.62
320.587	398.62
320.816	414.62
321.046	405.62
321.275	413.62
321.504	391.62
321.733	433.62
321.962	444.62
322.191	442.62
322.42	420.62
322.649	474.62
322.878	464.62
323.108	464.62
323.337	466.62
323.566	475.62
323.795	528.62
324.024	549.62
324.253	641.62
324.482	870.62
324.71	1315.62
324.939	1834.62
325.168	1553.62
325.397	836.62
325.626	587.62
325.855	517.62
326.084	490.62
326.313	503.62
326.542	497.62
326.77	538.62
326.999	626.62
327.228	833.62
327.457	1155.62
327.686	1334.62
327.914	943.62
328.143	662.62
328.372	579.62
328.6	539.62
328.829	531.62
329.058	528.62
329.287	545.62
329.515	504.62
329.744	503.62
329.972	513.62
330.201	523.62
330.43	556.62
330.658	544.62
330.887	596.62
331.115	572.62
331.344	511.62
331.572	490.62
331.801	501.62
332.03	505.62
332.258	486.62
332.486	472.62
332.715	467.62
332.943	470.62
333.172	476.62
333.4	504.62
333.629	475.62
333.857	513.62
334.085	535.62
334.314	525.62
334.542	524.62
334.771	535.62
334.999	495.62
335.227	498.62
335.455	487.62
335.684	459.62
335.912	478.62
336.14	475.62
336.369	493.62
336.597	488.62
336.825	474.62
337.053	489.62
337.281	463.62
337.51	463.62
337.738	468.62
337.966	466.62
338.194	476.62
338.422	481.62
338.65	451.62
338.878	466.62
339.106	463.62
339.334	449.62
339.562	423.62
339.79	436.62
340.018	454.62
340.246	468.62
340.474	442.62
340.702	452.62
340.93	456.62
341.158	433.62
341.386	431.62
341.614	443.62
341.842	450.62
342.07	425.62
342.298	427.62
342.526	424.62
342.754	425.62
342.981	437.62
343.209	421.62
343.437	450.62
343.665	457.62
343.893	458.62
344.12	450.62
344.348	455.62
344.576	480.62
344.804	457.62
345.031	451.62
345.259	462.62
345.487	426.62
345.714	420.62
345.942	445.62
346.17	413.62
346.397	429.62
346.625	416.62
346.853	430.62
347.08	418.62
347.308	412.62
347.535	429.62
347.763	405.62
347.99	425.62
348.218	422.62
348.445	441.62
348.673	445.62
348.9	423.62
349.128	424.62
349.355	405.62
349.583	417.62
349.81	397.62
350.037	396.62
350.265	410.62
350.492	423.62
350.72	421.62
350.947	413.62
351.174	427.62
351.402	444.62
351.629	413.62
351.856	411.62
352.083	427.62
352.311	422.62
352.538	418.62
352.765	414.62
352.992	417.62
353.22	415.62
353.447	411.62
353.674	410.62
353.901	411.62
354.128	389.62
354.355	387.62
354.583	398.62
354.81	390.62
355.037	386.62
355.264	408.62
355.491	382.62
355.718	392.62
355.945	398.62
356.172	388.62
356.399	379.62
356.626	398.62
356.853	386.62
357.08	380.62
357.307	387.62
357.534	407.62
357.761	390.62
357.988	385.62
358.215	419.62
358.441	390.62
358.668	394.62
358.895	398.62
359.122	430.62
359.349	411.62
359.576	408.62
359.802	425.62
360.029	462.62
360.256	448.62
360.483	451.62
360.709	411.62
360.936	403.62
361.163	411.62
361.39	426.62
361.616	405.62
361.843	437.62
362.07	415.62
362.296	405.62
362.523	399.62
362.749	405.62
362.976	395.62
363.203	419.62
363.429	378.62
363.656	396.62
363.882	397.62
364.109	398.62
364.335	392.62
364.562	409.62
364.788	394.62
365.015	400.62
365.241	392.62
365.468	394.62
365.694	405.62
365.92	399.62
366.147	402.62
366.373	387.62
366.599	385.62
366.826	404.62
367.052	407.62
367.278	404.62
367.505	405.62
367.731	406.62
367.957	374.62
368.184	377.62
368.41	386.62
368.636	407.62
368.862	412.62
369.089	375.62
369.315	387.62
369.541	392.62
369.767	386.62
369.993	410.62
370.219	398.62
370.445	403.62
370.672	397.62
370.898	378.62
371.124	384.62
371.35	391.62
371.576	383.62
371.802	401.62
372.028	396.62
372.254	391.62
372.48	379.62
372.706	381.62
372.932	389.62
373.158	388.62
373.384	378.62
373.61	404.62
373.835	409.62
374.061	391.62
374.287	383.62
374.513	412.62
374.739	391.62
374.965	407.62
375.191	409.62
375.416	400.62
375.642	396.62
375.868	421.62
376.094	393.62
376.319	395.62
376.545	395.62
376.771	395.62
376.997	394.62
377.222	386.62
377.448	390.62
377.674	371.62
377.899	377.62
378.125	381.62
378.35	384.62
378.576	381.62
378.802	384.62
379.027	391.62
379.253	412.62
379.478	375.62
379.704	384.62
379.929	393.62
380.155	392.62
380.38	399.62
380.606	398.62
380.831	404.62
381.057	393.62
381.282	389.62
381.507	417.62
381.733	394.62
381.958	377.62
382.184	419.62
382.409	398.62
382.634	389.62
382.86	394.62
383.085	410.62
383.31	415.62
383.535	403.62
383.761	413.62
383.986	410.62
384.211	421.62
384.436	432.62
384.662	407.62
384.887	435.62
385.112	411.62
385.337	441.62
385.562	424.62
385.787	426.62
386.013	443.62
386.238	443.62
386.463	429.62
386.688	423.62
386.913	431.62
387.138	420.62
387.363	436.62
387.588	439.62
387.813	411.62
388.038	433.62
388.263	437.62
388.488	435.62
388.713	450.62
388.938	433.62
389.163	449.62
389.387	431.62
389.612	422.62
389.837	456.62
390.062	431.62
390.287	418.62
390.512	445.62
390.736	431.62
390.961	424.62
391.186	426.62
391.411	446.62
391.636	451.62
391.86	437.62
392.085	460.62
392.31	465.62
392.534	435.62
392.759	440.62
392.984	439.62
393.208	418.62
393.433	439.62
393.658	453.62
393.882	415.62
394.107	433.62
394.331	438.62
394.556	427.62
394.78	433.62
395.005	438.62
395.229	463.62
395.454	450.62
395.678	449.62
395.903	464.62
396.127	471.62
396.352	466.62
396.576	455.62
396.801	442.62
397.025	432.62
397.249	453.62
397.474	476.62
397.698	460.62
397.922	455.62
398.147	469.62
398.371	482.62
398.595	495.62
398.82	494.62
399.044	498.62
399.268	529.62
399.492	561.62
399.717	611.62
399.941	597.62
400.165	637.62
400.389	617.62
400.613	541.62
400.837	532.62
401.062	476.62
401.286	510.62
401.51	503.62
401.734	492.62
401.958	504.62
402.182	495.62
402.406	510.62
402.63	513.62
402.854	485.62
403.078	490.62
403.302	514.62
403.526	499.62
403.75	501.62
403.974	525.62
404.198	510.62
404.422	504.62
404.645	515.62
404.869	519.62
405.093	545.62
405.317	585.62
405.541	586.62
405.765	548.62
405.988	522.62
406.212	526.62
406.436	531.62
406.66	545.62
406.883	534.62
407.107	577.62
407.331	588.62
407.555	670.62
407.778	631.62
408.002	606.62
408.226	573.62
408.449	555.62
408.673	540.62
408.896	571.62
409.12	615.62
409.344	591.62
409.567	533.62
409.791	509.62
410.014	509.62
410.238	507.62
410.461	491.62
410.685	509.62
410.908	521.62
411.132	536.62
411.355	571.62
411.578	553.62
411.802	519.62
412.025	508.62
412.249	506.62
412.472	540.62
412.695	535.62
412.919	527.62
413.142	511.62
413.365	489.62
413.589	492.62
413.812	494.62
414.035	468.62
414.258	472.62
414.482	470.62
414.705	470.62
414.928	460.62
415.151	482.62
415.374	456.62
415.597	471.62
415.821	483.62
416.044	461.62
416.267	493.62
416.49	475.62
416.713	476.62
416.936	470.62
417.159	448.62
417.382	477.62
417.605	487.62
417.828	478.62
418.051	495.62
418.274	495.62
418.497	484.62
418.72	470.62
418.943	473.62
419.166	499.62
419.389	478.62
419.611	508.62
419.834	513.62
420.057	510.62
420.28	491.62
420.503	491.62
420.726	483.62
420.948	484.62
421.171	546.62
421.394	541.62
421.617	492.62
421.839	472.62
422.062	504.62
422.285	492.62
422.507	549.62
422.73	601.62
422.953	597.62
423.175	552.62
423.398	511.62
423.621	505.62
423.843	538.62
424.066	541.62
424.288	539.62
424.511	548.62
424.733	582.62
424.956	635.62
425.178	629.62
425.401	629.62
425.623	628.62
425.846	566.62
426.068	520.62
426.291	505.62
426.513	532.62
426.735	510.62
426.958	541.62
427.18	642.62
427.402	758.62
427.625	807.62
427.847	682.62
428.069	592.62
428.292	555.62
428.514	520.62
428.736	487.62
428.958	461.62
429.181	471.62
429.403	477.62
429.625	476.62
429.847	479.62
430.069	577.62
430.292	558.62
430.514	476.62
430.736	487.62
430.958	449.62
431.18	450.62
431.402	440.62
431.624	462.62
431.846	447.62
432.068	434.62
432.29	453.62
432.512	450.62
432.734	463.62
432.956	441.62
433.178	432.62
433.4	468.62
433.622	453.62
433.844	459.62
434.066	461.62
434.287	442.62
434.509	452.62
434.731	459.62
434.953	484.62
435.175	489.62
435.397	505.62
435.618	500.62
435.84	541.62
436.062	633.62
436.284	666.62
436.505	580.62
436.727	514.62
436.949	484.62
437.17	483.62
437.392	484.62
437.614	449.62
437.835	506.62
438.057	585.62
438.278	667.62
438.5	655.62
438.721	718.62
438.943	699.62
439.165	570.62
439.386	510.62
439.608	507.62
439.829	512.62
440.05	546.62
440.272	556.62
440.493	517.62
440.715	477.62
440.936	473.62
441.158	462.62
441.379	467.62
441.6	503.62
441.822	503.62
442.043	537.62
442.264	584.62
442.486	622.62
442.707	541.62
442.928	516.62
443.149	520.62
443.371	563.62
443.592	565.62
443.813	655.62
444.034	687.62
444.255	579.62
444.476	530.62
444.698	552.62
444.919	543.62
445.14	611.62
445.361	575.62
445.582	509.62
445.803	604.62
446.024	655.62
446.245	693.62
446.466	634.62
446.687	537.62
446.908	503.62
447.129	500.62
447.35	480.62
447.571	474.62
447.792	466.62
448.013	453.62
448.234	478.62
448.455	518.62
448.675	627.62
448.896	702.62
449.117	618.62
449.338	579.62
449.559	664.62
449.779	750.62
450	591.62
450.221	507.62
450.442	464.62
450.662	451.62
450.883	445.62
451.104	470.62
451.324	467.62
451.545	445.62
451.766	440.62
451.986	429.62
452.207	412.62
452.428	405.62
452.648	408.62
452.869	429.62
453.089	423.62
453.31	446.62
453.53	431.62
453.751	414.62
453.971	418.62
454.192	399.62
454.412	415.62
454.633	412.62
454.853	404.62
455.073	406.62
455.294	423.62
455.514	483.62
455.734	470.62
455.955	419.62
456.175	394.62
456.395	402.62
456.616	369.62
456.836	394.62
457.056	373.62
457.276	382.62
457.497	400.62
457.717	410.62
457.937	397.62
458.157	413.62
458.377	422.62
458.598	433.62
458.818	456.62
459.038	500.62
459.258	557.62
459.478	463.62
459.698	461.62
459.918	445.62
460.138	455.62
460.358	465.62
460.578	451.62
460.798	452.62
461.018	447.62
461.238	458.62
461.458	477.62
461.678	458.62
461.898	462.62
462.118	452.62
462.338	464.62
462.558	465.62
462.777	464.62
462.997	487.62
463.217	506.62
463.437	525.62
463.657	500.62
463.876	498.62
464.096	500.62
464.316	489.62
464.536	500.62
464.755	489.62
464.975	468.62
465.195	515.62
465.414	531.62
465.634	454.62
465.854	465.62
466.073	456.62
466.293	446.62
466.512	430.62
466.732	441.62
466.951	431.62
467.171	425.62
467.391	428.62
467.61	422.62
467.829	426.62
468.049	429.62
468.268	420.62
468.488	408.62
468.707	402.62
468.927	415.62
469.146	410.62
469.365	409.62
469.585	413.62
469.804	442.62
470.023	442.62
470.243	451.62
470.462	418.62
470.681	449.62
470.901	423.62
471.12	434.62
471.339	407.62
471.558	433.62
471.777	412.62
471.997	422.62
472.216	437.62
472.435	426.62
472.654	448.62
472.873	434.62
473.092	418.62
473.311	405.62
473.53	424.62
473.749	427.62
473.968	454.62
474.187	557.62
474.406	564.62
474.625	482.62
474.844	446.62
475.063	410.62
475.282	420.62
475.501	446.62
475.72	442.62
475.939	440.62
476.158	438.62
476.377	430.62
476.596	430.62
476.814	452.62
477.033	457.62
477.252	459.62
477.471	445.62
477.69	455.62
477.908	484.62
478.127	468.62
478.346	479.62
478.564	469.62
478.783	469.62
479.002	499.62
479.22	493.62
479.439	502.62
479.658	503.62
479.876	526.62
480.095	521.62
480.313	532.62
480.532	505.62
480.751	518.62
480.969	531.62
481.188	557.62
481.406	576.62
481.624	537.62
481.843	525.62
482.061	502.62
482.28	527.62
482.498	484.62
482.717	503.62
482.935	492.62
483.153	508.62
483.372	483.62
483.59	486.62
483.808	486.62
484.027	488.62
484.245	493.62
484.463	505.62
484.681	505.62
484.9	487.62
485.118	499.62
485.336	474.62
485.554	503.62
485.772	479.62
485.99	491.62
486.209	528.62
486.427	514.62
486.645	537.62
486.863	533.62
487.081	525.62
487.299	537.62
487.517	513.62
487.735	506.62
487.953	526.62
488.171	527.62
488.389	508.62
488.607	523.62
488.825	533.62
489.043	513.62
489.261	530.62
489.479	552.62
489.696	531.62
489.914	538.62
490.132	527.62
490.35	545.62
490.568	538.62
490.786	538.62
491.003	561.62
491.221	570.62
491.439	573.62
491.657	569.62
491.874	556.62
492.092	587.62
492.31	562.62
492.527	590.62
492.745	622.62
492.963	609.62
493.18	600.62
493.398	584.62
493.615	596.62
493.833	614.62
494.05	594.62
494.268	590.62
494.485	607.62
494.703	597.62
494.92	618.62
495.138	583.62
495.355	593.62
495.573	614.62
495.79	635.62
496.008	625.62
496.225	625.62
496.442	611.62
496.66	627.62
496.877	601.62
497.094	621.62
497.312	637.62
497.529	652.62
497.746	650.62
497.963	662.62
498.181	674.62
498.398	700.62
498.615	702.62
498.832	707.62
499.049	737.62
499.267	763.62
499.484	784.62
499.701	803.62
499.918	857.62
500.135	909.62
500.352	927.62
500.569	953.62
500.786	974.62
501.003	942.62
501.22	916.62
501.437	858.62
501.654	834.62
501.871	819.62
